Ladekurvenmessung
Zeit: 2016_06_21 16.36.58
Info: 2250rpm
Ladewiderstand[Ohm]: 199500
Störkapazität[pF]: 278.000000
Entladezeit[ms]: 100
Abtastrate[Hz]: 250000
Messzeit [ms]: 5.000000
Verzögerung[ms]: 1
Ladespannung[V]: 1.000000

Kurve 1

0.003418
-0.000360
0.000133
-0.001346
-0.000031
0.000297
-0.000524
-0.000360
-0.000524
0.011467
0.038078
0.039721
0.037257
0.015902
-0.002824
-0.003317
-0.004467
-0.003481
-0.002495
-0.002167
-0.001674
-0.002167
-0.011201
0.000954
-0.006273
-0.003809
-0.001674
-0.002660
-0.002167
-0.001674
-0.001017
0.006868
-0.004138
0.001447
0.012288
-0.002495
-0.002167
-0.001838
-0.001838
-0.002003
-0.000524
-0.001017
0.000790
-0.000196
-0.000360
-0.000031
0.000297
-0.009887
0.012617
0.002268
0.002761
0.003254
0.003090
-0.035348
-0.032391
-0.026642
0.001118
0.000297
0.010482
0.009332
0.009332
0.009496
0.012945
-0.000524
0.000461
0.000297
0.002597
0.000297
-0.000360
-0.000688
-0.001838
-0.001346
0.002761
0.000626
0.000133
0.000461
0.000133
0.001118
0.000626
0.002104
-0.001838
0.000461
0.001447
0.001283
-0.001181
-0.001346
-0.000031
0.000461
-0.002331
0.000297
0.000461
0.000626
0.000297
-0.000196
-0.000360
0.000790
0.000133
-0.000688
0.001118
0.001447
0.002104
0.001118
0.000461
0.005225
-0.009723
-0.004795
-0.006438
-0.006602
-0.006109
-0.004959
0.000954
-0.001017
0.001611
0.001940
0.001940
0.000954
0.000297
0.002925
0.003418
-0.009230
0.001611
0.000297
0.000297
0.001611
0.001118
0.009989
0.000626
0.000133
0.000133
-0.000853
-0.003809
-0.002331
-0.003974
-0.005124
-0.004795
0.002268
0.000954
-0.001510
-0.002331
-0.001510
-0.001510
-0.048818
-0.036498
0.000626
0.002268
0.001283
0.002925
0.002433
0.002761
0.002925
0.002433
0.003254
0.002761
0.002597
0.002433
0.002104
0.004568
0.002761
0.002433
0.003090
0.001776
0.029372
0.002268
0.001776
-0.000031
-0.000853
0.001940
0.002268
0.001940
0.001283
0.000626
0.001776
-0.007259
0.002104
0.002104
0.003090
-0.015144
0.002433
-0.002331
-0.001017
-0.000360
-0.000853
-0.006109
0.001447
0.001611
0.001611
0.001776
0.003418
-0.002167
-0.000031
-0.001838
-0.001510
-0.001674
0.004239
0.001118
0.000461
0.000297
0.002268
0.000461
0.000133
0.000133
0.000297
0.000297
0.000297
0.001776
-0.000524
0.000133
-0.001017
-0.000196
0.000626
-0.000196
0.000133
0.000133
-0.002003
0.006211
0.001940
0.001283
0.000297
0.000297
0.000297
0.003090
0.002597
0.003090
0.002761
0.003254
0.001118
-0.000031
-0.000031
0.002433
-0.012187
-0.007916
-0.007752
0.000954
0.000461
0.000954
0.003090
0.002268
0.003090
0.004075
0.001940
0.004239
0.003254
0.003090
0.003090
0.000461
0.003747
0.003418
0.002761
0.002925
0.002761
0.005718
0.009496
0.029208
0.045470
0.060746
0.075366
0.090150
0.103455
0.117582
0.132366
0.143043
0.156184
0.168504
0.180495
0.192322
0.203328
0.210062
0.227967
0.232731
0.248993
0.253757
0.265091
0.274783
0.283817
0.292852
0.295644
0.310592
0.315027
0.325376
0.333918
0.341309
0.354943
0.352315
0.360528
0.366113
0.373012
0.380240
0.386318
0.417857
0.401266
0.407179
0.411286
0.422784
0.426398
0.431490
0.436747
0.441839
0.445946
0.450874
0.449395
0.464836
0.463522
0.468614
0.473378
0.477813
0.481919
0.470092
0.488983
0.489476
0.494239
0.498017
0.501303
0.504752
0.510830
0.513951
0.516743
0.520522
0.523478
0.526435
0.529556
0.533827
0.534155
0.541219
0.536455
0.537934
0.541219
0.543847
0.546147
0.548775
0.553374
0.554031
0.569472
0.567501
0.569472
0.571115
0.573086
0.574400
0.566351
0.572429
0.572593
0.575057
0.576536
0.577521
0.578999
0.607417
0.580806
0.581956
0.583927
0.585077
0.587048
0.588691
0.590005
0.578999
0.583270
0.580971
0.583106
0.585406
0.586884
0.588363
0.590005
0.560109
0.592633
0.598547
0.598711
0.598711
0.600518
0.601339
0.602982
0.602982
0.605939
0.607253
0.609553
0.610045
0.609388
0.609881
0.612509
0.611195
0.612674
0.613331
0.614316
0.615138
0.616616
0.617273
0.619737
0.619737
0.619573
0.619901
0.620558
0.621544
0.622037
0.622694
0.623679
0.624993
0.624665
0.625650
0.626143
0.626636
0.627786
0.628607
0.628936
0.629757
0.629921
0.630743
0.631235
0.631235
0.631564
0.632057
0.644377
0.633535
0.633699
0.634356
0.634849
0.635178
0.635999
0.636492
0.639777
0.632550
0.639449
0.638956
0.638627
0.638463
0.638463
0.637149
0.638956
0.638463
0.639120
0.639941
0.640270
0.640434
0.641091
0.639777
0.630086
0.631564
0.632385
0.632878
0.633535
0.633864
0.634192
0.635671
0.634849
0.635999
0.636163
0.636820
0.636656
0.637970
0.638135
0.642734
0.637149
0.638135
0.638792
0.639120
0.639613
0.623515
0.624172
0.622694
0.630578
0.616452
0.618751
0.620065
0.621051
0.622037
0.622694
0.610702
0.617109
0.618423
0.619080
0.619901
0.620887
0.621708
0.622529
0.622529
0.624501
0.624829
0.625979
0.626143
0.626308
0.627129
0.632221
0.644048
0.627293
0.628771
0.629429
0.630086
0.630414
0.631235
0.632385
0.626965
0.639449
0.635506
0.634849
0.636163
0.636820
0.637149
0.637149
0.591155
0.597397
0.638135
0.638956
0.639284
0.639941
0.640270
0.640434
0.642241
0.640106
0.641256
0.641748
0.642734
0.643227
0.620065
0.620723
0.620065
0.616287
0.615630
0.616452
0.617602
0.619244
0.626472
0.627457
0.628443
0.628607
0.629921
0.630743
0.631071
0.625979
0.615466
0.614809
0.617109
0.618587
0.618751
0.620230
0.621215
0.622201
0.624665
0.625815
0.624008
0.625322
0.625979
0.627457
0.628771
0.626143
0.623187
0.636163
0.632550
0.635178
0.633699
0.633207
0.634685
0.633371
0.635342
0.636163
0.640106
0.635835
0.638627
0.639449
0.640106
0.640763
0.631892
0.648319
0.642898
0.644212
0.645362
0.644212
0.644377
0.644048
0.642898
0.642570
0.642898
0.643391
0.643884
0.655711
0.637970
0.638792
0.642898
0.636820
0.642241
0.641420
0.640598
0.641420
0.606432
0.642734
0.643555
0.641256
0.644377
0.642241
0.642077
0.643391
0.643719
0.643719
0.647005
0.645526
0.647990
0.648812
0.632550
0.632714
0.636820
0.631235
0.631892
0.632714
0.632714
0.634192
0.640598
0.634192
0.638956
0.638792
0.641584
0.638792
0.638627
0.638463
0.639284
0.631400
0.647990
0.639120
0.641256
0.633042
0.645034
0.644048
0.644541
0.645691
0.646019
0.643719
0.646183
0.646019
0.646348
0.647005
0.647005
0.662117
0.687742
0.648155
0.646183
0.646183
0.646841
0.647990
0.647498
0.647498
0.648319
0.651276
0.648155
0.652097
0.651440
0.650947
0.650947
0.649633
0.649140
0.649633
0.650290
0.652425
0.649962
0.651768
0.652754
0.653247
0.615302
0.619408
0.617273
0.654232
0.654561
0.655054
0.655382
0.653411
0.656368
0.654725
0.652097
0.651768
0.653083
0.649962
0.638135
0.636492
0.660967
0.639777
0.642898
0.641748
0.641256
0.642241
0.643062
0.642077
0.641748
0.642077
0.616287
0.643062
0.643062
0.643555
0.645362
0.640270
0.646841
0.642077
0.645198
0.646676
0.646841
0.646676
0.648319
0.648647
0.648155
0.648319
0.650619
0.648812
0.650619
0.649962
0.651111
0.651933
0.650454
0.654725
0.653083
0.652261
0.652918
0.650290
0.653575
0.654232
0.654561
0.656039
0.653083
0.655546
0.655875
0.656039
0.656204
0.657189
0.651768
0.654889
0.656204
0.656532
0.656368
0.660146
0.657518
0.656696
0.655875
0.676572
0.657682
0.658339
0.657189
0.656696
0.656696
0.658668
0.659489
0.658668
0.658832
0.653575
0.612181
0.636328
0.637149
0.637642
0.638956
0.639941
0.640106
0.640270
0.641420
0.641748
0.640598
0.641748
0.640434
0.642077
0.643391
0.643555
0.659325
0.645362
0.646512
0.647005
0.648483
0.648483
0.647826
0.648319
0.647498
0.648647
0.655218
0.651440
0.654889
0.654725
0.654725
0.655054
0.652590
0.650783
0.652918
0.653247
0.653904
0.653740
0.615466
0.631728
0.655218
0.653740
0.655875
0.656204
0.656368
0.657846
0.657518
0.657353
0.656696
0.662446
0.661131
0.656696
0.658503
0.657353
0.657682
0.657682
0.658010
0.663924
0.652590
0.658339
0.657353
0.657353
0.657846
0.645198
0.660474
0.660967
0.661460
0.662281
0.661789
0.658668
0.661953
0.661460
0.643884
0.662610
0.662446
0.662610
0.662610
0.663103
0.662938
0.664910
0.663760
0.664252
0.662281
0.665238
0.664088
0.664088
0.663760
0.664088
0.673287
0.663431
0.663760
0.663595
0.663431
0.663760
0.638135
0.664581
0.664581
0.665238
0.666059
0.665895
0.665567
0.662774
0.664581
0.662446
0.665731
0.665402
0.665238
0.665074
0.665567
0.665731
0.668688
0.653740
0.669837
0.662446
0.665895
0.665074
0.664745
0.665074
0.665402
0.682979
0.665238
0.665731
0.665731
0.665402
0.665895
0.666388
0.667373
0.671316
0.671480
0.672466
0.672301
0.671316
0.671152
0.665731
0.665567
0.666716
0.664252
0.666716
0.667045
0.667045
0.666881
0.666552
0.665895
0.668852
0.654068
0.657682
0.657682
0.658175
0.658832
0.659489
0.673944
0.667373
0.672794
0.671316
0.670166
0.669837
0.670659
0.654889
0.667702
0.668195
0.668031
0.668359
0.668195
0.668359
0.668523
0.669016
0.668359
0.668359
0.668523
0.669016
0.669180
0.668523
0.668688
0.671480
0.669673
0.669345
0.667209
0.666881
0.669016
0.669509
0.670002
0.673780
0.666881
0.674930
0.673123
0.671644
0.671973
0.672137
0.664745
0.669180
0.668688
0.668688
0.669016
0.669180
0.668688
0.669016
0.659653
0.668523
0.668852
0.670330
0.671480
0.671809
0.670823
0.670495
0.683471
0.668359
0.673944
0.670495
0.669509
0.670002
0.671152
0.671316
0.670330
0.667209
0.661789
0.656861
0.652425
0.649797
0.648976
0.648812
0.647005
0.648155
0.648812
0.649304
0.650290
0.649962
0.649797
0.650454
0.645691
0.650454
0.650783
0.650783
0.650783
0.651111
0.651111
0.656696
0.648483
0.654725
0.651933
0.650619
0.651276
0.652097
0.652425
0.652261
0.653575
0.657025
0.655711
0.656039
0.655382
0.656368
0.657353
0.640270
0.656204
0.656368
0.657025
0.657353
0.657518
0.657518
0.658010
0.652425
0.659817
0.658010
0.659653
0.660967
0.660967
0.660967
0.669345
0.663431
0.660803
0.662281
0.661789
0.661624
0.661953
0.661953
0.662610
0.707290
0.700062
0.661953
0.661789
0.662117
0.662446
0.662610
0.654068
0.663760
0.663103
0.663760
0.664088
0.664088
0.664252
0.664417
0.619080
0.662610
0.665895
0.665895
0.665731
0.665895
0.666388
0.666716
0.709097
0.667209
0.665895
0.665402
0.666059
0.666224
0.666224
0.666224
0.670495
0.665074
0.666059
0.648976
0.648647
0.649304
0.649797
0.650783
0.651933
0.651604
0.652261
0.652754
0.653247
0.653740
0.654232
0.654561
0.655218
0.656861
0.656204
0.657682
0.657846
0.657846
0.658175
0.657518
0.660803
0.658832
0.660146
0.660310
0.659982
0.660474
0.661131
0.661296
0.664417
0.652754
0.653740
0.654889
0.655711
0.656204
0.657353
0.664252
0.663924
0.665074
0.664252
0.664417
0.664581
0.664745
0.666224
0.665731
0.665074
0.664910
0.663760
0.663595
0.663760
0.664088
0.667209
0.667373
0.672301
0.655711
0.659653
0.658996
0.658832
0.659160
0.659817
0.686921
0.669180
0.669016
0.669016
0.668852
0.669180
0.669180
0.667209
0.669180
0.669509
0.669673
0.669673
0.669509
0.644705
0.670495
0.670166
0.667702
0.670330
0.670166
0.670002
0.670330
0.670330
0.672630
0.669837
0.672958
0.672301
0.670659
0.670495
0.670823
0.670659
0.670495
0.674108
0.670002
0.673780
0.672137
0.671809
0.671973
0.671973
0.666716
0.669837
0.670330
0.670166
0.669673
0.670166
0.664417
0.673287
0.669837
0.669837
0.672137
0.669016
0.670823
0.670823
0.670823
0.678215
0.670659
0.675915
0.675422
0.677065
0.671809
0.671809
0.671809
0.671644
0.671809
0.675422
0.671644
0.670987
0.671152
0.671316
0.671152
0.640598
0.636163
0.633042
0.635178
0.638956
0.673944
0.673944
0.674437
0.674765
0.674765
0.627129
0.639941
0.641748
0.642405
0.676901
0.678379
0.675751
0.677394
0.676901
0.676901
0.673451
0.673451
0.671644
0.671152
0.671644
0.678708
0.675751
0.678708
0.678379
0.677394
0.677558
0.675258
0.674765
0.674437
0.674437
0.674437
0.674108
0.675094
0.674273
0.674273
0.674273
0.671809
0.674437
0.673780
0.673616
0.673616
0.673451
0.672301
0.676901
0.676244
0.676408
0.679529
0.672630
0.672630
0.672301
0.671973
0.680022
0.670987
0.671644
0.671809
0.671316
0.671316
0.671316
0.671480
0.670659
0.672958
0.671809
0.664252
0.673780
0.670659
0.672137
0.672137
0.669509
0.671973
0.670659
0.670495
0.665567
0.665402

Kurve 2

0.000626
0.000133
0.006703
-0.002495
0.000133
-0.000196
-0.000853
-0.000196
0.000461
0.001611
-0.009230
0.017709
0.000461
0.000626
0.001283
0.000790
0.000954
-0.001017
0.000954
0.001611
0.002761
0.003747
0.002761
0.000954
0.000790
0.000626
-0.003152
0.004239
0.000954
0.002761
0.003418
0.002433
0.002104
0.039063
0.034957
0.035942
0.033971
0.031836
0.029208
0.028386
-0.004959
-0.004138
-0.004138
-0.005945
-0.001346
-0.003645
-0.004302
-0.004302
-0.029270
-0.003152
-0.002495
-0.013501
-0.002167
-0.002331
-0.002495
-0.002660
-0.002660
-0.001838
-0.005781
0.004075
0.004404
0.004075
0.003911
0.002761
0.008510
-0.002331
-0.001510
-0.001838
-0.001674
-0.001510
0.003254
-0.002824
0.001940
0.000133
-0.000853
-0.002824
-0.004138
-0.004138
-0.004631
-0.006438
-0.002331
-0.003152
-0.002988
-0.005781
0.007853
0.003418
0.004075
0.004568
0.004239
-0.010709
-0.003645
-0.004467
-0.004138
-0.003481
-0.003809
-0.004138
-0.003481
-0.002167
-0.002495
-0.002495
-0.002167
0.000461
-0.001838
-0.001017
-0.001674
0.001283
-0.007588
-0.001017
-0.002495
-0.002988
-0.002660
-0.051446
-0.040605
-0.000853
-0.000031
-0.000196
-0.000196
0.000133
0.000790
0.000954
-0.016786
-0.000196
-0.000031
-0.000360
0.000790
0.000461
-0.000196
0.000790
0.000461
0.000626
0.000133
-0.000360
0.001611
-0.001181
-0.001510
-0.002167
-0.000688
-0.000196
0.001776
-0.000196
-0.001181
-0.000853
-0.000360
0.000626
0.000954
0.001118
0.001611
0.001940
0.000626
0.001611
0.002433
0.002597
0.001447
0.000790
0.003418
0.004239
0.003911
0.003090
0.004075
0.002268
0.003911
0.003254
0.002761
0.000461
0.001776
0.000626
-0.000688
-0.000688
0.000461
-0.000688
-0.001510
-0.001838
-0.001346
-0.003974
0.004239
0.000297
0.000954
0.001940
-0.005288
0.002104
0.001118
0.001118
0.001776
-0.000524
0.000461
0.002761
0.003418
0.003418
0.001940
0.005718
-0.002660
0.004404
0.002925
0.006703
-0.003645
0.001447
-0.000360
-0.001346
-0.001346
0.003582
0.001776
-0.000196
-0.000196
-0.000524
-0.004138
0.003254
0.002104
0.002597
0.002268
0.001940
0.000626
0.001776
0.003090
0.003582
-0.002824
0.002433
0.002761
0.002761
0.002925
0.002597
0.002761
0.001776
0.003747
0.003254
0.008510
0.005882
0.004568
0.004404
0.003911
0.004075
0.011139
0.001940
0.006046
0.006046
0.005882
0.005718
0.003090
0.005061
0.005061
0.004404
0.004239
0.004075
0.005061
0.004404
0.004897
0.000297
0.005389
0.004732
0.004239
0.004568
0.004568
0.015902
0.031672
0.048591
0.064360
0.076516
0.091299
0.104441
0.118239
0.130887
0.144028
0.161112
0.167518
0.183123
0.192979
0.204642
0.215812
0.218111
0.237495
0.243080
0.252935
0.262956
0.272483
0.282010
0.294166
0.297287
0.306321
0.319134
0.321598
0.331125
0.339010
0.346566
0.345745
0.375148
0.362992
0.369563
0.375641
0.383197
0.389439
0.395517
0.401923
0.407508
0.413421
0.418021
0.429848
0.433297
0.438390
0.443317
0.443317
0.450874
0.454323
0.459087
0.463522
0.468286
0.472392
0.465000
0.480934
0.484712
0.489640
0.488819
0.494404
0.498674
0.502288
0.505738
0.509023
0.513458
0.520357
0.519864
0.523150
0.526764
0.529228
0.532020
0.535141
0.543354
0.538919
0.542533
0.544997
0.547625
0.550089
0.552224
0.554031
0.556495
0.558959
0.560930
0.563230
0.565201
0.567172
0.564544
0.580314
0.572593
0.572593
0.574564
0.576700
0.578342
0.580314
0.581956
0.607253
0.588527
0.588198
0.589348
0.590498
0.592141
0.593455
0.594769
0.598218
0.598218
0.596904
0.597069
0.599040
0.600847
0.603146
0.598383
0.606432
0.607910
0.608074
0.609060
0.610210
0.611031
0.612017
0.613002
0.613659
0.615302
0.616616
0.617602
0.618423
0.617602
0.618751
0.627950
0.630250
0.619244
0.620723
0.621872
0.622365
0.621872
0.622201
0.623351
0.623679
0.625815
0.626143
0.626965
0.627950
0.628443
0.627622
0.624008
0.630086
0.629264
0.629264
0.629921
0.630578
0.631235
0.631728
0.631728
0.632878
0.633371
0.633864
0.635014
0.635342
0.635999
0.636328
0.635999
0.638299
0.638135
0.638627
0.638792
0.639449
0.639449
0.639777
0.641420
0.636163
0.636656
0.637806
0.638792
0.639449
0.640434
0.611359
0.644705
0.645362
0.645362
0.645691
0.644705
0.640763
0.638792
0.628771
0.639120
0.635342
0.622037
0.622529
0.623844
0.623679
0.624665
0.625322
0.625650
0.625322
0.625979
0.625815
0.626308
0.627129
0.627457
0.629429
0.629593
0.629757
0.630578
0.631400
0.632057
0.632714
0.633371
0.635342
0.634849
0.635178
0.635835
0.636163
0.636656
0.637149
0.625979
0.637477
0.638956
0.639777
0.640434
0.640763
0.641256
0.633535
0.626143
0.625979
0.629921
0.627786
0.629100
0.629757
0.630250
0.630907
0.658010
0.632714
0.633207
0.633864
0.634521
0.635506
0.635999
0.636820
0.638956
0.637970
0.638956
0.638956
0.639120
0.640106
0.640270
0.637970
0.639777
0.644377
0.643719
0.644377
0.644705
0.645362
0.645691
0.648812
0.651768
0.645691
0.650454
0.650126
0.649962
0.649140
0.647826
0.645526
0.643555
0.644869
0.645034
0.645691
0.646019
0.646348
0.646841
0.647826
0.645034
0.647005
0.647005
0.647169
0.647662
0.647990
0.648155
0.649633
0.650126
0.649962
0.651933
0.652261
0.652425
0.652918
0.652918
0.648319
0.661953
0.654068
0.654561
0.655382
0.655711
0.655875
0.655875
0.662446
0.655054
0.658339
0.658339
0.657353
0.656696
0.657189
0.655382
0.655711
0.658503
0.658010
0.658668
0.658668
0.658503
0.658996
0.654725
0.654232
0.649962
0.640598
0.636492
0.636985
0.636820
0.642734
0.636985
0.637806
0.637806
0.639120
0.639777
0.640270
0.640927
0.642241
0.650619
0.641913
0.644377
0.643555
0.644212
0.645526
0.646512
0.644869
0.647169
0.647662
0.647498
0.648976
0.649140
0.643062
0.655054
0.650783
0.652425
0.652590
0.647333
0.649962
0.650290
0.650619
0.658010
0.654889
0.632057
0.644212
0.629593
0.637806
0.637149
0.637313
0.638135
0.639613
0.637642
0.639120
0.639941
0.640434
0.641584
0.643062
0.637970
0.643719
0.644048
0.645691
0.646841
0.647333
0.642405
0.647005
0.647990
0.649304
0.648812
0.649304
0.650126
0.650947
0.652425
0.667702
0.651440
0.652918
0.652918
0.655218
0.654068
0.652918
0.653247
0.653247
0.653411
0.658503
0.655875
0.654561
0.655054
0.655218
0.656368
0.646676
0.658175
0.657846
0.641584
0.641091
0.641913
0.641091
0.643227
0.643555
0.644869
0.642734
0.646183
0.647498
0.649140
0.650290
0.650619
0.648319
0.652918
0.651933
0.652097
0.651604
0.652590
0.652918
0.653083
0.653411
0.682979
0.652590
0.646019
0.640927
0.640598
0.641913
0.643391
0.643062
0.643555
0.646676
0.647990
0.648155
0.647333
0.647005
0.624993
0.626636
0.623679
0.628279
0.628607
0.629264
0.631564
0.632550
0.685114
0.636163
0.638135
0.638627
0.639449
0.635342
0.637149
0.637477
0.637477
0.638135
0.635342
0.637477
0.636492
0.629593
0.609881
0.612674
0.566023
0.616780
0.618587
0.620230
0.610210
0.623187
0.621872
0.625486
0.627457
0.628607
0.629593
0.629100
0.633042
0.634685
0.634521
0.637642
0.634521
0.635178
0.636163
0.636985
0.639941
0.637149
0.643227
0.641913
0.641748
0.641091
0.642077
0.642241
0.642241
0.642898
0.644377
0.642734
0.642241
0.638135
0.639777
0.601175
0.607581
0.604789
0.607417
0.610702
0.619737
0.645362
0.647005
0.649962
0.651111
0.651768
0.670987
0.649962
0.650783
0.651276
0.651768
0.652425
0.698584
0.688564
0.685443
0.651604
0.652918
0.652425
0.652590
0.652918
0.652754
0.653740
0.647169
0.656204
0.654561
0.656039
0.655054
0.656039
0.656696
0.657353
0.657518
0.657682
0.656204
0.658175
0.659489
0.659160
0.659489
0.659653
0.658832
0.660310
0.660146
0.659982
0.660474
0.660803
0.661789
0.653740
0.653247
0.687578
0.661789
0.661624
0.662446
0.661460
0.662117
0.662774
0.663103
0.663103
0.663595
0.664088
0.663595
0.664088
0.664252
0.664745
0.664417
0.657353
0.674108
0.668523
0.669837
0.670495
0.666716
0.652754
0.651933
0.656368
0.656204
0.655711
0.656039
0.658996
0.650947
0.655875
0.664252
0.653740
0.655218
0.655875
0.656204
0.656532
0.657846
0.617273
0.627129
0.657846
0.661296
0.655546
0.657682
0.658503
0.658996
0.659160
0.644048
0.662774
0.662446
0.663103
0.663431
0.663267
0.676901
0.663103
0.664252
0.664252
0.664088
0.664581
0.665402
0.668195
0.664252
0.669673
0.664745
0.668852
0.666881
0.666388
0.666881
0.667538
0.658010
0.667866
0.658175
0.670987
0.668031
0.668523
0.669180
0.655546
0.637642
0.611195
0.566515
0.561588
0.566515
0.570458
0.573579
0.576043
0.581792
0.584749
0.586884
0.588855
0.591155
0.593948
0.595097
0.581299
0.581628
0.582778
0.585899
0.587541
0.589841
0.591648
0.594112
0.596083
0.597397
0.596247
0.600025
0.601996
0.604296
0.606432
0.607581
0.609060
0.601011
0.612838
0.613659
0.614973
0.617273
0.618587
0.605446
0.616452
0.603475
0.609881
0.610702
0.611852
0.613823
0.616287
0.617930
0.619244
0.620723
0.621872
0.623022
0.624172
0.625815
0.627786
0.629264
0.589841
0.630250
0.631400
0.633042
0.634028
0.634685
0.635835
0.636820
0.637149
0.642405
0.637642
0.639777
0.641420
0.642241
0.642570
0.646841
0.689221
0.681829
0.680679
0.670002
0.644048
0.644212
0.644541
0.645034
0.649797
0.642077
0.643884
0.643555
0.643391
0.645198
0.646348
0.643555
0.652754
0.651768
0.652097
0.652754
0.653575
0.653904
0.654561
0.654889
0.656532
0.655711
0.656368
0.657353
0.657682
0.657682
0.657682
0.700226
0.658832
0.658832
0.659982
0.659653
0.660474
0.660803
0.661460
0.667209
0.661624
0.661789
0.662446
0.660967
0.661624
0.663103
0.656368
0.664088
0.661624
0.662117
0.662610
0.662610
0.662610
0.662610
0.663760
0.663924
0.661953
0.662446
0.662610
0.663431
0.663431
0.663103
0.675422
0.666059
0.666881
0.666716
0.666881
0.667373
0.668195
0.668688
0.681500
0.668852
0.668852
0.668523
0.667702
0.667538
0.668523
0.668195
0.617437
0.670166
0.670002
0.670166
0.670330
0.670166
0.669837
0.670659
0.626308
0.670987
0.671316
0.670823
0.671809
0.671644
0.670823
0.671152
0.670495
0.670495
0.669673
0.669016
0.669673
0.670987
0.670987
0.673287
0.673616
0.670823
0.673287
0.671152
0.670659
0.670823
0.670823
0.625815
0.669345
0.671973
0.673780
0.673287
0.673780
0.674273
0.674273
0.671644
0.673451
0.672794
0.672301
0.672137
0.672301
0.672301
0.672301
0.672794
0.673780
0.673616
0.673451
0.673451
0.673944
0.674273
0.674601
0.673287
0.673123
0.673780
0.673616
0.673451
0.673616
0.673451
0.673944
0.673944
0.674437
0.674273
0.676079
0.675915
0.675587
0.675587
0.675587
0.673780
0.674108
0.674273
0.674765
0.674601
0.674273
0.674930
0.680186
0.672958
0.674108
0.675258
0.675094
0.675094
0.675094
0.673287
0.676079
0.678543
0.665895
0.669180
0.670002
0.669837
0.670002
0.648319
0.676079
0.674273
0.685443
0.683143
0.684293
0.684128
0.683800
0.683800
0.646512
0.675587
0.675587
0.675587
0.675422
0.675422
0.675258
0.722402
0.707947
0.708768
0.648812
0.648319
0.648812
0.663267
0.648319
0.652261
0.662938
0.647169
0.652261
0.651440
0.650619
0.651440
0.649469
0.652425
0.653083
0.645198
0.653411
0.649962
0.650454
0.651111
0.651111
0.651276
0.656861
0.655382
0.655711
0.655875
0.656368
0.656532
0.659325
0.656861
0.656532
0.657518
0.658010
0.657025
0.644705
0.630414
0.633371
0.635014
0.634521
0.638956
0.637477
0.638463
0.639613
0.616616
0.640927
0.640106
0.640434
0.641256
0.640763
0.641584
0.642077
0.643227
0.644212
0.595590
0.609060
0.611195
0.612509
0.614152
0.653083
0.657846
0.644212
0.648976
0.648647
0.649633
0.652425
0.658832
0.657682
0.658996
0.659817
0.661789
0.660803
0.659982
0.646512
0.646183
0.646676
0.649633
0.648155
0.649469
0.649962
0.652097
0.651440
0.651933
0.652590
0.653247
0.650619
0.654397
0.656204
0.656039
0.657025
0.657189
0.658175
0.656696
0.663267
0.661953
0.662446
0.662938
0.659325
0.660146
0.660310
0.660803
0.691192
0.661131
0.661789
0.660803
0.660967
0.661789
0.663103
0.663431
0.663760
0.664088
0.660967
0.665074
0.665238
0.665567
0.665731
0.660639
0.667045
0.666716
0.667702
0.668523

Kurve 3

0.015409
0.011796
0.011303
0.026744
0.006211
0.007525
0.006868
0.006375
0.006703
0.006375
0.006539
0.006539
0.017545
0.006539
0.005718
0.005882
0.005225
0.005389
0.002433
0.007525
0.000626
0.002761
0.003747
0.003418
0.003254
0.002104
-0.042904
-0.037812
0.008510
0.008346
0.008510
0.009003
0.008839
0.008510
0.008346
0.006046
0.009660
0.004075
0.003747
0.005718
0.007032
0.007689
0.007361
0.010810
0.007853
0.007689
0.008018
0.007196
0.007525
0.007689
0.002761
0.006046
0.008018
0.007853
0.007853
0.006868
0.007196
0.006211
0.008182
0.008018
0.006703
0.006868
0.007853
0.007196
0.006539
0.006375
0.006539
0.005389
0.008675
0.005882
0.005061
0.005061
0.005718
0.005389
0.033150
0.006046
0.007196
0.006375
0.005882
0.006046
0.006703
-0.011858
0.007361
0.002104
0.005389
0.007196
0.006868
0.006046
0.005718
0.000790
0.010317
0.004897
0.007361
0.008675
0.008346
0.007361
0.006703
0.013274
0.003090
0.011960
0.009167
0.007032
0.007032
0.007689
0.007525
0.017873
0.006375
0.006703
0.006375
0.006539
0.006375
0.006703
0.006539
0.005718
0.007689
0.008182
0.007525
0.008018
0.007196
0.006539
0.006539
0.004404
0.005882
0.006868
0.007032
0.008018
0.007361
0.006046
0.040213
0.005225
0.005718
0.006046
0.004404
0.004404
0.005718
0.005718
0.006046
0.005389
0.006375
0.006046
0.005554
0.006211
0.006211
0.005718
0.003090
0.008182
0.002925
0.003418
0.004075
0.003582
0.003090
0.003418
0.005061
0.006375
0.004732
0.007525
0.009003
0.008346
0.007032
0.038406
0.007361
0.005061
0.008018
0.005225
0.004897
0.005882
0.005718
0.005225
0.042020
0.005225
0.003254
0.003582
0.003090
0.003254
0.003582
-0.002331
0.007361
0.001776
0.002761
0.003747
0.003090
0.002433
0.002104
0.006046
0.003090
0.010646
0.007689
0.008018
0.008182
0.007361
0.012617
0.004075
0.004897
-0.006930
-0.006602
-0.005781
-0.005288
-0.004795
-0.004631
0.020666
0.005718
0.006211
0.006375
0.006046
0.006211
0.006868
0.001118
0.013931
0.009660
0.010810
0.011467
0.010810
0.009824
0.008675
0.005882
0.002597
0.005718
0.005389
0.005225
0.005061
0.004897
0.006046
0.003254
0.010153
0.004239
0.005061
0.004897
0.005061
0.005389
0.005225
0.005061
0.003582
0.009332
0.006046
0.005718
0.005554
0.006375
0.006703
0.006375
-0.000853
0.001283
0.001447
0.001776
0.001776
0.000297
0.010810
0.005882
0.005554
0.004897
0.005225
0.005389
0.016559
0.031507
0.047112
0.064360
0.081608
0.083415
0.101977
0.115118
0.127766
0.140743
0.153391
0.213019
0.183452
0.194950
0.206284
0.217126
0.227639
0.237823
0.248500
0.255399
0.266405
0.276097
0.285131
0.294494
0.301229
0.312728
0.321105
0.326361
0.336546
0.344595
0.351822
0.359871
0.366935
0.373505
0.379583
0.384018
0.392888
0.398802
0.403237
0.409808
0.415064
0.420978
0.437897
0.431819
0.437240
0.442660
0.447424
0.452023
0.456623
0.460072
0.465000
0.471242
0.474528
0.478634
0.482741
0.486355
0.489968
0.493911
0.493089
0.513458
0.513458
0.518222
0.521014
0.523478
0.521836
0.520029
0.522493
0.525614
0.528406
0.531691
0.534484
0.536619
0.539576
0.542369
0.542040
0.545325
0.546147
0.548611
0.550910
0.553703
0.531856
0.560930
0.564380
0.565858
0.567994
0.570129
0.562902
0.573250
0.575386
0.576864
0.578507
0.578342
0.580971
0.582285
0.583435
0.589020
0.573743
0.580478
0.581628
0.605282
0.598875
0.595097
0.596411
0.597726
0.599368
0.601175
0.602325
0.602654
0.603639
0.604953
0.605939
0.601832
0.609388
0.609717
0.611852
0.613002
0.597069
0.624665
0.622037
0.623679
0.625322
0.615630
0.617109
0.619573
0.620065
0.620394
0.622858
0.620723
0.623187
0.622201
0.623187
0.634521
0.628443
0.632221
0.633042
0.632714
0.638463
0.628771
0.629100
0.630414
0.630578
0.631400
0.632057
0.632878
0.632714
0.635342
0.635342
0.632714
0.648155
0.635342
0.635342
0.636328
0.634356
0.637477
0.638463
0.639120
0.639941
0.640434
0.639777
0.643555
0.643062
0.644212
0.644377
0.642241
0.642077
0.642570
0.642734
0.650947
0.633535
0.636656
0.636163
0.636985
0.637477
0.638135
0.643391
0.647333
0.647826
0.647990
0.637149
0.648812
0.649962
0.649633
0.649797
0.648483
0.651111
0.650290
0.651768
0.652097
0.652261
0.659653
0.652097
0.651933
0.652590
0.652918
0.653083
0.651768
0.656532
0.655054
0.655382
0.653411
0.654561
0.654068
0.654561
0.654725
0.654725
0.623679
0.655546
0.651933
0.652425
0.611031
0.616452
0.657682
0.658832
0.659325
0.658996
0.659653
0.659160
0.660146
0.660639
0.660474
0.682486
0.659653
0.659982
0.660310
0.660474
0.660310
0.670002
0.658996
0.661296
0.660639
0.661131
0.661460
0.660967
0.661131
0.661131
0.660803
0.646676
0.660967
0.661296
0.658339
0.662117
0.657353
0.658503
0.658832
0.658996
0.659817
0.661131
0.661953
0.663924
0.663267
0.663431
0.663595
0.662117
0.663267
0.663103
0.663103
0.663431
0.663103
0.705811
0.663595
0.661953
0.668195
0.663595
0.663267
0.663431
0.663431
0.663103
0.663267
0.663267
0.663267
0.660310
0.665074
0.661624
0.661460
0.662117
0.662281
0.662774
0.662610
0.664581
0.665238
0.665074
0.665238
0.665402
0.682322
0.665402
0.665238
0.665074
0.665402
0.665402
0.665238
0.666059
0.665238
0.667209
0.665402
0.668031
0.667866
0.667866
0.667866
0.667702
0.619901
0.631564
0.666552
0.666716
0.666716
0.666388
0.666552
0.666716
0.666552
0.623679
0.668359
0.668852
0.668688
0.668688
0.669016
0.671316
0.667209
0.669016
0.668688
0.667866
0.668031
0.668359
0.669509
0.667866
0.689878
0.697270
0.699733
0.697598
0.695463
0.694970
0.693327
0.686428
0.663267
0.663267
0.660803
0.653740
0.653740
0.653740
0.654397
0.655054
0.653247
0.655382
0.655711
0.656039
0.656368
0.656696
0.657189
0.656696
0.659489
0.658996
0.659982
0.659982
0.660310
0.660639
0.660146
0.652590
0.656204
0.638792
0.632550
0.624501
0.625979
0.627786
0.628279
0.629593
0.631235
0.631892
0.633042
0.634028
0.635506
0.636328
0.637477
0.602161
0.605775
0.603968
0.606267
0.609717
0.645362
0.646841
0.649304
0.648155
0.648483
0.631564
0.630414
0.631892
0.633207
0.634521
0.638792
0.636985
0.638135
0.638956
0.639941
0.637970
0.630907
0.631728
0.624665
0.632550
0.634849
0.636492
0.637642
0.637806
0.638792
0.639449
0.624501
0.639613
0.640598
0.641091
0.641913
0.642570
0.643062
0.648483
0.645034
0.647826
0.646676
0.646841
0.647333
0.648647
0.649633
0.649633
0.650947
0.651604
0.651933
0.651604
0.652097
0.653740
0.654397
0.651604
0.655546
0.655875
0.658010
0.659982
0.659817
0.659325
0.659817
0.652918
0.621380
0.620394
0.624993
0.661460
0.661789
0.661624
0.661460
0.703347
0.696777
0.699241
0.697927
0.696284
0.695791
0.695298
0.660146
0.660803
0.659653
0.662938
0.661296
0.660310
0.661296
0.662446
0.625979
0.662281
0.662774
0.661953
0.663431
0.663760
0.663103
0.663595
0.664417
0.665402
0.665895
0.666388
0.667373
0.667866
0.667209
0.667045
0.674930
0.666881
0.666716
0.666716
0.667373
0.667866
0.668688
0.668852
0.665402
0.671809
0.668523
0.665731
0.665402
0.665731
0.666881
0.637970
0.669509
0.670659
0.665731
0.669673
0.670330
0.670002
0.670002
0.670495
0.668031
0.670659
0.669837
0.670330
0.671644
0.671480
0.670987
0.678379
0.671644
0.671973
0.671973
0.671809
0.671973
0.672301
0.674437
0.671316
0.679529
0.671644
0.671316
0.671644
0.671809
0.671973
0.660639
0.678215
0.658668
0.671973
0.671152
0.670659
0.671316
0.671152
0.670002
0.667702
0.670823
0.658668
0.634849
0.636492
0.635178
0.633371
0.644212
0.637477
0.639284
0.640106
0.640434
0.641748
0.643227
0.646676
0.643062
0.645526
0.644212
0.646348
0.646841
0.647333
0.647990
0.648647
0.654232
0.655711
0.647498
0.650290
0.651440
0.651604
0.652918
0.653083
0.653411
0.652754
0.653083
0.655054
0.655875
0.656368
0.656204
0.656368
0.655054
0.662446
0.660803
0.660474
0.660967
0.661789
0.658996
0.649962
0.653083
0.661131
0.659817
0.660310
0.660639
0.659982
0.660803
0.661131
0.660146
0.661131
0.661296
0.660639
0.662938
0.663595
0.664417
0.664581
0.634849
0.662774
0.663267
0.663267
0.663924
0.664252
0.664252
0.663595
0.656696
0.655875
0.656204
0.657189
0.658339
0.664581
0.666059
0.665567
0.669180
0.654725
0.660310
0.659325
0.658832
0.659160
0.666059
0.667209
0.667702
0.664745
0.668523
0.668031
0.667702
0.669016
0.669016
0.666388
0.675094
0.668359
0.669345
0.670002
0.670166
0.669837
0.672630
0.670166
0.670166
0.670166
0.669673
0.670495
0.712546
0.709754
0.669016
0.669016
0.668031
0.669509
0.667866
0.667209
0.667866
0.668523
0.670166
0.670659
0.670659
0.669180
0.670987
0.671480
0.671644
0.673287
0.673123
0.671973
0.671316
0.671809
0.672466
0.672630
0.671973
0.675587
0.672301
0.674930
0.673944
0.673123
0.700062
0.672301
0.672630
0.672466
0.671973
0.674437
0.667373
0.668852
0.668688
0.669180
0.662446
0.674930
0.673451
0.673616
0.673944
0.671644
0.672466
0.673123
0.671316
0.671809
0.668359
0.671809
0.668852
0.670166
0.670659
0.670166
0.678051
0.671809
0.672630
0.670659
0.669837
0.679529
0.672794
0.671809
0.671973
0.671644
0.676079
0.671152
0.670987
0.670495
0.669837
0.670495
0.671973
0.671316
0.671973
0.672301
0.672958
0.672466
0.670987
0.670987
0.670987
0.652425
0.670002
0.670002
0.669673
0.671152
0.670823
0.670166
0.670330
0.670987
0.670823
0.670659
0.670659
0.671316
0.670002
0.669509
0.669673
0.674601
0.669673
0.675587
0.673287
0.672958
0.673616
0.671316
0.671480
0.672794
0.672630
0.672958
0.664252
0.673780
0.672794
0.673944
0.674273
0.674273
0.673451
0.673780
0.673944
0.674273
0.673944
0.674108
0.673451
0.672958
0.673944
0.671809
0.676901
0.675587
0.674601
0.674108
0.674765
0.672630
0.673451
0.672794
0.672301
0.672466
0.670659
0.673944
0.672630
0.672137
0.673287
0.672958
0.635178
0.675258
0.671316
0.672958
0.673944
0.673451
0.673616
0.672301
0.671316
0.671480
0.692177
0.671480
0.671644
0.676408
0.671809
0.671973
0.672301
0.671644
0.671480
0.671973
0.672958
0.675258
0.675094
0.675094
0.675094
0.671316
0.675915
0.670330
0.672137
0.672958
0.673123
0.673287
0.671809
0.672794
0.672137
0.672301
0.674108
0.675258
0.674765
0.673287
0.672466
0.669180
0.666881
0.660803
0.662938
0.658832
0.661789
0.662610
0.662446
0.662610
0.662938
0.664252
0.663760
0.663760
0.663924
0.664252
0.665074
0.665074
0.665402
0.667045
0.667045
0.667209
0.667538
0.668195
0.668852
0.668031
0.663595
0.674437
0.645526
0.646512
0.647498
0.648483
0.648976
0.650290
0.651276
0.651111
0.651933
0.651933
0.652754
0.653247
0.653740
0.654232
0.657353
0.656204
0.655875
0.657025
0.657353
0.657682
0.652590
0.659489
0.655875
0.656368
0.657189
0.657518
0.657518
0.641091
0.661624
0.657353
0.658339
0.655218
0.651440
0.635835
0.636492
0.637313
0.663760
0.638956
0.637970
0.643391
0.642077
0.642241
0.643391
0.644048
0.644869
0.645855
0.643555
0.645855
0.647333
0.648319
0.649304
0.649304
0.650783
0.650126
0.650947
0.651604
0.652097
0.652425
0.653411
0.646183
0.647005
0.656532
0.656696
0.656861
0.657682
0.658175
0.658832
0.659489
0.664417
0.658010
0.661789
0.660967
0.661296
0.661460
0.662117
0.662117
0.665074
0.654232
0.659982
0.660639
0.660803
0.661460
0.661953
0.661460
0.663760
0.664745
0.664745
0.665074
0.665238
0.665567
0.665731
0.663267
0.670987
0.671152
0.672630
0.672794
0.672630
0.672466
0.672466
0.671316
0.668031
0.668031
0.667866
0.668359
0.668359
0.668852
0.668688
0.700883
0.669016
0.669180
0.669673
0.669673
0.670330
0.670330
0.663431
0.671809
0.666388
0.653575
0.650454
0.646676
0.645855
0.646348
0.646676
0.647826
0.647826
0.648647
0.649140
0.649962
0.650290
0.650619
0.655382
0.651440
0.652261
0.652754
0.652754
0.653247
0.653411
0.653740
0.671316
0.654561
0.655382
0.656532
0.657189
0.657353
0.658010
0.658175
0.656368
0.657353
0.658339
0.658175
0.658668
0.659489
0.659653
0.660146
0.655382
0.663267
0.660803
0.662774

Kurve 4

0.008182
0.008675
0.008346
0.007525
0.008018
0.007196
0.009003
-0.004302
-0.003809
-0.003645
-0.002331
-0.001181
-0.000360
0.010153
0.006046
0.008182
0.008346
0.006868
0.007689
0.008018
0.002925
0.008346
0.008346
0.008018
0.008675
0.008346
0.007361
0.007361
0.006211
0.006703
0.007361
0.007853
0.008510
0.007853
0.007361
0.007525
0.018366
0.006375
0.010810
0.007689
0.006046
0.006703
0.007032
0.006539
0.008182
0.005389
0.008018
0.006868
0.006046
0.005554
0.006703
0.003911
-0.000360
0.007196
0.008182
0.008346
0.008182
0.007361
0.006868
0.007032
0.006539
0.006375
0.007196
0.007196
0.007525
0.006703
0.006211
0.011631
0.005718
0.007196
0.007032
0.007032
0.007032
0.008018
0.007853
0.006211
0.004897
0.007196
0.005225
0.006046
0.005882
0.006375
0.006868
-0.000524
0.003090
0.003254
0.003582
0.003911
0.003418
0.002433
0.002433
-0.014979
0.004404
0.004239
0.004404
0.004732
0.004568
0.003911
0.026744
0.005389
0.006539
0.005718
0.003911
0.003582
0.004897
0.004568
0.004075
0.004897
0.006868
0.007361
0.007196
0.006703
0.007032
0.007525
-0.010709
0.004732
0.004568
0.004075
0.004239
0.003911
0.002761
0.002761
-0.039619
0.003747
0.004404
0.004732
0.004568
0.004897
0.004568
0.013603
-0.006109
0.004897
0.004732
0.004075
0.003418
0.003911
0.004568
0.004075
0.010810
0.003911
0.004075
0.004732
0.003911
0.003911
0.004568
-0.002495
0.006046
-0.001181
0.000297
0.001283
0.001118
0.000626
0.001118
0.004075
-0.005781
0.005225
0.002104
0.004239
0.004568
0.004404
0.004075
0.004239
0.005061
-0.001838
0.001118
0.000626
0.000626
0.000790
0.000790
0.000461
0.003254
0.004404
0.004568
0.004404
0.004732
0.004897
0.004897
0.006703
0.002925
0.004239
0.004568
0.004404
0.003911
0.003582
0.005389
0.004239
0.005225
0.002104
0.003911
0.003911
0.004239
0.003911
0.004568
0.005718
0.011960
0.001118
0.001940
0.002268
0.002433
0.002597
0.002433
0.020009
0.004732
0.005061
0.005225
0.005389
0.005554
0.005554
0.005554
0.004404
0.004404
0.005225
0.005061
0.004404
-0.007259
0.005718
0.005718
-0.035184
0.005389
0.001940
0.002268
0.002925
0.003418
0.009660
0.005554
0.005554
0.004239
0.006539
0.004897
0.004568
0.004239
0.004239
0.012781
0.004732
0.004897
0.005225
0.005389
0.005061
0.005389
0.003747
0.005061
0.007196
0.007689
0.007689
0.007032
0.001940
0.012124
0.007525
-0.000688
0.006211
0.005061
0.017381
0.033643
0.049248
0.069452
0.078980
0.093599
0.118732
0.120210
0.134008
0.146985
0.159469
0.171789
0.183616
0.194786
0.207270
0.216633
0.227146
0.237823
0.248500
0.217619
0.233388
0.279710
0.289073
0.298272
0.306650
0.266734
0.323405
0.332275
0.339667
0.348373
0.361021
0.368413
0.376133
0.382704
0.392231
0.386646
0.398309
0.403566
0.413750
0.413421
0.418678
0.423441
0.427548
0.433133
0.440525
0.446274
0.449559
0.454323
0.459251
0.464179
0.445617
0.473871
0.477649
0.481591
0.486683
0.490461
0.493746
0.497196
0.500810
0.504752
0.506888
0.510501
0.515429
0.519207
0.523150
0.529063
0.523314
0.533170
0.534484
0.537441
0.538591
0.541219
0.542533
0.545654
0.547461
0.577357
0.552060
0.554524
0.557152
0.559124
0.561752
0.563559
0.567337
0.563394
0.567501
0.569144
0.567994
0.575714
0.574400
0.577850
0.579985
0.574729
0.585077
0.586720
0.587705
0.590005
0.591155
0.591976
0.596740
0.596740
0.598875
0.600190
0.596576
0.600518
0.601175
0.602654
0.609717
0.597397
0.600518
0.600518
0.601832
0.603311
0.604789
0.612017
0.619244
0.619737
0.619901
0.612509
0.624336
0.621215
0.621872
0.622858
0.624008
0.621708
0.619573
0.622201
0.623022
0.623679
0.627129
0.625979
0.625815
0.626800
0.627622
0.649469
0.624501
0.624336
0.610702
0.611195
0.612838
0.612838
0.613988
0.614152
0.615302
0.616452
0.587541
0.618751
0.619737
0.619737
0.620065
0.623351
0.624172
0.624172
0.625158
0.625815
0.626636
0.623515
0.624993
0.624829
0.620558
0.619080
0.614809
0.615959
0.617766
0.618094
0.619080
0.621380
0.621380
0.624665
0.625815
0.624008
0.624665
0.624008
0.625815
0.626308
0.626636
0.623022
0.629100
0.628443
0.630250
0.631728
0.631400
0.632550
0.633371
0.634192
0.635014
0.634028
0.636328
0.637149
0.637806
0.638463
0.639284
0.639120
0.639941
0.640598
0.640763
0.641584
0.642077
0.643227
0.643719
0.643884
0.642405
0.620723
0.624501
0.625650
0.626308
0.627293
0.628114
0.628279
0.628936
0.623679
0.632714
0.632057
0.632550
0.633864
0.634192
0.634685
0.628279
0.636328
0.636985
0.637149
0.637806
0.638463
0.641748
0.633699
0.636328
0.637970
0.638463
0.639284
0.639941
0.643555
0.643227
0.670495
0.644705
0.644377
0.644869
0.644869
0.645362
0.645691
0.647005
0.647990
0.646512
0.654068
0.650619
0.651440
0.651768
0.652590
0.652590
0.619408
0.652590
0.653083
0.653411
0.653575
0.654397
0.677394
0.654725
0.655218
0.655546
0.655382
0.656039
0.656532
0.685278
0.656368
0.658175
0.656532
0.657518
0.658010
0.657682
0.658668
0.658503
0.651933
0.659489
0.657682
0.658339
0.659489
0.658832
0.659325
0.660146
0.660310
0.650783
0.660803
0.661131
0.661460
0.661789
0.661460
0.661953
0.661624
0.664745
0.663924
0.664581
0.665074
0.665074
0.665731
0.664252
0.663595
0.658339
0.667538
0.662610
0.662446
0.662446
0.660967
0.660474
0.658996
0.658832
0.645526
0.643555
0.643227
0.643719
0.644541
0.645034
0.618423
0.647990
0.648155
0.647498
0.648155
0.647990
0.648319
0.663924
0.649469
0.649797
0.650454
0.651111
0.651604
0.652097
0.652425
0.654889
0.653247
0.655054
0.654232
0.654889
0.655054
0.655546
0.655875
0.649304
0.658010
0.655054
0.656532
0.657189
0.657846
0.658339
0.658668
0.646348
0.659160
0.658996
0.659653
0.659489
0.660310
0.660310
0.661296
0.660310
0.661460
0.661296
0.661296
0.661953
0.638299
0.638956
0.639284
0.639284
0.646183
0.645198
0.645855
0.646676
0.647333
0.647498
0.618423
0.646019
0.646019
0.646512
0.647005
0.647826
0.648483
0.649140
0.647662
0.650619
0.649962
0.650126
0.650454
0.651111
0.651604
0.652097
0.655875
0.653740
0.653247
0.654889
0.655382
0.655711
0.656532
0.656861
0.662610
0.655875
0.656039
0.656861
0.656861
0.657518
0.658339
0.654889
0.658996
0.657189
0.659160
0.659325
0.659817
0.659982
0.660146
0.660803
0.659817
0.654889
0.655875
0.656039
0.655875
0.656039
0.656204
0.691849
0.659489
0.659817
0.660146
0.660146
0.660474
0.661131
0.661789
0.709261
0.662281
0.660803
0.660967
0.660967
0.661789
0.662610
0.639613
0.659489
0.663103
0.662281
0.662281
0.663267
0.663924
0.664088
0.664417
0.661131
0.663924
0.665074
0.664745
0.665074
0.665074
0.665074
0.688071
0.664581
0.664417
0.664581
0.664252
0.664910
0.665895
0.666059
0.668523
0.666716
0.666224
0.666059
0.666224
0.666059
0.666716
0.659325
0.667373
0.665238
0.667045
0.667373
0.667209
0.667373
0.666716
0.666388
0.661789
0.669345
0.662281
0.664088
0.665402
0.665402
0.665238
0.667538
0.667045
0.668359
0.666224
0.665402
0.666059
0.666881
0.667373
0.707454
0.704826
0.665731
0.666059
0.665895
0.666224
0.666224
0.666552
0.669180
0.666059
0.667209
0.664252
0.665731
0.665731
0.666388
0.666388
0.667045
0.667866
0.667209
0.668195
0.668359
0.668359
0.668195
0.668523
0.665895
0.666388
0.663760
0.663760
0.664088
0.665074
0.685114
0.666388
0.667045
0.668523
0.668523
0.670166
0.670330
0.670002
0.670166
0.667702
0.668031
0.665731
0.665567
0.663267
0.662446
0.661789
0.659489
0.655875
0.648155
0.653904
0.653575
0.654232
0.654889
0.655218
0.655711
0.656368
0.656039
0.655875
0.654889
0.645691
0.645526
0.688071
0.673616
0.673780
0.700555
0.639284
0.639777
0.640106
0.638299
0.638627
0.592962
0.606267
0.606103
0.642570
0.645034
0.641584
0.642734
0.644869
0.645855
0.640763
0.650619
0.650783
0.652590
0.653575
0.654068
0.654232
0.657189
0.654232
0.654561
0.655218
0.655546
0.655875
0.656532
0.657353
0.656204
0.656532
0.699898
0.695791
0.692999
0.691685
0.657353
0.623844
0.657518
0.658339
0.658339
0.656532
0.659160
0.659982
0.660146
0.661460
0.661624
0.660639
0.661296
0.663924
0.664581
0.664581
0.664581
0.698091
0.663103
0.663760
0.663924
0.664252
0.664745
0.666059
0.666716
0.664417
0.663760
0.713696
0.665731
0.665731
0.665567
0.664088
0.647990
0.663760
0.663760
0.663924
0.665238
0.623022
0.628607
0.633042
0.635342
0.668195
0.666881
0.668195
0.669673
0.670002
0.669180
0.669016
0.672794
0.669016
0.669016
0.665402
0.661460
0.661789
0.649633
0.657025
0.655218
0.654725
0.680186
0.655054
0.654725
0.655218
0.654725
0.655546
0.656532
0.656204
0.657189
0.658175
0.653575
0.658668
0.656368
0.658503
0.645034
0.635835
0.652425
0.648155
0.650126
0.651440
0.650783
0.649797
0.646348
0.648483
0.647169
0.646841
0.652097
0.650619
0.651276
0.651111
0.650947
0.660310
0.651933
0.659160
0.657189
0.657025
0.657846
0.654232
0.659653
0.658668
0.659489
0.660803
0.624993
0.658339
0.659160
0.659817
0.660803
0.660639
0.654232
0.657353
0.658996
0.659489
0.658996
0.663267
0.662774
0.662774
0.662610
0.666552
0.663267
0.663103
0.663103
0.662610
0.663103
0.663924
0.666388
0.664417
0.664252
0.664910
0.662774
0.665731
0.666059
0.666881
0.667373
0.667373
0.666059
0.664581
0.667866
0.668523
0.648319
0.656532
0.657518
0.659160
0.660474
0.659982
0.689549
0.668852
0.668688
0.669509
0.666881
0.665238
0.664417
0.664252
0.664417
0.664745
0.674765
0.670002
0.669837
0.669345
0.669509
0.667702
0.629921
0.631892
0.671480
0.671809
0.671809
0.671973
0.672630
0.667702
0.669837
0.670823
0.671644
0.672301
0.672630
0.673123
0.672958
0.672137
0.671480
0.672958
0.678215
0.668688
0.672301
0.670987
0.670823
0.671644
0.672466
0.674765
0.672958
0.672466
0.672794
0.672466
0.672794
0.670166
0.673123
0.672466
0.672958
0.673616
0.672958
0.647005
0.672630
0.672466
0.670330
0.672301
0.672466
0.672301
0.672794
0.672794
0.672466
0.672466
0.672466
0.675258
0.668359
0.671644
0.671809
0.671973
0.671973
0.672301
0.674601
0.672301
0.674765
0.674437
0.673616
0.673944
0.636328
0.671973
0.671809
0.671973
0.672137
0.671809
0.672137
0.670330
0.671809
0.645034
0.636985
0.666552
0.672630
0.673287
0.672958
0.672794
0.704497
0.673287
0.674930
0.674437
0.674930
0.674930
0.675094
0.675094
0.675258
0.675751
0.672630
0.676408
0.675587
0.674930
0.673944
0.671973
0.671480
0.670002
0.671809
0.672630
0.672794
0.672301
0.672137
0.669509
0.669673
0.672301
0.670987
0.671152
0.671316
0.671480
0.671152
0.671152
0.671316
0.671316
0.671809
0.671480
0.671480
0.671644
0.671973
0.671316
0.678215
0.670823
0.670987
0.671973
0.670987
0.671152
0.671973
0.670166
0.671316
0.672301
0.672466
0.673287
0.672794
0.672137
0.672794
0.672137
0.672958
0.671152
0.674108
0.675422
0.674765
0.674108
0.674108
0.673123
0.671480
0.672137
0.672137
0.672466
0.672466
0.672137
0.672301
0.679858
0.671316
0.672301
0.671973
0.671973
0.672137
0.672466
0.658832
0.672958
0.671644
0.672630
0.672301
0.672466
0.672301
0.672137
0.670002
0.675915
0.677065
0.676737
0.676079
0.675422
0.675258
0.674930
0.685771
0.667702
0.678379
0.674601
0.671480
0.672137
0.671973
0.671973
0.683964
0.671316
0.671809
0.672466
0.672301
0.672466
0.672137
0.672301
0.670823
0.671316
0.673287
0.672466
0.672630
0.672794
0.672630
0.672958
0.664745
0.679693
0.676572
0.675422
0.675915
0.675751
0.675587
0.708932
0.671316
0.671316
0.671644
0.671644
0.671316
0.671480
0.671480
0.673780
0.671480
0.672137
0.672301
0.671809
0.668031
0.667045
0.665567
0.660803
0.666388
0.667045
0.667045
0.667702
0.667702
0.667373
0.667702
0.666224
0.667866
0.667702
0.668523
0.668359
0.668031
0.668195
0.674437
0.669345
0.665731
0.670659
0.669345
0.669345
0.669345
0.669180
0.669180
0.670166
0.666388
0.666388
0.666059
0.665895
0.666552
0.666552
0.662117
0.667209
0.667538
0.667209
0.667209
0.667209
0.667209
0.667538
0.669180
0.662610
0.681993

Kurve 5

0.008510
0.009332
0.009332
0.009496
0.009824
0.010317
0.011303
0.010153
0.014424
0.012288
0.010974
0.011139
0.011960
0.011960
0.011467
0.010153
0.010646
0.010482
0.009332
0.009167
0.009496
0.009989
0.008839
0.009989
0.010646
0.010974
0.011467
0.010974
0.010153
0.010482
0.000954
0.012617
0.013110
0.012945
0.014260
0.013603
0.012288
0.012288
0.010810
0.011303
0.011303
0.010646
0.010646
0.011467
0.011631
0.010810
0.011467
0.010317
0.009496
0.009989
0.009660
0.009496
0.009496
0.005554
0.019188
0.016067
0.017709
0.017873
0.017381
0.016231
0.015574
0.003747
0.008346
0.007361
0.008018
0.007853
0.007689
0.006868
0.006539
0.008675
0.002761
0.005061
0.003090
0.002597
0.003418
0.004404
0.004404
0.012617
0.005718
0.010317
0.009824
0.008839
0.009003
0.009496
0.009496
0.008675
0.007689
0.007689
0.007853
0.007525
0.007361
0.006868
-0.017443
0.005554
0.012453
0.008346
0.008182
0.009003
0.007853
0.007525
0.007525
0.026415
0.014260
0.013438
0.012945
0.012781
0.013274
0.012781
0.013767
0.006375
0.007196
0.006868
0.007196
0.006868
0.007196
0.007032
0.008018
0.005718
0.008510
0.009332
0.009496
0.008839
0.008510
-0.032720
0.008346
0.009332
0.008675
0.008675
0.008675
0.008839
0.008346
0.007361
0.007853
0.000790
-0.001181
-0.002988
-0.002660
-0.002167
-0.001838
-0.001346
0.009167
0.009496
0.008839
0.008839
0.009003
0.009332
0.008839
0.001776
0.011631
0.011631
0.011467
0.011467
0.010646
0.010153
0.009332
0.008675
0.008346
0.016231
0.013931
0.013110
0.013438
0.012288
0.012124
0.008346
0.017216
0.006211
0.011631
0.010482
0.009824
0.009824
0.009824
0.012617
0.006539
0.012453
0.011467
0.010646
0.010482
0.010646
-0.004138
0.008675
0.009003
0.008346
0.008839
0.008018
0.007361
0.009332
0.008182
0.008182
0.012288
0.007689
0.008510
0.009003
0.009332
0.010482
0.008510
0.008182
0.010482
0.008839
0.008346
0.008510
0.008182
0.008346
0.009167
0.007525
0.008839
0.007853
0.006868
0.007196
0.007689
0.004732
0.009332
0.004239
0.005389
0.006046
0.006046
-0.002495
0.009003
0.008675
0.008510
0.009824
0.008346
0.009332
0.009824
0.009824
0.018038
0.002925
0.009989
0.009003
0.008182
0.009824
0.009003
0.008510
0.008182
0.008018
0.009660
-0.000688
0.000461
0.000626
0.000954
0.003582
0.005882
0.012617
0.006868
0.008510
0.009496
0.008839
0.007361
0.009824
0.009496
0.009003
0.007853
0.020337
0.036928
0.052862
0.068467
0.084400
0.095899
0.111504
0.123824
0.146985
0.149942
0.164233
0.174910
0.186080
0.197414
0.214826
0.222054
0.232567
0.242751
0.252771
0.260163
0.268540
0.282339
0.293180
0.303200
0.312563
0.320776
0.320776
0.329318
0.337367
0.345088
0.348209
0.372848
0.374162
0.382375
0.389603
0.395352
0.397816
0.398802
0.405044
0.410136
0.416378
0.418678
0.423770
0.428534
0.432476
0.446767
0.443317
0.447260
0.452023
0.456623
0.461386
0.466971
0.470585
0.474363
0.479456
0.483726
0.488326
0.491775
0.494896
0.498839
0.503274
0.506888
0.509844
0.513130
0.516579
0.520029
0.522821
0.527913
0.518386
0.532020
0.535305
0.538426
0.542533
0.540562
0.544340
0.545982
0.547625
0.553046
0.556331
0.558302
0.560273
0.562737
0.564380
0.563066
0.579164
0.576207
0.578507
0.560109
0.581956
0.576864
0.579985
0.582285
0.583927
0.584584
0.585734
0.588363
0.590005
0.591648
0.603475
0.590334
0.597069
0.597726
0.598218
0.600354
0.600190
0.604953
0.603146
0.603475
0.609553
0.608403
0.611031
0.611524
0.611524
0.613331
0.599204
0.610210
0.603803
0.606760
0.610210
0.612838
0.614481
0.615302
0.616452
0.615466
0.614481
0.616452
0.618587
0.618916
0.619573
0.620887
0.619244
0.624829
0.623351
0.624665
0.625815
0.633699
0.624829
0.626800
0.626472
0.632221
0.628771
0.632057
0.632878
0.632878
0.633699
0.634028
0.632550
0.632221
0.613988
0.614973
0.615795
0.617109
0.618259
0.619573
0.620394
0.618916
0.622694
0.623351
0.624336
0.625158
0.626143
0.627622
0.628114
0.628607
0.629429
0.630086
0.631071
0.635178
0.632385
0.632878
0.640434
0.626308
0.632878
0.634685
0.635835
0.636163
0.636820
0.634849
0.637149
0.639449
0.640434
0.635999
0.638463
0.639284
0.639777
0.640598
0.637313
0.643391
0.642898
0.642898
0.643391
0.643391
0.649304
0.643719
0.645855
0.646019
0.646019
0.646676
0.647169
0.647662
0.647169
0.647990
0.646676
0.647826
0.646348
0.646676
0.647005
0.647169
0.639777
0.661953
0.637313
0.649304
0.648155
0.649633
0.650290
0.650454
0.650619
0.639613
0.651604
0.651440
0.651604
0.652261
0.652590
0.652918
0.651933
0.652425
0.652590
0.652754
0.653247
0.653083
0.652754
0.636820
0.641256
0.639120
0.640106
0.640763
0.641091
0.641748
0.642077
0.642734
0.645526
0.641420
0.645034
0.642241
0.642898
0.643719
0.644048
0.644377
0.631892
0.648483
0.643062
0.644705
0.645198
0.645526
0.646183
0.665238
0.650783
0.653083
0.654068
0.654232
0.654889
0.654889
0.673123
0.651604
0.652754
0.653411
0.652425
0.653247
0.653740
0.653411
0.653904
0.652425
0.653904
0.654725
0.655382
0.655218
0.655382
0.655546
0.656204
0.651440
0.657682
0.656039
0.657518
0.657682
0.657846
0.657846
0.672630
0.657682
0.658339
0.658175
0.658503
0.658832
0.659489
0.659817
0.697434
0.660967
0.659982
0.658668
0.659489
0.659325
0.659489
0.659653
0.644377
0.662117
0.657682
0.659817
0.660146
0.660803
0.661131
0.661131
0.661789
0.663924
0.663924
0.665402
0.663595
0.663103
0.663103
0.663103
0.664745
0.663924
0.663431
0.663267
0.663267
0.663924
0.664252
0.664088
0.668523
0.665074
0.667866
0.668359
0.667866
0.667373
0.667373
0.665074
0.665895
0.662446
0.665074
0.665238
0.665074
0.665567
0.665567
0.665402
0.665238
0.664088
0.664581
0.664745
0.664252
0.663760
0.664088
0.676572
0.664088
0.664417
0.665074
0.665074
0.665238
0.665731
0.665567
0.682814
0.664088
0.665402
0.665238
0.664745
0.664910
0.664910
0.656368
0.662610
0.671480
0.668523
0.668688
0.669180
0.669016
0.669509
0.669180
0.624336
0.665731
0.667045
0.665895
0.666059
0.665731
0.665895
0.670659
0.660967
0.663760
0.663103
0.663431
0.664088
0.664417
0.664581
0.671973
0.670002
0.666881
0.666881
0.666881
0.667209
0.667045
0.666224
0.668688
0.663267
0.669345
0.669180
0.668852
0.669016
0.668852
0.668688
0.659160
0.667373
0.666388
0.666224
0.666059
0.666059
0.665895
0.666059
0.665238
0.666716
0.666716
0.666388
0.667045
0.667373
0.667209
0.667702
0.667538
0.662446
0.671316
0.668359
0.667373
0.667538
0.667702
0.667702
0.665567
0.668031
0.667373
0.667373
0.667866
0.667702
0.667866
0.667702
0.667538
0.664581
0.666881
0.666388
0.666552
0.667373
0.667209
0.666552
0.671152
0.669673
0.668195
0.668031
0.668031
0.668031
0.670659
0.665074
0.672301
0.669016
0.667538
0.667045
0.665402
0.661460
0.653740
0.660146
0.658996
0.660967
0.657189
0.657518
0.658339
0.658503
0.659160
0.617109
0.662281
0.662446
0.662774
0.663103
0.663431
0.663595
0.664417
0.664581
0.664088
0.664417
0.664745
0.665731
0.672630
0.663924
0.667866
0.668688
0.664252
0.665402
0.666059
0.665402
0.666388
0.662610
0.665895
0.667866
0.665238
0.666552
0.667045
0.667373
0.667538
0.667866
0.659653
0.669509
0.663760
0.665074
0.665402
0.665731
0.666224
0.671644
0.669180
0.669016
0.669345
0.669837
0.669673
0.675915
0.672630
0.676408
0.675751
0.669016
0.669837
0.669673
0.669673
0.669837
0.667373
0.673451
0.668359
0.669509
0.671152
0.670330
0.670330
0.670987
0.670823
0.670987
0.670987
0.666716
0.667702
0.668195
0.668359
0.668359
0.682157
0.671152
0.671480
0.671316
0.670659
0.671644
0.679693
0.671973
0.671809
0.671644
0.672466
0.674108
0.674437
0.673944
0.673287
0.657682
0.671973
0.671152
0.671316
0.668359
0.672301
0.669837
0.671316
0.672630
0.672301
0.669180
0.671644
0.658010
0.656039
0.655218
0.654397
0.657518
0.654232
0.654561
0.653411
0.643227
0.639941
0.626800
0.626472
0.625158
0.624829
0.631235
0.627622
0.632550
0.631728
0.631235
0.631564
0.630086
0.612838
0.613988
0.615630
0.614645
0.616616
0.617930
0.609060
0.604296
0.598383
0.607253
0.607746
0.611359
0.613166
0.614645
0.615302
0.614481
0.617109
0.615630
0.616944
0.624501
0.621544
0.623351
0.623844
0.623844
0.634685
0.627293
0.628771
0.629757
0.629921
0.631235
0.631892
0.633535
0.634685
0.635835
0.637149
0.637642
0.638463
0.639613
0.640598
0.641913
0.643391
0.642570
0.643062
0.644212
0.644705
0.645198
0.652590
0.641420
0.644212
0.640763
0.649304
0.644212
0.650619
0.649797
0.648976
0.649962
0.648319
0.649469
0.649633
0.649962
0.650783
0.636656
0.651440
0.652097
0.652590
0.653740
0.653247
0.657518
0.658339
0.661131
0.661789
0.655546
0.655382
0.655875
0.656696
0.656861
0.657189
0.638956
0.624665
0.631400
0.632385
0.641584
0.629757
0.633864
0.634356
0.635014
0.636328
0.648812
0.644048
0.644212
0.644869
0.645034
0.639777
0.652261
0.648483
0.651111
0.652425
0.652918
0.622365
0.650619
0.650947
0.651276
0.645526
0.651440
0.649140
0.650290
0.651768
0.651933
0.652754
0.654561
0.662117
0.659160
0.656204
0.658503
0.657518
0.657682
0.657518
0.658175
0.701540
0.696284
0.661460
0.658339
0.658668
0.658832
0.659653
0.661296
0.661624
0.662446
0.662938
0.662446
0.617602
0.626965
0.625815
0.635671
0.663595
0.665074
0.665238
0.666716
0.666059
0.665074
0.665402
0.665402
0.671809
0.665074
0.665731
0.664745
0.664417
0.664417
0.664910
0.675422
0.665402
0.671480
0.669837
0.669016
0.669509
0.664745
0.667702
0.667702
0.667373
0.668688
0.668523
0.668031
0.668523
0.668523
0.657025
0.669837
0.667702
0.669509
0.670002
0.670330
0.670166
0.706961
0.669673
0.671644
0.661131
0.665074
0.664252
0.664252
0.664417
0.665074
0.690863
0.704497
0.706304
0.704169
0.701212
0.668031
0.667045
0.668688
0.668031
0.668195
0.668688
0.669016
0.668359
0.666552
0.669180
0.663431
0.669837
0.666716
0.668523
0.669016
0.669180
0.669016
0.669016
0.708604
0.670002
0.669345
0.671809
0.671152
0.671152
0.671644
0.671809
0.701048
0.668852
0.668852
0.668688
0.669016
0.669016
0.669837
0.666224
0.669345
0.669837
0.670002
0.670166
0.670166
0.669837
0.636985
0.670823
0.671644
0.670659
0.672958
0.673780
0.673780
0.672958
0.672958
0.670987
0.672137
0.671480
0.671316
0.671152
0.671644
0.672301
0.672466
0.688728
0.670987
0.671809
0.671644
0.670823
0.671316
0.671809
0.648647
0.671973
0.671316
0.656861
0.658503
0.658503
0.658175
0.658339
0.653247
0.659653
0.658339
0.659817
0.661131
0.661296
0.660803
0.661131
0.666881
0.661296
0.666224
0.663595
0.662610
0.663267
0.664252
0.664252
0.666881
0.664088
0.664910
0.665402
0.664745
0.665238
0.665895
0.665238
0.666059
0.666388
0.666881
0.666881
0.666224
0.666059
0.666224
0.666059
0.664745
0.665895
0.666552
0.667373
0.668195
0.667866
0.667209
0.671809
0.665567
0.668359
0.665402
0.663924
0.664581
0.668031
0.669509
0.668523
0.668852
0.670987
0.669837
0.669509
0.669673
0.670659
0.670987
0.645362
0.670987
0.671644
0.671480
0.671809
0.671809
0.672137
0.672137
0.643884
0.657189
0.657518
0.657682
0.659325
0.659653
0.659653
0.666881
0.662610
0.658175
0.658996
0.657682
0.657846
0.658996
0.659817
0.659982
0.664252
0.665074
0.662774
0.663267
0.663595
0.664088
0.665074
0.647498
0.666881
0.666716
0.666881
0.667045
0.666881
0.666388
0.666716
0.657846
0.667209
0.668359
0.668852
0.668852
0.669180
0.668852
0.673780
0.707290
0.675422
0.668359
0.668359
0.668359
0.668688
0.668852
0.668852
0.700883
0.669180
0.674108
0.673944
0.674108
0.674273
0.674601
0.673451
0.676079
0.675422
0.676901
0.676737
0.676244
0.676244
0.675915
0.668359
0.667373
0.671316
0.671316
0.670659
0.671809
0.658832
0.654068
0.653904
0.662938
0.643227
0.649304
0.657025
0.656861
0.657682
0.658010
0.658339
0.704990
0.699733
0.659325
0.659325
0.659982
0.660474
0.661131
0.661296
0.660803
0.661296
0.661789
0.661953
0.662610
0.662938
0.664581
0.663267

Kurve 6

0.004897
0.006211
0.005718
0.005718
0.006046
0.005882
0.005389
0.008510
0.006703
0.006703
0.006211
0.005389
0.012617
0.004897
0.009660
0.007361
0.006703
0.005225
0.006046
0.005718
0.005225
0.005061
0.003747
0.006539
0.006703
0.006375
0.002268
0.010482
0.006046
0.007361
0.008675
0.009003
0.006868
0.007196
0.008018
0.008018
0.008510
0.007361
0.037585
0.007032
0.007032
0.007196
0.006046
0.012453
0.007032
0.006868
0.006868
0.006703
0.052697
0.031343
0.014917
0.012781
0.011960
-0.002495
0.002761
0.002761
0.002597
0.002761
0.000954
0.002925
0.002597
0.003254
0.004239
-0.034691
0.003090
0.003090
0.003254
0.003254
0.003418
0.006703
0.002761
0.003090
0.002597
0.002925
0.005718
-0.006438
-0.004467
-0.004795
-0.005124
0.027072
0.003582
0.005389
0.003911
0.002925
0.003254
0.004239
0.003582
0.004732
0.004732
0.005061
0.003090
0.002925
0.004239
0.004568
-0.009066
0.005061
0.004404
0.004075
0.005718
0.005882
0.004897
0.005061
0.005554
0.005389
0.004732
0.005882
0.007361
0.005225
0.004404
0.003911
0.005554
0.005061
0.006046
0.005718
0.005389
0.005882
-0.004959
0.011467
0.008675
0.008018
0.008675
0.008675
0.006375
0.004568
0.006703
0.007361
0.005389
0.005389
0.005882
0.005882
0.006211
0.005061
0.011303
0.005389
0.005554
0.008182
0.042185
0.041527
0.003911
0.003090
0.002925
0.004568
0.003254
0.003747
0.001776
0.001447
0.001611
-0.011201
0.006211
0.004568
0.005061
0.005554
0.005554
-0.000031
0.005061
0.004732
0.006375
0.005061
0.001776
0.002597
0.003418
0.003582
0.003582
0.022309
0.004732
0.004732
0.010317
0.004732
0.009496
0.008346
0.006703
0.006703
0.006539
0.005882
0.006375
0.004568
0.004404
0.004404
0.004568
0.005389
0.004404
0.004897
0.005389
0.005554
0.004897
-0.001510
0.005061
0.005389
0.004075
0.004568
0.006046
0.005718
0.006375
0.006375
0.005554
0.004732
0.009660
0.006868
0.005554
0.005061
0.005225
0.005061
0.004732
0.005061
0.006703
0.001776
0.005061
0.005061
0.004404
0.005061
0.003747
0.004732
0.005882
0.005882
0.006046
0.005882
0.005061
0.004075
0.005554
0.000954
0.005554
0.005882
0.005718
0.005718
0.005718
0.005554
0.007853
0.006375
0.005554
0.008346
0.006375
0.006211
0.006539
0.006703
0.006539
0.052862
0.044156
0.044977
0.042842
0.003418
0.003582
-0.016458
-0.035348
-0.037319
-0.032391
-0.027464
0.006868
0.007196
0.007361
0.007853
0.005061
0.019188
0.031343
0.048427
0.063867
0.078323
0.092778
0.123495
0.152570
0.130066
0.147971
0.157498
0.169653
0.181809
0.193472
0.204642
0.215155
0.224682
0.234538
0.244558
0.253921
0.264105
0.273797
0.282996
0.291866
0.300901
0.309442
0.317984
0.325212
0.332768
0.322419
0.349194
0.357736
0.363978
0.373341
0.380897
0.387139
0.392560
0.399459
0.406194
0.401594
0.410300
0.414243
0.419992
0.426563
0.432805
0.437897
0.459251
0.451202
0.456951
0.462701
0.467136
0.471899
0.476335
0.452516
0.484548
0.488326
0.491775
0.474035
0.477977
0.482084
0.486355
0.487997
0.498017
0.498346
0.504588
0.509187
0.512473
0.515101
0.517893
0.522821
0.522164
0.523314
0.525121
0.526764
0.530049
0.511651
0.514115
0.546311
0.521179
0.529228
0.531527
0.532677
0.535305
0.537605
0.539740
0.538426
0.542861
0.545654
0.548939
0.551239
0.553046
0.555345
0.557809
0.561095
0.563394
0.565858
0.568651
0.570951
0.572593
0.574729
0.626965
0.578178
0.580478
0.581956
0.583106
0.585734
0.588034
0.589348
0.608567
0.592469
0.594440
0.595919
0.596576
0.588527
0.590991
0.592633
0.592305
0.594933
0.597397
0.598875
0.600354
0.601011
0.601504
0.602654
0.595754
0.598218
0.595919
0.599861
0.602654
0.603475
0.603968
0.608567
0.610210
0.606596
0.609881
0.610045
0.610867
0.613002
0.614316
0.614481
0.665567
0.618751
0.619080
0.619737
0.620887
0.622858
0.623679
0.620394
0.624172
0.621215
0.622529
0.623844
0.624172
0.624829
0.625650
0.632221
0.626965
0.641748
0.642241
0.643227
0.643062
0.640434
0.639120
0.632057
0.634028
0.637642
0.636820
0.637970
0.639120
0.639613
0.639941
0.644048
0.641256
0.641748
0.642241
0.625322
0.623844
0.624665
0.613495
0.629921
0.625650
0.625979
0.627622
0.628114
0.628936
0.616123
0.616452
0.631235
0.635999
0.637149
0.638299
0.639449
0.639941
0.665074
0.639120
0.643391
0.640106
0.641256
0.642241
0.642405
0.643227
0.643719
0.645855
0.643227
0.650290
0.649633
0.650126
0.650454
0.650783
0.631071
0.648155
0.648647
0.648976
0.649469
0.649962
0.649962
0.621708
0.651768
0.652097
0.653247
0.650783
0.653575
0.653740
0.653904
0.657025
0.653247
0.659489
0.656368
0.655382
0.649962
0.645362
0.645198
0.643884
0.643062
0.643062
0.644377
0.644377
0.644705
0.645526
0.646019
0.646676
0.648647
0.645691
0.647990
0.648155
0.648647
0.649304
0.649469
0.651933
0.651276
0.650783
0.649633
0.646676
0.645526
0.646841
0.647333
0.651604
0.645198
0.645198
0.646841
0.651440
0.651111
0.651604
0.652097
0.652261
0.654561
0.649633
0.654725
0.655218
0.655382
0.656039
0.656204
0.653575
0.653247
0.655875
0.655875
0.655546
0.655875
0.656368
0.655382
0.657846
0.626636
0.657025
0.655546
0.655546
0.656204
0.656696
0.708604
0.694806
0.690206
0.689221
0.648976
0.650454
0.649633
0.650126
0.650783
0.663267
0.652097
0.652097
0.652261
0.653083
0.653247
0.653575
0.652261
0.654068
0.654725
0.654068
0.654397
0.637313
0.621051
0.655054
0.656861
0.657189
0.658996
0.661131
0.663103
0.663103
0.663103
0.660310
0.658668
0.658175
0.658832
0.669016
0.659489
0.662774
0.662446
0.662281
0.662610
0.661624
0.662938
0.662774
0.662938
0.662938
0.662774
0.649469
0.661953
0.662938
0.662446
0.663103
0.660639
0.663431
0.664088
0.662117
0.661296
0.660803
0.661624
0.661460
0.661789
0.657353
0.669345
0.654397
0.652097
0.650783
0.651111
0.651768
0.633371
0.636985
0.638627
0.639449
0.653247
0.649962
0.649140
0.650126
0.650783
0.651111
0.638792
0.654068
0.654561
0.654561
0.655054
0.644705
0.655711
0.657025
0.656696
0.657518
0.615795
0.658175
0.654725
0.654725
0.655546
0.656204
0.701212
0.696612
0.659653
0.659653
0.659817
0.659982
0.660310
0.660639
0.660967
0.663760
0.661624
0.661460
0.662446
0.662938
0.663103
0.663431
0.664252
0.655382
0.648155
0.648976
0.650290
0.650126
0.650783
0.651604
0.651768
0.630250
0.615630
0.614152
0.617766
0.655546
0.658175
0.692999
0.660639
0.662117
0.662938
0.662938
0.681336
0.660310
0.666059
0.664417
0.669345
0.659982
0.665567
0.664417
0.664581
0.664910
0.664910
0.658339
0.664252
0.664910
0.658010
0.661296
0.661131
0.662774
0.663760
0.663760
0.663924
0.668852
0.666388
0.668195
0.668523
0.668523
0.672794
0.669016
0.668688
0.668688
0.668523
0.668688
0.672137
0.669837
0.673287
0.673616
0.670166
0.670330
0.670495
0.670495
0.670330
0.670659
0.663267
0.680186
0.675587
0.665731
0.672137
0.672466
0.671809
0.671973
0.669837
0.670495
0.671152
0.667538
0.671644
0.671316
0.670987
0.674273
0.671480
0.672466
0.672301
0.672137
0.672301
0.672630
0.674273
0.670823
0.672301
0.673780
0.674765
0.674765
0.674930
0.674437
0.674765
0.674601
0.677229
0.673451
0.673780
0.674601
0.675258
0.675258
0.675422
0.675751
0.675422
0.673616
0.675258
0.675751
0.676079
0.676079
0.675751
0.676572
0.677394
0.676572
0.676737
0.676408
0.676901
0.676079
0.674601
0.675587
0.677722
0.673123
0.675422
0.675915
0.675751
0.675587
0.675587
0.661953
0.675751
0.674108
0.681336
0.683143
0.682979
0.682814
0.682322
0.682157
0.675587
0.676901
0.676901
0.663924
0.655382
0.654397
0.689385
0.690206
0.692999
0.689221
0.682157
0.680186
0.677886
0.671316
0.634356
0.632878
0.632221
0.632550
0.634521
0.635671
0.636492
0.637313
0.629264
0.646512
0.646183
0.640106
0.642405
0.643719
0.644048
0.644048
0.645034
0.643884
0.643227
0.643062
0.644212
0.645691
0.646183
0.648319
0.650619
0.651933
0.652754
0.653083
0.654068
0.655382
0.656368
0.658832
0.661624
0.655546
0.656861
0.656368
0.655054
0.652425
0.652097
0.652754
0.653083
0.654561
0.655382
0.655546
0.656039
0.657189
0.657189
0.657846
0.648155
0.657189
0.654889
0.655875
0.657189
0.657846
0.657518
0.669509
0.663103
0.663103
0.663431
0.663760
0.664417
0.665074
0.665238
0.673780
0.665402
0.670987
0.668852
0.667702
0.668523
0.669345
0.669673
0.665402
0.668031
0.670823
0.671644
0.672137
0.671316
0.670987
0.671316
0.666224
0.670166
0.667209
0.668195
0.669345
0.669673
0.669509
0.675587
0.671480
0.672794
0.672958
0.672466
0.673123
0.674108
0.674273
0.673944
0.672794
0.680515
0.677065
0.676079
0.675915
0.676737
0.677394
0.669673
0.677065
0.671973
0.674108
0.675751
0.675587
0.674765
0.675587
0.670002
0.676079
0.676408
0.676408
0.676572
0.676408
0.675915
0.675915
0.677886
0.677886
0.675915
0.675751
0.676079
0.676572
0.676901
0.677065
0.680679
0.676737
0.680843
0.678872
0.677722
0.678379
0.679201
0.675587
0.676408
0.677229
0.677558
0.677886
0.677558
0.677558
0.678051
0.678379
0.678543
0.677886
0.679858
0.680679
0.681007
0.680022
0.680022
0.680843
0.681172
0.682814
0.682486
0.681993
0.681993
0.682814
0.683143
0.677722
0.677886
0.678543
0.677722
0.677065
0.677722
0.678379
0.675587
0.677558
0.679201
0.680186
0.680843
0.678215
0.675915
0.672958
0.671480
0.667373
0.673123
0.670823
0.670987
0.672137
0.671973
0.672137
0.673944
0.672301
0.672466
0.672630
0.672630
0.673287
0.673944
0.689713
0.673123
0.676901
0.674273
0.674273
0.674765
0.674437
0.675258
0.642077
0.675587
0.674765
0.676737
0.674273
0.675587
0.675751
0.675915
0.675915
0.665895
0.677394
0.676901
0.677229
0.678379
0.678215
0.677886
0.682157
0.677722
0.678051
0.676737
0.676408
0.677229
0.677558
0.696777
0.679036
0.679365
0.678215
0.673944
0.674601
0.674273
0.674601
0.666224
0.675751
0.675094
0.673780
0.674765
0.675422
0.675258
0.676244
0.676737
0.676572
0.677394
0.677229
0.677558
0.677558
0.677722
0.677558
0.686428
0.677394
0.678379
0.677558
0.676572
0.677229
0.678379
0.679365
0.680350
0.677558
0.696941
0.686592
0.687085
0.686921
0.685935
0.685443
0.683800
0.684621
0.685607
0.672794
0.662281
0.664581
0.665567
0.666388
0.666881
0.659982
0.671480
0.669509
0.670330
0.670823
0.669673
0.669673
0.669509
0.674601
0.672958
0.673123
0.672137
0.665238
0.660639
0.651440
0.646183
0.648812
0.645691
0.639284
0.637642
0.637642
0.639120
0.640763
0.638792
0.640598
0.639284
0.645855
0.646183
0.646841
0.648647
0.649633
0.644212
0.652097
0.652261
0.654397
0.655875
0.655875
0.656368
0.656696
0.657518
0.658010
0.658668
0.659325
0.665074
0.653740
0.662117
0.661296
0.670002
0.660803
0.663924
0.664252
0.664252
0.665074
0.663924
0.665402
0.664252
0.665402
0.665402
0.680350
0.675751
0.671973
0.673287
0.669837
0.672466
0.666552
0.669837
0.670987
0.671644
0.671152
0.654397
0.653904
0.653247
0.653575
0.655382
0.661296
0.645198
0.649962
0.649633
0.649962
0.661296
0.665895
0.664910
0.664910
0.665567
0.655218
0.664910
0.659489
0.662774
0.665074
0.665731
0.664252
0.667538
0.667702
0.667866
0.664745
0.664745
0.667702
0.668852
0.669180
0.668523
0.673451
0.666059
0.669509
0.669016
0.668195
0.670659
0.670659
0.669673
0.669673
0.669180
0.673123
0.672137
0.671973
0.672301
0.672137
0.666388
0.673616
0.673287
0.673451
0.674108
0.673944
0.675751
0.674108
0.676737
0.677886
0.666881
0.676079
0.676737
0.677886
0.678543
0.678543
0.677886
0.675751
0.678379
0.676572
0.676079
0.677065
0.677558
0.677065
0.676244
0.676408
0.696284
0.678215
0.678379
0.678872
0.673944
0.674930
0.674930
0.674601
0.676901
0.677229
0.677886
0.672630
0.676079
0.676408
0.676244
0.667373
0.677229
0.676901
0.677065
0.677558
0.677558
0.678215
0.678543
0.670987
0.670823
0.687906
0.670330
0.675915
0.674930
0.674601
0.675094
0.686757
0.672466
0.673123
0.673780
0.673944
0.674108
0.672137
0.677394
0.674765
0.674601
0.674930
0.675258
0.673451
0.676901
0.676244

Kurve 7

0.009660
0.007196
0.009332
0.009496
0.009332
0.009660
0.008510
0.008182
0.008346
0.009003
0.009989
0.009496
0.009496
0.009496
0.009660
0.009496
0.009003
0.010810
0.009660
0.009496
0.009332
0.008346
0.009003
0.009496
-0.019250
-0.028778
-0.031899
-0.029106
-0.026642
-0.026314
-0.022207
0.014752
0.002761
0.017381
0.016231
0.016067
0.015902
0.015902
0.015574
0.015902
0.017709
0.010646
0.010810
0.009660
0.009003
0.009989
0.010646
0.009824
0.028386
0.015738
0.015245
0.015081
0.014752
0.014917
0.015409
0.015245
0.015081
0.014095
0.014424
0.015081
0.014752
0.013767
0.013603
0.012781
0.012945
0.016395
0.014424
0.015574
0.016231
0.015409
0.014752
0.061239
0.012945
0.016888
0.013931
0.013274
0.013438
0.014260
0.013931
0.031836
0.012781
0.012945
0.013110
0.011631
0.011960
0.012617
0.012617
0.012781
0.009332
0.010810
0.011139
0.010810
0.010317
0.010317
-0.012680
0.012288
0.020666
0.020502
0.021487
0.019023
0.018038
0.016724
0.011960
0.014260
0.010974
0.011139
0.011139
0.011467
0.011467
0.011631
0.011303
0.010646
0.010153
0.009167
0.008675
0.008510
0.009003
0.009496
0.010646
0.010317
0.013110
0.013438
0.013603
0.012617
0.012124
0.001940
0.011139
0.010317
0.010482
0.012124
0.011960
0.011960
0.011467
0.045141
0.011467
0.011796
0.007853
0.008675
0.009003
0.009003
0.008675
0.009332
0.013767
0.011796
0.012124
0.011796
0.010810
0.010974
0.011631
-0.035020
-0.025164
-0.026806
-0.025000
-0.021221
-0.020729
0.014917
0.015245
0.014752
0.011467
0.017873
0.012945
0.013274
0.013603
0.013931
0.016559
0.002925
0.007689
0.052533
0.013931
0.013274
0.012945
0.012945
0.012617
0.015574
0.010974
0.012124
0.010646
0.009824
0.010317
0.010482
0.006868
0.010974
0.011960
0.012288
0.013110
0.012288
0.011467
-0.031570
-0.026806
-0.005452
0.014095
0.013438
0.014588
0.014752
0.014588
0.041692
0.047605
0.050069
0.055161
0.010317
0.010317
0.009824
0.009824
0.009660
0.009989
0.009496
0.010153
0.009660
0.009496
0.009332
0.009496
-0.013337
0.009989
0.008839
0.010317
0.010810
0.010153
0.001283
0.013603
0.007196
0.009332
0.008346
0.007196
0.005718
0.006375
0.007361
0.010810
0.009660
0.010317
0.009167
0.012124
0.009989
0.009660
0.009167
0.008346
0.008346
0.035121
0.010482
0.010317
0.010482
0.010153
0.010482
0.010810
0.012124
0.004075
0.006375
0.007525
0.008018
0.007853
0.011139
0.012288
0.024608
0.023787
0.053190
0.069452
0.084565
0.100170
0.113804
0.125959
0.143371
0.155527
0.168175
0.177538
0.189037
0.200371
0.211377
0.222382
0.254414
0.243408
0.253428
0.263613
0.272319
0.281846
0.291866
0.299915
0.308785
0.319298
0.327840
0.335889
0.340652
0.348209
0.357900
0.365949
0.366770
0.375969
0.382211
0.389767
0.396831
0.403073
0.455473
0.413421
0.419006
0.424263
0.429684
0.432312
0.441182
0.444632
0.448574
0.453830
0.456787
0.459251
0.463686
0.469107
0.473706
0.479127
0.486190
0.494075
0.494732
0.498839
0.503274
0.508530
0.510337
0.515594
0.520193
0.522657
0.522821
0.523478
0.529720
0.533006
0.535962
0.542697
0.539576
0.541876
0.544833
0.547625
0.553867
0.552882
0.559452
0.559616
0.560602
0.562737
0.564873
0.566023
0.567830
0.569801
0.572757
0.569801
0.577357
0.578671
0.580314
0.576700
0.584749
0.585734
0.587705
0.590334
0.591812
0.591155
0.593290
0.597069
0.598875
0.600354
0.605610
0.600190
0.602982
0.602982
0.603639
0.604625
0.608896
0.608567
0.608896
0.610045
0.613988
0.612509
0.613331
0.614481
0.614481
0.616123
0.617437
0.619080
0.619080
0.622037
0.614316
0.622694
0.623515
0.624665
0.625815
0.627293
0.624665
0.628607
0.624993
0.626472
0.628114
0.628607
0.631728
0.634028
0.634028
0.634685
0.634685
0.616123
0.617766
0.618259
0.618751
0.621708
0.620558
0.621544
0.622201
0.622529
0.623351
0.625158
0.625650
0.626308
0.627786
0.628279
0.627293
0.628279
0.629100
0.630578
0.631564
0.622037
0.635835
0.630086
0.632221
0.633535
0.633864
0.640598
0.638792
0.639284
0.640106
0.640106
0.640270
0.643062
0.636820
0.639284
0.639941
0.640927
0.643555
0.642405
0.641913
0.642077
0.643227
0.605610
0.647005
0.647826
0.649469
0.649140
0.649469
0.650454
0.651111
0.650783
0.651440
0.652261
0.652261
0.652590
0.653247
0.653247
0.658339
0.652590
0.655875
0.654232
0.655054
0.655546
0.656039
0.657518
0.655546
0.656204
0.654725
0.650126
0.649469
0.650619
0.634849
0.635835
0.637149
0.644705
0.640763
0.645526
0.645362
0.646019
0.646841
0.647498
0.648155
0.640927
0.649469
0.649962
0.649962
0.650619
0.650619
0.651440
0.652097
0.652425
0.650947
0.651768
0.652754
0.652754
0.653247
0.655054
0.654232
0.654397
0.655546
0.655218
0.655218
0.655546
0.655875
0.656039
0.654725
0.647826
0.657025
0.657189
0.657518
0.657846
0.658010
0.658010
0.650290
0.655218
0.651440
0.653411
0.653411
0.653575
0.653740
0.684457
0.655875
0.656532
0.656861
0.637313
0.637806
0.638299
0.639284
0.638956
0.644048
0.641748
0.643884
0.644705
0.644869
0.645362
0.645362
0.633535
0.644048
0.645526
0.646841
0.647005
0.647990
0.648319
0.648812
0.649140
0.649633
0.649304
0.649962
0.650290
0.651111
0.650783
0.653247
0.698748
0.692670
0.690370
0.665731
0.650454
0.650454
0.650783
0.651440
0.653247
0.651768
0.651768
0.652754
0.652918
0.652918
0.653083
0.653575
0.654889
0.654232
0.654889
0.655382
0.656204
0.656204
0.656204
0.657025
0.652425
0.661131
0.660803
0.659653
0.659489
0.659489
0.659653
0.664088
0.655054
0.658175
0.658996
0.659325
0.659489
0.659489
0.660146
0.665567
0.659160
0.660310
0.658996
0.658996
0.659325
0.659653
0.659489
0.661460
0.660967
0.661789
0.662446
0.662281
0.662610
0.663103
0.663103
0.661789
0.668688
0.667045
0.666552
0.665895
0.665567
0.666059
0.665895
0.663103
0.666224
0.660803
0.660310
0.660967
0.661296
0.661460
0.670659
0.652261
0.646676
0.644869
0.645198
0.644377
0.644212
0.644705
0.646183
0.647662
0.647333
0.647990
0.648319
0.649140
0.649304
0.649797
0.645855
0.663103
0.658503
0.658010
0.658339
0.657353
0.656696
0.656204
0.649962
0.651111
0.651604
0.651604
0.652097
0.652261
0.652754
0.659489
0.657189
0.652425
0.653904
0.654232
0.654561
0.654725
0.654889
0.655875
0.652918
0.655875
0.657189
0.657025
0.657353
0.658339
0.658339
0.658996
0.659489
0.657518
0.659489
0.658996
0.659160
0.659489
0.659489
0.659160
0.660639
0.659160
0.659817
0.660639
0.660803
0.660803
0.640270
0.635506
0.635342
0.635835
0.635999
0.637970
0.638956
0.639613
0.639777
0.640763
0.642405
0.642077
0.644869
0.645198
0.645691
0.646676
0.647005
0.645855
0.646183
0.646841
0.646676
0.646841
0.647662
0.647826
0.650454
0.647662
0.649304
0.650454
0.651111
0.651440
0.652097
0.652754
0.653247
0.654561
0.654232
0.653904
0.654889
0.655054
0.655054
0.653411
0.655875
0.655382
0.659325
0.653575
0.656204
0.656368
0.656861
0.657353
0.653740
0.659982
0.658996
0.658832
0.654561
0.652425
0.652425
0.656368
0.653740
0.655054
0.656039
0.656368
0.656696
0.659653
0.649304
0.649797
0.651440
0.655875
0.660639
0.659489
0.659489
0.660146
0.655218
0.659160
0.659325
0.657846
0.665731
0.662117
0.662446
0.662938
0.663431
0.663595
0.662446
0.661789
0.662281
0.662774
0.662774
0.663103
0.667045
0.663103
0.663595
0.664910
0.664745
0.664910
0.669016
0.663103
0.667702
0.666552
0.665402
0.667538
0.667373
0.667209
0.666716
0.648155
0.666388
0.666881
0.667702
0.665402
0.666716
0.667538
0.668031
0.667866
0.668359
0.666881
0.667866
0.668688
0.667866
0.667702
0.667373
0.678379
0.661296
0.661131
0.661296
0.661460
0.661624
0.664088
0.662610
0.661460
0.661624
0.666716
0.663267
0.662610
0.649633
0.641748
0.642077
0.643884
0.644048
0.644869
0.645526
0.647333
0.643884
0.645526
0.646183
0.646841
0.642405
0.655711
0.650947
0.651768
0.652425
0.652590
0.652754
0.650783
0.651933
0.652097
0.652590
0.653247
0.653083
0.642898
0.638792
0.638792
0.643227
0.639449
0.640434
0.639941
0.639449
0.640270
0.638135
0.637149
0.636656
0.637970
0.621380
0.620230
0.612674
0.615630
0.618094
0.617930
0.623515
0.620230
0.624501
0.626308
0.627293
0.628114
0.630907
0.631071
0.631564
0.632385
0.634521
0.634192
0.635671
0.636328
0.636492
0.637970
0.638463
0.640598
0.638956
0.639120
0.640598
0.640927
0.644377
0.645198
0.646348
0.647333
0.644377
0.648319
0.650126
0.651768
0.653083
0.651276
0.651276
0.651768
0.652918
0.653904
0.653740
0.657189
0.654561
0.659653
0.659160
0.661296
0.644212
0.650619
0.650126
0.649469
0.650783
0.669016
0.659489
0.659653
0.659653
0.660310
0.648812
0.661460
0.661460
0.661131
0.662610
0.662610
0.661131
0.661789
0.663103
0.663267
0.661460
0.661953
0.660639
0.659325
0.660146
0.659982
0.670002
0.661296
0.662117
0.662281
0.666388
0.654725
0.658175
0.658668
0.658010
0.658503
0.665895
0.664581
0.664417
0.665074
0.664417
0.665238
0.666059
0.664581
0.665074
0.665567
0.665567
0.665731
0.667045
0.665895
0.666388
0.661789
0.670495
0.665074
0.666224
0.667373
0.667209
0.667209
0.672301
0.666059
0.665074
0.667702
0.669180
0.666881
0.666881
0.666716
0.666716
0.693984
0.659489
0.664581
0.663595
0.663595
0.664252
0.668359
0.669016
0.669509
0.669837
0.669673
0.669345
0.665731
0.675094
0.670987
0.663924
0.680186
0.675422
0.676244
0.676901
0.677229
0.676244
0.672630
0.670330
0.670166
0.667045
0.671809
0.670166
0.670166
0.670166
0.670495
0.672958
0.711889
0.712875
0.709754
0.708111
0.668359
0.664745
0.668688
0.668031
0.667702
0.668195
0.668031
0.667373
0.661460
0.665074
0.664910
0.668195
0.668852
0.667702
0.667045
0.664417
0.660639
0.671152
0.649140
0.652918
0.649797
0.650126
0.650947
0.651276
0.651933
0.652754
0.661296
0.651768
0.657025
0.656532
0.656204
0.656696
0.658010
0.657189
0.656861
0.657518
0.658175
0.658503
0.658996
0.659160
0.659817
0.659489
0.661789
0.656861
0.658832
0.660146
0.658668
0.658996
0.659653
0.706961
0.731929
0.661624
0.661460
0.661789
0.662117
0.662281
0.662774
0.672958
0.662281
0.663760
0.663924
0.663760
0.664417
0.664745
0.660146
0.665402
0.666059
0.666388
0.667045
0.667538
0.666881
0.667045
0.667702
0.667373
0.667373
0.670987
0.671316
0.671644
0.670987
0.671316
0.670659
0.670659
0.669509
0.669016
0.668688
0.669673
0.670002
0.669837
0.671644
0.665402
0.665402
0.664417
0.664417
0.664417
0.665567
0.657518
0.671973
0.668359
0.669673
0.670823
0.670495
0.669673
0.670002
0.660146
0.672137
0.672794
0.670987
0.653904
0.655218
0.654889
0.654561
0.665238
0.654889
0.657025
0.656861
0.656204
0.657025
0.658175
0.658668
0.658668
0.659817
0.660967
0.660146
0.660146
0.660474
0.661296
0.662117
0.661131
0.662610
0.664581
0.665074
0.665567
0.664910
0.658832
0.659653
0.654397
0.660310
0.660967
0.660639
0.661131
0.661460
0.661296
0.663431
0.661953
0.663431
0.663267
0.662446
0.663103
0.664252
0.664745
0.664417
0.690042
0.666388
0.666388
0.666552
0.667045
0.667702
0.668852
0.654889
0.667702
0.667209
0.667866
0.668852
0.668688
0.668852
0.669016
0.647662
0.669673
0.669837
0.670495
0.670659
0.670659
0.670330
0.673616
0.694970
0.670823
0.671316
0.671644
0.671152
0.672137
0.672301
0.672301
0.674765
0.672630
0.677065
0.677394
0.676244
0.676572
0.677394
0.677229
0.673123
0.672794
0.673287
0.674273
0.673944
0.672958
0.673123
0.632550
0.610867
0.675587
0.676572
0.677722
0.678543
0.676737
0.666059
0.663103
0.665402
0.664745
0.664252
0.664088
0.664417
0.664745
0.665402
0.670330
0.665895
0.666552
0.667045
0.667209
0.667702
0.668688
0.669345
0.669180
0.665567
0.667538
0.668359
0.668359
0.667866
0.668031
0.669673
0.670823
0.672137
0.671316
0.671809
0.672137
0.671973
0.672630
0.680350
0.670659
0.672630
0.673123
0.673287
0.672794
0.673780
0.673451
0.673780
0.723716
0.711725
0.671316
0.671316
0.671152
0.672137
0.672630
0.671809
0.668031
0.668688
0.669345
0.669673
0.669345
0.669180

Kurve 8

0.008346
0.008182
0.008346
-0.002167
0.013110
0.008018
0.008675
0.008675
0.008675
0.010974
0.009989
0.010317
0.009660
0.009332
0.008510
0.008510
0.008675
0.008346
0.009496
0.007689
0.013274
0.011303
0.011467
0.011796
0.011139
0.007853
0.014424
0.012945
0.012781
-0.020236
0.008510
0.008510
0.008839
0.008839
0.008839
0.009332
0.008510
0.011139
0.011467
0.011139
0.054669
0.008675
0.009167
0.008675
0.007853
0.013603
0.007525
0.008182
0.006703
0.006211
0.008018
0.008839
0.008675
0.008510
0.008510
0.009003
0.005554
0.009003
0.009824
0.010317
0.003090
0.013110
0.011303
0.011631
0.011796
0.011139
0.008675
0.008182
0.009496
0.009824
0.009824
0.019023
0.008182
0.009332
0.009824
0.009003
0.009003
0.012124
0.009332
0.009332
0.008839
0.011960
0.010646
0.009332
0.009496
0.009660
0.010153
0.005718
0.017052
0.010317
0.010317
0.010974
0.009496
0.009989
0.009989
0.010153
0.009824
0.008018
0.009989
0.011631
0.010482
0.010646
0.010153
0.009660
0.011960
0.009332
0.008839
0.008675
0.009332
0.011796
0.009824
0.009332
0.012453
0.009332
0.008510
0.008182
0.008018
0.008182
0.008675
0.009660
0.009167
0.006211
0.015574
0.011796
0.012945
0.013438
0.013274
0.012945
0.002433
0.010153
0.009824
0.009332
0.009989
0.009989
0.011139
0.009989
0.009660
0.009496
0.009824
0.009824
0.010317
0.009167
0.009660
0.013110
0.008346
0.009989
0.009167
0.008018
0.008182
0.008346
0.006703
0.009660
0.007361
0.014095
0.010810
0.010810
0.011139
0.011139
0.010646
-0.008573
0.009989
0.009332
0.010153
0.010646
0.010153
0.019680
0.007689
0.014095
0.010646
0.009003
0.009660
0.009989
0.011796
0.007853
0.015081
0.008510
0.008839
0.009660
0.009003
0.009003
0.009003
0.000954
0.010317
0.007689
0.008675
0.008510
0.009332
0.009003
0.008839
0.008675
-0.008902
0.009989
0.010153
0.010810
0.011631
0.011467
0.010482
0.009824
0.010153
0.009003
0.008675
0.008346
0.009167
0.009660
0.012124
0.009496
0.008839
0.011960
0.009003
0.009496
0.010153
0.009989
0.009989
0.010646
0.009496
0.009496
0.009660
0.009660
0.009332
0.008839
0.009167
-0.010380
0.010317
0.006703
0.007361
0.008346
0.008182
0.007689
0.037585
0.010153
0.009989
0.010317
0.009496
0.009824
0.010482
0.009989
0.011467
0.010646
0.011467
0.009003
0.008839
0.009167
0.010153
0.010153
0.005882
0.010974
0.009660
0.010646
0.011960
0.011631
0.010810
0.021651
0.030850
0.053354
0.067481
0.081772
0.097706
0.110847
0.124809
0.139757
0.150763
0.164069
0.175567
0.187723
0.199221
0.210391
0.221725
0.231910
0.242751
0.257042
0.266898
0.275275
0.283653
0.293344
0.302543
0.300572
0.318805
0.324062
0.332439
0.342131
0.349358
0.355600
0.362992
0.370220
0.376626
0.383033
0.389275
0.396666
0.403237
0.408001
0.414078
0.424756
0.425905
0.430833
0.436418
0.441839
0.447588
0.453173
0.457773
0.465493
0.465657
0.470750
0.475020
0.479291
0.484055
0.487833
0.487340
0.478470
0.483562
0.489476
0.494568
0.498674
0.501467
0.504916
0.509352
0.510830
0.512637
0.516251
0.519372
0.523150
0.525942
0.528570
0.543847
0.536619
0.543518
0.543683
0.545654
0.548939
0.551239
0.553867
0.556988
0.560766
0.549268
0.553539
0.555674
0.557809
0.560930
0.552224
0.574893
0.582449
0.587541
0.591648
0.593619
0.594605
0.595097
0.596411
0.563723
0.590827
0.586556
0.589184
0.591484
0.592962
0.593290
0.612509
0.590169
0.600682
0.602325
0.602982
0.604625
0.606432
0.607746
0.609060
0.613988
0.609881
0.611524
0.612838
0.614316
0.615630
0.615138
0.618094
0.615630
0.619737
0.619901
0.620887
0.621544
0.616123
0.614481
0.615466
0.616123
0.618094
0.620065
0.620394
0.621051
0.600518
0.601668
0.601996
0.604460
0.606267
0.607089
0.608731
0.611195
0.611359
0.604625
0.604296
0.612674
0.614973
0.614645
0.615630
0.616780
0.617930
0.619901
0.620558
0.620887
0.622858
0.623679
0.624665
0.625486
0.626143
0.627129
0.626800
0.627950
0.629593
0.630086
0.631235
0.631564
0.631728
0.632878
0.635506
0.634356
0.634521
0.635014
0.636492
0.660639
0.637642
0.640763
0.640598
0.639941
0.640106
0.640598
0.640927
0.641913
0.641913
0.640106
0.639941
0.644869
0.644541
0.645198
0.645855
0.646676
0.647005
0.640106
0.647169
0.647662
0.647990
0.648319
0.648483
0.649140
0.649469
0.652425
0.651933
0.652261
0.652590
0.652754
0.652918
0.650947
0.649633
0.638299
0.631564
0.638299
0.637642
0.637313
0.626636
0.621380
0.621544
0.620394
0.601011
0.614481
0.605939
0.606924
0.608074
0.608896
0.609553
0.613002
0.613166
0.613331
0.607417
0.607746
0.608896
0.612017
0.611031
0.611524
0.612181
0.612674
0.614316
0.616616
0.607746
0.608731
0.610374
0.618423
0.622201
0.619901
0.621544
0.622529
0.618094
0.625322
0.626308
0.626800
0.625486
0.629429
0.630578
0.631400
0.632221
0.632878
0.632714
0.634028
0.635999
0.635835
0.636820
0.637313
0.644048
0.638792
0.639613
0.641091
0.641584
0.642241
0.641584
0.647498
0.646019
0.647005
0.647169
0.638956
0.642898
0.643227
0.638627
0.628443
0.627457
0.628443
0.629593
0.630578
0.631728
0.632385
0.635178
0.635506
0.636163
0.632057
0.637970
0.639120
0.639284
0.640270
0.640927
0.642405
0.641584
0.629100
0.628114
0.629100
0.634849
0.621215
0.625815
0.630250
0.630414
0.637970
0.618259
0.619737
0.620394
0.621544
0.623187
0.630907
0.631564
0.633042
0.634356
0.634685
0.640598
0.638956
0.641584
0.642405
0.627293
0.641256
0.641584
0.642077
0.643719
0.644212
0.644541
0.645362
0.646512
0.645855
0.647498
0.649962
0.649469
0.648319
0.649140
0.649962
0.651933
0.649797
0.654889
0.653575
0.654068
0.654889
0.653247
0.655546
0.657189
0.657189
0.657518
0.627129
0.626143
0.624336
0.628279
0.630907
0.663103
0.658503
0.660474
0.660639
0.660967
0.661296
0.666716
0.665402
0.668523
0.668523
0.665238
0.662610
0.665895
0.666059
0.666388
0.666552
0.666059
0.667866
0.665238
0.666224
0.666552
0.660474
0.674930
0.670330
0.670987
0.671316
0.671152
0.666716
0.668688
0.668852
0.668523
0.668523
0.668523
0.669509
0.669180
0.669345
0.670002
0.686428
0.669673
0.672958
0.672301
0.670330
0.671316
0.671480
0.671809
0.671644
0.671973
0.673123
0.674273
0.675094
0.676079
0.676408
0.675587
0.673451
0.672794
0.672794
0.672466
0.672794
0.672794
0.673287
0.672958
0.673451
0.663924
0.679529
0.676901
0.676737
0.676901
0.676572
0.676901
0.674437
0.673944
0.696120
0.673287
0.674273
0.674108
0.674273
0.674601
0.674273
0.677065
0.674765
0.674273
0.674765
0.675258
0.674930
0.674273
0.674930
0.676737
0.676737
0.676901
0.676572
0.677065
0.677065
0.673616
0.642570
0.677065
0.676737
0.676737
0.677065
0.677065
0.677229
0.656861
0.656532
0.658503
0.658010
0.658175
0.659325
0.659817
0.660146
0.660803
0.664417
0.661789
0.662117
0.662938
0.663103
0.663267
0.652590
0.670002
0.665402
0.665895
0.666552
0.667045
0.667209
0.658503
0.667373
0.662774
0.669016
0.667702
0.669180
0.666552
0.655875
0.648155
0.652754
0.645691
0.649797
0.648812
0.648647
0.649304
0.649962
0.650783
0.651768
0.664252
0.652097
0.656039
0.657189
0.657189
0.658010
0.658010
0.656861
0.657189
0.658339
0.657682
0.654889
0.655711
0.655875
0.654232
0.658503
0.658503
0.658339
0.659982
0.660639
0.660967
0.661131
0.661789
0.660474
0.661131
0.660967
0.654561
0.654725
0.655711
0.656368
0.656861
0.659325
0.658010
0.658503
0.659160
0.659653
0.659982
0.660474
0.653247
0.661953
0.662117
0.662446
0.662938
0.663431
0.663760
0.664088
0.664745
0.665567
0.662938
0.665567
0.665731
0.666224
0.666716
0.666881
0.695955
0.666552
0.667538
0.668523
0.668523
0.668359
0.668852
0.669016
0.678215
0.663431
0.671809
0.671152
0.670166
0.670659
0.671809
0.670002
0.671316
0.670659
0.671152
0.671644
0.672137
0.671809
0.672137
0.672466
0.673451
0.666059
0.668523
0.668359
0.668359
0.668688
0.668688
0.715503
0.673123
0.673780
0.673944
0.674273
0.674437
0.675258
0.675587
0.679036
0.674108
0.674437
0.674273
0.674437
0.674437
0.675094
0.675422
0.671152
0.673944
0.675751
0.675587
0.676079
0.675915
0.675587
0.675258
0.669016
0.674108
0.674273
0.673616
0.673780
0.673451
0.673780
0.681172
0.674437
0.676408
0.675094
0.674273
0.674601
0.675258
0.675258
0.674930
0.674108
0.680186
0.656696
0.656696
0.657189
0.658668
0.659653
0.652097
0.656368
0.657025
0.657682
0.658175
0.658832
0.659325
0.659982
0.657353
0.659653
0.660967
0.662446
0.663760
0.664417
0.664417
0.694970
0.707782
0.663924
0.664417
0.665238
0.665402
0.666388
0.666716
0.666881
0.678708
0.667538
0.667866
0.668031
0.667373
0.668195
0.642077
0.638463
0.644048
0.644869
0.645691
0.646676
0.647333
0.647990
0.648812
0.650947
0.642241
0.656532
0.650619
0.652261
0.652425
0.651111
0.667702
0.650454
0.653247
0.649469
0.654068
0.653904
0.654232
0.655546
0.655711
0.661296
0.697105
0.698091
0.695627
0.693491
0.692834
0.692834
0.656696
0.655546
0.655218
0.656039
0.657518
0.657846
0.658010
0.653411
0.623679
0.624829
0.662281
0.662117
0.664581
0.665402
0.665074
0.666224
0.663760
0.665731
0.666552
0.669016
0.668195
0.668688
0.669180
0.669509
0.669509
0.669837
0.669016
0.669016
0.669180
0.669345
0.670166
0.670823
0.670659
0.670495
0.671316
0.671644
0.657189
0.653740
0.619080
0.656039
0.657189
0.657189
0.658175
0.658996
0.659817
0.660967
0.660967
0.665895
0.661624
0.662117
0.661624
0.663431
0.663760
0.663431
0.663760
0.664417
0.667702
0.665895
0.665895
0.666388
0.666552
0.667209
0.668031
0.667209
0.668031
0.669509
0.670166
0.670823
0.670495
0.668688
0.670330
0.671316
0.666881
0.676244
0.669509
0.670823
0.672137
0.672794
0.673616
0.673616
0.673616
0.675587
0.673287
0.675751
0.675094
0.674601
0.674930
0.682486
0.674765
0.675751
0.675751
0.675422
0.675751
0.676737
0.672794
0.676079
0.674273
0.675094
0.675587
0.675587
0.678051
0.677558
0.677722
0.678543
0.662610
0.659817
0.662610
0.663595
0.664252
0.667045
0.660967
0.659160
0.653411
0.651440
0.639941
0.643062
0.643555
0.643555
0.644541
0.650290
0.651440
0.651768
0.651933
0.652425
0.653575
0.648483
0.654397
0.655382
0.655875
0.657189
0.647498
0.657846
0.657846
0.658503
0.658832
0.658339
0.658832
0.661296
0.662446
0.663103
0.685607
0.660967
0.662117
0.662610
0.662938
0.663103
0.664417
0.664581
0.664252
0.662774
0.665731
0.664417
0.662610
0.662774
0.662610
0.663924
0.649633
0.667045
0.667538
0.667702
0.669345
0.635178
0.669345
0.670987
0.672630
0.673780
0.634685
0.671152
0.671480
0.671809
0.672301
0.672137
0.672794
0.670495
0.669837
0.670166
0.685771
0.673451
0.674601
0.674437
0.674601
0.677065
0.675258
0.675422
0.675587
0.674601
0.674437
0.673287
0.625650
0.632385
0.635506
0.675751
0.674601
0.677886
0.675751
0.676737
0.677558
0.662610
0.677722
0.677886
0.679693
0.680679
0.680022
0.677722
0.677065
0.676244
0.676408
0.676572
0.685443
0.675915
0.676408
0.676244
0.677886
0.676244
0.677229
0.677394
0.677065
0.677394
0.677886
0.674437
0.668523
0.669673
0.670166
0.670659
0.670166
0.670823
0.669016
0.669345
0.669673
0.670987
0.667702
0.671644
0.672630
0.671480
0.676572
0.669016
0.673287
0.672958
0.672301
0.672958
0.673944
0.672137
0.673287
0.672794
0.674108
0.674601
0.655546
0.655218
0.655382
0.656696
0.649797
0.669180
0.664088
0.661460
0.629264
0.631235
0.635671
0.639284
0.662281
0.661789
0.663267
0.663595
0.664252
0.664581
0.665074
0.668523
0.664252
0.665895
0.664745
0.664581
0.664910
0.666224
0.666716
0.667373
0.667866
0.668523
0.660474
0.662117
0.662610
0.661460
0.660967
0.660146
0.661131
0.652754
0.651604
0.654889
0.655218
0.656039
0.657189
0.653904
0.643555
0.599532
0.611031
0.610538
0.612181
0.613659
0.649304
0.650619
0.643062
0.644541
0.644869
0.645526
0.647005
0.655218
0.654725
0.656861
0.661296
0.658339
0.658010
0.659325
0.659325
0.659817
0.660803
0.660639
0.661460
0.660967
0.661953
0.662117
0.662446

Kurve 9

0.008182
0.008346
0.004732
0.009003
-0.025492
0.008675
0.009003
0.008675
0.008675
0.008346
0.031343
0.008182
0.010646
0.007032
0.010810
0.010646
0.009824
0.009660
0.009496
0.017709
0.007525
0.008182
0.008018
0.008018
0.007853
0.008018
0.006046
0.008675
0.003747
0.005061
0.006046
0.005718
0.004732
-0.026478
0.006375
0.006703
0.007525
0.006211
0.006211
0.006703
0.006539
0.012781
0.006375
0.007361
0.008018
0.007853
0.007196
0.007525
0.007525
0.007689
0.007689
0.008346
0.008675
0.007361
0.008182
0.008346
0.008182
0.006211
0.009496
0.008510
0.008675
0.009167
0.009167
0.008510
0.005389
0.009003
0.008182
0.007853
0.009003
0.010974
0.010810
0.011467
0.010810
0.007196
0.002761
0.001776
0.008510
0.009332
0.009660
0.008839
0.008510
0.008510
0.013931
0.009496
0.009167
0.009003
0.009332
0.009660
0.009660
0.010317
0.008839
0.009660
0.009989
0.009989
0.009660
0.010153
0.016231
0.016724
-0.015144
0.009660
0.010482
0.010974
0.011960
0.010974
0.010153
0.010317
0.009824
0.026908
0.009660
0.009496
0.009824
0.009167
0.009167
0.022801
0.047112
0.048098
0.044977
0.006868
0.006868
0.007196
0.003747
0.006211
0.006539
0.006703
0.006539
0.006211
0.008182
0.006539
0.006868
0.007032
0.008675
0.004897
0.007196
0.007853
0.007525
0.008839
0.007196
0.006375
0.006868
0.009660
0.007196
0.006868
0.007196
0.006868
0.007525
0.006046
0.009989
0.007853
0.007361
0.007853
0.008182
0.003582
0.007032
0.008182
0.007361
0.008346
0.003090
0.007853
0.008346
0.010153
0.010974
0.007689
0.007196
0.008018
0.007853
0.007525
0.032329
0.005389
0.011960
0.010317
0.009332
0.008675
0.009824
0.009167
0.008675
0.007853
0.008675
0.008675
0.010317
0.009824
0.008839
0.009496
0.002433
0.014588
0.007525
0.007853
0.008839
0.006703
0.016888
0.014588
0.015081
0.015738
0.004239
0.007361
0.006046
0.006703
0.007361
0.007853
0.046948
0.045306
0.006539
0.005554
0.005554
0.004568
0.007361
0.005061
0.004568
0.010153
0.002597
0.005554
0.005225
0.004075
0.004897
0.005061
0.006211
0.005061
0.005389
0.005554
0.003090
0.004897
0.006539
0.007525
0.008018
-0.011530
0.006703
0.006539
0.006375
0.007525
0.006868
0.007196
0.007525
0.007361
0.008346
0.009003
0.010317
0.009167
0.009332
0.008839
0.011796
0.004568
0.006375
0.005061
0.003747
0.003911
0.004732
0.008018
0.018038
0.016231
0.015081
0.009824
0.008018
0.019516
0.036271
0.052205
0.067317
0.081608
0.095570
0.109861
0.123660
0.136965
0.152899
0.157005
0.174089
0.185423
0.196429
0.207763
0.222382
0.231745
0.241437
0.251293
0.260820
0.271497
0.280203
0.288416
0.296794
0.306321
0.312235
0.325704
0.328168
0.334903
0.347880
0.352479
0.360364
0.368577
0.375641
0.381883
0.389932
0.394367
0.402087
0.408165
0.413914
0.426070
0.465329
0.471242
0.472885
0.439047
0.444303
0.449888
0.453502
0.458594
0.463358
0.468778
0.472556
0.476170
0.480441
0.484548
0.488654
0.492761
0.455473
0.461222
0.503438
0.509187
0.512965
0.516579
0.520686
0.523314
0.512801
0.514608
0.529392
0.531363
0.533991
0.536784
0.538919
0.534648
0.537605
0.538098
0.541219
0.543683
0.546475
0.551239
0.549596
0.556003
0.562080
0.550746
0.555674
0.558302
0.559945
0.562245
0.564873
0.572922
0.575057
0.577193
0.579164
0.581628
0.583270
0.584913
0.586556
0.588034
0.589020
0.591648
0.594276
0.595754
0.597397
0.598875
0.603475
0.600682
0.602818
0.603475
0.603803
0.605610
0.607253
0.612838
0.602982
0.624993
0.609388
0.613495
0.614316
0.601832
0.603475
0.604953
0.603146
0.608403
0.610210
0.608896
0.610867
0.612345
0.612838
0.613659
0.614973
0.604953
0.616944
0.616287
0.617273
0.618587
0.619080
0.623351
0.622037
0.623351
0.624336
0.624501
0.624993
0.625650
0.626308
0.628114
0.629100
0.612017
0.613988
0.614973
0.614973
0.616452
0.617766
0.618916
0.615302
0.622201
0.621544
0.624993
0.626636
0.626800
0.627457
0.628771
0.623022
0.627457
0.628936
0.629264
0.630578
0.631235
0.631564
0.635014
0.634849
0.634192
0.635014
0.635178
0.636492
0.637642
0.638135
0.640270
0.639449
0.640270
0.640927
0.641584
0.642405
0.644048
0.644212
0.641748
0.644541
0.645362
0.646512
0.647826
0.647990
0.647169
0.647990
0.645034
0.648319
0.648812
0.649140
0.650290
0.646841
0.646676
0.656368
0.647333
0.648319
0.648976
0.649304
0.649797
0.650454
0.650783
0.651276
0.648319
0.652261
0.651604
0.651933
0.651604
0.652425
0.653247
0.645034
0.653083
0.654068
0.653740
0.654397
0.654397
0.654725
0.655218
0.648976
0.663760
0.653247
0.654068
0.655218
0.655382
0.654889
0.655382
0.660474
0.658668
0.657025
0.657518
0.657682
0.658668
0.659653
0.659325
0.661460
0.660803
0.662446
0.661131
0.660967
0.661953
0.662610
0.658010
0.655054
0.662117
0.663924
0.665567
0.665074
0.664417
0.664745
0.663595
0.670166
0.667866
0.669180
0.669345
0.669509
0.668852
0.669016
0.666552
0.665238
0.665238
0.665238
0.665402
0.665895
0.666552
0.666881
0.665402
0.666224
0.671644
0.669016
0.668195
0.669016
0.669016
0.664417
0.660639
0.668852
0.668359
0.668688
0.668852
0.669016
0.669509
0.669180
0.665895
0.668359
0.667702
0.667045
0.666552
0.666059
0.665895
0.696941
0.668031
0.667702
0.668031
0.668195
0.667702
0.666552
0.683636
0.658339
0.658339
0.655875
0.652590
0.652425
0.651768
0.651276
0.635671
0.652097
0.649797
0.652425
0.652097
0.652754
0.653247
0.654068
0.654232
0.631400
0.655382
0.656039
0.656532
0.657025
0.657189
0.657846
0.662117
0.652918
0.658832
0.658996
0.658668
0.659489
0.659817
0.679201
0.660474
0.662938
0.654232
0.656204
0.655382
0.655546
0.656368
0.646676
0.664088
0.664088
0.663760
0.662774
0.665238
0.665238
0.664910
0.664745
0.665074
0.665238
0.665238
0.665074
0.665731
0.665567
0.665238
0.677394
0.665567
0.666716
0.667209
0.667702
0.667538
0.668031
0.668359
0.669509
0.670659
0.667702
0.671480
0.670330
0.670659
0.670659
0.670659
0.669345
0.649140
0.647662
0.651768
0.651933
0.652754
0.653411
0.653904
0.654561
0.653247
0.655054
0.656368
0.656368
0.655218
0.654232
0.651276
0.642405
0.633535
0.630578
0.630743
0.631564
0.632221
0.676737
0.668852
0.666881
0.641420
0.641420
0.644377
0.645198
0.644212
0.644048
0.644705
0.644212
0.645691
0.643884
0.647662
0.644377
0.645362
0.646348
0.647005
0.636820
0.650783
0.651604
0.652097
0.652754
0.653247
0.653740
0.654397
0.657189
0.657189
0.657846
0.658175
0.667045
0.656368
0.657353
0.656368
0.673123
0.657846
0.658832
0.659489
0.659653
0.659982
0.614316
0.660967
0.661953
0.662446
0.662281
0.661953
0.661953
0.662117
0.662938
0.662774
0.666388
0.646183
0.648812
0.649140
0.650126
0.650619
0.696777
0.667538
0.650783
0.652261
0.652918
0.656532
0.653904
0.658668
0.658668
0.658996
0.656039
0.657025
0.657353
0.658175
0.659160
0.655218
0.659653
0.659982
0.659817
0.660639
0.663267
0.661296
0.663760
0.664252
0.664252
0.663267
0.663267
0.664581
0.664745
0.665238
0.665238
0.694641
0.665402
0.665731
0.666388
0.666552
0.667702
0.667373
0.667209
0.668195
0.667866
0.670166
0.668523
0.668523
0.669673
0.669673
0.663760
0.671152
0.667866
0.670330
0.669673
0.647662
0.664745
0.664417
0.665238
0.665731
0.663595
0.666388
0.665074
0.665402
0.666059
0.666224
0.668031
0.667373
0.669509
0.667702
0.668195
0.669016
0.671809
0.670659
0.671480
0.671644
0.704826
0.670330
0.670659
0.671152
0.669016
0.669016
0.669837
0.669509
0.670495
0.670330
0.670659
0.668688
0.671644
0.671809
0.672137
0.657025
0.672630
0.672958
0.672794
0.673287
0.673451
0.673780
0.672466
0.674930
0.674108
0.687414
0.672301
0.675915
0.674601
0.674765
0.674930
0.679693
0.673616
0.675258
0.675751
0.675587
0.675751
0.673616
0.674765
0.673451
0.673287
0.673451
0.673780
0.677229
0.676572
0.677065
0.677394
0.679693
0.678543
0.679036
0.679365
0.679365
0.679529
0.689549
0.676572
0.669509
0.675258
0.670659
0.670987
0.671316
0.671973
0.672137
0.672630
0.672137
0.673780
0.673780
0.673944
0.674437
0.667538
0.675915
0.675258
0.675258
0.675094
0.675751
0.676079
0.678543
0.678708
0.680515
0.634685
0.646348
0.678543
0.678708
0.678543
0.678872
0.693163
0.678543
0.680186
0.682814
0.680186
0.679693
0.679365
0.679036
0.679529
0.679693
0.734557
0.721745
0.719609
0.718131
0.713203
0.665567
0.662938
0.659489
0.660803
0.661789
0.661953
0.662117
0.656532
0.665895
0.666388
0.658175
0.670987
0.670330
0.669509
0.669673
0.669837
0.669837
0.666059
0.667866
0.667702
0.669016
0.667209
0.667866
0.667045
0.666388
0.666716
0.719938
0.710739
0.709261
0.707947
0.706304
0.664581
0.663267
0.664417
0.662117
0.662774
0.664252
0.663924
0.664581
0.663924
0.668031
0.666716
0.668031
0.666552
0.667538
0.668359
0.668852
0.669180
0.673123
0.671644
0.670002
0.671973
0.672301
0.671809
0.672794
0.673123
0.673287
0.673780
0.674108
0.672466
0.672466
0.672630
0.673944
0.659817
0.675587
0.670495
0.672301
0.673616
0.673944
0.673287
0.673451
0.676901
0.672466
0.685278
0.681172
0.682322
0.682979
0.682322
0.682322
0.693491
0.683471
0.674930
0.678708
0.677065
0.676244
0.677065
0.677558
0.677229
0.679693
0.678872
0.678872
0.678543
0.679036
0.679201
0.680022
0.678215
0.678051
0.679858
0.680515
0.680679
0.680022
0.679529
0.680022
0.676244
0.685607
0.684128
0.686428
0.687085
0.686428
0.685443
0.685278
0.680350
0.679693
0.678872
0.677558
0.677394
0.677886
0.678215
0.677558
0.713696
0.678543
0.678379
0.678708
0.678215
0.678872
0.679529
0.656039
0.679201
0.679036
0.679201
0.679365
0.679365
0.678543
0.679036
0.663760
0.680679
0.680186
0.680186
0.680350
0.680186
0.679693
0.679365
0.682486
0.681007
0.680515
0.680022
0.678872
0.679693
0.680515
0.680186
0.716324
0.681336
0.681172
0.681336
0.680515
0.680843
0.681829
0.681664
0.681336
0.680843
0.681500
0.681007
0.681007
0.680350
0.680022
0.676408
0.675915
0.675258
0.675094
0.667209
0.668359
0.668359
0.667866
0.669509
0.666224
0.665567
0.663595
0.663267
0.664252
0.665731
0.666059
0.675258
0.709261
0.673780
0.671809
0.672137
0.671973
0.672466
0.672301
0.672466
0.669837
0.674930
0.675422
0.676079
0.675422
0.675258
0.675094
0.675751
0.675751
0.675258
0.675915
0.677229
0.677065
0.676737
0.678379
0.679365
0.677229
0.676408
0.675258
0.675422
0.676079
0.676572
0.676572
0.679201
0.679858
0.679693
0.679529
0.679858
0.680350
0.681007
0.660803
0.679858
0.680843
0.680679
0.681007
0.681172
0.681172
0.676244
0.681664
0.680350
0.681172
0.683800
0.684128
0.684293
0.683800
0.721416
0.681336
0.680679
0.680843
0.680350
0.680515
0.681172
0.681664
0.681336
0.722566
0.681829
0.681664
0.681336
0.680843
0.681500
0.682157
0.667702
0.681993
0.682814
0.682650
0.682979
0.682322
0.682322
0.679036
0.683143
0.681500
0.683471
0.683471
0.683636
0.684293
0.684128
0.689221
0.683471
0.688399
0.682814
0.686921
0.685278
0.685114
0.685114
0.685114
0.686428
0.683800
0.684293
0.684128
0.683471
0.684128
0.684293
0.654397
0.684785
0.684457
0.684621
0.685114
0.684785
0.684293
0.684621
0.684621
0.685114
0.685771
0.684293
0.684621
0.684950
0.684621
0.692013
0.684128
0.685607
0.701540
0.684785
0.684785
0.684293
0.683636
0.683964
0.684128
0.688235
0.685771
0.685771
0.685607
0.685771
0.686100
0.684457
0.686264
0.685443
0.685607
0.685771
0.685607
0.684785
0.686428
0.685443
0.687578
0.682979
0.684785
0.681993
0.682157
0.682979
0.683143
0.685278
0.686264
0.685935
0.688071
0.686921
0.687249
0.687085
0.686428
0.686428
0.689056
0.686428
0.686100
0.686264
0.686428
0.686921
0.687578
0.685278
0.686428
0.687249
0.687742
0.687249
0.670330
0.679529
0.679529
0.678872
0.671644
0.679693
0.679529
0.679693
0.679858
0.679858
0.681172
0.681336
0.682322
0.681829
0.680022
0.682157
0.680515
0.680186
0.679858
0.689878
0.681007
0.682157
0.682322
0.682322
0.682814
0.683471
0.681172
0.687414
0.685607
0.686100
0.687085

Kurve 10

0.010974
0.010646
0.010646
-0.021386
0.016559
0.012617
-0.033706
-0.016951
0.013274
0.013603
0.013603
0.013603
0.011631
0.003747
0.015902
0.010317
0.012945
0.011467
0.011303
0.011960
0.011796
0.016888
0.014752
0.014260
0.014260
0.014260
0.014095
0.014260
0.013931
0.009660
0.010646
0.010317
0.010646
0.010974
0.014095
0.014095
0.014260
-0.018593
0.014752
0.014917
0.014917
0.014752
0.014588
0.016559
0.015409
0.013767
0.019845
0.001611
0.005389
0.005389
0.005389
0.005389
0.021323
0.044977
0.045798
0.042842
0.041856
0.040870
0.009989
0.008839
0.009989
0.010482
0.010482
0.010482
0.010317
0.010646
0.009496
0.009332
0.009003
0.008839
0.008675
0.010482
0.011467
0.009824
0.012124
0.009660
0.009003
0.009167
0.010317
0.010974
0.011139
0.010974
0.010482
0.010317
0.008839
0.009496
0.007361
0.008018
0.008346
0.008018
-0.001181
0.009496
0.009496
0.009660
0.009660
0.006703
-0.028778
-0.027792
0.012124
0.012617
0.012288
0.016559
0.016067
0.016559
0.016231
0.043334
0.030850
0.010646
0.010646
0.010317
0.008346
0.010317
0.008346
0.008018
0.008182
0.012124
0.010317
0.009989
0.010153
0.010153
0.010153
0.008675
0.010810
0.007361
0.008839
0.009824
0.005225
0.009989
0.009003
0.010317
0.010810
-0.004959
0.009332
0.009496
0.009824
0.010482
0.010810
0.008675
0.015738
0.013767
0.012945
0.020830
0.000297
0.004732
0.003254
0.002268
0.031179
0.009332
0.009003
0.009496
0.008182
0.008675
0.009167
0.010317
0.009003
0.009332
0.009167
0.002761
0.009003
0.009167
0.009989
0.010646
-0.013994
0.009660
0.009332
0.009167
0.009824
0.009660
0.009824
0.010153
0.009989
0.009496
0.009824
0.014917
0.010317
0.009332
0.009989
0.012617
0.008675
0.010482
0.010153
0.009332
0.010317
0.010646
0.001447
0.009989
0.012124
0.012453
0.010646
0.010482
0.010646
0.010482
0.011303
0.010646
0.016395
0.007689
0.009989
0.011303
0.010646
0.013767
0.010317
0.015245
0.014588
0.013603
0.013274
0.010153
0.010646
0.008018
0.007853
0.009660
0.010317
0.010317
0.009496
0.009496
0.010317
0.007689
0.022473
0.017052
0.016559
0.010810
0.008510
0.009496
0.010317
0.010810
0.010482
0.009660
0.009003
0.009824
0.010153
0.009989
0.022637
0.009660
0.009660
0.009660
0.009332
0.009496
0.009496
0.008675
0.010153
0.008018
0.010482
0.010317
0.009660
0.009660
0.009496
0.009824
0.006539
0.010810
0.009824
0.004075
0.012781
0.021323
0.036271
0.053190
0.068467
0.083251
0.049741
0.074545
0.122017
0.140414
0.153720
0.166040
0.177702
0.189694
0.200535
0.211541
0.221889
0.233224
0.267555
0.254414
0.262791
0.278068
0.277575
0.286281
0.295480
0.304186
0.312563
0.321269
0.329318
0.337039
0.342952
0.358721
0.363649
0.370548
0.376955
0.383854
0.389439
0.391410
0.398966
0.405537
0.411122
0.417199
0.422949
0.431490
0.434119
0.438718
0.443974
0.448902
0.453830
0.458923
0.465165
0.467957
0.474528
0.476499
0.480605
0.484383
0.488162
0.492268
0.496868
0.490954
0.506231
0.508037
0.510994
0.514937
0.518550
0.521179
0.524135
0.527421
0.523314
0.533663
0.536784
0.539740
0.542697
0.545161
0.553703
0.549761
0.553046
0.553539
0.554853
0.557809
0.560602
0.562737
0.567008
0.571936
0.570294
0.577850
0.577850
0.578835
0.580971
0.583270
0.584420
0.591484
0.586720
0.586884
0.589020
0.590827
0.592141
0.593783
0.595426
0.591484
0.598054
0.600025
0.600847
0.603146
0.604132
0.604625
0.609717
0.601339
0.604953
0.605939
0.606924
0.608731
0.610702
0.611852
0.614809
0.615795
0.622201
0.620558
0.620394
0.621872
0.623351
0.624172
0.609388
0.625650
0.623679
0.626636
0.627950
0.627786
0.627950
0.628936
0.625322
0.630578
0.631564
0.624993
0.626636
0.627293
0.626800
0.630414
0.607581
0.608896
0.610374
0.611195
0.612674
0.614481
0.615630
0.625979
0.617109
0.620230
0.619244
0.618751
0.619573
0.621215
0.614316
0.612674
0.617930
0.619244
0.619901
0.622694
0.622694
0.622858
0.624008
0.615138
0.627457
0.621872
0.624172
0.626308
0.627293
0.627293
0.628279
0.633042
0.633535
0.633864
0.634685
0.635506
0.636163
0.637477
0.637642
0.639941
0.639613
0.638627
0.639120
0.638463
0.639777
0.641091
0.637970
0.647826
0.647333
0.650126
0.651604
0.650947
0.650126
0.650290
0.647662
0.646676
0.646348
0.646676
0.647662
0.647990
0.648155
0.647990
0.651440
0.649962
0.648483
0.648319
0.648319
0.649140
0.649469
0.649469
0.661460
0.651933
0.653904
0.651933
0.651440
0.650454
0.651276
0.650619
0.651440
0.653083
0.654232
0.655711
0.656204
0.655711
0.655382
0.656368
0.652918
0.654889
0.655382
0.656039
0.656039
0.656532
0.656861
0.659489
0.656039
0.658503
0.658503
0.657518
0.658339
0.658832
0.658668
0.658339
0.665567
0.659653
0.658668
0.659489
0.659325
0.660474
0.655382
0.664417
0.659489
0.659653
0.661460
0.661296
0.660639
0.661131
0.661460
0.654725
0.665402
0.660474
0.661624
0.662938
0.662610
0.662117
0.678708
0.663431
0.663267
0.662281
0.661789
0.662117
0.663103
0.674930
0.663924
0.665402
0.660474
0.658668
0.654889
0.654232
0.655218
0.647169
0.660639
0.649633
0.654397
0.657189
0.659160
0.659489
0.659653
0.659489
0.659325
0.652918
0.652425
0.652590
0.654068
0.654397
0.653740
0.655875
0.653904
0.658503
0.656696
0.655546
0.655875
0.657189
0.659653
0.657025
0.657518
0.656696
0.660474
0.658832
0.658503
0.659160
0.659653
0.660474
0.659489
0.655382
0.661460
0.661296
0.661460
0.662117
0.662281
0.662281
0.660967
0.661953
0.663924
0.664252
0.664581
0.663924
0.663595
0.663595
0.664581
0.663431
0.663760
0.664417
0.664910
0.666059
0.664910
0.661624
0.665238
0.662938
0.661953
0.663103
0.663431
0.663431
0.663267
0.661953
0.663103
0.653740
0.650126
0.650783
0.650619
0.651440
0.652097
0.648976
0.651440
0.650454
0.649797
0.650454
0.650619
0.650947
0.652590
0.652590
0.651276
0.652261
0.652918
0.653740
0.654068
0.654725
0.654889
0.659160
0.655054
0.656204
0.655711
0.656204
0.656696
0.656368
0.657189
0.657518
0.657353
0.643884
0.659489
0.657025
0.657353
0.657846
0.657846
0.631400
0.659817
0.660474
0.661131
0.661131
0.661624
0.709589
0.698584
0.700555
0.700062
0.697762
0.703347
0.658832
0.663760
0.662774
0.662774
0.678215
0.660639
0.660474
0.661131
0.661624
0.629429
0.668359
0.664252
0.664745
0.650619
0.664417
0.661131
0.663267
0.663760
0.664417
0.665731
0.665074
0.666552
0.666552
0.666552
0.667045
0.672630
0.667209
0.667866
0.668852
0.669180
0.672466
0.667866
0.671973
0.671480
0.671152
0.670823
0.670002
0.668523
0.669673
0.670002
0.664417
0.678379
0.671316
0.672630
0.672466
0.653411
0.671809
0.667702
0.661789
0.662446
0.661460
0.665731
0.666552
0.666552
0.667045
0.667045
0.669016
0.665895
0.669837
0.668852
0.669016
0.670002
0.669345
0.668359
0.669180
0.669509
0.672958
0.669509
0.669673
0.669345
0.669345
0.669509
0.671152
0.670659
0.671316
0.671644
0.671644
0.668523
0.671316
0.674273
0.673944
0.664745
0.673287
0.673451
0.673123
0.673616
0.673944
0.673944
0.674273
0.673287
0.673123
0.673780
0.674108
0.675422
0.673287
0.673944
0.674273
0.685443
0.674437
0.675587
0.675751
0.675258
0.675751
0.673287
0.683143
0.679858
0.678872
0.678708
0.678379
0.677065
0.675587
0.676079
0.675258
0.677229
0.676244
0.676572
0.677065
0.676901
0.677065
0.678543
0.674273
0.678215
0.683471
0.676572
0.677558
0.676079
0.676079
0.676901
0.676901
0.676737
0.680022
0.678379
0.678708
0.679036
0.672794
0.685771
0.681829
0.682650
0.682486
0.682322
0.666059
0.678379
0.678543
0.679529
0.634356
0.644705
0.647169
0.647990
0.649633
0.650947
0.688728
0.680679
0.683800
0.717803
0.714682
0.683964
0.684293
0.683964
0.684785
0.684621
0.684621
0.684457
0.683964
0.683964
0.683800
0.683800
0.685278
0.679693
0.681172
0.681336
0.681336
0.681172
0.680843
0.683800
0.684128
0.682157
0.682650
0.684950
0.684128
0.684293
0.684128
0.684621
0.683143
0.684457
0.694970
0.682979
0.684128
0.684293
0.684128
0.683800
0.683800
0.687414
0.681829
0.683471
0.683471
0.683307
0.683307
0.681500
0.682322
0.683143
0.682157
0.682322
0.682322
0.682157
0.672301
0.684293
0.673780
0.682486
0.682814
0.682650
0.682814
0.682979
0.682979
0.685114
0.682979
0.682322
0.684950
0.683471
0.683964
0.683636
0.683636
0.683471
0.685443
0.682486
0.680679
0.666881
0.665238
0.665895
0.648319
0.667373
0.666716
0.667538
0.667866
0.668031
0.668523
0.669016
0.670495
0.653575
0.663924
0.664745
0.664910
0.666059
0.666224
0.666716
0.681664
0.666388
0.666716
0.667866
0.668195
0.668688
0.668688
0.669345
0.669345
0.671316
0.669509
0.672137
0.672301
0.671973
0.672958
0.673287
0.671644
0.670987
0.672137
0.672466
0.672466
0.672301
0.672301
0.668852
0.669345
0.682650
0.680350
0.681500
0.681664
0.681664
0.681500
0.681500
0.676901
0.673616
0.677394
0.676079
0.675258
0.675751
0.676572
0.676244
0.678051
0.675587
0.675094
0.675587
0.675751
0.676079
0.677065
0.665731
0.677886
0.676737
0.677229
0.677722
0.677722
0.677229
0.677394
0.668852
0.678379
0.677722
0.678051
0.678215
0.678051
0.678379
0.678543
0.682814
0.679693
0.678543
0.679036
0.677886
0.678215
0.679036
0.679036
0.701869
0.679365
0.679529
0.679529
0.679858
0.680022
0.680679
0.677886
0.681172
0.678708
0.681172
0.681172
0.681336
0.680679
0.680515
0.680843
0.680515
0.680022
0.681336
0.681664
0.681500
0.681007
0.680679
0.708932
0.681336
0.681829
0.681500
0.681007
0.681664
0.682814
0.682157
0.699569
0.681500
0.681829
0.681993
0.681664
0.682157
0.682650
0.683143
0.677229
0.682157
0.684293
0.684128
0.684785
0.683964
0.683636
0.683964
0.638956
0.683800
0.683800
0.683964
0.684128
0.683471
0.682814
0.692013
0.685443
0.681500
0.683964
0.683143
0.682322
0.683471
0.677558
0.673780
0.673451
0.669837
0.668359
0.668523
0.668688
0.669509
0.670330
0.664581
0.666552
0.669016
0.669016
0.669837
0.669345
0.669180
0.668688
0.670002
0.667538
0.669180
0.670330
0.670659
0.670987
0.671152
0.709261
0.706633
0.670495
0.670659
0.670987
0.670659
0.671152
0.671973
0.667373
0.662774
0.659489
0.665074
0.665074
0.664417
0.665731
0.666881
0.632221
0.661789
0.661953
0.662610
0.663760
0.662610
0.661624
0.656039
0.661953
0.655875
0.661296
0.660639
0.660474
0.661131
0.661131
0.667702
0.660639
0.667538
0.653575
0.655546
0.654561
0.655382
0.656039
0.656861
0.660474
0.698748
0.665074
0.665402
0.665074
0.665895
0.667045
0.653575
0.667538
0.667538
0.667866
0.669016
0.668852
0.668359
0.623515
0.669509
0.669673
0.670823
0.670823
0.671316
0.671644
0.671644
0.672466
0.667702
0.669673
0.677558
0.671152
0.675751
0.675587
0.675258
0.675587
0.675258
0.671973
0.674108
0.671152
0.671809
0.672301
0.672958
0.673451
0.673616
0.673123
0.673287
0.673451
0.673780
0.673287
0.674108
0.673944
0.673944
0.673287
0.669673
0.658339
0.658832
0.659653
0.659817
0.661953
0.658832
0.659325
0.667045
0.655382
0.657025
0.657518
0.657353
0.658175
0.668031
0.664252
0.665895
0.665895
0.665402
0.666388
0.667045
0.666388
0.665402
0.667538
0.668031
0.668852
0.667866
0.668688
0.668031
0.670987
0.664252
0.670002
0.670166
0.670330
0.671152
0.670987
0.672630
0.672301
0.670987
0.671644
0.670659
0.672794
0.671316
0.671152
0.671316
0.680515
0.672794
0.673616
0.673616
0.673944
0.674273
0.674437
0.673123
0.672958
0.672630
0.673451
0.674108
0.650619
0.676244
0.676408
0.676572
0.676901
0.677394
0.677065
0.678708
0.679365
0.679693
0.680186
0.678051
0.677558
0.677886
0.683143
0.677886
0.677886
0.678215
0.677394
0.677229
0.728808
0.719117
0.716488
0.676244
0.666388
0.659817
0.622858
0.660803
0.661624
0.661953
0.662938
0.637642
0.663431
0.664252
0.664417
0.664910
0.665238
0.665402
0.666388
0.666552
0.666881
0.690206
0.667373
0.668195
0.668688
0.669016
0.713367
0.670330
0.669673
0.670002
0.669345
0.673451
0.671644
0.671809
0.671973
0.671809
0.672630
0.660967
0.673616
0.673287
0.673451

