Ladekurvenmessung
Zeit: 2018_05_03 14.54.03
Info: SHC320, v = 0.614, T = 40, F = 20, h = 461.9
Ladewiderstand[Ohm]: 1012700
Störkapazität[pF]: 0.000000
Entladezeit[ms]: 200
Abtastrate[Hz]: 250000
Anzahl der Messwerte: 2500.000000
Verzögerung[ms]: 3
Ladespannung[V]: 0.200000
	Kurve_1	Kurve_2	Kurve_3	Kurve_4	Kurve_5	Kurve_6	Kurve_7
0	-0.003306	-0.001498	-0.001662	-0.001662	-0.000676	0.001954	-0.005771
1	-0.001827	-0.001827	-0.002648	-0.000841	-0.001169	0.000639	0.002118
2	-0.002155	-0.003306	0.000967	-0.003306	-0.00232	0.002118	-0.002484
3	-0.00347	-0.001498	-0.002155	-0.00347	-0.001005	0.003104	-1.9e-05
4	-0.001169	-0.002648	-0.003963	-0.003142	-0.002155	0.000639	-0.000676
5	-0.000347	-0.000512	-1.9e-05	-0.001005	-0.003963	0.000639	-0.001991
6	-0.000183	-0.001005	-1.9e-05	0.002447	-0.009551	-0.001169	-0.00232
7	-0.001662	0.000803	-0.008237	0.00031	-0.004621	0.003104	-0.001498
8	0.000474	-0.001662	-0.002648	0.004748	-0.001169	-0.00232	-0.001662
9	-0.000676	0.001296	-0.002155	-0.000841	-0.002155	0.000146	0.00031
10	0.001625	0.003597	-0.001662	0.002118	-0.004128	-1.9e-05	-0.001991
11	-0.004456	-0.002155	-0.001662	-0.001005	0.000803	0.001132	-0.006593
12	0.001132	-0.001498	0.003926	0.003926	-0.002648	-0.00232	0.001296
13	-0.001991	0.001789	-0.004621	-0.002484	-0.001991	-1.9e-05	-0.002813
14	0.000967	-0.009716	0.001296	0.001954	-0.002155	0.00031	-0.001498
15	-0.001334	-0.005443	-0.001662	-0.001334	0.000474	0.002611	-0.001827
16	-0.005936	-0.003306	0.001132	0.001296	0.000967	-0.000183	-0.002155
17	-0.002484	-0.004785	-0.001827	-0.002155	0.001789	-0.001334	-0.002155
18	-0.002484	0.001132	-0.001334	-0.002155	-0.001169	0.004912	0.001625
19	-0.002484	-0.003142	-0.004785	0.000967	0.002447	-0.001498	-0.001169
20	-0.001498	-0.003306	-0.003635	0.000803	-0.000183	0.001296	-0.002977
21	-0.00347	-0.001005	-0.005114	-0.002977	-0.001169	0.00294	-0.003799
22	-0.000841	-0.002813	-0.003963	-0.001334	-0.001662	-0.001334	-0.000512
23	-0.00232	-0.002813	-0.002484	-0.000841	-0.004949	-0.001334	-0.003799
24	-0.000841	-0.000347	-0.005771	-0.005443	-0.001991	-0.001334	-0.005607
25	0.000474	-0.003963	-1.9e-05	-0.005936	-0.004128	-0.000676	-0.003635
26	-0.002813	-0.000841	-0.005278	-0.003306	-0.002977	-1.9e-05	-0.004292
27	0.001132	-0.001827	0.000146	-0.002648	0.001625	-0.003635	-0.002813
28	-1.9e-05	-0.002813	-0.001334	-0.002484	0.00294	0.005241	-0.007086
29	0.005076	-0.002155	0.000639	0.002447	-0.001662	-1.9e-05	-0.002648
30	-0.002155	-0.003142	-0.001005	-0.000347	-1.9e-05	0.000474	-0.001498
31	0.000474	-0.002484	-0.001334	0.00146	-0.002484	-0.000676	-0.002484
32	-0.004128	-0.002648	-0.001991	-0.000512	-0.001498	-0.00232	-0.00232
33	-0.002977	-0.004292	0.001132	-0.000841	-0.002484	-0.001169	-0.001005
34	-0.002155	-0.004292	-0.000512	-0.004621	-0.000347	0.002775	-1.9e-05
35	-0.002813	-0.000676	-0.006593	-0.003142	-0.003799	-0.001991	-0.001005
36	-0.001498	-0.006757	-0.003799	-0.004456	-0.000347	0.003104	-0.000841
37	-0.0061	-0.006757	-0.002484	-0.00347	0.00031	-0.000183	-0.000512
38	0.004912	-0.0061	-0.004128	-0.002648	-0.002977	-0.001169	0.002775
39	0.00146	-0.00232	-0.00347	-0.009058	0.002775	-0.001334	-0.007415
40	0.001789	-0.004292	0.00031	-0.000183	-0.004785	0.000639	-0.001169
41	0.001625	-0.000841	-0.003142	-0.001334	-0.001662	-0.004292	-0.0061
42	0.005076	0.001954	-0.002155	-0.000183	-0.003306	-0.002813	0.000474
43	0.001296	0.001954	-0.003963	-0.001991	-0.002155	-0.000676	0.001296
44	0.00294	-0.002648	-0.000676	-0.00232	-0.003799	-0.003142	-0.008401
45	-0.002155	0.001296	-0.001991	0.002118	-0.000841	-0.001498	-0.002648
46	0.001954	-0.004456	-0.00232	-0.001991	-0.004128	-0.006264	-0.001334
47	0.001132	-0.001827	-0.002813	-0.003799	-0.005771	0.000639	-0.002813
48	-0.000676	-0.001991	0.003104	-0.001827	-0.000841	-0.001005	-0.001827
49	0.001296	-0.003799	-0.004292	-0.003306	-0.001827	0.001954	-0.002813
50	0.002447	-0.000347	-0.00232	-0.001334	-0.004621	0.000803	-0.001334
51	-0.000676	-0.002813	-0.002484	-0.001498	-0.00347	0.003597	-0.003635
52	-0.001991	-0.001991	-0.002813	-0.002155	0.00294	-0.001498	0.000146
53	-0.001334	-0.002813	-0.004456	-0.002977	-0.006429	0.002611	-0.001827
54	-0.000183	-1.9e-05	-0.000183	-0.00232	-0.004949	0.000474	-0.002155
55	0.000146	-0.00347	-0.004621	-0.003142	-0.002155	-0.000512	-0.00232
56	-0.000347	-0.001498	-0.007744	-0.00988	0.003104	-0.000512	-0.002813
57	0.000803	-0.002648	-0.002155	-0.000512	-0.002813	-0.000512	-0.000512
58	-0.000512	0.003926	-0.002484	0.000474	-0.002484	0.00031	-0.005443
59	-0.001169	-0.000347	-0.001498	-1.9e-05	-1.9e-05	-0.000841	-0.00232
60	0.000967	0.000967	-0.002813	-0.001991	-0.002484	-0.001662	-0.00347
61	-0.000183	0.001132	-0.003306	-0.002813	-0.004621	-0.004949	-0.003963
62	-0.000841	-0.002484	-0.002155	-1.9e-05	-0.003142	0.004255	-0.005278
63	0.000146	-0.003799	-0.002813	-1.9e-05	-0.01366	-0.00232	-0.002155
64	-0.001991	-0.003635	-0.004128	-0.001498	-0.004292	-0.000841	-0.004785
65	-0.005114	0.002447	-0.001169	0.002282	-0.003799	0.001625	-0.003799
66	-0.00232	-0.00347	-0.004128	-0.001334	-0.000512	0.002775	-0.004785
67	-0.000841	-0.001005	-0.001334	-0.001827	-0.003306	-0.000512	-0.001005
68	-0.00347	-0.004785	-0.004785	-0.003142	-0.001169	0.002282	-0.00232
69	-0.001991	-0.000183	-0.004292	-0.000347	0.000146	0.001132	-0.001991
70	-0.002648	-0.002648	-0.004949	-0.005443	0.000803	0.000967	-0.000183
71	-0.002813	-0.004621	-0.003142	-0.002484	-1.9e-05	0.00146	0.00146
72	0.000639	-0.000676	-0.005278	-0.003963	-0.003306	0.000146	0.00031
73	-0.001334	-0.000512	-0.004949	-0.0061	-0.001827	-0.009223	0.001625
74	-0.000841	-0.001169	-0.004785	-0.007744	-0.00347	-0.003963	-0.001334
75	0.003761	0.00031	-0.004128	-0.001827	-0.003963	0.001789	-0.003963
76	-0.001334	-0.001662	-0.000347	0.002611	-0.000512	0.00031	-0.00347
77	-0.002155	-0.001498	-0.003963	-0.002977	-0.000347	-0.001169	-0.005114
78	0.001789	-0.000183	-0.001662	0.000639	-0.008401	0.000803	-0.003635
79	-0.002155	-0.005607	-0.00725	-0.00347	0.001296	-0.000183	-0.007086
80	-0.001169	-0.002484	0.003761	-0.004292	-0.004128	-0.001169	-0.000676
81	-0.005607	-0.003306	-0.006757	-0.005114	-0.002648	-0.000512	-0.006264
82	0.00031	-0.003963	0.002447	-0.001169	0.000474	-0.000841	-0.004785
83	-0.000183	-0.002484	-0.004621	-0.003306	0.002447	0.003104	-0.005443
84	-0.005771	-0.00232	0.000803	-0.002155	-0.002484	-0.000512	-0.002484
85	-0.004128	-0.001991	-0.000512	-0.004456	-0.000676	0.00031	-0.003963
86	-0.007908	0.001789	-0.002155	-0.000676	-0.004128	-0.00232	-0.001334
87	-0.001662	-0.002648	-0.002813	-0.003799	-0.00347	-0.000347	-0.001005
88	-0.001991	-0.006264	-0.002813	-0.001827	-0.001169	-0.001169	-0.001498
89	-0.000841	-0.005936	-0.004949	-0.003963	-0.003635	-0.001334	0.000474
90	-0.000676	-0.002155	-0.000347	-0.001498	-0.001827	0.00146	-0.00232
91	-0.001169	-0.005771	-0.003306	-0.001991	-0.002155	-0.007744	-0.000347
92	-0.001334	0.000474	-0.001498	-0.004292	-0.001662	-0.002813	0.000803
93	0.000967	-0.001827	-0.001827	-0.001827	-0.002813	-0.001169	0.003104
94	-0.001005	-1.9e-05	-0.003799	-0.004621	0.001625	-0.001498	0.000474
95	0.007213	-0.000512	0.000146	-0.001169	-0.003306	-0.000512	-0.002484
96	-0.004456	-0.002155	-0.003142	-0.00873	-0.001334	-0.004292	-0.00347
97	-0.001169	0.000639	0.000474	-0.001498	-0.003142	-0.000512	-0.003142
98	-0.002155	-0.003142	-0.002155	-0.001334	-0.002977	-0.001005	-0.003306
99	-0.002648	-0.004292	-0.000512	-0.002813	-0.003635	-0.004128	-0.002155
100	-0.00232	-0.00232	-0.003142	-0.0061	-0.0061	-0.002155	-0.004456
101	-0.002977	-0.001169	-0.003306	0.00146	-0.003963	-0.001827	-0.003142
102	-0.002648	-0.004785	-0.000347	0.000474	-0.002484	-0.004456	-0.001498
103	-0.004621	-0.001662	-0.002813	-0.000512	-0.0061	-0.000676	-0.004292
104	-0.001005	-0.005771	-0.005936	-0.004292	-0.003306	-0.001169	-0.000512
105	-0.002977	-0.001662	-0.007086	-0.001827	-0.00232	-0.002813	-0.001334
106	-0.001991	-0.003306	-0.005278	-0.002813	-0.002484	-0.005936	-0.004949
107	-0.001991	-0.000347	-0.003799	-0.005443	0.001789	-0.000512	-0.001827
108	-0.004785	0.00294	-0.005114	0.00031	0.00409	-0.004949	-0.002813
109	-0.004456	0.001954	-0.005771	-0.004785	-0.002155	-0.00347	-0.005607
110	-0.001334	-0.003963	-0.002484	-1.9e-05	-0.000512	-0.002155	-0.003963
111	-0.005278	-0.000183	-0.005114	-0.002813	-0.000841	-0.001991	-0.003963
112	0.000474	-0.001005	-0.004128	0.000803	-0.008237	-0.006264	0.001132
113	-0.003142	-0.002813	-0.003635	-0.004456	0.001954	-0.002648	-0.005443
114	-0.004292	-0.00347	-1.9e-05	-0.002484	-0.004456	-0.003635	-0.00347
115	-0.001498	0.004419	-0.002648	-0.002813	-0.00232	0.00146	-0.007415
116	-0.004456	-0.000841	-0.000512	-0.000183	-0.002155	-0.000183	-0.0061
117	-0.00873	-0.002813	-0.001827	-0.002155	-0.000512	-1.9e-05	-0.003799
118	-0.002484	0.000967	-0.003635	-0.001991	-0.001827	0.001296	-0.00347
119	-0.004621	-0.004456	-0.003799	-0.001991	0.001296	-0.001662	-0.004128
120	-0.007415	0.003761	-0.004785	-0.002155	-0.002648	-0.001827	-0.004456
121	-0.004621	-0.003635	-0.0061	-0.001662	-0.001662	-0.001169	-0.006429
122	-0.006264	-0.005278	-0.003635	-0.00347	-0.001498	-0.000841	-0.003306
123	-0.003963	-0.002155	-0.007415	-0.002977	-0.002977	-0.002484	-1.9e-05
124	-0.005607	-0.001169	-0.005607	-0.004292	-0.001662	-0.002813	-0.001991
125	-0.002155	-0.00232	-0.003306	0.000803	-0.001169	-0.001169	-0.001827
126	-0.005443	0.002447	-0.005443	-0.00232	0.001954	-0.001498	-0.00232
127	-0.002484	-1.9e-05	-0.001005	-0.003799	-0.004785	-0.004621	-0.002813
128	-0.004785	0.000146	0.001132	-0.001662	0.000146	-0.005443	-0.003635
129	-0.00232	-0.001662	-0.005771	-0.003635	-0.000841	-0.004785	-0.0061
130	-0.006264	-0.002648	-0.003142	-0.005114	-0.001991	-0.004456	-0.006757
131	-0.003963	-0.009551	-0.001991	-0.000183	-0.00347	-0.004292	-0.003306
132	-0.005443	-0.005771	-0.005607	-0.002484	-0.001991	-0.004128	-0.004785
133	-0.005443	-0.001498	-0.000512	0.000474	-0.00232	-0.003306	-0.000841
134	-0.006429	-0.004456	-0.004456	-0.00347	-0.005278	-0.000347	-0.00232
135	-0.007579	-0.001827	0.000474	-0.002484	-0.003306	-0.003635	-0.002484
136	-0.005443	-0.002648	-0.001991	-0.00232	-0.000841	-0.001005	-0.002484
137	-0.005936	-0.000183	-0.001991	-0.000841	-0.003142	-0.003963	0.005898
138	-0.00347	-0.004621	-0.00347	-0.001991	-0.000512	-0.002648	-0.003142
139	-0.001827	-0.004292	-0.01251	-0.002813	0.002611	-0.002155	-0.003963
140	-0.002155	-0.004621	-0.001991	-0.004456	-0.003142	-0.002977	0.00031
141	-0.004128	-0.000183	-0.006429	-0.001662	0.001296	-0.002155	-0.002813
142	-0.003142	-0.005278	-0.001334	-0.004292	-0.004949	-0.005443	-0.002484
143	-0.002484	-0.002484	-0.004292	-0.001991	-0.00232	-0.004128	-0.001498
144	-0.003799	-0.000841	-0.000183	0.002775	-0.002977	-0.00347	-0.001498
145	-0.005443	-0.002155	-0.003799	-0.00232	-0.001498	-0.00232	-0.005607
146	0.00294	-0.000676	-0.001005	-0.002977	-0.00347	0.000474	-0.001662
147	-0.00232	-0.002813	-1.9e-05	-0.00347	-0.002155	-0.000676	-0.006757
148	-0.003635	-0.00232	0.000474	-0.001662	-0.001498	-0.002813	-0.006429
149	-0.002813	-0.006429	-0.002813	-0.004456	-0.006264	-0.002484	-0.005443
150	-0.002155	-0.000676	0.001132	-0.002484	-0.003799	-0.003963	-0.003635
151	-0.005771	-0.002155	-0.005114	-0.009387	-0.002484	-0.002484	-0.004456
152	-0.001169	-0.001005	-0.001498	-0.005443	-0.002813	-0.003635	-0.002813
153	-0.005771	-0.004292	-0.001169	-0.001827	-0.002813	-0.00347	0.000639
154	-0.005607	-0.002813	-0.003635	-0.001005	-0.003635	-0.006922	-0.000347
155	-0.003963	-0.004456	0.000474	-0.003963	-0.001991	-0.003306	-0.001991
156	-0.005607	-0.001662	-0.003306	-0.000841	-0.001991	-0.006922	0.001296
157	-0.002484	0.001132	0.00031	-0.006429	-0.005278	-0.008401	-0.000512
158	-0.006429	-1.9e-05	0.000639	-0.004621	-0.000347	-0.005114	-0.004621
159	-0.003799	-0.002813	-0.000183	-0.002813	-0.001827	-0.005114	0.001132
160	-0.002813	-0.001662	-0.001827	-0.004785	-0.001169	-0.003799	-0.005278
161	-0.001169	-0.000676	0.001954	-0.001334	-0.001005	-0.005278	-0.001827
162	-0.004128	0.00031	-0.007086	-0.003799	-0.000676	-0.001991	-0.002813
163	-0.001498	-0.001169	-0.002155	0.000146	-0.00347	-0.004949	-0.005607
164	-1.9e-05	-0.003142	-0.002155	-0.002155	-0.001498	-0.004621	-0.005443
165	-0.000841	-0.001827	-0.000512	-0.000183	-0.003142	-0.004456	-0.000841
166	-0.003635	-0.005443	-0.002484	-0.005936	-0.002813	-0.002813	-0.008072
167	-0.002155	-0.005114	0.001954	-0.001662	0.000146	-0.005114	-0.000841
168	-0.001498	-0.002484	-0.001827	-0.001991	-0.002813	-0.001662	-0.001991
169	-0.003963	-0.00347	-1.9e-05	-0.002813	-0.002648	-0.002484	-0.000841
170	-0.004456	-0.004128	-0.001498	-0.002155	-0.000676	-0.003799	-0.003142
171	-0.004128	-0.003963	-0.00347	-0.002155	0.00031	-0.00347	-0.004621
172	-0.003306	-0.004128	-0.000841	-0.005607	-0.001827	-0.001662	-0.004456
173	-0.004621	-0.000183	-0.002484	-0.003635	-0.000841	-0.000512	-0.008237
174	-0.002977	-0.0061	-0.004949	-0.000347	0.000474	-0.003635	-0.003799
175	-0.003306	0.000639	-0.005607	0.000803	-0.003799	-0.001827	-0.004785
176	-0.003799	-0.001334	-0.002155	-0.001827	-0.008072	-0.003799	-0.00232
177	-0.004128	-0.002484	-0.00347	-0.00347	-0.002813	-0.004292	-0.004949
178	-0.002813	0.001132	0.000146	0.000639	-0.003963	-0.001005	-0.001827
179	-0.004456	-0.002155	-0.003799	-0.008401	-0.002977	-0.001827	-0.00347
180	-0.001169	-0.001498	-0.001005	0.000803	-0.006429	-0.003142	-0.002155
181	-0.007744	-0.004785	-0.001991	-0.000347	-0.001169	-0.001827	-0.001827
182	-0.001827	-0.001662	-0.001169	-0.00232	-0.004785	-0.004949	-0.001827
183	-0.00347	-0.001334	-0.006264	-0.004128	-0.002813	-0.00347	-0.004621
184	-0.005607	-0.005278	0.002118	-0.004785	-0.00347	-0.00347	-0.003306
185	-0.005443	-0.005114	-0.005114	-0.002155	-0.003306	-0.001498	-0.001827
186	-0.004128	-0.0061	-0.001991	-0.002648	-0.00347	-0.002813	-0.002813
187	-0.005114	-0.009223	-0.000676	-0.002155	-0.002813	-0.003799	-0.001662
188	-0.004292	-0.001169	-0.001662	-0.002484	-0.001334	-0.006264	-0.00347
189	-0.004292	-0.006264	-0.00347	-0.002155	-0.001005	-0.000512	0.00031
190	-0.006429	-0.005771	-0.002977	-0.004785	-0.001005	-0.004128	-0.00232
191	-0.001991	-0.006593	-0.001662	-0.004128	-0.005771	-0.003799	-0.001827
192	-0.003963	-0.003306	-0.001991	-0.006593	-0.000512	-0.001827	-0.004785
193	-0.003799	-0.000676	-0.001991	-0.00232	-0.002977	-0.004621	0.001296
194	-0.001662	0.000803	-0.001334	-0.004949	0.001954	-0.001334	-0.002813
195	-0.001991	-0.000676	0.001954	-0.00347	-0.001662	-0.003963	0.002118
196	-0.008894	-1.9e-05	-0.004456	-0.005278	-0.001169	-0.007579	-0.001169
197	0.002447	-0.000512	-0.003799	-0.004949	-0.005114	-0.004785	-0.001169
198	-0.001991	-0.002155	0.00031	-0.005936	-0.002813	-0.002484	-0.003799
199	-0.00232	-0.001991	0.00146	-0.001991	-0.004949	-0.004292	-0.001334
200	-0.001498	-0.002977	-0.00347	-0.005443	-0.00347	-0.003306	-0.002484
201	-0.004128	-0.001334	-0.002813	-0.001991	-0.003963	-0.006429	-0.001498
202	-0.003306	-0.00347	0.000639	-0.004128	-0.007744	-0.002484	-0.002484
203	-0.004621	-0.001334	-0.000347	-0.001662	-0.004292	-0.005278	-0.001498
204	-0.004292	-0.004456	0.001789	-0.00347	-0.001169	-0.002484	-0.002484
205	-0.004292	0.00031	-0.002155	-0.004785	-0.004621	-0.00232	-0.001005
206	-0.002648	-0.002648	0.00031	-1.9e-05	-0.000183	-0.001334	-0.001169
207	-0.004456	-0.001005	-0.002648	-0.004128	0.001132	-0.001334	0.000803
208	-0.001827	0.000474	-0.000512	-0.005607	-0.007415	-0.006757	-0.000183
209	-0.004292	0.002775	-0.005607	-0.005114	-0.001991	-0.005771	-0.004292
210	-0.001169	-0.002977	-0.002648	-0.002484	-0.003635	0.000474	0.00146
211	-0.005278	0.000474	-0.004785	0.00031	-0.001498	-0.001169	-0.002155
212	0.001954	-0.00347	-0.001827	-0.004128	-0.002977	-0.004621	0.000803
213	-0.005443	0.001954	-0.002648	-0.005278	-0.001827	-0.001169	-0.004128
214	0.000474	-0.00232	-0.001005	-0.005771	-0.002484	-0.007908	0.000146
215	-0.005443	-0.001334	-0.001334	-0.005443	-0.001334	-0.00232	-0.001334
216	-0.001334	-0.002813	-0.000183	-0.002648	-0.002648	-0.003799	-0.003306
217	-0.004292	-0.002648	0.004912	-0.001662	-0.004292	-0.003306	-0.003635
218	-0.004949	0.000146	-0.002484	-0.002155	-0.013332	-0.002648	-0.003142
219	-0.003799	-0.002977	-0.004621	-0.003635	-0.005114	-0.003635	-1.9e-05
220	-0.003963	0.001132	-0.001498	-0.002484	-0.001662	-0.003142	-0.002155
221	-0.006922	-0.007579	-0.003799	-0.003142	-0.001991	-0.002813	-0.000841
222	-0.004785	-0.00232	-0.003142	-0.013496	-0.003142	-0.002484	-0.001005
223	-0.003635	-0.003799	-0.001169	-0.002484	-0.002977	-0.000347	-0.001662
224	-0.00347	-0.003142	0.000146	-0.000347	0.001789	-0.000676	-0.004621
225	-0.002155	-0.002813	-0.001498	-0.002484	-0.004456	-0.001498	-0.001662
226	-0.00232	-0.001827	-0.002648	-0.003142	0.005076	0.000967	-0.002813
227	-0.001827	-0.001991	0.000146	-0.005771	-0.003142	-0.000676	-0.005443
228	-0.003142	0.003597	-0.001498	-0.004949	-0.004456	0.003433	-0.003306
229	-0.002813	0.002775	0.000146	-0.006429	0.00146	-0.004128	-0.002813
230	-0.000676	-0.002484	-0.002155	-0.004785	-0.000347	0.001789	-0.001991
231	-0.001827	0.000639	-0.001498	-0.009387	-0.002813	-0.004621	-0.000347
232	-0.006264	-0.001662	0.000474	-0.009058	-0.001169	-0.002484	-0.00347
233	-0.004621	0.000803	-0.000347	-1.9e-05	-0.003635	-0.002648	0.000639
234	-0.003142	-0.002155	-0.001334	-0.007415	-0.002648	-0.002977	-0.00347
235	-0.004785	-0.003306	0.003761	-0.004785	-0.002484	0.000146	-0.001334
236	-0.007744	-0.000512	-0.001334	-0.004949	-0.001169	-0.001498	-0.001005
237	-0.001991	-0.003799	-0.003963	-0.002813	-0.001991	-0.004456	-0.002813
238	-0.00232	-0.003963	0.000474	-0.003306	-1.9e-05	0.000474	-0.000512
239	-0.003142	-0.000841	-0.001334	-0.004292	-0.000347	-0.012346	-0.000676
240	-0.001334	-0.004621	-0.000676	-0.006429	-0.003799	-0.002484	-0.002484
241	0.001296	-0.006429	-0.002484	-0.002484	-0.002813	-0.001498	-0.003306
242	-0.004128	-0.003306	-0.001169	-0.004128	-0.002977	-0.005278	0.00294
243	-0.007579	-0.000183	-0.002648	-0.003799	-0.000183	-0.000841	-0.003635
244	-0.001662	-0.001662	-0.001827	-0.003963	-0.00232	-0.001334	0.003268
245	-0.002977	-1.9e-05	-0.002155	-0.006922	-0.000183	0.002282	-0.000841
246	-0.003635	-0.001498	0.001296	-0.003635	-0.00232	-0.006922	-0.002155
247	-0.004128	0.000146	-0.001498	-0.008565	-0.002813	-0.003306	-0.003799
248	-0.001169	-0.000841	0.000803	-0.007086	-0.004292	-0.009058	0.000967
249	-0.000841	0.00031	-0.002484	-0.006429	-0.00232	-0.000676	-0.005278
250	0.001132	-0.002155	0.00294	-0.001991	-0.006264	-0.005443	-0.001991
251	-0.001005	-0.003799	-0.001169	-0.005443	-0.006922	-0.003963	-0.005607
252	-0.015468	-0.00232	0.002447	-0.004785	-0.003799	-0.012017	-0.002813
253	-0.001662	-0.002648	-0.001827	-0.003799	-0.004621	-0.005771	-0.000841
254	-0.002977	-0.004949	-1.9e-05	-0.00347	-1.9e-05	-0.003306	-0.002155
255	-0.002977	-0.006429	-0.00725	0.001132	-0.001827	-0.000841	0.001296
256	-0.002977	-0.002648	-0.003142	-0.002484	-0.001662	-0.004456	-0.001498
257	-0.001662	-0.003306	0.000474	-0.004292	0.002118	-0.007415	-0.000841
258	-0.003799	-0.001169	-0.005771	-0.007579	0.000967	-0.001662	-0.001991
259	0.002447	-0.005114	-0.002155	-0.004785	-0.0061	-0.000183	-1.9e-05
260	0.000474	-0.001169	-0.000347	-0.004128	0.003104	0.002775	-0.005443
261	0.000474	-0.001005	0.000639	-0.001991	-0.003306	-0.000841	0.000474
262	0.002282	-0.001169	-0.007579	-0.006429	-0.002484	-0.004456	-0.002155
263	-0.000183	-0.000183	-0.003963	0.000146	0.000803	-0.004128	-0.000676
264	-0.0061	-0.003306	-0.007579	-0.004456	-0.001991	-0.005114	-0.007744
265	-0.001169	-0.00232	-0.004128	-0.002813	-0.003799	-0.00725	-0.000347
266	-0.005114	-0.001498	-0.005771	-0.004456	-0.003306	-0.003142	-0.002155
267	-0.001991	0.000146	-0.003635	0.003104	-0.006264	-0.007579	-0.003963
268	-0.000512	-0.000512	-0.00347	-0.003635	-0.001498	-0.004785	-0.004456
269	0.000639	-0.001662	-0.005936	-0.000512	-0.004128	-0.002155	-0.0061
270	-0.002155	-0.004949	-0.004949	-0.002813	-0.001334	-0.00347	-0.002484
271	0.00031	-0.001169	-0.003306	-0.002648	-0.001169	-0.00232	-0.008894
272	-0.002484	-0.007744	0.002447	-0.00232	-0.001169	0.00031	0.001132
273	-0.004949	-0.002155	0.004255	-0.001005	-0.00347	-1.9e-05	0.000474
274	-0.000347	-0.005278	-0.000183	0.003433	-0.001827	-0.002813	-0.002155
275	-0.005936	0.002775	-0.002648	-0.000347	0.00146	-0.000183	-0.003799
276	-0.000512	-0.005771	0.004255	-0.002813	0.000803	-0.004128	-0.004128
277	-0.00725	-0.003635	-0.000841	-0.002648	-0.000512	-0.009058	-0.002977
278	-0.002484	-0.00347	0.000803	-0.001662	-0.004456	-0.002484	-0.004128
279	-0.003799	-0.001334	-0.000676	-0.006757	0.000803	-0.003142	-0.006429
280	-0.002648	-0.002155	0.001954	-0.001498	-0.002648	-0.003963	-0.004621
281	-0.005936	-1.9e-05	-0.001169	-0.010866	-0.004456	-0.000347	0.001132
282	-0.001169	0.001625	0.000474	-0.005607	-0.004785	-0.005278	-0.002813
283	-0.005607	-0.000676	0.003761	-0.001662	-0.002648	-0.001498	-0.005607
284	-0.003635	0.00031	0.00031	-0.003799	-0.004128	-0.002155	-0.002155
285	-0.001662	-0.00347	-0.000347	-0.001991	-0.006593	-0.004949	-0.0061
286	-0.003963	-0.010045	0.00409	-0.004949	-0.004456	-0.003799	-0.005443
287	-0.002813	-0.003635	-0.000347	0.001789	-0.0061	-0.00347	-0.005278
288	-0.003142	-0.006429	0.00031	-0.00232	-0.00347	-0.00347	-0.002813
289	-0.004128	-0.007415	-0.001498	-0.002484	-0.002977	-0.002977	-0.002977
290	-0.00347	-0.002155	-1.9e-05	-0.001827	-0.005114	-0.003306	-0.001662
291	-0.002155	-0.010209	0.000474	-0.004292	-0.002484	0.000967	0.000967
292	-0.001005	-0.000512	-0.000841	-0.004128	-0.000183	-0.00232	0.000474
293	0.000803	-0.001334	-0.000841	-0.002977	-0.003142	-0.002648	-0.002813
294	-0.003635	0.002282	0.001132	-0.005936	-0.000676	-0.003306	-0.00347
295	-0.001005	-0.002155	-0.001827	-0.005443	-0.002977	-0.002977	-0.004128
296	-0.003306	0.000146	-0.002813	-0.006922	-0.000841	0.00031	-0.007744
297	-0.003142	-1.9e-05	-0.001169	-0.002484	-0.005443	0.002447	-0.000676
298	-0.004785	-0.000841	-0.001827	-0.006264	-0.001991	-0.003799	-0.003306
299	-0.001005	-0.001334	-0.000676	-0.009223	-0.005771	-0.004785	0.000639
300	-0.002648	-0.001169	-0.000512	-0.001662	-0.005443	-0.001662	-0.00232
301	-0.001827	-0.001991	0.000639	-0.001498	-0.004785	-0.007908	-0.004949
302	-0.001005	-0.003306	-0.000512	-0.004456	-0.00725	-0.003306	-0.004456
303	-0.00873	-0.000512	-0.001005	0.00031	-0.006922	-0.002484	-0.007744
304	-0.000512	-0.004621	-0.00725	-0.005771	-0.004128	-0.000841	-0.003963
305	-0.001662	0.000146	-0.008237	-0.000841	-0.001334	-0.006429	-0.002813
306	-0.002484	-0.003142	-0.003635	-0.000183	-0.001991	0.00031	-0.003142
307	-0.001827	-0.000676	-0.003142	-0.003799	-0.000512	-0.004949	-0.005443
308	-0.005114	-0.000183	-0.00232	-0.004128	0.002447	-0.006593	-0.004785
309	-0.002977	-0.001662	0.006556	-0.002977	-0.000512	-0.004456	-0.001827
310	-0.001169	-0.003142	-0.001169	-0.002484	-0.003142	-0.000347	-0.001334
311	-0.003963	-0.001005	-0.001005	-0.005278	-0.000512	0.003268	-0.004949
312	-0.001991	-0.001827	-0.000183	-0.004292	-0.004128	-1.9e-05	-0.001498
313	-0.0061	-0.000841	-0.000676	-0.004621	0.001954	-0.000512	-0.004292
314	-0.004456	-0.002484	0.001132	-0.002155	-0.004621	-0.000183	-0.004292
315	-0.002813	-0.005114	-0.003799	-0.004292	0.00031	-0.002484	-0.004128
316	-0.001169	0.000803	-0.000841	-0.007744	-0.004949	-0.003142	-0.004621
317	-0.00347	-0.002155	-0.001662	-0.002648	-0.001991	-1.9e-05	-0.00873
318	-0.002648	-0.000347	0.001789	-0.001498	-0.001498	-0.004785	0.000803
319	0.002611	-0.003963	-1.9e-05	-0.002155	-0.00347	-0.00347	-0.004621
320	-0.004456	-0.000512	-0.001169	-0.000512	-0.003963	-0.002648	-0.003963
321	-0.00347	-0.00347	-0.000841	-0.001991	-0.001169	0.000967	-0.004456
322	-0.003306	-1.9e-05	0.003268	-0.001005	-1.9e-05	0.001296	-0.003963
323	0.000474	-0.005278	0.000639	0.000967	-0.001169	0.000146	-0.001334
324	-0.006757	-0.002648	-0.000841	0.002282	0.000474	0.001625	-0.000512
325	-0.002155	-0.005936	0.001954	0.002118	0.002775	-0.000841	-0.001827
326	-0.001991	-0.00347	0.000639	-0.000841	-0.001169	-0.000183	-0.007086
327	-1.9e-05	-0.002813	0.001625	-0.00347	-0.003963	-0.002155	-0.001498
328	-0.000841	-0.000347	0.000803	-0.004292	-0.002977	-0.001005	-0.008401
329	-0.002484	-0.001827	0.003597	-0.00347	0.00031	-0.004456	0.000803
330	-0.003635	-0.000183	-0.000841	-0.004785	-0.00725	-0.001169	-0.006429
331	-0.004621	0.000803	0.00031	-0.001991	-0.000183	-0.003963	-0.003799
332	-0.004949	-0.005114	-0.001498	-0.004785	-1.9e-05	-0.002813	-0.007908
333	-0.003142	-0.001005	-0.00232	0.004748	-0.005443	-0.000347	-0.003799
334	-0.004785	-0.003142	-0.000347	-0.004785	-0.000347	-0.004292	-0.003799
335	-0.002977	-0.004949	-0.000183	-0.00347	-0.004292	-0.002155	-0.002977
336	-0.002155	-0.005607	0.001789	-0.002813	-0.004128	-0.003142	-0.006922
337	-0.000512	-0.005443	0.006391	-0.003142	-0.000183	-0.003963	-0.003306
338	-0.001662	-0.003635	0.002282	-0.002155	-0.001991	-0.002484	-0.001991
339	-0.002155	-0.006429	0.00146	-0.003306	-0.000841	-0.001005	-0.006593
340	-0.004128	-0.003963	0.002775	-0.001005	-0.00347	-0.002484	-0.000512
341	-0.007086	-0.000841	-0.002484	-0.002977	0.000146	-0.003799	-0.001662
342	-0.003142	-0.003306	-0.000183	0.000803	-0.000841	-0.001169	-0.002484
343	-0.006593	-0.001169	0.000146	-0.000183	-0.001498	-0.001334	-0.003963
344	-0.004128	-0.003635	0.000146	-0.00873	-0.001827	-0.004128	-0.001498
345	-0.004292	0.00294	-0.001827	-0.006429	0.00031	-0.002484	-0.004456
346	-0.000183	-0.003963	0.001132	-0.004621	-0.003635	-0.001334	0.001625
347	-0.002648	-0.001662	-0.001005	-0.0061	-0.001334	-0.000841	-0.005443
348	-0.001005	0.000639	0.001625	-0.002484	-0.001498	-0.001662	0.000146
349	-0.001991	-0.000676	-0.002648	-0.008072	-0.004128	-0.001991	-0.004128
350	-0.000347	0.000967	0.001296	-0.010702	-0.004621	-0.006264	-0.004456
351	-0.003635	-0.000183	-0.000676	-0.001498	-0.001991	-0.008072	-0.006757
352	0.00031	-0.001991	0.000967	-0.002155	-0.004128	-0.008237	-0.003142
353	-0.001827	-0.002813	-0.003963	-0.002813	-0.005443	-0.004949	-0.003963
354	-0.003635	-0.002813	0.003268	-0.000676	-0.006757	-0.005114	-0.004621
355	-0.00347	-0.002977	0.002447	-0.001498	-0.008072	-0.004128	0.00031
356	-0.002813	-0.002155	0.001954	-0.003635	-0.000841	-0.006429	-0.005278
357	-0.002813	-0.005114	0.00409	-0.002977	-0.005114	-0.000512	-0.001991
358	-0.003799	0.000474	0.000967	-0.007908	-0.002484	-0.001662	-0.004292
359	-0.003142	-0.00232	-0.001662	-0.004456	-0.000841	-0.001005	-0.003799
360	-0.004292	-0.000841	-0.004292	-0.004292	-0.000183	-0.002155	-0.005443
361	-0.002155	-0.000841	0.00409	-0.002813	-0.001827	-0.003799	-0.002155
362	-0.004785	-0.001169	-0.001498	-0.002648	0.005405	-0.003306	-0.008072
363	-0.001498	-0.002484	0.001132	-0.002648	-0.003963	-0.007086	-0.001991
364	-0.006429	0.000146	0.000474	-0.004785	-0.001827	-0.000347	-0.004785
365	-1.9e-05	-0.003306	0.006391	-0.002484	-0.003963	-0.001827	-0.003963
366	-0.004128	-0.003635	0.006391	-0.002977	-0.001827	-0.004292	-0.005771
367	-0.001005	-0.000347	0.003268	-0.004785	-0.004128	-0.004456	-0.006922
368	-0.002813	-0.004621	0.005241	-0.003306	-0.006264	0.001296	-0.004621
369	-0.006429	-0.007908	0.003761	-0.002648	-0.00347	-0.003635	-0.003799
370	-0.002977	-0.004785	0.000146	-0.002813	-0.001827	-0.001169	-0.004621
371	-0.003142	-0.003306	0.006227	-0.002484	-0.002155	-0.000676	-0.006922
372	-0.001827	-0.001662	0.004419	-0.001827	-0.003963	-0.001334	-0.001334
373	-0.003142	-0.00232	0.002282	0.005076	-0.011195	-0.003142	-0.013003
374	-0.000841	-0.004949	0.000967	0.001789	-0.004949	-0.003306	-0.002648
375	-0.002813	-0.004621	0.000146	-0.000841	-0.006593	-0.002648	-0.005443
376	-0.004292	-0.005114	0.002775	-0.003142	-0.004785	-0.001827	-0.007086
377	-0.005278	-0.004949	0.002611	-0.006757	-0.000676	-0.000676	-0.004292
378	-0.004621	-0.003142	0.000803	-0.003306	-0.003799	-0.002155	-0.001334
379	-0.004292	-0.002648	0.002775	-0.004456	0.000146	-1.9e-05	-0.004785
380	-0.003635	-0.00347	0.00409	-0.002648	0.000146	-0.001498	-0.000347
381	-0.001005	-0.000347	0.002447	-0.008072	0.001625	-0.002155	-0.003635
382	-0.003799	-0.002813	0.003761	-0.002155	-0.001334	-0.002155	-0.001991
383	-0.004621	-0.003306	-0.003306	-0.002977	-0.001827	0.001625	-0.003799
384	-0.00347	-0.001827	0.000967	-0.007908	-0.004785	-0.005443	-0.003635
385	-0.001169	-0.005278	0.000639	-0.005607	-0.003635	-0.002648	-0.004785
386	-0.004128	-0.001662	-0.001827	-0.001991	-0.004292	-0.004949	-0.002155
387	-0.000841	-0.002484	-0.000676	-0.003306	-0.005771	-0.004128	-0.003963
388	-0.001662	-0.003306	0.004419	-0.002813	-0.004949	-0.002977	-0.007086
389	-0.002484	-0.00725	0.00146	-0.004949	-0.002648	-0.004621	-0.002484
390	-1.9e-05	-0.005114	0.003268	-0.003142	-0.003306	0.00146	-0.003306
391	-0.007086	-0.005278	0.002118	-0.001662	-0.001334	-0.001991	-0.00347
392	-0.000512	-0.003799	0.000803	-0.005278	-0.000347	-0.003635	-0.006429
393	-0.001498	-0.00347	0.000146	0.000967	-0.004456	-0.001827	-0.004128
394	-0.004785	-0.003635	0.001625	-0.002813	-0.000512	0.001954	-0.003963
395	-0.001498	-0.000841	-0.000841	-0.007086	-0.002977	-0.004785	-0.002648
396	-0.004456	-0.002813	0.000639	-0.001169	-0.001169	-0.001005	-0.0061
397	0.002282	0.002118	-0.002155	-0.00347	-0.002813	-0.006922	-0.003799
398	-0.002813	-0.001827	-0.001662	-0.003963	-0.004621	-0.002155	-0.004292
399	-0.000676	-0.003306	-0.000676	-0.002155	-0.001169	-0.004128	0.000146
400	-0.002484	0.000639	-0.001498	-0.007086	-0.002155	-0.002648	-0.002155
401	-0.000676	-0.003635	-0.001334	-0.005936	-0.00347	-0.005443	-0.001991
402	-0.002813	-0.002813	-0.003635	-0.0061	-0.002977	-0.006429	-0.001498
403	0.000474	-0.000676	0.00146	-0.004785	-0.001827	-0.009058	-0.001005
404	-0.000347	-0.002813	0.001625	-0.007579	-0.005607	-0.003142	-0.005114
405	-0.002977	0.000146	0.002611	-0.002484	-0.002813	-0.014647	-0.002155
406	-0.000512	-0.002813	-0.001662	-0.005114	-0.003306	-0.007744	-0.004292
407	0.002118	-0.002648	0.001296	-0.005607	-0.001662	-0.006922	-0.003963
408	-0.003799	-0.001498	0.001296	-0.004785	-0.004621	-0.004456	-0.003142
409	-0.004456	0.000146	-0.002648	-0.005114	-0.004128	-0.002813	-0.007579
410	-0.003142	-0.00232	0.000967	-0.004128	-0.003799	-0.004785	-0.001498
411	-0.002977	-0.002155	0.000146	-0.004621	-0.002813	-0.002484	-0.003306
412	-0.002813	-0.000841	0.001296	-0.004456	-0.000676	-0.006757	-0.001334
413	-0.000841	-0.001827	-0.001991	-0.006264	-0.002155	-1.9e-05	-0.005936
414	0.00146	-0.004785	0.000967	-0.005114	-0.001827	-0.006922	0.000967
415	-0.001991	0.001954	-0.003635	-0.005936	-0.000512	-0.002155	-0.002484
416	-0.001662	-0.000676	0.000639	-0.004292	-0.002813	-0.00347	-0.001662
417	-0.001662	-0.00347	-0.003799	-0.006922	-0.001005	-0.001827	-0.001827
418	-0.012181	0.00146	-0.003635	-0.002648	-0.001005	-0.00347	-0.000841
419	-0.001498	-0.002813	-0.008072	-0.004785	-0.002648	-0.004785	-0.005114
420	-0.000347	0.00146	-1.9e-05	-0.003799	-0.0061	-0.003142	-0.004949
421	-0.001334	-0.001827	-0.001498	-0.006757	-0.001991	-0.009058	-0.004785
422	-0.001169	-0.001991	0.009843	-0.001498	-0.00232	-0.004292	-0.003799
423	-0.002484	0.000967	0.008857	-0.004292	-0.007744	-0.01251	-0.007908
424	-0.002155	-0.002813	0.008857	-0.000512	-0.005443	-0.007086	-0.010373
425	-0.004949	-0.005607	0.010664	-0.001169	-0.006264	-0.003799	-0.002813
426	-0.003963	0.000967	0.006227	-0.002484	-0.001498	-0.007086	-0.007415
427	-0.003142	-0.003963	0.004583	-0.003142	-0.005936	-0.005114	-0.006922
428	-0.004621	0.000803	0.006556	-0.00725	-0.001498	-0.002648	-0.002813
429	-0.001169	-0.001827	0.003761	-0.003306	-0.003142	-0.004949	-0.003963
430	-0.005114	0.004748	0.003597	-0.007415	-0.001005	-0.002155	-0.004456
431	-0.004949	0.000803	0.003104	-0.00347	-0.006264	-0.004292	-0.00232
432	-0.005443	-0.000183	0.000967	-0.00725	-0.006922	-0.003963	-0.002813
433	-0.003963	-0.001005	0.00294	-0.002813	-0.005114	-0.002648	-0.000512
434	-0.005114	-0.000841	0.002611	-0.009223	-0.005443	-0.004128	-0.001827
435	-0.000512	-0.001005	0.00409	-0.007744	-0.008894	-0.00347	-0.004128
436	-0.005607	0.002775	-0.000183	-0.00873	-0.002813	-0.002977	0.00031
437	-0.000841	0.000639	-0.001827	-0.003635	-0.005443	-0.008072	-0.005936
438	0.002775	-0.004785	-0.00347	-0.003799	-0.0061	-0.005771	-0.0061
439	-0.004292	-0.000841	-0.000183	-0.002484	-0.002155	-0.003306	-0.004785
440	-0.000183	-0.003799	-0.000183	-0.003306	-0.004128	-0.005936	-0.006429
441	-0.004949	-0.013825	-0.002155	-0.000347	-0.004456	-0.003799	-0.009223
442	-0.004128	-0.002484	0.000639	-0.003142	-0.003799	-0.003963	-0.006429
443	-0.007908	0.000803	0.000803	-0.00347	-0.003963	-0.006429	-0.007579
444	-0.000841	-0.002813	-0.001827	-0.001827	-0.002813	-0.005607	-0.001498
445	-0.006922	-0.001827	0.000474	-0.004456	-0.003635	-0.00232	-0.004292
446	-0.002813	-0.00232	-0.001334	-0.006429	-0.004128	-0.006757	-0.004949
447	-0.007415	-0.000512	-0.001827	-0.008072	-0.002484	-0.001498	0.000803
448	-0.001662	0.002611	-0.001991	-0.0061	-0.005278	-0.004785	0.001789
449	-0.002484	-0.001334	-0.003306	-0.006757	-0.007086	-0.002813	-0.007086
450	-0.001827	-0.000841	-0.001827	-0.001169	-0.004621	0.00031	-0.000347
451	-0.003799	0.002775	-0.004621	-0.006922	-0.003799	-0.001827	-0.002484
452	-0.003799	-0.001334	-0.001169	-0.005936	-0.010702	-0.004621	-0.004949
453	-0.003963	-0.004292	0.00031	-0.002813	-0.006593	-0.005936	-0.006264
454	-0.001991	-0.000676	-0.000347	-0.005771	-0.005771	-0.004949	-0.002155
455	-0.003963	-0.000676	-0.002155	-0.001991	-0.002155	-0.007579	-0.002648
456	-0.004456	-0.002813	0.00146	-0.002648	-0.005443	-0.00873	-0.005278
457	-0.003963	-0.00347	-0.000841	-0.003799	-0.004292	-0.008401	-0.001498
458	-0.007579	-0.001334	-0.001334	-0.004785	-0.001169	-0.001662	-0.006429
459	-0.004621	0.000146	0.000803	-0.001334	-0.006429	-0.006429	-0.004949
460	-0.004456	-0.000183	0.007377	-0.003142	-0.002648	-0.004128	-0.004456
461	-0.00347	-0.003635	-0.001498	-0.003306	0.001296	-0.002977	-0.002648
462	-0.001334	-0.000347	-0.003799	-0.003306	-0.001662	-0.004292	-0.002155
463	0.002118	-0.00347	-0.002484	-0.002484	-0.004128	-0.005114	-0.001169
464	-0.00725	-0.004949	-0.002484	-0.00347	0.000639	-0.003635	-0.000676
465	-0.004621	-0.003306	-0.001662	-0.002484	-0.005936	-0.005278	0.003597
466	-0.004456	-0.001334	-0.002813	-0.004621	0.002118	-0.004128	0.000967
467	-0.002977	-0.002155	0.00294	-0.002977	-0.002813	-0.005278	0.001132
468	-0.005936	-0.001334	-0.003799	-0.005443	-0.003142	-0.003963	-0.002484
469	-0.004949	0.001625	-0.004128	-0.005936	-0.002813	-0.007744	-0.003635
470	-0.00347	-0.001991	-0.001169	-0.005771	-0.002648	-0.004128	-0.003635
471	0.00146	0.001625	-0.012017	-0.005278	-0.002155	-0.004456	-0.003799
472	-0.001827	-0.003142	-0.00347	-0.005443	-0.004785	-0.002648	-0.003306
473	-0.006264	-0.001498	-0.005278	-0.001005	-0.001334	-0.002813	-0.004292
474	-0.001498	-0.001827	0.001625	-0.000676	-0.007415	-0.001827	-0.007908
475	-0.003799	0.000146	0.002447	-0.001005	-0.001005	-0.004128	-0.003142
476	-0.004456	-0.003306	-0.001005	-0.003635	-0.000183	-0.001827	-0.00347
477	-0.004128	-0.000512	0.001132	-0.002977	0.001954	-0.005114	-0.004292
478	-0.002648	-0.003799	0.000803	-0.001827	-0.001827	-0.005114	-0.003142
479	-0.007908	-0.004128	0.000474	-0.006264	-0.001005	-0.001169	-0.002155
480	-0.002155	-0.004621	-1.9e-05	-0.004621	-0.001498	-0.002813	0.001625
481	-0.005278	-0.001169	-0.002155	-0.005443	-1.9e-05	-0.004785	-0.004456
482	-0.00347	-0.001005	0.000474	-0.004456	-0.001827	-0.004292	0.005076
483	-0.005443	0.001132	-0.004621	-0.008237	0.001954	0.000474	-0.001169
484	-0.003963	-0.000841	-0.001827	-0.003799	0.001132	-0.006264	0.00146
485	-0.00232	-0.001005	-0.002813	-0.00347	-0.00347	-0.005114	-0.001827
486	-0.001005	0.00294	0.000639	-0.006429	-0.001991	-0.007579	-0.003306
487	-0.002155	-0.002813	-0.004621	-0.00347	-0.002813	-0.005607	-0.002648
488	-0.001498	-0.002155	-0.001498	-0.001991	-0.004128	-0.00725	-0.001498
489	-0.005607	-0.005607	-0.001498	-0.005278	-0.003142	-0.008894	-0.00232
490	-0.004292	-0.001662	0.000803	-0.003963	-0.00347	-0.006593	-0.005443
491	-0.002977	-0.004785	0.000639	-0.005936	-0.002648	-0.004949	-0.002484
492	-0.00232	-0.00232	0.000967	-0.002484	-0.00232	-0.002484	-0.000676
493	-0.002484	-0.002648	0.00031	-0.002484	-0.001991	-0.00347	-0.00347
494	-0.002648	-0.002648	-0.001169	-0.005936	0.000803	-0.004456	-0.002155
495	-0.004128	-0.001827	-0.001334	-0.004621	-0.003799	-0.004785	0.000146
496	-0.006922	-0.002813	-0.001662	-0.010866	-0.00232	-0.002648	-0.002648
497	-0.005114	-0.001662	-0.00347	-0.006264	-0.004785	-0.005607	0.000474
498	-0.001169	-0.001169	-0.003306	-0.007415	0.000146	-0.000183	-0.002648
499	-0.005771	-0.000676	-0.003142	-0.004949	-0.006593	-0.009716	-0.001334
500	0.000803	-0.001498	-0.003799	-0.008237	-0.001334	-0.004785	-0.005443
501	-0.001827	-0.001334	-0.001334	-0.002484	-0.002155	-0.006757	-0.002813
502	-0.005278	-0.001169	-0.000347	-0.005607	-0.005936	-0.008237	-0.000183
503	-0.000183	-1.9e-05	0.001954	-0.003306	-0.005607	-0.009058	-0.001334
504	-0.004785	-0.001498	-1.9e-05	-0.006757	-0.003635	-0.007415	-0.003799
505	-0.001498	0.00031	-0.000183	-0.003142	-0.002484	-0.007744	-0.002155
506	-0.001662	-0.00232	-0.000183	-0.00347	-0.004128	-0.004128	0.000803
507	-0.004456	0.002118	0.001954	-0.004128	-0.004621	-0.003963	-0.004621
508	-0.004621	-0.003799	0.000146	-0.002484	-0.000676	-0.005443	-0.004292
509	-0.004128	-0.006429	0.000146	-1.9e-05	-0.001827	-0.000841	-0.005443
510	-0.003635	-0.004621	0.001625	-0.000347	-0.003799	-0.002155	0.00031
511	-0.005114	-0.001991	-0.003799	-0.002977	-0.002813	-0.004785	-0.002813
512	-0.002155	-0.003306	-0.001005	-0.002155	-0.002155	-0.000512	-0.00232
513	-0.004292	-0.001498	-0.000841	-0.001005	-0.00232	-0.000347	-0.002813
514	-0.005278	-0.003963	0.002775	-0.003963	-0.002484	-0.004949	0.001296
515	-0.005607	-0.000512	0.002282	-0.004456	-0.001169	0.001954	-0.006757
516	-0.004785	-0.000841	0.00409	-0.005771	0.001954	0.000146	-0.000676
517	-0.004949	-0.002977	-0.000841	-0.004785	0.004748	-0.003142	-0.00232
518	-0.002155	-0.001827	0.000474	-0.001827	-0.00725	-0.005114	-0.00232
519	-0.005607	0.00031	-0.004128	-0.005278	-0.000512	-0.003963	-0.002977
520	-0.001498	-0.00232	-0.001498	-0.004292	-0.0061	-0.003963	-0.001827
521	-0.009058	-0.004456	-1.9e-05	-0.00232	-0.003306	-0.002813	-0.001169
522	-0.002155	-0.002484	-0.000676	-0.004785	-0.003635	-0.009223	-0.001662
523	-1.9e-05	-0.001991	-0.001005	-0.004128	-0.004456	-0.005278	-0.004128
524	-0.004949	-0.004128	0.000967	-0.005607	-0.002977	-0.00988	-0.008072
525	-0.000512	-0.003306	0.000803	0.000146	-0.001005	-0.006593	-0.003799
526	-0.002977	-0.001334	0.001954	-0.001991	0.000803	-0.003635	-0.005443
527	-0.005771	-0.006757	0.003926	0.00031	-0.001662	-0.005114	-0.003142
528	-0.004621	-0.00347	-0.000183	-0.001827	-0.00873	-0.003799	-0.005607
529	-0.004949	-0.009058	0.007377	-0.001498	-0.003306	-0.005114	-0.004292
530	-0.007908	-0.006757	0.001789	-0.003142	-0.000676	-0.00232	-0.002977
531	-0.005278	-0.004785	-1.9e-05	-0.002484	0.000474	-0.004949	-0.000347
532	-0.00988	-0.0061	0.00146	-0.000841	0.000639	-0.001334	-0.000512
533	-0.007415	-0.004292	0.001625	-0.004128	0.000146	-0.007744	0.001296
534	-0.005607	-0.004949	0.000474	-0.008401	-0.002155	-0.000841	-0.000512
535	-0.003799	-0.005114	0.004748	-0.002648	-0.001005	-0.005114	0.002118
536	-0.001005	-0.004456	0.001132	-0.005278	-0.002484	-0.005771	0.00294
537	0.000639	-0.002648	-0.000676	-0.008237	-0.004456	-0.008237	-0.002155
538	0.000146	-0.005278	-0.012346	-0.002484	-0.001334	-0.000841	-0.003142
539	0.000474	-0.005278	-0.004949	-0.005114	-0.004621	-0.00873	-0.003799
540	-0.000676	-0.003963	0.000146	-0.003963	-0.005114	-0.006757	-0.004456
541	-0.003142	-0.000512	-0.001991	-0.004128	-0.00347	-0.005607	-0.002813
542	-1.9e-05	-0.007579	0.001132	-0.003306	-0.002813	-0.005114	0.000474
543	-0.002977	-0.0061	0.009021	-0.013989	-0.000512	-0.002648	-0.001991
544	-0.00347	-0.004456	0.008035	-0.004128	-0.001991	-0.004128	-0.000841
545	-0.001498	-0.005936	0.000474	-0.004456	0.00031	-0.002155	-0.000841
546	-0.003799	-0.003799	0.004583	-0.006593	-0.001827	-0.002484	0.001132
547	-0.007744	-0.0061	0.004419	-0.010045	0.000639	-0.000841	-0.002977
548	-0.001169	-0.004128	0.004583	-0.003963	-0.001169	-0.00347	-0.002155
549	-0.001662	-0.00347	0.002611	-0.006757	-0.001334	0.000967	-0.004785
550	-0.002648	-0.002813	0.006391	-0.008237	-0.007415	-0.003963	-0.001169
551	-0.001662	-0.002977	0.00031	-0.005278	-0.001498	-0.006922	-0.002484
552	-0.000512	-0.000841	0.006062	-0.003799	-0.002648	-0.004621	-0.000347
553	-0.003306	-0.002648	0.000803	-0.005278	-0.004128	-0.004292	-0.000676
554	-0.000347	-0.00232	-0.000183	-0.005114	-0.002977	-0.007086	-0.003142
555	-0.002648	-0.004785	0.003104	-0.0061	-0.004621	-0.001334	-0.002155
556	0.00031	0.000967	0.00031	-0.004785	-0.001662	-0.003142	-0.001169
557	-0.004621	-0.004949	0.003104	0.000474	-0.002813	-0.004292	-0.003963
558	-0.000183	-0.003799	0.005076	-0.001991	0.000803	-0.003306	-0.005114
559	0.000146	-0.004292	0.003433	-0.00347	-0.001991	-0.003306	-0.002484
560	-0.001827	-0.004292	0.00409	-0.001827	-0.001662	0.002282	-0.005443
561	-0.000676	-0.004128	0.00146	-0.005771	-0.002977	-0.003306	-0.001662
562	-0.000676	-0.005114	0.002611	-0.006757	-0.005278	-0.001498	-0.002977
563	-0.000512	-0.004785	0.009185	-0.001827	-0.001827	-0.001991	0.001132
564	-0.006757	-0.005443	0.004748	-0.005936	0.00031	-0.001169	-0.002813
565	-0.005114	-0.002484	0.006062	-0.002484	-0.003306	-0.000676	0.00031
566	-0.005443	-0.004456	0.002118	-0.008401	-0.001827	0.000146	-0.005607
567	-0.000347	-0.000512	0.003104	-0.00347	-0.002813	-0.002813	-1.9e-05
568	-0.004949	-0.000347	-1.9e-05	-0.006429	-0.001498	0.000474	-0.002648
569	-0.001169	-0.003142	0.002118	-0.003963	-0.005607	-0.000841	0.00031
570	-0.001991	-0.003963	-0.000183	-0.008401	-1.9e-05	-0.000676	-0.001991
571	-0.001169	-0.000512	0.001132	-0.003142	-0.002155	-0.008401	-0.003799
572	0.002775	-0.008894	-0.000841	-0.006264	-0.001662	-0.005114	-0.003635
573	0.002118	-0.003142	-0.001662	-0.005607	-0.001827	-0.004292	-0.00347
574	-0.001334	0.002118	0.00294	-0.005278	-0.009716	-0.001005	-0.009058
575	-0.002648	-0.000676	0.00787	-0.003306	0.002611	0.003597	-0.006757
576	-0.003963	-0.00347	0.008199	-0.002977	-0.003306	-0.001662	-0.004292
577	-0.002813	-0.001991	0.007213	0.000639	-0.003142	-1.9e-05	-0.006429
578	-0.001005	-0.003306	0.008528	-0.000183	-0.001827	-0.00232	-0.001169
579	-0.001498	-0.005114	0.004748	-0.00347	-0.002155	0.000639	-0.005278
580	-0.00347	-0.005771	0.00146	-0.00232	-0.002155	0.001625	-0.005443
581	-0.003963	-0.002155	-0.000841	-0.005278	0.000474	0.001625	-0.003963
582	-0.003142	-0.003306	0.004255	-0.003142	-0.003306	-0.00232	-0.001005
583	-0.00873	-0.001991	-0.002648	-0.004621	-0.001991	-0.000183	-0.00347
584	-0.011195	-0.002155	-0.000347	-0.003799	-0.007086	-0.001169	-0.000676
585	-0.007415	0.002775	-1.9e-05	-0.004128	-0.002813	-0.000512	0.000639
586	-0.003963	-0.005443	0.000967	-0.002648	-0.007744	-0.001334	-0.000841
587	-0.00347	-0.003963	-0.001498	-0.006593	-0.004292	-0.004785	-0.000841
588	-0.004621	-0.002484	-0.003142	-0.001498	-0.002813	-0.000512	-0.000512
589	-0.001169	-0.004621	-0.006429	-0.005114	-0.001005	-0.004785	-0.002813
590	0.000146	-0.002484	0.003268	-0.005443	-0.004949	-0.003799	-0.004128
591	-0.001169	-0.010373	0.000146	-0.002155	-0.002813	-0.002155	-0.001827
592	-0.001827	-0.001005	0.002775	-0.00347	-0.002977	-0.002155	-0.001498
593	-0.001498	-0.00347	0.003104	0.00031	-0.002648	-0.002155	-0.003799
594	-0.002484	-0.002813	0.000967	-0.001169	0.00031	-0.006264	-0.001662
595	-0.002155	-0.004785	0.002282	0.002611	-0.000841	-0.00232	-0.000183
596	-0.004949	-0.012181	0.000967	-0.005607	-0.000512	0.000474	-0.004128
597	-0.007086	-0.008401	0.005898	-0.000512	-0.002813	-0.002977	-0.002977
598	-0.006264	-0.00347	0.000639	-0.003963	-0.001005	-0.000841	0.000967
599	-0.002155	-0.005114	-0.005936	-0.003963	-0.004292	-0.005607	-1.9e-05
600	-0.004621	-0.003963	-0.001498	-0.0061	-0.002648	-0.000841	0.004419
601	-0.002813	-0.001498	-1.9e-05	-0.006593	-0.004292	-0.003142	0.00146
602	-0.004456	-0.004128	-0.000841	-0.003306	-0.001991	-0.002813	0.008035
603	-0.000841	-0.000676	0.00146	-0.002484	-0.004949	0.001954	-0.000512
604	-0.00232	-0.001498	-0.000183	-0.00725	-0.004292	-0.001991	-0.000676
605	-0.001827	-1.9e-05	-0.007086	-0.005443	-0.002648	-0.003142	-0.002155
606	0.00031	-0.00347	-0.003306	-0.001498	-0.003142	-0.003963	-1.9e-05
607	-0.003306	-0.000512	-0.004292	-0.002484	-0.003635	-0.003306	-0.002484
608	0.001954	-0.001498	-0.002813	-0.003306	-0.002484	-0.003963	-0.003799
609	0.000146	-0.000347	-1.9e-05	-0.003635	0.000803	-0.005443	-0.001498
610	-0.004128	-0.003306	-0.003635	-0.002155	-0.004949	-0.001827	0.000474
611	0.000967	-0.001498	-0.000841	-0.003142	0.001296	-1.9e-05	-0.006264
612	-1.9e-05	-0.002484	0.002775	-0.001827	-0.00347	-0.002977	-0.000512
613	-0.005443	-0.002155	-0.001498	-0.003799	-0.001662	-0.000841	-0.007744
614	-0.004621	-0.00347	0.001132	-0.00232	-0.001827	-0.001662	0.000639
615	-0.006922	-0.001169	0.001296	-0.004621	-0.000347	0.000803	-0.006264
616	0.00031	-0.00347	-0.00232	-0.002648	-0.002813	-0.000347	0.000639
617	-0.005278	-0.002648	-0.00232	-0.00347	-0.000183	0.000639	-0.000183
618	-0.004621	-0.000183	-0.003799	-0.002484	-0.001498	-0.004292	-0.001334
619	-0.004292	-0.003635	-0.005443	-0.003306	-0.001169	-0.001005	-0.000841
620	-0.002484	0.000639	0.000639	-0.004292	-0.000512	0.001296	0.002447
621	-0.002977	-0.009058	-0.006922	-0.002813	-0.002813	0.002447	-0.001498
622	-0.001334	-0.003306	-0.001334	-0.005936	-0.003635	0.001296	-0.000183
623	-0.001005	0.001132	-0.002648	-0.001662	-0.004785	-0.000512	-0.0061
624	-0.005771	0.00409	-0.001827	-0.005114	-0.006922	-0.00232	-0.007908
625	0.000474	-0.004785	-0.001169	-0.004785	-0.001991	-0.001334	-0.005278
626	-0.002977	-0.000347	-0.002648	-0.003963	-0.002155	-0.004456	-0.004785
627	-0.001827	0.000803	-0.00232	-0.005114	-0.004292	-0.001169	-0.004128
628	-0.000512	0.000967	-0.004621	-0.005114	-0.003799	0.00146	-0.004785
629	0.00146	-0.002648	-0.000841	0.000803	-0.007908	-0.001827	0.000474
630	-0.002155	0.000474	-0.001827	-0.003306	-0.003306	0.00031	-0.001005
631	-0.003306	-0.006922	-0.001005	-0.000347	-0.00347	-0.001334	0.001954
632	-0.008072	-0.001169	-0.000512	-0.00347	-0.00232	0.003104	-0.001005
633	-0.000841	-0.001334	0.00146	-0.001827	-0.00347	-1.9e-05	-0.000183
634	-0.006264	-0.002484	-0.001662	-0.004128	-0.003963	0.002611	-0.000841
635	-0.007744	-1.9e-05	-1.9e-05	-0.003142	-0.001334	0.000639	0.002447
636	-0.004621	-0.002155	-0.001662	-0.003963	-0.001334	0.001789	-0.003799
637	-0.006922	0.000967	-0.005114	-0.0061	-0.004292	-0.000841	0.002447
638	-0.001334	-1.9e-05	-0.010045	-0.007086	-0.001169	-0.000347	-1.9e-05
639	-0.001498	-0.001662	-0.004949	-0.00232	-0.001662	-0.00232	-0.001498
640	-0.002813	-0.000512	-0.00347	-0.003306	-0.004128	-0.001169	-0.003635
641	-0.001498	0.006884	-0.00725	-0.002977	-0.003635	-0.001662	-0.001662
642	-0.000347	0.002118	-0.001827	-0.001662	-0.004456	-0.00232	-0.002813
643	-0.002813	0.001625	-0.000676	-0.001498	-0.00347	0.000639	-0.004785
644	-0.001498	0.00031	-0.002648	-0.001005	-0.00347	-1.9e-05	-0.002155
645	-0.002813	0.002118	-0.001991	-0.000676	-0.002648	-0.000512	-0.000676
646	-0.003963	0.001954	-1.9e-05	-0.002155	-0.004621	0.002282	-0.005114
647	-0.005771	-1.9e-05	-0.001827	-0.00232	-0.000183	-1.9e-05	-0.000347
648	-0.002813	0.003268	-0.001827	-0.000676	-0.003635	0.000803	-0.00232
649	-0.005443	0.001132	-0.003635	-0.006922	-0.003799	-0.001169	-0.000183
650	-0.003963	0.00294	-0.001498	-0.001827	-0.004949	-0.003306	0.002447
651	-0.004456	0.002118	-0.002977	-0.001334	-0.003142	-0.002813	-0.005278
652	-0.003306	0.005405	-0.001169	-0.004292	-0.004292	-0.009716	0.000639
653	-0.003963	0.001132	-0.002484	-0.005443	-0.002155	-0.003963	-0.002813
654	-0.002484	0.00146	0.000803	-0.002484	-0.001005	-0.001662	-0.000676
655	-0.002813	-1.9e-05	-0.007086	-0.004949	-0.002484	-0.000676	0.00146
656	-0.002155	0.00409	-0.005443	-0.005114	-0.002648	-0.003635	-0.001334
657	-0.002155	-0.000183	-0.006429	-0.004949	-0.000183	-0.004128	-1.9e-05
658	-0.001005	0.002611	-0.00232	-0.0061	0.000474	-0.001498	-0.001169
659	-0.000183	-0.000347	-0.005771	-0.001334	-0.000183	-0.00232	-0.000512
660	-0.00232	0.005405	-0.004456	-0.005607	-0.001662	0.000146	-0.002813
661	-0.003306	0.003104	-0.000347	-0.000512	0.000474	-0.004128	-0.002155
662	-0.000512	0.000803	-0.002484	-0.003142	0.000474	-0.000841	-0.007086
663	0.001954	0.000639	-0.00232	-0.001169	-0.003142	-0.002977	-0.002813
664	-0.003963	0.00031	-0.006757	-0.003635	-0.001991	-0.005607	-0.005443
665	-0.002648	0.00031	-0.000347	-0.000347	-0.002977	-0.003306	-0.000347
666	-0.005278	-0.000841	-0.005278	-0.004949	0.000803	0.00146	-0.003142
667	-0.000512	0.00146	-0.002977	-0.002484	-0.003142	-0.002813	-0.000512
668	-0.004949	-0.001005	-0.003142	-0.003635	0.001954	0.000146	-0.000512
669	-0.002977	-1.9e-05	-0.000841	-0.00347	0.001132	-0.000841	0.001132
670	0.004912	0.00031	-0.004785	-0.005114	0.001954	0.002447	-0.000676
671	-0.00347	0.000474	-0.005278	-0.004785	-0.000841	0.000639	-0.000347
672	-0.001498	-0.000183	-0.004456	-0.004128	0.000803	-0.001827	0.001296
673	-0.001991	0.004748	-0.004785	-0.004949	-0.002155	-0.00232	-0.006264
674	-0.006429	0.004419	-0.004292	0.001954	-0.004456	-0.003142	-0.000183
675	-0.001334	0.001296	-0.003963	-0.003142	-0.003635	-0.0061	-0.003142
676	-0.001169	0.004748	0.000146	-0.002484	-0.001498	-0.004621	-0.001005
677	-0.002484	0.003104	-0.000512	-0.006757	-0.00232	-0.00347	-0.005936
678	0.001132	0.003433	-0.000841	-0.002977	-0.006593	-0.003635	-0.002977
679	-0.006757	0.000474	-0.002155	-0.008237	0.00146	-0.001662	-0.005443
680	-0.003306	0.00031	0.00031	-0.004456	-0.002813	-0.003142	-1.9e-05
681	-0.00347	0.000967	-0.003963	-0.005443	-0.002155	-0.00347	-0.004292
682	-0.004456	-0.000512	0.000803	-0.004456	0.00031	-0.005278	-0.004128
683	-0.00725	0.003433	-0.001827	-0.003635	0.004912	-0.00347	-0.002977
684	-0.003799	0.000803	-0.001498	-0.002648	-0.00347	-0.001991	-0.000512
685	-0.001991	-0.001169	-0.004292	-0.009058	-0.003799	-0.003142	-0.004949
686	-0.002813	0.001132	-0.004949	-0.004292	0.002447	-0.002484	0.00031
687	-0.004621	-1.9e-05	-0.007415	-0.002977	-1.9e-05	-0.002813	-0.001991
688	-0.00347	-0.000841	-0.007086	-0.008401	-0.000841	-0.003142	-0.001169
689	-0.001827	0.002775	-0.00725	-0.005443	-0.002155	-0.001498	0.001789
690	-0.001662	0.003597	-0.005936	-0.004456	-0.001991	-0.002813	-0.004785
691	-0.001498	0.000803	-0.003799	-0.003306	-0.000183	-0.002484	-0.004292
692	0.000967	0.002118	-0.008072	-0.00873	-0.004785	-0.00347	-0.005114
693	-1.9e-05	0.001625	-0.001991	-0.000183	-0.000841	-0.00232	-0.004949
694	-0.003635	0.003926	-0.007086	-0.002484	-0.00873	-0.003635	-0.0061
695	0.002775	0.002447	-0.002648	-0.003635	-0.005936	-0.005278	-0.003963
696	-0.007744	0.00294	-0.00347	-0.005278	-0.001827	-0.000676	-0.006593
697	-0.002813	-1.9e-05	-0.003306	-0.001005	-0.00725	-0.003799	-0.002813
698	-0.003635	0.00294	-0.004949	-0.018591	-0.001005	-0.003799	-0.002648
699	-0.001334	0.003104	-0.000183	-0.004949	-0.002977	-0.006593	-0.003306
700	-0.002155	0.001132	-0.000183	-0.003635	-0.002648	-0.002155	-0.00725
701	-0.001169	0.000639	0.002775	-0.002155	0.000639	-0.004949	-0.005278
702	-0.003799	-0.001827	-0.001005	-0.004456	-0.00232	-0.002977	-0.006264
703	-0.001991	0.000639	-0.002977	0.000146	-0.004128	-0.007579	-0.001334
704	-0.002977	-0.002813	0.003761	-0.002977	0.000967	-0.004949	-0.003799
705	-0.002484	0.001789	-0.001662	-0.001169	-0.001005	-0.003306	-0.001334
706	-0.002484	0.001789	-0.004621	-0.003963	-0.00232	-0.00347	-0.002813
707	-0.001334	0.003926	-0.001827	-0.001662	-0.001662	-0.003635	-0.004621
708	-0.002484	-0.002977	0.00146	-0.002155	-0.000512	-0.003142	-0.004785
709	-0.001991	-0.001991	0.006062	-0.004128	-0.004621	-0.006757	-0.003635
710	-0.000347	-0.00232	0.002611	-0.00232	-0.005114	-0.001334	-0.002977
711	-0.001991	0.002611	0.005405	-0.004785	-0.000676	-0.002484	-0.007086
712	-0.000676	-0.001005	0.002775	-0.005771	-0.004949	-0.004292	-0.005278
713	0.00031	-0.001334	0.00031	-0.000676	-0.001169	-0.002977	-0.000347
714	-0.001005	-0.000183	-0.000841	-0.002977	-0.001991	-0.005443	-0.004949
715	-0.003799	0.000639	-0.000183	-0.003799	-0.003142	0.001296	-0.006429
716	-0.002977	-0.001662	0.002118	-0.00347	-0.000512	-0.004456	0.00031
717	-0.000512	0.001132	0.00031	-0.00232	-1.9e-05	-0.005607	-0.005114
718	-0.004128	-1.9e-05	-0.000183	0.000474	-0.001991	-0.005936	-0.000841
719	-0.009387	-0.004456	0.000146	-0.00232	0.000146	0.003597	-0.004456
720	-0.003963	-0.001498	-1.9e-05	-0.002813	-0.000512	-0.001005	0.00031
721	-0.007579	-0.003142	-0.000841	-0.005114	0.000474	-0.001334	-0.002484
722	-0.001662	-0.001334	0.00409	-0.00347	0.001296	-0.001334	-0.001005
723	-0.004621	-0.000676	0.000639	-0.005443	-0.001334	-0.002648	0.000639
724	-0.001662	-0.001334	0.001132	-0.003799	-0.001169	-0.005278	0.002447
725	0.001132	-0.005771	-1.9e-05	-0.005114	-0.0061	-0.000841	-0.00347
726	0.001296	-0.001498	0.00294	-0.003799	-0.00232	-0.010373	-0.003306
727	-0.005114	-0.003142	0.014609	-0.005443	-0.005443	-0.007744	-0.006429
728	0.005241	0.000146	0.01428	-0.003142	0.000474	-0.004621	-0.004128
729	-0.003142	-1.9e-05	0.021183	-0.004621	-0.004456	-0.006264	-0.004621
730	-0.004292	-0.00232	0.038112	-0.006429	-0.001169	-0.002977	-0.008072
731	-0.002977	-0.002977	0.045508	-0.000512	-0.002648	-0.006429	-0.002155
732	-0.003306	-0.003635	0.047152	-0.004949	-0.001334	-0.001169	-0.004128
733	-0.002813	-0.002484	0.051096	-0.001334	-0.00232	-0.0061	-0.002155
734	-0.005443	-0.00232	0.047809	-0.005936	-0.001334	-0.001662	-0.002155
735	0.002775	-0.006757	0.049124	-0.003635	-0.000347	-0.00347	-0.000676
736	-0.000512	-0.004785	0.044358	-0.003635	0.003926	-0.001005	-0.002155
737	-0.000676	-0.003799	0.04255	-0.002977	-0.000512	-0.004785	-0.001005
738	-0.001334	-0.003142	0.040906	-0.003963	0.000803	-0.003142	0.000639
739	-0.005114	-0.003963	0.041892	-1.9e-05	0.001625	-0.000183	-0.005771
740	-0.000676	0.001789	0.038276	-0.004128	-0.001498	-0.004128	0.00146
741	-0.00232	-0.003963	0.036633	-0.005114	-0.004621	-0.004949	-0.003306
742	-0.001005	-0.004128	0.038769	-0.005771	-0.001662	-0.002977	-0.002155
743	0.000146	-0.000183	0.032688	-0.002648	-0.000841	-0.004292	-0.002155
744	-0.000183	-0.002484	0.034825	-0.006922	-0.004456	-0.007908	-0.002648
745	-1.9e-05	-0.001334	0.033674	-0.00725	-0.001827	-0.001827	0.000639
746	-0.000183	0.000146	0.032031	-0.005443	-0.004456	-0.004785	-0.001991
747	-0.002813	-0.000676	0.032031	-0.006264	-0.002813	-0.004949	-0.004949
748	0.001625	-0.000183	0.032195	-0.005771	0.002282	-0.0061	-0.001334
749	-0.001662	0.002282	0.026114	-0.007579	-0.006922	-0.0061	-0.004456
750	-0.001169	-0.000676	0.028251	-0.002977	-0.001169	-0.0061	-0.002813
751	0.00146	-0.006593	0.028086	0.001132	0.00409	0.000803	-0.001005
752	0.008363	0.009185	0.036633	0.009843	0.006227	0.009021	0.008199
753	0.014116	0.016746	0.040906	0.017732	0.016417	0.015924	0.018882
754	0.023156	0.025128	0.045508	0.02447	0.022991	0.017732	0.026114
755	0.031045	0.031045	0.055698	0.031373	0.032688	0.028251	0.031702
756	0.03992	0.039427	0.058328	0.038934	0.038605	0.038441	0.038441
757	0.043043	0.044851	0.063752	0.040742	0.045344	0.044522	0.048138
758	0.050274	0.054548	0.069504	0.047645	0.048467	0.050932	0.046823
759	0.056849	0.057013	0.076736	0.055698	0.053397	0.057671	0.055041
760	0.060629	0.062437	0.078051	0.059643	0.059807	0.063094	0.059807
761	0.06934	0.069176	0.084461	0.067861	0.06671	0.064902	0.067039
762	0.067861	0.074928	0.088241	0.070819	0.070819	0.072298	0.06934
763	0.07838	0.077393	0.0935	0.078215	0.075585	0.076079	0.074599
764	0.082324	0.081502	0.097116	0.081502	0.08331	0.083475	0.080516
765	0.087584	0.079037	0.101061	0.088734	0.084789	0.086269	0.087255
766	0.089391	0.087748	0.107142	0.089063	0.090213	0.086433	0.089885
767	0.095144	0.095801	0.113881	0.100568	0.093336	0.098267	0.095801
768	0.096623	0.099582	0.112894	0.100732	0.100075	0.100732	0.093829
769	0.105005	0.106649	0.114538	0.102704	0.104184	0.103362	0.104184
770	0.105663	0.105663	0.116182	0.108293	0.10895	0.110758	0.107142
771	0.107635	0.11158	0.123413	0.110922	0.110593	0.113223	0.110758
772	0.113059	0.113552	0.120126	0.113881	0.115524	0.114867	0.115031
773	0.116182	0.118154	0.123085	0.116675	0.116182	0.118154	0.117332
774	0.119797	0.118976	0.123578	0.12177	0.117825	0.122263	0.117825
775	0.123578	0.125386	0.130809	0.121277	0.122592	0.123578	0.121112
776	0.129823	0.127029	0.11158	0.123906	0.122098	0.126372	0.124893
777	0.128673	0.131631	0.118976	0.125386	0.128015	0.122756	0.128673
778	0.133932	0.133275	0.115524	0.130645	0.129823	0.131302	0.131138
779	0.130809	0.138534	0.115853	0.130152	0.132617	0.135411	0.131302
780	0.138534	0.137877	0.007049	0.136398	0.136562	0.134261	0.137055
781	0.137219	0.141164	0.018389	0.13837	0.140835	0.141328	0.137219
782	0.139849	0.141328	0.022663	0.141986	0.140013	0.140835	0.141986
783	0.141986	0.143465	0.027265	0.144451	0.14215	0.144615	0.140671
784	0.143465	0.147903	0.038276	0.147245	0.146259	0.145766	0.148231
785	0.141821	0.13952	0.044686	0.14856	0.146752	0.150368	0.149053
786	0.152669	0.137877	0.048138	0.151354	0.147081	0.149217	0.152011
787	0.149217	0.140178	0.055534	0.153655	0.14971	0.154806	0.15497
788	0.154148	0.140671	0.064409	0.151683	0.152011	0.152998	0.155956
789	0.152505	0.140835	0.067039	0.154477	0.15497	0.158257	0.15497
790	0.156613	0.144944	0.072463	0.161215	0.156613	0.157928	0.160558
791	0.159408	0.147245	0.075092	0.161051	0.158093	0.159736	0.163845
792	0.161215	0.14971	0.073613	0.159079	0.162037	0.162695	0.159736
793	0.162037	0.151683	0.083803	0.161544	0.159736	0.160722	0.161544
794	0.163188	0.158257	0.088405	0.160887	0.164996	0.162366	0.161544
795	0.170255	0.155134	0.095966	0.163681	0.162366	0.165653	0.16779
796	0.164174	0.160394	0.098102	0.162859	0.163516	0.164503	0.165489
797	0.170748	0.156449	0.103691	0.162859	0.159572	0.169926	0.169105
798	0.170748	0.159736	0.105992	0.166475	0.167625	0.171734	0.167461
799	0.172392	0.160722	0.111744	0.16779	0.166475	0.168118	0.171406
800	0.170419	0.161709	0.113881	0.170091	0.166968	0.17272	0.171077
801	0.170913	0.162366	0.11914	0.164174	0.168776	0.171241	0.171734
802	0.172063	0.163023	0.11914	0.169598	0.171899	0.173707	0.176829
803	0.174035	0.168447	0.122756	0.174035	0.172392	0.176665	0.17798
804	0.173214	0.168612	0.120126	0.171899	0.176994	0.177487	0.176336
805	0.175186	0.170091	0.127851	0.176336	0.173707	0.171899	0.179952
806	0.176665	0.170913	0.130152	0.175186	0.177158	0.17535	0.176665
807	0.175515	0.173542	0.13459	0.176336	0.176501	0.175515	0.179952
808	0.178802	0.172885	0.135576	0.177158	0.175679	0.175021	0.178144
809	0.177487	0.175021	0.142807	0.178637	0.179295	0.177815	0.178802
810	0.17913	0.174035	0.140342	0.177815	0.181431	0.177651	0.181596
811	0.179623	0.177158	0.142807	0.177651	0.178966	0.182089	0.183568
812	0.182417	0.177487	0.147738	0.181267	0.181267	0.182417	0.183568
813	0.178966	0.176501	0.14593	0.181596	0.182746	0.183404	0.183732
814	0.181103	0.182746	0.150039	0.180938	0.181924	0.182911	0.182089
815	0.182089	0.185047	0.153326	0.183239	0.182746	0.185212	0.183239
816	0.184718	0.18061	0.156285	0.184718	0.183404	0.183568	0.18439
817	0.183897	0.180116	0.153491	0.183239	0.182253	0.185376	0.182911
818	0.184061	0.185212	0.154641	0.186691	0.183404	0.185212	0.185212
819	0.181267	0.179459	0.158093	0.186033	0.18554	0.186691	0.182911
820	0.186855	0.179952	0.158421	0.186033	0.185212	0.182582	0.188006
821	0.184883	0.180281	0.156449	0.181924	0.187019	0.186691	0.187019
822	0.184554	0.18439	0.162366	0.185212	0.184225	0.188827	0.188334
823	0.186691	0.182417	0.163681	0.186033	0.188006	0.189649	0.187019
824	0.185376	0.184554	0.163845	0.185869	0.18932	0.191128	0.189156
825	0.190142	0.186033	0.16401	0.185869	0.190142	0.183075	0.187677
826	0.189485	0.189485	0.167625	0.187184	0.189814	0.180774	0.183568
827	0.188992	0.185705	0.166475	0.188334	0.188006	0.17798	0.188827
828	0.187677	0.190635	0.167625	0.186526	0.188006	0.181267	0.189814
829	0.18817	0.187677	0.172885	0.189485	0.189156	0.176994	0.188663
830	0.186691	0.189156	0.169762	0.189156	0.188334	0.170419	0.187019
831	0.189156	0.189156	0.175515	0.187841	0.188827	0.174528	0.191786
832	0.189814	0.187513	0.172885	0.185376	0.189649	0.175021	0.189814
833	0.186855	0.18932	0.172885	0.190142	0.186691	0.177815	0.193101
834	0.185869	0.188663	0.179623	0.187841	0.1908	0.177651	0.192115
835	0.18932	0.188827	0.178637	0.189814	0.190635	0.177487	0.194909
836	0.185869	0.194416	0.176994	0.1908	0.193101	0.179295	0.191457
837	0.194087	0.191293	0.186526	0.188006	0.186691	0.180281	0.191621
838	0.1908	0.188663	0.178637	0.192936	0.194087	0.18061	0.193265
839	0.192936	0.187513	0.179952	0.190471	0.192608	0.180445	0.19458
840	0.190635	0.190142	0.183075	0.19195	0.189485	0.182582	0.192936
841	0.190635	0.189978	0.178309	0.193101	0.194909	0.18176	0.192608
842	0.198031	0.188992	0.179459	0.19573	0.191457	0.183239	0.200332
843	0.193101	0.191293	0.181103	0.190964	0.190471	0.183897	0.192772
844	0.191621	0.18817	0.183239	0.192772	0.194087	0.184718	0.195073
845	0.193758	0.193429	0.182253	0.192115	0.197045	0.183404	0.196881
846	0.197538	0.190964	0.185212	0.191621	0.192772	0.185376	0.19721
847	0.192772	0.189814	0.183568	0.189485	0.190142	0.185705	0.195566
848	0.195073	0.191457	0.186691	0.190635	0.189649	0.186691	0.197867
849	0.194744	0.190307	0.184883	0.191621	0.196388	0.187348	0.192115
850	0.196223	0.190635	0.186855	0.192608	0.190471	0.186198	0.197374
851	0.191621	0.19195	0.183568	0.192608	0.192772	0.187513	0.192608
852	0.195402	0.189485	0.187184	0.197374	0.195402	0.187513	0.196059
853	0.191621	0.190142	0.187513	0.184554	0.196552	0.188334	0.199182
854	0.195895	0.190142	0.191128	0.194087	0.193429	0.187348	0.198524
855	0.190307	0.190142	0.18932	0.19458	0.196388	0.188992	0.194744
856	0.193265	0.193101	0.187184	0.193265	0.19836	0.190307	0.197045
857	0.196552	0.190635	0.187841	0.196388	0.196388	0.191128	0.198031
858	0.195566	0.19458	0.188006	0.194087	0.201319	0.192443	0.197374
859	0.197045	0.191621	0.1908	0.194744	0.198196	0.192115	0.193594
860	0.194416	0.19573	0.187841	0.19573	0.188334	0.190964	0.197374
861	0.199675	0.195402	0.186526	0.192936	0.194087	0.1908	0.195895
862	0.195402	0.194744	0.18817	0.193922	0.196059	0.191293	0.197045
863	0.196388	0.192608	0.190635	0.196552	0.195237	0.191293	0.198524
864	0.192772	0.191293	0.18817	0.193265	0.197703	0.193101	0.198196
865	0.196881	0.193101	0.192443	0.192608	0.194251	0.191621	0.197703
866	0.193758	0.196223	0.18932	0.194416	0.198689	0.196881	0.19721
867	0.195566	0.194744	0.192772	0.196223	0.195073	0.190635	0.198689
868	0.196881	0.194251	0.186362	0.193594	0.198031	0.192115	0.198031
869	0.196717	0.195566	0.19195	0.197867	0.196717	0.192279	0.197703
870	0.195402	0.193429	0.191786	0.197538	0.196717	0.192115	0.197374
871	0.196552	0.191293	0.190635	0.194087	0.195895	0.191621	0.196881
872	0.197045	0.194251	0.190307	0.196223	0.197045	0.196059	0.197045
873	0.19458	0.19836	0.194744	0.196059	0.196717	0.191621	0.199346
874	0.196059	0.194087	0.192115	0.194909	0.198524	0.193101	0.193265
875	0.196388	0.196552	0.192772	0.196552	0.19573	0.193594	0.199675
876	0.194744	0.195895	0.191786	0.19195	0.198196	0.197703	0.19836
877	0.190964	0.196223	0.191457	0.194416	0.199346	0.198689	0.195566
878	0.194087	0.195073	0.193429	0.193922	0.196388	0.198524	0.198031
879	0.19458	0.19721	0.190964	0.191786	0.199018	0.197045	0.19836
880	0.196223	0.19721	0.19458	0.196388	0.197538	0.193101	0.198196
881	0.196223	0.19721	0.191786	0.198524	0.198031	0.191293	0.196059
882	0.201319	0.197374	0.192115	0.193429	0.194744	0.193758	0.200004
883	0.193265	0.198524	0.193101	0.196223	0.196881	0.195566	0.195895
884	0.194251	0.19721	0.190635	0.197374	0.194416	0.194744	0.198524
885	0.198031	0.197045	0.192115	0.195402	0.193758	0.192936	0.195895
886	0.196059	0.19458	0.196881	0.198689	0.195237	0.19458	0.197538
887	0.195237	0.194416	0.189978	0.196717	0.195402	0.197703	0.19836
888	0.194744	0.198031	0.19573	0.196059	0.199018	0.193101	0.197867
889	0.19721	0.191457	0.195402	0.196223	0.200661	0.198196	0.198524
890	0.198853	0.195895	0.193922	0.195566	0.199346	0.196881	0.200825
891	0.193758	0.197703	0.195073	0.19573	0.199675	0.197045	0.19573
892	0.197703	0.197374	0.193429	0.195402	0.199511	0.196881	0.195566
893	0.198853	0.194909	0.193429	0.193922	0.197867	0.196552	0.200332
894	0.202305	0.195566	0.192115	0.196059	0.199346	0.197045	0.197867
895	0.195237	0.200004	0.193101	0.197374	0.201647	0.192443	0.200332
896	0.193758	0.199346	0.193922	0.193594	0.198031	0.193265	0.196552
897	0.197703	0.196552	0.194744	0.193758	0.195237	0.195402	0.203291
898	0.197045	0.199675	0.191786	0.196388	0.195237	0.195895	0.198689
899	0.200661	0.198524	0.196881	0.193594	0.194251	0.190964	0.199346
900	0.200661	0.19721	0.194744	0.193101	0.197374	0.196881	0.199182
901	0.199675	0.195566	0.195566	0.195566	0.192443	0.192936	0.199675
902	0.198689	0.197867	0.193594	0.193429	0.193922	0.194087	0.198031
903	0.197538	0.197703	0.19721	0.19721	0.197867	0.197374	0.201647
904	0.196388	0.19836	0.195073	0.195402	0.199018	0.195895	0.192608
905	0.18817	0.197374	0.199346	0.197867	0.198196	0.194251	0.197703
906	0.192936	0.200004	0.196223	0.198196	0.199182	0.196552	0.196059
907	0.198689	0.195237	0.195895	0.195237	0.198524	0.195237	0.197374
908	0.195073	0.196552	0.194087	0.196059	0.19836	0.199018	0.198031
909	0.196881	0.197374	0.192279	0.196223	0.198689	0.197045	0.19458
910	0.198524	0.196717	0.196059	0.194909	0.197374	0.193101	0.201319
911	0.196223	0.197374	0.194744	0.193758	0.19721	0.20099	0.196388
912	0.198196	0.196881	0.195402	0.19573	0.198524	0.197538	0.200332
913	0.197538	0.20099	0.193922	0.194416	0.199182	0.198031	0.196388
914	0.202633	0.200661	0.197538	0.198853	0.198196	0.196881	0.200168
915	0.200332	0.198853	0.194909	0.193101	0.202305	0.200332	0.196717
916	0.200004	0.193758	0.19573	0.194909	0.198524	0.195895	0.199018
917	0.194416	0.196388	0.19721	0.196552	0.200497	0.197045	0.195895
918	0.199675	0.199346	0.189814	0.196059	0.195566	0.195402	0.196552
919	0.198196	0.195073	0.193101	0.195073	0.196881	0.195895	0.19721
920	0.195566	0.195237	0.197703	0.199182	0.197045	0.191293	0.198031
921	0.195237	0.195237	0.193594	0.195237	0.198031	0.197867	0.199018
922	0.197867	0.195895	0.197374	0.196388	0.196223	0.197538	0.202469
923	0.195073	0.196223	0.201154	0.196552	0.199018	0.199675	0.205921
924	0.197045	0.198031	0.196717	0.195073	0.198196	0.196717	0.195895
925	0.19836	0.195402	0.199018	0.193429	0.199675	0.197867	0.197374
926	0.197703	0.197703	0.196552	0.198196	0.195073	0.200168	0.197045
927	0.192936	0.195402	0.195895	0.196552	0.198031	0.195402	0.197703
928	0.194909	0.194087	0.195402	0.197538	0.196552	0.196552	0.196552
929	0.195402	0.194416	0.196059	0.196059	0.196388	0.193594	0.198196
930	0.194087	0.199675	0.195895	0.194909	0.197867	0.196223	0.199346
931	0.19836	0.194909	0.195402	0.197867	0.197867	0.19458	0.199182
932	0.198524	0.198031	0.197045	0.191293	0.196881	0.195402	0.198689
933	0.197703	0.200004	0.198031	0.195073	0.194909	0.194744	0.199675
934	0.19458	0.196717	0.19573	0.193758	0.19836	0.197045	0.188499
935	0.200004	0.192115	0.197538	0.197045	0.19458	0.195402	0.198689
936	0.198196	0.197703	0.197703	0.194416	0.197867	0.196388	0.196881
937	0.198524	0.19721	0.197538	0.201647	0.196881	0.198853	0.201647
938	0.19721	0.192772	0.196717	0.197538	0.20099	0.193265	0.196059
939	0.199018	0.19458	0.19721	0.196388	0.200168	0.19458	0.199839
940	0.195237	0.196388	0.199675	0.196717	0.199182	0.197538	0.199839
941	0.197374	0.196717	0.198853	0.196223	0.19836	0.198031	0.204934
942	0.198524	0.194744	0.197703	0.196388	0.197045	0.197538	0.203784
943	0.197538	0.197867	0.196388	0.195895	0.201483	0.198031	0.201976
944	0.196059	0.195895	0.195402	0.193758	0.19836	0.199839	0.200332
945	0.201319	0.199346	0.034003	0.191786	0.201154	0.200004	0.198196
946	0.200004	0.19573	0.040577	0.196717	0.197703	0.196059	0.199839
947	0.19836	0.197867	0.032853	0.191786	0.199346	0.198196	0.199018
948	0.203126	0.198031	0.052411	0.193101	0.198853	0.196388	0.201647
949	0.199346	0.199182	0.058657	0.196717	0.19721	0.194087	0.19836
950	0.203455	0.199839	0.062437	0.201647	0.19458	0.191786	0.199346
951	0.197703	0.194416	0.07049	0.195895	0.197867	0.195402	0.197867
952	0.198031	0.197374	0.076572	0.198524	0.193429	0.195566	0.200497
953	0.198196	0.198853	0.079037	0.198196	0.192115	0.195895	0.19573
954	0.197703	0.19721	0.086597	0.197374	0.196388	0.195402	0.200168
955	0.19721	0.197045	0.085118	0.197374	0.19836	0.195237	0.19836
956	0.19721	0.198853	0.093172	0.197374	0.197867	0.197374	0.199346
957	0.20214	0.193265	0.098267	0.197374	0.198689	0.201647	0.196717
958	0.196552	0.200661	0.101554	0.19721	0.198524	0.200497	0.198689
959	0.198689	0.193265	0.103033	0.195566	0.199182	0.200497	0.196717
960	0.198031	0.201647	0.108128	0.197045	0.199675	0.198031	0.20214
961	0.200497	0.19721	0.110429	0.198196	0.197538	0.196552	0.198524
962	0.198196	0.19836	0.113716	0.19721	0.199182	0.19836	0.200825
963	0.19721	0.19573	0.119962	0.196717	0.197374	0.197867	0.198196
964	0.192443	0.198853	0.122592	0.197703	0.200004	0.197867	0.201812
965	0.197374	0.197867	0.1267	0.196717	0.195402	0.193758	0.200661
966	0.197374	0.200661	0.127851	0.194087	0.196388	0.199346	0.199018
967	0.195402	0.196717	0.131631	0.19573	0.196059	0.196881	0.202305
968	0.19836	0.19721	0.130974	0.195895	0.19836	0.197867	0.19721
969	0.199018	0.198196	0.13459	0.196388	0.197045	0.194416	0.198524
970	0.19721	0.198853	0.133603	0.194744	0.19573	0.196223	0.201647
971	0.19721	0.198689	0.141493	0.20099	0.196223	0.192936	0.195073
972	0.197374	0.196881	0.140671	0.198031	0.200168	0.196717	0.193594
973	0.19836	0.203126	0.144615	0.195566	0.195073	0.197867	0.197538
974	0.194909	0.196717	0.148724	0.198689	0.199182	0.196552	0.196552
975	0.196881	0.200332	0.148724	0.197045	0.200497	0.198196	0.199018
976	0.19458	0.19836	0.152176	0.196717	0.200661	0.19836	0.197045
977	0.194744	0.196552	0.15119	0.192936	0.198031	0.198689	0.200825
978	0.198524	0.199839	0.155299	0.194251	0.198031	0.199018	0.201154
979	0.200004	0.199182	0.156942	0.191621	0.200497	0.195566	0.201976
980	0.199018	0.199346	0.159408	0.197045	0.198524	0.197867	0.20099
981	0.19458	0.201812	0.159408	0.190142	0.198853	0.199675	0.199018
982	0.203948	0.199182	0.162366	0.193101	0.19836	0.194744	0.200497
983	0.196552	0.199346	0.161873	0.193429	0.195895	0.199018	0.198689
984	0.196059	0.193265	0.164174	0.195402	0.195895	0.193594	0.199511
985	0.196059	0.197867	0.166475	0.194087	0.197703	0.196717	0.196717
986	0.198524	0.195237	0.171899	0.195895	0.195073	0.194744	0.200661
987	0.198031	0.193429	0.166968	0.196388	0.196717	0.194744	0.197538
988	0.199675	0.188334	0.172885	0.196059	0.195402	0.19721	0.200004
989	0.195237	0.179623	0.171734	0.195402	0.197867	0.197374	0.199839
990	0.19836	0.180774	0.173707	0.196388	0.199839	0.19721	0.200497
991	0.197703	0.183404	0.173049	0.196552	0.19836	0.199511	0.197538
992	0.197045	0.184718	0.175843	0.193429	0.194416	0.197867	0.199675
993	0.198524	0.177815	0.174035	0.198689	0.196717	0.197374	0.200825
994	0.196717	0.178473	0.175679	0.196388	0.199511	0.199511	0.200168
995	0.20099	0.178637	0.177158	0.193594	0.19836	0.199346	0.201319
996	0.195566	0.180445	0.177158	0.19458	0.199346	0.197538	0.197045
997	0.197867	0.177651	0.178802	0.19836	0.201319	0.198196	0.201647
998	0.197867	0.180281	0.174857	0.189978	0.199675	0.196552	0.199182
999	0.197538	0.177487	0.181924	0.193101	0.194909	0.196552	0.200661
1000	0.196717	0.178966	0.180116	0.188006	0.198524	0.197538	0.19836
1001	0.197538	0.178637	0.179459	0.194909	0.19721	0.19458	0.201154
1002	0.199675	0.177487	0.183568	0.191621	0.201154	0.195895	0.194744
1003	0.197867	0.14971	0.180281	0.188663	0.195566	0.195237	0.199511
1004	0.199018	0.151025	0.184883	0.196059	0.197703	0.195237	0.196881
1005	0.199511	0.151354	0.186526	0.198689	0.195895	0.1908	0.198689
1006	0.196223	0.148724	0.184061	0.195402	0.200332	0.202469	0.199346
1007	0.197703	0.152505	0.186198	0.196552	0.200332	0.196717	0.200825
1008	0.19721	0.151518	0.184883	0.188499	0.202469	0.197867	0.203455
1009	0.196059	0.154641	0.18554	0.193101	0.198689	0.197538	0.20099
1010	0.200004	0.153655	0.186855	0.19836	0.20362	0.201319	0.203126
1011	0.195566	0.156613	0.186033	0.197374	0.202962	0.20099	0.19721
1012	0.199511	0.157764	0.187677	0.193265	0.195073	0.198031	0.202633
1013	0.197045	0.161709	0.187348	0.197045	0.203126	0.199839	0.195237
1014	0.20214	0.1576	0.190142	0.198031	0.199182	0.199839	0.202305
1015	0.198524	0.160558	0.186855	0.195566	0.201812	0.19573	0.198196
1016	0.196059	0.159243	0.18932	0.19721	0.197045	0.197538	0.19721
1017	0.19573	0.156942	0.184225	0.194087	0.199182	0.197045	0.197374
1018	0.19721	0.1576	0.188499	0.196223	0.196388	0.19573	0.198031
1019	0.197045	0.154312	0.188663	0.194909	0.199839	0.199675	0.199018
1020	0.198031	0.153655	0.189485	0.194909	0.198524	0.196223	0.197538
1021	0.196223	0.152176	0.188499	0.19573	0.201319	0.197703	0.200497
1022	0.195073	0.15119	0.190964	0.197538	0.19721	0.197703	0.196059
1023	0.19573	0.148067	0.191786	0.196223	0.200168	0.201647	0.197045
1024	0.197867	0.150039	0.192936	0.196881	0.200004	0.196223	0.198524
1025	0.197045	0.147245	0.196388	0.199346	0.199839	0.201812	0.19458
1026	0.195895	0.145766	0.190142	0.197374	0.194744	0.197867	0.198689
1027	0.197374	0.143136	0.189978	0.19721	0.200497	0.199675	0.196388
1028	0.195073	0.146916	0.191457	0.197045	0.202798	0.200497	0.199839
1029	0.196388	0.142807	0.026114	0.198689	0.197374	0.19836	0.197867
1030	0.195895	0.141986	0.019704	0.195402	0.199346	0.20099	0.199018
1031	0.193922	0.140835	0.028415	0.195895	0.197867	0.202305	0.200825
1032	0.195073	0.140013	0.034989	0.195237	0.200168	0.205263	0.19836
1033	0.196059	0.138863	0.041892	0.196388	0.195566	0.200168	0.200661
1034	0.194087	0.13837	0.048631	0.193594	0.198853	0.199346	0.200497
1035	0.196552	0.143958	0.054548	0.194744	0.194909	0.195402	0.198524
1036	0.195895	0.13952	0.057342	0.192936	0.198524	0.192279	0.19721
1037	0.19721	0.139027	0.064245	0.199511	0.19458	0.195237	0.199675
1038	0.199675	0.144944	0.070326	0.196059	0.196552	0.197374	0.197538
1039	0.19573	0.140506	0.0769	0.200332	0.198689	0.197538	0.197867
1040	0.196388	0.143301	0.082488	0.195237	0.197374	0.198031	0.195237
1041	0.19721	0.144944	0.086433	0.197867	0.199018	0.199182	0.19836
1042	0.195895	0.143958	0.091199	0.199511	0.198524	0.200825	0.199675
1043	0.196223	0.149875	0.095801	0.195237	0.200168	0.199182	0.199182
1044	0.192443	0.147574	0.101061	0.195895	0.19836	0.198689	0.197538
1045	0.193429	0.150368	0.107635	0.19458	0.200168	0.201154	0.198689
1046	0.195566	0.153819	0.109936	0.193758	0.198196	0.197538	0.194251
1047	0.196059	0.156449	0.112237	0.193101	0.199182	0.196717	0.192279
1048	0.196717	0.157107	0.113059	0.194744	0.194416	0.197703	0.197703
1049	0.198853	0.162695	0.118318	0.190964	0.193429	0.197045	0.19458
1050	0.19721	0.158421	0.122098	0.19573	0.19573	0.196388	0.199018
1051	0.193594	0.161544	0.122427	0.195237	0.196717	0.198031	0.196717
1052	0.197374	0.163352	0.126043	0.195073	0.192772	0.193101	0.200661
1053	0.196223	0.162859	0.127358	0.199182	0.196388	0.202798	0.19458
1054	0.200168	0.163681	0.132946	0.199675	0.196881	0.189485	0.199182
1055	0.198853	0.161873	0.13574	0.197538	0.195402	0.195073	0.195237
1056	0.187841	0.165817	0.138041	0.200004	0.200332	0.197867	0.196552
1057	0.188334	0.16779	0.140835	0.196881	0.19836	0.197045	0.19573
1058	0.183568	0.168612	0.150697	0.19836	0.198031	0.198196	0.19721
1059	0.178966	0.166804	0.145273	0.196223	0.200168	0.197374	0.196388
1060	0.17798	0.17157	0.147574	0.195895	0.199346	0.201812	0.199018
1061	0.179952	0.164831	0.144944	0.196717	0.200332	0.200332	0.197374
1062	0.179623	0.161709	0.150368	0.195402	0.199839	0.199675	0.194909
1063	0.181924	0.166639	0.151847	0.198196	0.19721	0.197045	0.200332
1064	0.180445	0.169105	0.152669	0.196552	0.198524	0.200825	0.196881
1065	0.182582	0.168118	0.15875	0.196552	0.195402	0.194744	0.200661
1066	0.183075	0.174035	0.156778	0.193594	0.197045	0.199839	0.191786
1067	0.187019	0.177322	0.157928	0.198196	0.203126	0.198031	0.205099
1068	0.183075	0.176501	0.156778	0.193594	0.199182	0.202962	0.194416
1069	0.181103	0.173871	0.15875	0.19573	0.196881	0.201154	0.198689
1070	0.179459	0.174693	0.160722	0.193758	0.200004	0.204113	0.196552
1071	0.188827	0.176829	-0.000512	0.195895	0.199346	0.199018	0.197045
1072	0.184225	0.176501	0.007706	0.198689	0.196223	0.199839	0.196059
1073	0.183568	0.172556	0.017567	0.198031	0.198524	0.197867	0.195566
1074	0.186855	0.173378	0.024964	0.198196	0.198196	0.198689	0.199018
1075	0.187841	0.175515	0.034332	0.198853	0.198196	0.202798	0.197045
1076	0.186691	0.172556	0.041892	0.197703	0.198031	0.198853	0.196881
1077	0.187019	0.176665	0.044851	0.193101	0.197703	0.200332	0.193594
1078	0.188334	0.178966	0.051918	0.195237	0.199675	0.201483	0.198853
1079	0.184718	0.006884	0.057506	0.194909	0.198853	0.203455	0.19573
1080	0.186526	0.012965	0.070326	0.195566	0.199511	0.20214	0.194744
1081	0.184225	0.022827	0.062601	0.196059	0.20477	0.206742	0.193101
1082	0.184718	0.029566	0.07049	0.197045	0.200332	0.196388	0.199346
1083	0.186526	0.043865	0.079037	0.196059	0.197374	0.203126	0.196552
1084	0.188499	0.048795	0.081502	0.198196	0.19721	0.195566	0.195895
1085	0.18932	0.045508	0.084789	0.196388	0.195237	0.19836	0.200332
1086	0.190307	0.046823	0.090213	0.196717	0.195073	0.197374	0.196717
1087	0.189814	0.052411	0.096623	0.193265	0.202305	0.19836	0.19721
1088	0.190964	0.057835	0.100075	0.197374	0.193594	0.199346	0.198524
1089	0.188827	0.058985	0.103362	0.196552	0.199182	0.199182	0.194251
1090	0.188334	0.06671	0.111087	0.199346	0.196881	0.199839	0.199511
1091	0.186198	0.01691	0.111087	0.199018	0.199018	0.201154	0.196059
1092	0.185047	0.02595	0.113552	0.196388	0.199182	0.201812	0.195895
1093	0.187348	0.033346	0.117825	0.199675	0.20099	0.198196	0.197703
1094	0.186855	0.038769	0.119469	0.193594	0.197867	0.198853	0.19721
1095	0.182253	0.040906	0.123085	0.195073	0.198853	0.201483	0.196881
1096	0.177815	0.056027	0.12292	0.196223	0.199182	0.199018	0.015102
1097	0.179952	0.049781	0.020526	0.193758	0.196881	0.19836	0.02332
1098	0.180445	0.035318	0.031373	0.194416	0.196881	0.202469	0.000146
1099	0.181431	0.043865	0.037619	0.199018	0.193429	0.196881	0.008363
1100	0.179459	0.050768	0.040084	0.197867	0.199018	0.199511	0.010993
1101	0.184225	0.054548	0.044686	0.199675	0.198524	0.199018	0.019868
1102	0.182746	0.063916	0.036797	0.195895	0.199839	0.200168	0.029072
1103	0.186526	0.004583	0.036633	0.194909	0.200661	0.19573	0.037126
1104	0.183239	0.000146	0.029566	0.19458	0.201319	0.197045	0.041564
1105	0.187348	0.012472	0.029894	0.197374	0.197703	0.197703	0.049946
1106	0.185705	0.021183	0.035647	0.198031	0.198853	0.200332	0.054712
1107	0.184225	0.033017	0.043371	0.197867	0.197538	0.199182	0.059643
1108	0.185212	0.043865	0.050439	0.197867	0.200004	0.202798	0.065231
1109	0.183239	0.033181	0.05652	0.196552	0.199018	0.19836	0.070983
1110	0.181431	-1.9e-05	0.066875	0.198031	0.197703	0.203948	0.076572
1111	0.181267	0.000146	0.070819	0.195237	0.200825	0.201154	0.080845
1112	0.186526	-0.000183	0.074271	0.198524	0.199839	0.20099	0.083803
1113	0.183075	-0.000183	0.076736	0.196881	0.197538	0.204277	0.089391
1114	0.187841	0.00031	0.080681	0.195566	0.197538	0.200332	0.096788
1115	0.18439	0.009021	0.086762	0.19721	0.20214	0.199839	0.096623
1116	0.186526	-0.000512	0.090542	0.197045	0.197045	0.20099	0.103855
1117	0.186033	0.007049	0.091364	0.198196	0.19836	0.199182	0.109114
1118	0.187348	0.000474	0.098431	0.199018	0.19836	0.200168	0.113881
1119	0.188499	0.000146	0.100239	0.197045	0.199182	0.200168	0.115031
1120	0.194087	0.000146	0.106156	0.195566	0.199018	0.201483	0.117825
1121	0.186526	0.000146	0.105498	0.196388	0.197374	0.208057	0.119633
1122	0.188827	-0.000347	0.110429	0.196881	0.197703	0.200497	0.123906
1123	0.189978	0.010336	0.114209	0.197867	0.197703	0.203455	0.123413
1124	0.188334	0.005569	0.11799	0.200004	0.198853	0.199511	0.12555
1125	0.18932	-1.9e-05	0.117661	0.196059	0.198853	0.203126	0.129495
1126	0.188334	0.002447	0.120619	0.199182	0.199839	0.199511	0.131302
1127	0.188663	0.000146	0.119797	0.200004	0.199182	0.200825	0.135576
1128	0.186033	-0.000183	0.114045	0.196388	0.19836	0.201647	0.137219
1129	0.19195	0.002282	0.115853	0.195895	0.199839	0.201976	0.140835
1130	0.178637	0.00031	0.117332	0.196552	0.198853	0.198689	0.141986
1131	0.180445	0.000146	0.114209	0.193922	0.195237	0.199511	0.148231
1132	0.178473	-1.9e-05	0.119469	0.191786	0.199018	0.19836	0.147574
1133	0.181431	0.000146	0.118318	0.197703	0.198524	0.199839	0.155299
1134	0.181267	-1.9e-05	0.119469	0.194744	0.200004	0.201483	0.154312
1135	0.186855	-0.000183	0.117661	0.197374	0.197867	0.199675	0.154312
1136	0.180774	-1.9e-05	0.119469	0.195237	0.200004	0.202305	0.154477
1137	0.186855	-1.9e-05	0.121605	0.19573	0.196059	0.19836	0.157107
1138	0.183897	-1.9e-05	0.121441	0.20099	0.198524	0.200004	0.159079
1139	0.180938	-0.000183	0.12555	0.19836	0.198196	0.198524	0.159572
1140	0.183239	-1.9e-05	0.033181	0.196223	0.197703	0.201812	0.158093
1141	0.182911	-1.9e-05	0.041564	0.202633	0.197703	0.200497	0.158586
1142	0.18061	0.000146	0.040413	0.19573	0.199346	0.202962	0.164174
1143	0.181924	-1.9e-05	0.046001	0.201812	0.195402	0.201319	0.164831
1144	0.177487	0.00031	0.051261	0.198689	0.202798	0.202469	0.166968
1145	0.18176	-1.9e-05	0.057013	0.196388	0.198853	0.201319	0.172063
1146	0.180116	-1.9e-05	0.060958	0.197045	0.197538	0.200332	0.170419
1147	0.179623	0.000146	0.065888	0.189649	0.198853	0.203126	0.170584
1148	0.183239	-1.9e-05	0.070819	0.198689	0.199018	0.200004	0.176008
1149	0.180116	-0.000183	0.073449	0.198196	0.19721	0.199511	0.17272
1150	0.181596	-0.000183	0.080023	0.19458	0.193101	0.197374	0.176008
1151	0.181431	0.000146	0.080845	0.194087	0.20362	0.200497	0.175679
1152	0.184061	0.000146	0.087912	0.196388	0.191128	0.194744	0.177487
1153	0.182911	0.000146	0.086104	0.194087	0.191457	0.197703	0.175843
1154	0.184883	-1.9e-05	0.093172	0.192443	0.192115	0.198031	0.179788
1155	0.183075	0.000146	0.098267	0.200825	0.199182	0.202798	0.178966
1156	0.186198	-1.9e-05	0.100403	0.20099	0.19721	0.199346	0.18176
1157	0.185705	-1.9e-05	0.104841	0.195895	0.199018	0.199839	0.175679
1158	0.185376	-1.9e-05	0.111908	0.196059	0.198196	0.200497	0.178637
1159	0.183897	-0.000183	0.111744	0.199675	0.198196	0.199346	0.179788
1160	0.188334	-0.000183	0.112237	0.198031	0.198196	0.200661	0.180281
1161	0.182911	-0.000183	0.112073	0.199675	0.199346	0.200168	0.182911
1162	0.186526	-1.9e-05	0.118154	0.199018	0.19721	0.201812	0.183732
1163	0.184225	-1.9e-05	0.121277	0.202633	0.196717	0.198853	0.181924
1164	0.184554	-1.9e-05	0.12177	0.196059	0.201812	0.201812	0.18554
1165	0.183897	0.00031	0.125714	0.197867	0.198196	0.200497	0.187184
1166	0.184554	0.000146	0.124235	0.197867	0.201483	0.200168	0.183075
1167	0.187841	-1.9e-05	0.128837	0.198031	0.198853	0.200332	0.186691
1168	0.184225	-1.9e-05	0.124728	0.196717	0.201154	0.199839	0.184883
1169	0.181924	-0.000183	0.128344	0.198031	0.199182	0.205756	0.183568
1170	0.184718	-0.000347	0.127194	0.19836	0.201483	0.197538	0.188006
1171	0.189649	-0.000347	0.129659	0.197703	0.195895	0.201647	0.186855
1172	0.184225	-0.000347	0.135904	0.195895	0.199182	0.202469	0.183897
1173	0.185212	0.000146	0.130316	0.198853	0.197374	0.198853	0.187184
1174	0.184061	-1.9e-05	0.138205	0.193594	0.198031	0.200332	0.186362
1175	0.185047	-1.9e-05	0.141328	0.196059	0.200004	0.198031	0.186198
1176	0.183075	-1.9e-05	0.143301	0.199018	0.199182	0.203126	0.187348
1177	0.183239	0.000146	0.145273	0.200825	0.200825	0.199675	0.18817
1178	0.184225	0.000146	0.14593	0.20099	0.197538	0.201154	0.195566
1179	0.18176	-1.9e-05	0.147409	0.193265	0.203291	0.202469	0.188499
1180	0.183897	-0.000183	0.154477	0.203784	0.201647	0.201154	0.195237
1181	0.182746	-0.000183	0.146423	0.199675	0.206907	0.202798	0.188827
1182	0.186198	-0.000347	0.147245	0.195073	0.192443	0.196059	0.194744
1183	0.181431	-0.000347	0.149382	0.194416	0.19836	0.201647	0.1908
1184	0.180445	-0.000183	0.152011	0.196881	0.196059	0.199675	0.193265
1185	0.186526	0.000146	0.149382	0.194909	0.198196	0.201483	0.193265
1186	0.182417	0.000146	0.154641	0.197867	0.196388	0.198853	0.192772
1187	0.185869	-1.9e-05	0.153326	0.197045	0.201154	0.201647	0.192608
1188	0.096952	-1.9e-05	0.158257	0.195073	0.198524	0.198853	0.196881
1189	-0.000183	-1.9e-05	0.160394	0.196059	0.199675	0.200168	0.190635
1190	-0.001827	-0.000183	0.160229	0.195402	0.196223	0.198031	0.193594
1191	-0.000183	-1.9e-05	0.160887	0.200168	0.198524	0.197374	0.194416
1192	-0.000512	-0.000183	0.165324	0.197374	0.190635	0.199346	0.191457
1193	-0.001827	-0.000347	0.165982	0.19836	0.197045	0.200661	0.193429
1194	-0.001005	0.000146	0.16779	0.198031	0.200004	0.20362	0.190307
1195	-0.001005	-1.9e-05	0.170584	0.197374	0.195895	0.198031	0.19195
1196	0.000803	-1.9e-05	0.167625	0.196388	-1.9e-05	0.201319	0.192608
1197	0.004419	-0.000183	0.170091	0.19721	0.00672	0.199839	0.192279
1198	0.006062	0.000146	0.120948	0.196388	0.018554	0.205592	0.188827
1199	0.005076	-1.9e-05	0.122756	0.193758	0.01691	0.200004	0.196881
1200	0.012801	-1.9e-05	0.124728	0.201812	0.027265	0.200168	0.1908
1201	0.019047	-1.9e-05	0.128015	0.196223	0.036797	0.19721	0.194251
1202	0.026114	-0.000183	0.129988	0.193922	0.045344	0.199182	0.191786
1203	0.034496	-0.000347	0.133275	0.198689	0.051261	0.198031	0.189978
1204	0.038934	-0.000347	0.13311	0.198031	0.056191	0.199018	0.190635
1205	0.045508	-0.000183	0.136891	0.199018	0.060793	0.196223	0.14971
1206	0.049288	-0.000183	0.139192	0.195895	0.068518	0.199675	0.132946
1207	0.057506	-0.000183	0.143301	0.196059	0.070162	0.19836	0.138699
1208	0.059807	-0.000347	0.141164	0.196717	0.075421	0.200168	0.140506
1209	0.064409	-0.000183	0.147738	0.199182	0.081831	0.200825	0.141
1210	0.070162	-1.9e-05	0.151354	0.198524	0.081667	0.199182	0.147081
1211	0.075914	-1.9e-05	0.153984	0.198524	0.09235	0.201812	0.149382
1212	0.078873	-1.9e-05	0.151683	0.198853	0.098267	0.198689	0.150697
1213	0.082488	-0.000183	0.154806	0.197703	0.100896	0.201319	0.152505
1214	0.086762	-0.000183	0.155463	0.197374	0.104348	0.200168	0.15497
1215	0.094158	-0.000183	0.154312	0.195237	0.107306	0.201976	0.155956
1216	0.095801	-0.000512	0.155299	0.199675	0.111087	0.199675	0.163023
1217	0.096788	-0.000183	0.15497	0.19836	0.116346	0.200168	0.16138
1218	0.104019	-0.000183	0.158586	0.199839	0.115524	0.198196	0.167625
1219	0.11158	-1.9e-05	0.157271	0.198031	0.123742	0.202633	0.166311
1220	0.109607	0.000146	0.162859	0.197374	0.122098	0.189978	0.169433
1221	0.108621	-1.9e-05	0.159408	0.196388	0.127358	0.194744	0.164831
1222	0.120619	-0.000183	0.164996	0.196059	0.128015	0.200332	0.165653
1223	0.118647	-0.000183	0.160722	0.19721	0.133275	0.200168	0.164831
1224	0.124235	-0.000183	0.164996	0.197703	0.133603	0.19573	0.166146
1225	0.126536	-0.000183	0.163845	0.198689	0.13574	0.196388	0.166475
1226	0.123742	-0.000183	0.110922	0.197374	0.140835	0.201483	0.169269
1227	0.128837	-0.000183	0.010171	0.194087	0.141164	0.197538	0.170255
1228	0.133439	-1.9e-05	0.019375	0.197867	0.145602	0.198196	0.17157
1229	0.135083	-0.000183	0.03088	0.198689	0.147409	0.197703	0.176829
1230	0.134261	-0.000183	0.030387	0.198031	0.144451	0.198196	0.177651
1231	0.136726	0.000146	0.039756	0.198524	0.15234	0.198853	0.178637
1232	0.13952	-1.9e-05	0.051589	0.198853	0.1576	0.200661	0.178802
1233	0.141164	-1.9e-05	0.051096	0.197703	0.156778	0.201319	0.18176
1234	0.139685	0.000146	0.056684	0.194744	0.158093	0.202798	0.18061
1235	0.143958	-0.000183	0.065395	0.196059	0.161051	0.200332	0.178802
1236	0.146095	-0.000183	0.06408	0.198196	0.160558	0.20214	0.180774
1237	0.14856	-0.000347	0.067696	0.197867	0.16253	0.195566	0.182746
1238	0.14856	-0.000347	0.061122	0.194909	0.162859	0.196881	0.183404
1239	0.148889	-0.000183	0.009514	0.196388	0.16138	0.193429	0.180281
1240	0.150039	-1.9e-05	0.018389	0.195237	0.166311	0.196552	0.184883
1241	0.154148	-0.000183	0.001789	0.197703	0.166639	0.19458	0.183897
1242	0.16138	-1.9e-05	0.013952	0.192608	0.164996	0.194251	0.183239
1243	0.160722	0.000146	0.022827	0.199675	0.168776	0.195895	0.182746
1244	0.15497	0.000146	0.026607	0.196059	0.169433	0.195237	0.189485
1245	0.160558	-1.9e-05	0.032195	0.196223	0.172227	0.199511	0.185047
1246	0.158421	-1.9e-05	0.041564	0.196388	0.173049	0.199018	0.184883
1247	0.162202	-0.000183	0.040742	0.192279	0.171899	0.200004	0.190307
1248	0.16138	-0.000347	0.049781	0.195402	0.1742	0.197867	0.186362
1249	0.162037	-0.000183	0.051918	0.190307	0.173214	0.197538	0.189156
1250	0.160558	0.000146	0.0603	0.19573	0.17272	0.192936	0.187513
1251	0.044686	-1.9e-05	0.061122	0.195895	0.181924	0.200168	0.188663
1252	0.006884	-1.9e-05	0.068189	0.197703	0.174035	0.196881	0.192772
1253	0.009021	-0.000183	0.070983	0.194416	0.177158	0.201647	0.188334
1254	0.010336	0.000146	0.075914	0.197703	0.174693	0.196552	0.187019
1255	0.004583	0.000146	0.075092	0.191457	0.183404	0.197045	0.188006
1256	0.004419	-1.9e-05	0.076079	0.193594	0.178802	0.19721	0.188992
1257	0.002775	-0.000183	0.066053	0.194416	0.180774	0.200497	0.186691
1258	0.010336	-0.000347	0.059643	0.199018	0.181924	0.199182	0.18554
1259	0.016581	-0.000183	0.054219	0.198196	0.186526	0.197703	0.188334
1260	0.025292	-0.000676	0.049946	0.196552	0.183239	0.198689	0.188334
1261	0.027758	-0.000183	0.052575	0.196223	0.181596	0.198196	0.189156
1262	0.033346	-0.000183	0.032853	0.199346	0.185047	0.20099	0.18932
1263	0.037948	0.000146	0.033181	0.19721	0.183732	0.199346	0.192443
1264	0.034825	0.000146	0.033017	0.195237	0.185376	0.199675	0.191128
1265	0.043371	0.000474	0.037783	0.19721	0.184883	0.202305	0.191786
1266	0.044851	0.000146	0.034168	0.196223	0.190964	0.202305	0.191621
1267	0.054383	0.000474	0.034661	0.199182	0.186033	0.199511	0.189485
1268	0.055205	-0.000183	0.033674	0.195237	0.190142	0.203126	0.189814
1269	0.063752	-1.9e-05	0.032853	0.196388	0.18932	0.199839	0.191621
1270	0.069669	-0.000183	0.027429	0.195402	0.189156	0.199839	0.185869
1271	0.077393	-0.000183	0.024964	0.198031	0.189485	0.198689	0.192443
1272	0.069669	0.000146	0.002611	0.192772	0.188006	0.197703	0.193429
1273	0.08216	-1.9e-05	0.003597	0.197703	0.186526	0.197703	0.190142
1274	0.080516	-1.9e-05	0.005076	0.197703	0.191457	0.199675	0.192772
1275	0.084296	-0.000183	0.008857	0.197867	0.188499	0.197703	0.193758
1276	0.091035	0.000146	0.005241	0.200004	0.187841	0.199018	0.189649
1277	0.092843	0.000146	0.006062	0.198031	0.190307	0.20099	0.1908
1278	0.093336	-0.000183	0.003761	0.197867	0.193265	0.200168	0.192115
1279	0.049124	-0.000183	0.003433	0.197703	0.196552	0.20362	0.193265
1280	0.053069	-0.000183	0.001296	0.197045	0.193594	0.200661	0.197374
1281	0.040249	-0.000347	0.001625	0.19721	0.194744	0.200332	0.195237
1282	0.041728	-0.000347	-0.001169	0.200168	0.188499	0.200004	0.196388
1283	0.039427	-0.000183	-0.000512	0.200661	0.193922	0.206249	0.196388
1284	0.043865	-0.000183	0.003104	0.198524	0.195073	0.199839	0.196881
1285	0.043865	0.000146	-1.9e-05	0.201154	0.192936	0.199182	0.196223
1286	0.049124	-1.9e-05	0.00409	0.198689	0.193429	0.196223	0.197867
1287	0.050439	0.000146	-0.000512	0.195237	0.194744	0.198524	0.195566
1288	0.052904	-1.9e-05	0.005898	0.19836	0.196717	0.198031	0.201154
1289	0.057342	-1.9e-05	0.011158	0.194909	0.194251	0.195566	0.195073
1290	0.064902	-0.000347	0.023484	0.196388	0.193101	0.195566	0.200332
1291	0.059643	-0.000347	0.026443	0.199675	0.198196	0.200004	0.194251
1292	0.064902	-0.000347	0.036304	0.196059	0.195895	0.196059	0.195073
1293	0.06556	-0.000347	0.040249	0.200661	0.194744	0.197045	0.194087
1294	0.069504	-0.000183	0.047152	0.195895	0.196059	0.197045	0.195237
1295	0.080681	-0.000183	0.054712	0.197538	0.195566	0.198853	0.196881
1296	0.080023	-1.9e-05	0.06293	0.198524	0.19573	0.199182	0.200332
1297	0.085611	0.000146	0.066546	0.195566	0.197703	0.19721	0.199675
1298	0.087912	-0.000183	0.069011	0.195566	0.194087	0.198524	0.202633
1299	0.090871	-0.000183	0.079366	0.199182	0.198689	0.197538	0.204441
1300	0.09991	0.000146	0.080352	0.199018	0.200825	0.194744	0.199018
1301	0.097445	-0.000347	0.08709	0.197867	0.193758	0.197703	0.201976
1302	0.080023	-0.000183	0.091199	0.196717	0.197703	0.203948	0.198031
1303	0.059314	-0.000347	0.094651	0.199675	0.197867	0.194251	0.200004
1304	0.056191	-0.000347	0.094815	0.196881	0.206907	0.197538	0.198524
1305	0.007542	-0.000676	0.101061	0.197538	0.19836	0.190142	0.199018
1306	0.015431	-0.000183	0.105334	0.199675	0.198031	0.195895	0.200332
1307	0.023649	-1.9e-05	0.110429	0.203126	0.19721	0.196223	0.199346
1308	0.028086	-1.9e-05	0.114538	0.198031	0.197867	0.198031	0.196223
1309	0.03351	-1.9e-05	0.118811	0.196223	0.195566	0.19836	0.19836
1310	0.040577	-1.9e-05	0.122098	0.198853	0.196717	0.199182	0.198689
1311	0.023484	-1.9e-05	0.123413	0.199182	0.197538	0.199675	0.201483
1312	0.030223	-0.000347	0.124399	0.197538	0.199511	0.198196	0.197867
1313	0.034003	-0.000183	0.129823	0.197538	0.200825	0.199511	0.198031
1314	0.031045	-0.000512	0.133768	0.200168	0.199346	0.199675	0.200497
1315	0.027429	-1.9e-05	0.13311	0.198196	0.198524	0.200825	0.19836
1316	0.022663	-0.000347	0.138205	0.203948	0.195895	0.198689	0.194416
1317	0.029072	0.000967	0.13952	0.199018	0.202633	0.200004	0.196552
1318	0.03729	-0.001827	0.141164	0.202798	0.196223	0.197867	0.200661
1319	0.038112	0.000474	0.140506	0.196717	0.20099	0.200661	0.198196
1320	0.044522	-0.000512	0.147245	0.198196	0.195402	0.199511	0.203291
1321	0.052247	0.000146	0.145766	0.197538	0.201319	0.205592	0.204113
1322	0.061615	-0.000512	0.150204	0.198031	0.198031	0.200004	0.200497
1323	0.064245	-1.9e-05	0.150532	0.199182	0.201483	0.19721	0.201319
1324	0.069504	-0.000347	0.153491	0.196059	0.198853	0.20099	0.199511
1325	0.072298	-0.000183	0.154641	0.199346	0.198524	0.199511	0.197703
1326	0.076572	-0.000183	0.159572	0.201483	0.196552	0.197867	0.196059
1327	0.08216	-1.9e-05	0.15875	0.200825	0.19721	0.197867	0.195566
1328	0.083803	-0.000183	0.161051	0.199675	0.196388	0.199182	0.19721
1329	0.089227	-1.9e-05	0.166311	0.193265	0.198196	0.200004	0.197703
1330	0.091364	-1.9e-05	0.163516	0.199182	0.198853	0.196059	0.196059
1331	0.095966	-0.000183	0.165817	0.200332	0.200497	0.201483	0.197045
1332	0.095801	0.000146	0.167297	0.196388	0.201483	0.200825	0.199018
1333	0.102211	-1.9e-05	0.169105	0.203126	0.192772	0.199839	0.198689
1334	0.099089	-0.000347	0.166968	0.201154	0.199182	0.200168	0.197703
1335	0.102047	-0.000183	0.171241	0.201647	0.196059	0.196552	0.200497
1336	0.098267	-1.9e-05	0.171734	0.201976	0.199346	0.196717	0.196552
1337	0.108457	-0.000183	0.170255	0.201812	0.196223	0.196223	0.199018
1338	0.107471	-1.9e-05	0.171406	0.199346	0.199018	0.200332	0.199346
1339	0.116675	-0.000183	0.174035	0.200497	0.200825	0.19721	0.199675
1340	0.115853	-1.9e-05	0.172392	0.197703	0.198524	0.197703	0.202633
1341	0.118483	-0.000183	0.17535	0.199018	0.197045	0.197703	0.200497
1342	0.12177	-1.9e-05	0.175679	0.200497	0.203126	0.200825	0.199511
1343	0.128673	0.000146	0.177651	0.199839	0.199839	0.199346	0.203455
1344	0.127851	-0.000183	0.178802	0.198031	0.199839	0.197374	0.197374
1345	0.129495	-0.000183	0.177158	0.198689	0.200497	0.200004	0.198031
1346	0.132289	-0.000183	0.18176	0.202469	0.201319	0.197045	0.199182
1347	0.132453	-0.000183	0.176336	0.195073	0.207893	0.200825	0.194251
1348	0.138205	-0.000183	0.179459	0.202798	0.198689	0.198196	0.200332
1349	0.134425	-0.000347	0.176008	0.201812	0.200168	0.195402	0.195237
1350	0.143136	-1.9e-05	0.178966	0.203784	0.196223	0.195237	0.199018
1351	0.136562	-1.9e-05	0.178309	0.200661	0.197374	0.197538	0.199675
1352	0.143136	0.000146	0.179788	0.199675	0.19721	0.192443	0.200332
1353	0.143465	-1.9e-05	0.180281	0.205756	0.203126	0.196223	0.201483
1354	0.14478	0.000146	0.179952	0.199511	0.195895	0.197867	0.200825
1355	0.149053	0.000474	0.182582	0.199182	0.196388	0.197703	0.198196
1356	0.151025	-0.000347	0.183075	0.20362	0.200332	0.200332	0.199346
1357	0.151518	-0.000183	0.182911	0.202305	0.201483	0.196552	0.200004
1358	0.152011	-0.000183	0.181267	0.197045	0.187348	0.193429	0.200168
1359	0.155463	-0.000347	0.182582	0.200825	0.197703	0.19836	0.196717
1360	0.15612	-0.001005	0.184061	0.200661	0.203291	0.198524	0.199511
1361	0.156613	-1.9e-05	0.186526	0.201976	0.20099	0.195895	0.198853
1362	0.158257	-0.000183	0.187019	0.201647	0.201976	0.196223	0.199346
1363	0.1576	-0.000183	0.184718	0.202305	0.201154	0.20099	0.203126
1364	0.159243	0.000146	0.187184	0.198031	0.202633	0.200497	0.199346
1365	0.1576	-0.000183	0.190635	0.201319	0.197867	0.197538	0.19721
1366	0.158093	0.000146	0.187677	0.201812	0.202305	0.197374	0.202305
1367	0.157928	-0.000183	0.189156	0.204277	0.201483	0.196881	0.201976
1368	0.161051	-0.000347	0.18554	0.197703	0.204277	0.197867	0.198689
1369	0.163023	-0.000347	0.188499	0.199182	0.20214	0.194744	0.202962
1370	0.166475	-0.000183	0.190635	0.200497	0.200497	0.197703	0.199511
1371	0.160229	-0.000347	0.189814	0.200825	0.200497	0.193265	0.193758
1372	0.159243	0.000146	0.187348	0.198689	0.20214	0.198196	0.196059
1373	0.160229	-1.9e-05	0.18932	0.201647	0.198853	0.197374	0.200497
1374	0.160558	-0.000183	0.18932	0.199511	0.203784	0.199018	0.197867
1375	0.163188	-0.000183	0.192279	0.198031	0.200168	0.199511	0.199346
1376	0.163023	-0.000183	0.192608	0.196388	0.200004	0.196717	0.199675
1377	0.164831	-1.9e-05	0.193594	0.199346	0.203126	0.196059	0.202633
1378	0.164174	-0.000347	0.196881	0.200004	0.203784	0.197703	0.199511
1379	0.004748	0.000146	0.193922	0.199018	0.201483	0.19573	0.199839
1380	-0.000347	-0.000183	0.192443	0.199018	0.19836	0.195237	0.200825
1381	-0.000512	-0.000347	0.193101	0.199839	0.202798	0.197538	0.19721
1382	-0.000183	-0.000183	0.194909	0.200661	0.199182	0.196717	0.197703
1383	-1.9e-05	-0.000183	0.194251	0.198196	0.202469	0.19721	0.199839
1384	0.000146	-0.000183	0.195566	0.20477	0.201154	0.195566	0.201154
1385	-0.000183	-1.9e-05	0.193429	0.203291	0.200332	0.195073	0.201483
1386	0.002282	-1.9e-05	0.194744	0.202469	0.200332	0.189485	0.200004
1387	0.008692	0.000146	0.194087	0.201319	0.201319	0.196552	0.002118
1388	0.002611	-0.000183	0.195073	0.201647	0.199182	0.201812	0.012308
1389	0.002775	-1.9e-05	0.191786	0.19836	0.201483	0.200168	0.017239
1390	0.002775	-0.000183	0.198031	0.201154	0.201319	0.197703	0.028744
1391	0.002118	-0.000347	0.192936	0.199675	0.201154	0.200168	0.034168
1392	0.000474	-0.000512	0.19458	0.20099	0.200497	0.195073	0.039427
1393	-0.000183	0.000474	0.195073	0.20099	0.20099	0.200004	0.046166
1394	0.001954	-0.000183	0.193429	0.201812	0.197045	0.195566	0.05274
1395	-0.000347	-1.9e-05	0.196717	0.202633	0.199182	0.19721	0.059643
1396	0.002447	-0.000183	0.196388	0.201154	0.199839	0.196881	0.064574
1397	0.001954	-1.9e-05	0.197867	0.198196	0.199182	0.193594	0.074764
1398	0.003268	-0.000183	0.197538	0.201154	0.198853	0.195073	0.058657
1399	0.000803	-0.000183	0.198031	0.20362	0.197045	0.199018	0.003597
1400	0.000474	0.00031	0.196223	0.200168	0.197045	0.19458	0.012144
1401	0.012637	-0.000512	0.201483	0.201154	0.201319	0.199511	0.022498
1402	0.014609	-1.9e-05	0.192772	0.199018	0.200168	0.200825	0.027922
1403	0.004583	-0.000183	0.195402	0.203455	0.199018	0.197867	0.017239
1404	0.007542	-0.000841	0.19721	0.200004	0.201483	0.196881	0.021841
1405	0.018225	-0.000841	0.195237	0.205263	0.201483	0.195895	0.030716
1406	0.02332	-1.9e-05	0.195237	0.201812	0.20362	0.199018	0.037619
1407	0.028744	-0.000183	0.199182	0.20214	0.201319	0.197703	0.043536
1408	0.002447	-1.9e-05	0.19836	0.195402	0.201647	0.197867	0.051754
1409	0.008363	-0.000183	0.197703	0.20214	0.201647	0.198524	0.057013
1410	0.006062	0.000146	0.195237	0.200497	0.202633	0.199018	0.064245
1411	0.008692	0.000146	0.198031	0.200168	0.200661	0.196059	0.06293
1412	0.018225	-0.000347	0.197374	0.202633	0.19836	0.192443	0.071805
1413	0.010664	-1.9e-05	0.198853	0.202469	0.201154	0.20362	0.075257
1414	0.021676	-0.000347	0.19573	0.201647	0.197867	0.194416	0.079859
1415	0.027429	0.007049	0.200332	0.202305	0.200825	0.196552	0.088898
1416	0.032031	-0.002648	0.195073	0.204441	0.199675	0.197045	0.097116
1417	0.031373	-1.9e-05	0.193101	0.202305	0.200168	0.197703	0.097445
1418	0.005076	-0.000183	0.199675	0.206907	0.200332	0.195402	0.103033
1419	0.011815	0.000474	0.198031	0.200497	0.202798	0.197867	0.104348
1420	0.020855	-0.000183	0.199511	0.202798	0.199018	0.198524	0.109443
1421	0.018718	-0.000183	0.196223	0.201647	0.203455	0.199839	0.114209
1422	0.027593	-0.000512	0.200497	0.203291	0.200825	0.198524	0.117332
1423	0.013294	-1.9e-05	0.197703	0.206249	0.202305	0.198196	0.11914
1424	0.018389	0.000146	0.197045	0.201483	0.202633	0.198689	0.12555
1425	0.019868	-0.001169	0.197867	0.201976	0.203948	0.197867	0.127358
1426	0.030716	0.003597	0.198031	0.202305	0.199018	0.199182	0.129001
1427	0.033181	-0.001005	0.200332	0.203455	0.199018	0.203948	0.134261
1428	0.040249	0.002611	0.195402	0.200168	0.200497	0.199839	0.133932
1429	0.045344	-0.000183	0.193922	0.201976	0.201319	0.196059	0.137384
1430	0.048467	0.003268	0.200661	0.200332	0.202305	0.197867	0.076572
1431	0.054055	0.00031	0.199839	0.203455	0.19836	0.200661	0.052904
1432	0.059478	0.001954	0.200004	0.200332	0.20214	0.198031	0.054712
1433	0.065888	-0.000512	0.199839	0.199346	0.203126	0.196388	0.065888
1434	0.069176	0.004255	0.197045	0.204113	0.208715	0.197045	0.072791
1435	0.078873	0.00146	0.205921	0.20362	0.20099	0.199346	0.080352
1436	0.07953	0.002611	0.199839	0.20214	0.203291	0.200168	0.066546
1437	0.087419	0.001296	0.202962	0.20362	0.200497	0.196059	0.073778
1438	0.082488	-0.011524	0.200332	0.202305	0.201976	0.199346	0.076243
1439	0.045837	0.001296	0.199346	0.202305	0.20099	0.19836	0.084625
1440	0.038605	0.004419	0.197703	0.20214	0.199018	0.201154	0.090871
1441	0.041564	0.00672	0.199675	0.202469	0.201976	0.196717	0.046823
1442	0.032031	0.009021	0.198196	0.20099	0.199675	0.199346	0.005241
1443	0.022663	0.0105	0.196388	0.200497	0.20099	0.199182	0.009514
1444	0.022334	0.01428	0.199018	0.199839	0.200825	0.198524	0.017567
1445	0.031045	0.013952	0.200004	0.199182	0.19836	0.194416	0.027922
1446	0.022498	0.01428	0.200332	0.200661	0.199018	0.19458	0.033181
1447	0.012637	0.009514	0.197703	0.200497	0.197374	0.198853	0.040249
1448	0.021019	0.010336	0.201976	0.20214	0.195237	0.198196	0.019704
1449	0.024142	0.014445	0.199675	0.202962	0.200332	0.199511	0.017239
1450	0.03236	0.011651	0.201483	0.202798	0.200332	0.197045	0.024142
1451	0.005076	0.001789	0.19836	0.20214	0.200825	0.196552	0.036962
1452	0.006227	0.005898	0.203291	0.203784	0.199018	0.198853	0.039756
1453	0.011979	0.000803	0.197538	0.202469	0.199675	0.197045	0.048302
1454	0.023649	0.000803	0.200004	0.203455	0.201976	0.19836	0.056356
1455	0.026278	0.007049	0.197867	0.203126	0.201154	0.197045	0.058164
1456	0.030552	0.000146	0.195566	0.202798	0.198524	0.200004	0.065395
1457	0.037455	0.004583	0.196717	0.20214	0.200004	0.201812	0.06934
1458	0.045672	0.010829	0.198031	0.201319	0.199018	0.201812	0.0769
1459	0.049124	0.001132	0.195895	0.203126	0.201154	0.20214	0.080187
1460	0.049124	0.005241	0.20099	0.19836	0.197374	0.197538	0.085118
1461	0.043865	0.00935	0.194744	0.202633	0.199182	0.201647	0.088405
1462	0.045837	0.014445	0.200661	0.201812	0.200004	0.19836	0.095966
1463	0.031045	0.024799	0.205592	0.204934	0.197867	0.198031	0.097938
1464	0.009843	0.024142	0.200332	0.199018	0.195402	0.199675	0.103691
1465	0.00146	0.031702	0.200661	0.202962	0.199018	0.198689	0.109114
1466	0.002118	0.036797	0.197374	0.202633	0.201812	0.201154	0.114209
1467	0.00409	0.040742	0.197867	0.204441	0.198196	0.199675	0.114702
1468	0.009021	0.043536	0.197045	0.201976	0.198853	0.20099	0.117003
1469	0.017567	0.042878	0.199346	0.207071	0.201976	0.20099	0.121112
1470	0.022663	0.046823	0.196388	0.20099	0.198689	0.199018	0.122263
1471	0.026771	0.045508	0.199346	0.204277	0.197045	0.198689	0.129166
1472	0.026114	0.044851	0.197538	0.203126	0.198853	0.202469	0.129495
1473	-0.000183	0.023649	0.199346	0.209865	0.19836	0.19721	0.128837
1474	-0.003306	0.016253	0.197867	0.202469	0.200004	0.202633	0.132782
1475	0.002447	0.004255	0.201319	0.202305	0.195566	0.200661	0.136726
1476	0.005569	0.00787	0.198196	0.202633	0.199511	0.197374	0.136726
1477	0.014445	0.009185	0.196223	0.199839	0.19836	0.192279	0.14215
1478	0.010336	0.000967	0.197374	0.200497	0.193922	0.196223	0.138534
1479	0.00409	0.006062	0.196059	0.200332	0.197045	0.195566	0.142479
1480	0.005405	-0.000347	0.198689	0.202798	0.196388	0.193922	0.148067
1481	0.007706	-0.000183	0.200004	0.204113	0.197374	0.194744	0.14856
1482	0.003104	0.003104	0.200825	0.200497	0.19721	0.194251	0.150368
1483	0.002611	0.003268	0.200661	0.201319	0.19836	0.194087	0.150861
1484	0.003433	-1.9e-05	0.204277	0.205921	0.201647	0.19458	0.1576
1485	0.007377	0.000146	0.202798	0.202469	0.200004	0.195566	0.156942
1486	0.012144	0.000146	0.202469	0.203948	0.195895	0.195237	0.160065
1487	0.014609	-1.9e-05	0.198853	0.201647	0.208386	0.196059	0.163352
1488	0.024635	-0.000183	0.201319	0.201976	0.200661	0.196059	0.167625
1489	0.027758	-0.000183	0.199839	0.20477	0.20855	0.198524	0.164338
1490	0.034989	-0.000183	0.20099	0.202962	0.199675	0.197867	0.170091
1491	0.027922	-0.000347	0.199018	0.203455	0.205592	0.200661	0.16894
1492	0.009021	-0.000183	0.200661	0.20214	0.198524	0.196881	0.176172
1493	0.005734	-0.000183	0.200004	0.197867	0.202305	0.196223	0.174364
1494	0.00146	-1.9e-05	0.199346	0.197045	0.199018	0.196388	0.17157
1495	-0.000183	-1.9e-05	0.199675	0.204113	0.203126	0.197045	0.175679
1496	0.000146	-1.9e-05	0.197867	0.196717	0.200661	0.194909	0.17535
1497	0.001789	-1.9e-05	0.201976	0.197374	0.198196	0.200661	0.176008
1498	0.000146	-1.9e-05	0.200661	0.195566	0.20099	0.19458	0.178802
1499	-0.001334	-0.000183	0.202305	0.201647	0.201647	0.191621	0.180116
1500	0.007542	-1.9e-05	0.198031	0.199182	0.198524	0.196223	0.177322
1501	0.014938	-0.000347	0.202469	0.202633	0.195895	0.202305	0.180938
1502	0.021512	-0.000347	0.198524	0.198196	0.203455	0.193758	0.179788
1503	0.027265	-0.000512	0.200332	0.202469	0.196223	0.194251	0.182089
1504	0.03236	-0.000183	0.200332	0.197374	0.201154	0.196717	0.180938
1505	0.040413	-0.000183	0.202798	0.200004	0.19836	0.196059	0.183732
1506	0.043536	-1.9e-05	0.199675	0.192443	0.200332	0.199182	0.180774
1507	0.050932	-0.000183	0.200332	0.197867	0.202305	0.196059	0.184225
1508	0.057671	0.00031	0.199675	0.200661	0.204277	0.204277	0.184554
1509	0.061122	-1.9e-05	0.200168	0.20099	0.202305	0.195895	0.184883
1510	0.068518	-1.9e-05	0.199346	0.201976	0.20099	0.197045	0.187841
1511	0.013294	0.000146	0.197867	0.200168	0.200497	0.195566	0.184061
1512	0.001296	-0.000183	0.201647	0.200332	0.200332	0.185212	0.187184
1513	-1.9e-05	-1.9e-05	0.200825	0.197538	0.189485	0.193922	0.186362
1514	0.004255	-0.000347	0.199018	0.198853	0.199182	0.195566	0.185869
1515	-0.000347	-0.000183	0.199511	0.201812	0.198031	0.191786	0.19195
1516	0.007213	-1.9e-05	0.198853	0.204441	0.19836	0.195895	0.184061
1517	0.004583	-0.000512	0.197703	0.204113	0.199675	0.19721	0.187513
1518	0.005734	0.000967	0.198196	0.204277	0.200004	0.197867	0.191457
1519	0.011815	0.00031	0.19458	0.198853	0.200825	0.199839	0.187019
1520	0.018882	-0.001991	0.201319	0.20477	0.196388	0.198031	0.19195
1521	0.024142	0.001954	0.193429	0.199511	0.202633	0.200497	0.191128
1522	0.032853	0.000474	0.196717	0.20099	0.200332	0.197867	0.191293
1523	0.035154	0.000146	0.195402	0.200661	0.202305	0.20214	0.182746
1524	0.039427	-1.9e-05	0.197374	0.197374	0.200497	0.196223	0.1908
1525	0.049946	0.000146	0.197867	0.200661	0.201483	0.198689	0.1908
1526	-0.002813	0.002611	0.196881	0.201976	0.202633	0.197538	0.189649
1527	0.002611	0.000146	0.196388	0.199675	0.201483	0.200497	0.189978
1528	0.000803	-1.9e-05	0.195566	0.200168	0.199018	0.19721	0.191621
1529	0.003597	-1.9e-05	0.200825	0.199182	0.199675	0.198031	0.194744
1530	0.000146	0.000146	0.200825	0.198853	0.198524	0.196881	0.193101
1531	-0.001991	-1.9e-05	0.199182	0.201319	0.195566	0.197374	0.194744
1532	-0.000347	0.000967	0.197867	0.199346	0.200168	0.19836	0.193758
1533	0.003926	-0.000512	0.20099	0.205427	0.193594	0.198689	0.194416
1534	0.013952	0.000967	0.199839	0.202633	0.201483	0.200004	0.192443
1535	-1.9e-05	-0.000347	0.199182	0.202469	0.198524	0.19721	0.197867
1536	-0.00988	-0.000183	0.194744	0.198031	0.197374	0.200004	0.190964
1537	0.008363	-0.001334	0.20099	0.205921	0.199675	0.197374	0.196223
1538	0.012144	0.000967	0.198689	0.202962	0.201647	0.199182	0.192936
1539	0.024799	0.000639	0.201483	0.202305	0.197374	0.198524	0.197867
1540	0.014938	0.000146	0.199346	0.203455	0.201154	0.201319	0.194251
1541	0.007213	0.00031	0.201154	0.201647	0.201812	0.197867	0.196388
1542	0.01576	0.000639	0.196388	0.201154	0.197867	0.199182	0.197867
1543	0.019211	-0.000347	0.199511	0.199018	0.197538	0.199511	0.198689
1544	0.019047	-0.000183	0.201154	0.197045	0.200661	0.197538	0.196388
1545	-1.9e-05	0.003761	0.199182	0.198524	0.203455	0.199346	0.197374
1546	0.000146	0.001789	0.200168	0.20214	0.196717	0.197045	0.195073
1547	-0.000347	0.00935	0.19836	0.20099	0.199018	0.193265	0.194087
1548	0.001625	0.011158	0.204277	0.198524	0.19721	0.200661	0.197374
1549	0.001954	0.004912	0.195895	0.198689	0.19721	0.195895	0.199182
1550	0.010336	0.011322	0.201319	0.201319	0.19721	0.193101	0.196388
1551	0.007377	0.00672	0.194909	0.205263	0.196059	0.200332	0.19721
1552	0.015924	0.000146	0.200497	0.20214	0.198031	0.195895	0.199675
1553	0.024142	-1.9e-05	0.199018	0.200497	0.200497	0.198853	0.198524
1554	0.029237	0.005898	0.201154	0.203948	0.199346	0.197538	0.199346
1555	0.007213	0.006391	0.200497	0.200825	0.203948	0.19836	0.195895
1556	0.010171	0.01428	0.201319	0.201812	0.201647	0.196552	0.197703
1557	0.012144	-0.00347	0.201483	0.201812	0.209701	0.203126	0.197374
1558	0.023484	0.010336	0.198689	0.201812	0.20362	0.196717	0.200168
1559	0.026936	-0.001991	0.199675	0.199346	0.202305	0.200168	0.196717
1560	0.035811	0.000967	0.201154	0.202469	0.204934	0.197538	0.197374
1561	0.042057	0.000639	0.199018	0.198689	0.202469	0.197374	0.200825
1562	0.049124	0.001789	0.198031	0.199346	0.199839	0.196388	0.202633
1563	0.039263	0.00031	0.202798	0.200004	0.199839	0.196059	0.200661
1564	0.005734	0.003433	0.200825	0.198689	0.201154	0.197374	0.201483
1565	0.009843	0.00672	0.201976	0.201976	0.199346	0.197703	0.20477
1566	0.013459	0.007049	0.200332	0.200332	0.201976	0.197045	0.196717
1567	0.023156	0.003597	0.200332	0.20214	0.200661	0.197045	0.199675
1568	0.028086	0.004419	0.197374	0.200332	0.202305	0.200497	0.196552
1569	0.035811	0.000967	0.200004	0.204934	0.20099	0.195566	0.198853
1570	0.042714	0.016088	0.199675	0.20099	0.201483	0.195895	0.19836
1571	0.048795	-0.014811	0.199675	0.20362	0.199346	0.199675	0.200168
1572	0.054219	-0.007744	0.197538	0.199675	0.201319	0.19721	0.195237
1573	0.062437	0.007213	0.200661	0.201154	0.199675	0.19573	0.199018
1574	0.063259	-0.001991	0.026443	0.201154	0.202962	0.199675	0.201154
1575	0.069833	-0.001334	0.038441	0.198196	0.197374	0.199675	0.201154
1576	0.071477	0.011322	0.040742	0.200825	0.20362	0.199182	0.20099
1577	0.07838	0.018554	0.049946	0.198853	0.203291	0.200661	0.199511
1578	0.084132	0.025292	0.054876	0.199182	0.199511	0.20362	0.197045
1579	0.087419	0.034168	0.058985	0.197867	0.202962	0.19836	0.197374
1580	0.093336	0.040249	0.064409	0.200168	0.200661	0.200332	0.200004
1581	0.094651	0.037126	0.071148	0.200661	0.199182	0.195073	0.198196
1582	0.100239	0.018061	0.077393	0.202798	0.197045	0.200497	0.200497
1583	0.101718	0.026114	0.081338	0.203126	0.19721	0.197703	0.200332
1584	0.106978	0.028908	0.088077	0.202798	0.196552	0.195895	0.201483
1585	0.113059	0.039427	0.08857	0.200497	0.199839	0.200168	0.198853
1586	0.113388	0.046494	0.093172	0.203126	0.198524	0.198689	0.201976
1587	0.118154	0.003597	0.09991	0.200004	0.200332	0.199182	0.186198
1588	0.125386	0.010007	0.105992	0.202305	0.201812	0.19721	0.19836
1589	0.123085	0.021019	0.106485	0.200661	0.200004	0.201154	0.199346
1590	0.103855	0.02973	0.112237	0.199346	0.199839	0.197867	0.19836
1591	0.104019	0.035154	0.113716	0.199018	0.202633	0.200004	0.19573
1592	0.106978	0.0437	0.118647	0.198524	0.198524	0.198853	0.197045
1593	0.031373	0.010829	0.118976	0.203948	0.20099	0.199511	0.202798
1594	0.040084	0.012144	0.124235	0.197867	0.199182	0.199511	0.196717
1595	0.046823	0.017074	0.126865	0.196717	0.199675	0.197045	0.201976
1596	0.055041	0.026771	0.125714	0.198689	0.198196	0.195566	0.200168
1597	0.059643	0.035811	0.01576	0.199018	0.198524	0.199018	0.200004
1598	0.064409	0.042057	0.021512	0.19721	0.199346	0.196388	0.198689
1599	0.071641	0.045508	0.031045	0.195402	0.195566	0.193429	0.203455
1600	0.074271	0.056027	0.03614	0.198524	0.19573	0.199511	0.200332
1601	0.079859	0.059643	0.044193	0.200332	0.197703	0.196717	0.198196
1602	0.081174	0.047152	0.047973	0.200168	0.198031	0.196223	0.199346
1603	0.080516	0.055041	0.055205	0.203291	0.195073	0.196717	0.200332
1604	0.081831	0.058657	0.057013	0.202305	0.197703	0.196552	0.196881
1605	0.089227	0.059643	0.066053	0.201319	0.198524	0.197045	0.196059
1606	0.090378	0.069504	0.071805	0.202962	0.199182	0.199839	0.196388
1607	0.096623	0.075421	0.076079	0.202469	0.203126	0.197374	0.200004
1608	0.09876	-0.000841	0.083968	0.201647	0.196059	0.20099	0.198031
1609	0.103033	0.010664	0.08709	0.199839	0.196388	0.197703	0.201647
1610	0.107306	0.013787	0.090871	0.198689	0.201154	0.199839	0.197538
1611	0.113223	0.003433	0.09613	0.195895	0.199675	0.198031	0.200661
1612	0.112894	0.003104	0.100896	0.197703	0.201483	0.200661	0.199182
1613	0.115853	0.01428	0.102869	0.201154	0.202305	0.196717	0.196223
1614	0.124728	0.020362	0.107635	0.200661	0.198196	0.197538	0.202633
1615	0.124893	0.028415	0.107306	0.199346	0.199346	0.199346	0.199839
1616	0.127522	0.031373	0.112401	0.202633	0.199018	0.19573	0.195237
1617	0.130152	0.042385	0.113881	0.201483	0.200332	0.198196	0.199511
1618	0.134754	0.047316	0.11651	0.201647	0.199182	0.196223	0.200825
1619	0.13459	0.050932	0.120455	0.200004	0.201483	0.203455	0.196388
1620	0.139192	0.055041	0.125714	0.202469	0.200004	0.19836	0.200004
1621	0.139192	0.060793	0.128015	0.201319	0.200661	0.198196	0.196223
1622	0.145273	0.067203	0.133932	0.199511	0.200168	0.19836	0.196717
1623	0.146588	0.074106	0.129659	0.201976	0.201647	0.200661	0.198689
1624	0.147574	0.077886	0.138041	0.202962	0.200004	0.195566	0.199018
1625	0.147903	0.04255	0.140671	0.201976	0.196223	0.200004	0.196717
1626	0.150368	0.007377	0.14215	0.200661	0.199839	0.200661	0.200661
1627	0.151683	-1.9e-05	0.14478	0.199675	0.201319	0.199182	0.197045
1628	0.155627	0.00409	0.124399	0.198031	0.199511	0.197867	0.199018
1629	0.15497	0.013623	0.103855	0.196059	0.198689	0.198196	0.200168
1630	0.157435	0.019704	0.108457	0.203784	0.198524	0.202305	0.200661
1631	0.158586	0.015102	0.112401	0.199182	0.201647	0.199018	0.198689
1632	0.162695	0.001132	0.112073	0.199182	0.199839	0.198524	0.201154
1633	0.163845	0.011158	0.119469	0.200497	0.196223	0.00787	0.200004
1634	0.16253	0.007377	0.120126	0.196717	0.199675	0.015595	0.199018
1635	0.168447	0.014445	0.122756	0.201976	0.198196	0.025128	0.199018
1636	0.169598	0.022663	0.126536	0.200168	0.201976	0.031702	0.196388
1637	0.170255	0.026771	0.137548	0.200825	0.199511	0.037126	0.199675
1638	0.176336	0.032688	0.133439	0.200332	0.200168	0.043536	0.195895
1639	0.17157	0.023649	0.136069	0.203948	0.199675	0.049453	0.200004
1640	0.17272	0.032688	0.138534	0.199182	0.199839	0.058328	0.202962
1641	0.174693	0.038934	0.132453	0.201319	0.19836	0.06408	0.203291
1642	0.174693	0.014773	0.134097	0.200004	0.204277	0.069833	0.198031
1643	0.173049	0.023156	0.129659	0.200332	0.200661	0.074271	0.202633
1644	0.177651	0.012472	0.121934	0.200168	0.201976	0.080845	0.198031
1645	0.177487	0.005734	0.127358	0.20214	0.200661	0.086104	0.200004
1646	0.183568	0.001296	0.127522	0.202469	0.200168	0.093336	0.200004
1647	0.180281	0.021512	0.127522	0.198031	0.196388	0.096459	0.198524
1648	0.180774	0.021019	0.134754	0.203126	0.200332	0.099089	0.200168
1649	0.18061	0.015102	0.13459	0.201812	0.196717	0.106978	0.200825
1650	0.182253	0.020362	0.138699	0.200004	0.191621	0.103526	0.202798
1651	0.180445	0.032031	0.13952	0.198524	0.195402	0.107142	0.198031
1652	0.183732	0.008035	0.143465	0.196717	0.195895	0.114702	0.200004
1653	0.183404	0.009021	0.14593	0.199182	0.20099	0.114538	0.199839
1654	0.184225	-0.00347	0.146423	0.200332	0.196388	0.116017	0.19573
1655	0.185376	0.0105	0.149217	0.200004	0.198689	0.123906	0.198031
1656	0.182746	-0.000512	0.15234	0.204934	0.199018	0.126865	0.196552
1657	0.184883	-0.00232	0.153491	0.200004	0.199346	0.131631	0.194909
1658	0.186855	0.005076	0.157271	0.202798	0.194251	0.13311	0.19836
1659	0.184554	0.013787	0.156778	0.202633	0.201647	0.136726	0.197703
1660	0.186362	0.020526	0.162366	0.203948	0.198853	0.138041	0.197045
1661	0.187019	0.000474	0.157764	0.206085	0.198853	0.14215	0.19836
1662	0.18554	0.000146	0.159736	0.199839	0.200497	0.141986	0.200497
1663	0.185212	0.000146	0.167297	0.203126	0.198031	0.148067	0.198853
1664	0.186033	0.00031	0.165489	0.201483	0.203455	0.147245	0.202798
1665	0.191621	0.000639	0.165324	0.201647	0.198689	0.149217	0.203291
1666	0.188006	-0.000183	0.163681	0.202798	0.197374	0.150861	0.196388
1667	0.190635	-1.9e-05	0.165324	0.202798	0.200661	0.157928	0.195895
1668	0.190635	-0.000183	0.166146	0.198689	0.200332	0.154312	0.196059
1669	0.194416	-0.000347	0.170913	0.201483	0.197867	0.153491	0.198031
1670	0.191786	-0.000183	0.169598	0.205592	0.198689	0.1576	0.194416
1671	0.192443	-0.000347	0.1742	0.201812	0.197538	0.159243	0.198196
1672	0.193429	-0.000183	0.173378	0.197045	0.19836	0.159572	0.194744
1673	0.194251	-1.9e-05	0.177815	0.201319	0.199511	0.161873	0.198524
1674	0.188992	-1.9e-05	0.177487	0.200825	0.204606	0.167461	0.195073
1675	0.192443	0.000967	0.181267	0.20099	0.194744	0.161544	0.190471
1676	0.190964	0.000146	0.180281	0.201154	0.203126	0.168612	0.194909
1677	0.190964	-1.9e-05	0.178802	0.199839	0.199675	0.166968	0.196059
1678	0.190635	-0.000183	0.177158	0.202469	0.200661	0.154148	0.198031
1679	0.19195	-0.000183	0.181924	0.196552	0.196388	0.16779	0.198196
1680	0.191457	-0.000183	0.181267	0.198524	0.198853	0.171734	0.199018
1681	0.189978	-0.000183	0.181431	0.199182	0.198524	0.170091	0.197703
1682	0.193594	-1.9e-05	0.182089	0.200168	0.198524	0.172556	0.199675
1683	0.195566	-0.000183	0.181924	0.194744	0.196388	0.173871	0.199182
1684	0.195402	0.000146	0.18439	0.200332	0.199346	0.176829	0.196388
1685	0.194251	0.000146	0.18554	0.199346	0.201154	0.175679	0.19836
1686	0.193429	0.001789	0.185869	0.200332	0.193758	0.174364	0.198031
1687	0.195237	0.00031	0.188827	0.201154	0.201812	0.17913	0.19836
1688	0.200004	0.000146	0.188006	0.200168	0.200332	0.177487	0.197538
1689	0.19573	0.008692	0.187841	0.200004	0.200004	0.178309	0.193758
1690	0.198689	-0.001662	0.190635	0.200332	0.197045	0.180116	0.20099
1691	0.200825	-1.9e-05	0.184718	0.200497	0.200497	0.182417	0.195895
1692	0.196059	0.013952	0.188334	0.199839	0.198524	0.179623	0.19836
1693	0.193594	0.006227	0.19458	0.198853	0.202305	0.182911	0.197374
1694	0.192608	0.010336	0.188992	0.197867	0.200004	0.182746	0.200004
1695	0.200004	0.001296	0.190964	0.199346	0.200825	0.191786	0.199511
1696	0.195566	0.000474	0.192608	0.197045	0.20099	0.187841	0.198524
1697	0.198689	0.004748	0.188827	0.196881	0.196059	0.183239	0.199511
1698	0.195566	0.004419	0.191128	0.198524	0.200168	0.18439	0.200661
1699	0.198689	0.001625	0.191128	0.202305	0.199018	0.182746	0.199346
1700	0.196552	0.012144	0.190471	0.200332	0.195073	0.182089	0.197867
1701	0.199182	0.018882	0.193429	0.200661	0.196059	0.181103	0.196717
1702	0.189485	0.031867	0.193101	0.201976	0.200004	0.183897	0.194744
1703	0.199182	0.035154	0.192443	0.201647	0.200332	0.185869	0.198524
1704	0.196059	0.041564	0.192115	0.200332	0.200004	0.188006	0.194087
1705	0.198196	0.044358	0.194087	0.20362	0.199346	0.189814	0.201976
1706	0.197538	0.018389	0.19195	0.19836	0.199182	0.190635	0.190307
1707	0.199346	0.009843	0.196388	0.201319	0.204606	0.186526	0.197538
1708	0.198031	0.007377	0.193265	0.199675	0.199839	0.191128	0.197867
1709	0.199839	0.001954	0.195566	0.201154	0.200661	0.192115	0.192608
1710	0.196388	0.000146	0.196881	0.201647	0.203948	0.193594	0.198853
1711	0.19836	0.000967	0.192936	0.198196	0.203126	0.192772	0.200004
1712	0.198196	-0.000512	0.19573	0.20099	0.204606	0.195237	0.195895
1713	0.19836	-0.000841	0.196552	0.20477	0.202633	0.191786	0.197703
1714	0.196059	-1.9e-05	0.194251	0.201647	0.201154	0.193922	0.197867
1715	0.198524	-0.000347	0.193758	0.200332	0.198853	0.194087	0.199675
1716	0.196552	-0.000183	0.197538	0.201483	0.200168	0.193101	0.203126
1717	0.198196	0.00031	0.189485	0.203455	0.198031	0.193265	0.200004
1718	0.199675	0.006391	0.195073	0.202469	0.199346	0.191457	0.198031
1719	0.200497	0.00935	0.194251	0.19573	0.199018	0.195402	0.197703
1720	0.198853	0.017896	0.194087	0.202469	0.19721	0.193758	0.200497
1721	0.200825	0.025128	0.193758	0.201483	0.199346	0.195566	0.193265
1722	0.204934	0.029894	0.196223	0.202798	0.200332	0.192936	0.197045
1723	0.198031	0.029237	0.197538	0.200497	0.200661	0.200497	0.193101
1724	0.19836	0.020033	0.199018	0.202305	0.204934	0.196388	0.192443
1725	0.196552	0.010993	0.195402	0.198689	0.201483	0.19573	0.194251
1726	0.199675	-0.002648	0.196388	0.201647	0.200825	0.196223	0.193265
1727	0.195073	0.009843	0.193594	0.198853	0.202305	0.198524	0.198031
1728	0.196059	0.020033	0.192772	0.201976	0.199346	0.196552	0.197374
1729	0.196388	0.006884	0.197703	0.199511	0.201812	0.19458	0.198853
1730	0.197867	0.016253	0.196388	0.199675	0.200661	0.201154	0.199511
1731	0.197045	0.025128	0.195566	0.20099	0.200004	0.198853	0.198853
1732	0.198196	0.028415	0.196223	0.199018	0.199511	0.196223	0.195402
1733	0.200004	0.022334	0.199182	0.201483	0.199839	0.197045	0.199511
1734	0.200004	0.030716	0.194416	0.19836	0.201319	0.197374	0.196552
1735	0.201154	0.040413	0.19836	0.20362	0.199839	0.195073	0.197703
1736	0.198031	0.031702	0.195566	0.199839	0.199018	0.197045	0.196388
1737	0.199675	0.041564	0.197045	0.198524	0.198196	0.193265	0.201154
1738	0.19721	0.033674	0.194251	0.202798	0.200825	0.198196	0.197045
1739	0.201319	0.038769	0.194744	0.200661	0.196717	0.194416	0.195566
1740	0.199675	0.044522	0.200004	0.199182	0.201647	0.199675	0.197538
1741	0.199675	0.051425	0.200497	0.203126	0.198196	0.196881	0.197538
1742	0.197374	0.000639	0.19836	0.199675	0.201812	0.202305	0.200497
1743	0.199675	0.000803	0.198524	0.201154	0.199675	0.194744	0.19836
1744	0.19721	-1.9e-05	0.196223	0.198689	0.202633	0.204441	0.197703
1745	0.197538	-1.9e-05	0.198031	0.198689	0.198524	0.200004	0.199346
1746	0.200661	-1.9e-05	0.19573	0.200168	0.201154	0.198031	0.200332
1747	0.200004	-0.000183	0.200004	0.198196	0.201319	0.196223	0.19836
1748	0.19721	-0.000183	0.199182	0.198524	0.196388	0.196223	0.203291
1749	0.197374	-1.9e-05	0.194251	0.199839	0.202305	0.192608	0.196552
1750	0.199675	0.000146	0.20099	0.196717	0.197703	0.195073	0.198524
1751	0.199182	-1.9e-05	0.195073	0.196881	0.195237	0.195895	0.197374
1752	0.203126	-1.9e-05	0.203455	0.200004	0.194909	0.194744	0.199675
1753	0.197703	0.000146	0.198853	0.198196	0.199182	0.198196	0.196059
1754	0.201154	-0.000347	0.197538	0.200168	0.198524	0.198524	0.196881
1755	0.200004	0.000146	0.198853	0.199511	0.20214	0.197538	0.197045
1756	0.200661	-0.001005	0.200168	0.198196	0.199511	0.199018	0.199018
1757	0.200661	0.000474	0.196388	0.200168	0.202633	0.198853	0.197867
1758	0.20214	0.004912	0.201154	0.204113	0.199839	0.200004	0.196717
1759	0.198524	-0.001334	0.196717	0.199511	0.205263	0.197538	0.200004
1760	0.201812	0.006884	0.200332	0.20214	0.197538	0.19721	0.197045
1761	0.200661	0.002118	0.198853	0.200497	0.201319	0.201483	0.199182
1762	0.20099	0.000146	0.201647	0.203291	0.202798	0.198031	0.199346
1763	0.201154	-1.9e-05	0.200004	0.201483	0.201154	0.20099	0.202305
1764	0.199182	-1.9e-05	0.197867	0.200168	0.200332	0.199675	0.201483
1765	0.201647	-1.9e-05	0.198689	0.199346	0.201319	0.200004	0.194416
1766	0.199839	0.012801	0.197045	0.199511	0.200497	0.198524	0.19836
1767	0.199675	0.01954	0.197374	0.197703	0.200004	0.198031	0.205263
1768	0.200004	-0.000183	0.194416	0.196059	0.202798	0.147245	0.196059
1769	0.204441	-0.000347	0.19721	0.200168	0.197374	0.024306	0.202305
1770	0.198853	0.01691	0.196388	0.19836	0.201976	0.029894	0.196881
1771	0.198031	0.023156	0.196223	0.200332	0.19836	0.037783	0.198031
1772	0.200168	0.030716	0.196059	0.202305	0.199675	0.046494	0.196223
1773	0.198853	-0.000183	0.198524	0.201154	0.19836	0.047152	0.197703
1774	0.199511	0.008857	0.199511	0.197867	0.199839	0.059972	0.196388
1775	0.197867	-0.002484	0.201154	0.203291	0.200497	0.064738	0.195895
1776	0.199018	0.005734	0.198689	0.200497	0.201647	0.072627	0.200497
1777	0.19836	0.011815	0.197703	0.197703	0.201483	0.079366	0.202469
1778	0.19721	0.009021	0.197045	0.200168	0.198031	0.086926	0.199511
1779	0.197538	0.019211	0.191786	0.200497	0.203455	0.084789	0.202305
1780	0.198689	0.019047	0.198196	0.200004	0.200332	0.091364	0.199511
1781	0.196059	0.028908	0.196552	0.201647	0.202633	0.095473	0.200004
1782	0.198853	0.034496	0.198031	0.198031	0.199018	0.095801	0.19836
1783	0.19721	0.039263	0.197867	0.201319	0.201154	0.105005	0.200168
1784	0.196881	0.04748	0.199018	0.199182	0.201976	0.105334	0.201319
1785	0.201154	0.051918	0.197867	0.19721	0.19836	0.111415	0.198853
1786	0.19836	0.053726	0.199511	0.20099	0.200332	0.113059	0.200661
1787	0.196388	0.057835	0.198031	0.198031	0.200661	0.117003	0.20099
1788	0.199182	0.066381	0.196717	0.198524	0.198524	0.12177	0.196881
1789	0.199346	0.071148	0.191128	0.199346	0.20099	0.126536	0.195237
1790	0.202305	0.072134	0.200168	0.20214	0.198689	0.125879	0.199839
1791	0.199018	0.07953	0.197374	0.20362	0.199675	0.131302	0.197045
1792	0.199839	0.084132	0.198031	0.200004	0.199346	0.13196	0.197867
1793	0.198853	0.08594	0.197867	0.200497	0.200332	0.137548	0.19836
1794	0.197867	0.093993	0.198853	0.200661	0.200825	0.138863	0.200332
1795	0.19836	0.094158	0.199346	0.199346	0.200332	0.140178	0.199839
1796	0.199018	0.101554	0.197538	0.198853	0.200004	0.14215	0.202633
1797	0.197867	0.024799	0.19836	0.197703	0.201647	0.145273	0.200168
1798	0.200332	0.025621	0.195237	0.197374	0.199182	0.147409	0.201483
1799	0.205756	-0.001991	0.195073	0.202469	0.199511	0.146752	0.196881
1800	0.199839	0.00935	0.196059	0.203126	0.204277	0.158421	0.196388
1801	0.199018	0.015924	0.192608	0.20214	0.198524	0.153326	0.203291
1802	0.202633	0.019047	0.19836	0.199511	0.196881	0.156285	0.200004
1803	0.201812	0.027922	0.195895	0.203455	0.197374	0.154312	0.199182
1804	0.197045	0.030223	0.191786	0.199675	0.201647	0.157435	0.197703
1805	0.201647	0.023156	0.200661	0.202469	0.198196	0.156778	0.200168
1806	0.198196	0.004748	0.195566	0.199675	0.202305	0.160229	0.197867
1807	0.200825	-0.000841	0.196552	0.200332	0.196223	0.163681	0.200004
1808	0.197538	0.000474	0.199346	0.199675	0.201647	0.167625	0.197867
1809	0.202305	0.00787	0.199675	0.202469	0.203291	0.166475	0.199182
1810	0.198689	0.023156	0.197045	0.201976	0.20099	0.171077	0.198689
1811	0.201647	0.001132	0.200004	0.206742	0.198853	0.171734	0.197703
1812	0.19836	-0.004292	0.200168	0.201976	0.202633	0.17157	0.19836
1813	0.197374	-0.004128	0.196717	0.201319	0.200497	0.173707	0.198524
1814	0.198524	0.013623	0.19573	0.200168	0.200004	0.171899	0.061615
1815	0.198031	0.019868	0.197045	0.199511	0.200168	0.175021	0.06556
1816	0.200004	0.018061	0.194087	0.204277	0.199182	0.175021	0.069176
1817	0.200168	0.018718	0.194087	0.194416	0.201319	0.172392	0.079201
1818	0.201976	0.000803	0.197538	0.198524	0.201483	0.178473	0.085611
1819	0.196059	0.027922	0.194416	0.196717	0.201976	0.17798	0.090213
1820	0.203948	0.036469	0.196717	0.199675	0.200168	0.177815	0.09498
1821	0.198196	0.00787	0.195402	0.200661	0.200332	0.180938	0.098595
1822	0.19836	0.003926	0.196717	0.201976	0.195237	0.181924	0.100896
1823	0.198853	-1.9e-05	0.196388	0.199675	0.206085	0.181431	0.100896
1824	0.199511	-0.000183	0.19721	0.202633	0.200332	0.179623	0.107635
1825	0.201812	-0.001662	0.196881	0.201154	0.199346	0.182582	0.110922
1826	0.197703	-0.000183	0.198031	0.203455	0.200825	0.181103	0.11799
1827	0.197867	-0.000347	0.199346	0.193594	0.201976	0.186362	0.118318
1828	0.200661	-1.9e-05	0.1908	0.200004	0.20099	0.187019	0.123742
1829	0.195402	-1.9e-05	0.194251	0.200332	0.204277	0.189649	0.124728
1830	0.196552	0.000146	0.194744	0.198031	0.203126	0.186033	0.130152
1831	0.198196	-1.9e-05	0.192608	0.197703	0.202633	0.186855	0.133275
1832	0.196717	-1.9e-05	0.19458	0.197867	0.203126	0.186198	0.133932
1833	0.194416	-0.000183	0.193265	0.197867	0.200497	0.189814	0.13952
1834	0.199182	-0.000183	0.194416	0.19721	0.197703	0.179623	0.136562
1835	0.201647	-0.000347	0.198689	0.199511	0.192936	0.179952	0.14215
1836	0.198524	-0.000347	0.19195	0.199675	0.198524	0.183732	0.146423
1837	0.202469	-0.000183	0.197374	0.202305	0.201483	0.181924	0.150697
1838	0.194744	-1.9e-05	0.19573	0.19836	0.200332	0.184883	0.14971
1839	0.197538	-1.9e-05	0.195237	0.199346	0.199346	0.185705	0.151683
1840	0.199018	-1.9e-05	0.201483	0.199675	0.204113	0.187841	0.152998
1841	0.198689	0.000146	0.196881	0.200661	0.198196	0.186362	0.155463
1842	0.201154	0.000146	0.194251	0.200661	0.201812	0.185376	0.156942
1843	0.200332	-0.000183	0.198524	0.203126	0.201483	0.18932	0.157107
1844	0.197538	-0.000183	0.195566	0.197867	0.201976	0.177651	0.159408
1845	0.201154	-0.000183	0.199346	0.194251	0.199839	0.183075	0.16138
1846	0.197703	-0.000347	0.197867	0.198689	0.20099	0.190635	0.163516
1847	0.199839	-0.000841	0.195895	0.20099	0.200332	0.188499	0.163188
1848	0.19836	-1.9e-05	0.195895	0.199511	0.20099	0.191457	0.163516
1849	0.202633	0.001625	0.196388	0.199675	0.199346	0.18932	0.168612
1850	0.200497	0.000146	0.193265	0.194909	0.199018	0.187677	0.171406
1851	0.199182	0.00031	0.195073	0.201319	0.201647	0.186198	0.169433
1852	0.200332	-1.9e-05	0.195566	0.202305	0.196059	0.190635	0.172392
1853	0.200661	0.000146	0.192608	0.199511	0.200004	0.188334	0.1742
1854	0.201812	-0.001662	0.196223	0.202469	0.200497	0.186526	0.174528
1855	0.200168	-0.000347	0.181596	0.200332	0.201154	0.192936	0.173378
1856	0.202469	-0.000183	0.186691	0.199839	0.199018	0.189485	0.175515
1857	0.205592	-0.000347	0.184883	0.20099	0.201154	0.19458	0.174693
1858	0.199511	-0.000512	0.187677	0.202469	0.199346	0.193429	0.178966
1859	0.200004	0.00294	0.190307	0.201647	0.200825	0.193265	0.174857
1860	0.19721	0.007213	0.188499	0.202305	0.198689	0.192772	0.179459
1861	0.200661	0.002775	0.186198	0.202469	0.199839	0.194416	0.179295
1862	0.198524	-0.000183	0.187184	0.198853	0.199182	0.192936	0.182746
1863	0.199839	-0.002648	0.184883	0.201812	0.199182	0.19721	0.181267
1864	0.198524	0.002447	0.182582	0.200332	0.200168	0.195402	0.187841
1865	0.199018	0.000803	0.18176	0.20099	0.202633	0.194087	0.183239
1866	0.199675	0.001625	0.180445	0.200661	0.201647	0.197538	0.182582
1867	0.20099	0.007377	0.184718	0.196881	0.199018	0.193594	0.183897
1868	0.189156	0.005569	0.18439	0.202305	0.203948	0.196223	0.18439
1869	0.198853	0.012144	0.182746	0.203455	0.199182	0.196223	0.187513
1870	0.200661	0.017896	0.182582	0.200825	0.20214	0.197703	0.185047
1871	0.199839	0.016088	0.18554	0.201812	0.202633	0.195402	0.186855
1872	0.200825	0.026771	0.183075	0.201976	0.196223	0.198196	0.187184
1873	0.204113	0.033674	0.188006	0.199182	0.198031	0.195402	0.187184
1874	0.202633	0.037948	0.187348	0.202798	0.201319	0.199018	0.186691
1875	0.204934	0.040413	0.190142	0.200168	0.199346	0.193922	0.192443
1876	0.199511	0.00409	0.188334	0.199511	0.201319	0.199346	0.183897
1877	0.198524	0.010993	0.190142	0.202798	0.199511	0.196059	0.187841
1878	0.199182	0.020033	0.192443	0.198689	0.202305	0.201647	0.186033
1879	0.200004	-0.000183	0.194416	0.203784	0.206414	0.199839	0.189978
1880	0.197538	-1.9e-05	0.192936	0.20362	0.201976	0.200168	0.186691
1881	0.195402	-0.000347	0.190471	0.204113	0.199018	0.199675	0.191457
1882	0.195073	0.000146	0.1908	0.201812	0.20099	0.199675	0.195895
1883	0.200332	0.00787	0.191786	0.201976	0.198196	0.199346	0.193758
1884	0.202305	0.009678	0.19458	0.201976	0.199511	0.194251	0.193265
1885	0.202633	0.006062	0.18932	0.201154	0.198196	0.199675	0.193758
1886	0.199839	0.003926	0.192279	0.201812	0.200332	0.197703	0.196223
1887	0.200661	0.011486	0.190471	0.198031	0.200004	0.19836	0.196552
1888	0.207564	0.011651	0.194416	0.201812	0.198853	0.199346	0.196223
1889	0.198031	0.000474	0.1908	0.199839	0.201154	0.20214	0.195237
1890	0.20362	0.001954	0.194251	0.199018	0.201976	0.197867	0.197538
1891	0.199675	0.006556	0.193265	0.196223	0.201319	0.198689	0.19721
1892	0.200825	0.014773	0.192443	0.201812	0.198853	0.197538	0.193594
1893	0.201154	0.010007	0.194087	0.201483	0.198689	0.201154	0.19458
1894	0.200497	0.017567	0.194087	0.201976	0.200661	0.194744	0.197538
1895	0.201154	0.025457	0.196059	0.201319	0.200661	0.198524	0.196059
1896	0.200004	0.022498	0.196059	0.199675	0.197867	0.200332	0.197703
1897	0.19836	0.029894	0.19721	0.201483	0.200661	0.201319	0.205921
1898	0.202305	0.030552	0.197374	0.19836	0.201319	0.198853	0.196717
1899	0.201812	0.022827	0.198689	0.198524	0.197374	0.197867	0.200497
1900	0.199182	0.005734	0.192279	0.197538	0.197374	0.202798	0.200332
1901	0.195237	0.000474	0.195073	0.206578	0.200332	0.197703	0.199675
1902	0.199346	0.000967	0.193594	0.199839	0.201976	0.200332	0.199018
1903	0.20099	0.002611	0.195237	0.201647	0.198689	0.200661	0.201483
1904	0.200497	0.008363	0.194251	0.200661	0.201976	0.200661	0.199018
1905	0.202798	0.008363	0.196059	0.204934	0.200661	0.200661	0.199839
1906	0.200004	0.004912	0.195073	0.203948	0.201647	0.202798	0.198196
1907	0.202962	0.009185	0.196552	0.201976	0.198689	0.203291	0.200332
1908	0.199511	0.011979	0.196388	0.200497	0.202305	0.201647	0.186855
1909	0.201647	0.013623	0.19573	0.200497	0.201154	0.200825	0.197374
1910	0.20099	0.020855	0.196388	0.201319	0.200004	0.200004	0.196717
1911	0.202305	0.015924	0.197374	0.202305	0.201154	0.20099	0.197538
1912	0.197867	0.023813	0.198031	0.203455	0.199346	0.201319	0.199018
1913	0.203948	0.031045	0.199182	0.203455	0.203455	0.20214	0.198524
1914	0.199018	0.032031	0.195895	0.202962	0.201812	0.201976	0.203948
1915	0.198196	0.040084	0.194909	0.200332	0.20099	0.199839	0.202305
1916	0.204441	0.045344	0.196552	0.202305	0.201647	0.20214	0.203784
1917	0.197374	0.048467	0.194909	0.199346	0.201483	0.200004	0.20099
1918	0.201483	0.046987	0.197374	0.202305	0.200004	0.204113	0.050274
1919	0.197867	0.05274	0.19573	0.200004	0.203455	0.20099	0.009021
1920	0.203948	0.052575	0.195566	0.201154	0.202962	0.200332	0.019704
1921	0.203784	0.051589	0.198031	0.199018	0.20362	0.200004	0.024799
1922	0.205427	0.051425	0.194909	0.204441	0.200168	0.200497	0.033017
1923	0.201976	0.055205	0.198031	0.199675	0.203784	0.202305	0.037619
1924	0.204606	0.010829	0.196552	0.202469	0.199346	0.198196	0.045837
1925	0.200004	0.013952	0.198853	0.199346	0.199675	0.201976	0.051425
1926	0.201647	0.017732	0.19836	0.204277	0.196881	0.200497	0.054876
1927	0.198524	0.020526	0.197703	0.204277	0.199511	0.200825	0.057671
1928	0.199675	0.026443	0.201647	0.200332	0.202798	0.199675	0.066546
1929	0.199346	0.0271	0.200661	0.203126	0.199018	0.203126	0.073942
1930	0.198196	0.031373	0.202469	0.199839	0.200825	0.203784	0.078544
1931	0.199182	0.008035	0.201812	0.201483	0.200497	0.204934	0.075585
1932	0.201647	0.014116	0.201647	0.200004	0.19836	0.200825	0.08216
1933	0.201483	0.016417	0.199182	0.197867	0.198689	0.203455	0.086597
1934	0.199839	0.017403	0.197045	0.200661	0.203291	0.200661	0.089885
1935	0.205592	0.021512	0.198524	0.200497	0.201154	0.201483	0.094487
1936	0.199839	0.022663	0.197045	0.200825	0.201812	0.202633	0.097774
1937	0.201319	0.022991	0.200004	0.20099	0.200825	0.201154	0.104184
1938	0.204113	0.031373	0.194909	0.199839	0.201483	0.202305	0.105663
1939	0.20855	0.03351	0.199839	0.200497	0.201647	0.200497	0.113881
1940	0.20099	0.039756	0.19836	0.197867	0.201154	0.202798	0.117168
1941	0.202633	0.046494	0.194744	0.200661	0.201154	0.202305	0.118483
1942	0.201812	0.043371	0.193429	0.196223	0.200825	0.203455	0.120291
1943	0.204113	0.049288	0.199182	0.197374	0.198853	0.201154	0.124235
1944	0.203948	0.051261	0.19836	0.198031	0.200825	0.20477	0.125386
1945	0.20099	0.054548	0.201647	0.201812	0.201154	0.201812	0.130809
1946	0.200168	0.058821	0.200168	0.199675	0.20099	0.204934	0.132782
1947	0.201812	0.067039	0.201154	0.199839	0.197703	0.202798	0.134754
1948	0.199511	0.068682	0.203291	0.203126	0.198031	0.201812	0.141986
1949	0.199675	0.075257	0.199839	0.200168	0.204113	0.203784	0.142643
1950	0.198689	0.07575	0.200661	0.201154	0.196881	0.202633	0.146259
1951	0.19573	0.083968	0.200497	0.203455	0.194744	0.20099	0.146588
1952	0.200661	0.08331	0.200825	0.198853	0.199511	0.203126	0.149217
1953	0.201812	0.09613	0.197703	0.201647	0.20099	0.203455	0.151683
1954	0.200661	0.091199	0.200661	0.200825	0.201154	0.203291	0.15234
1955	0.201812	0.09876	0.197538	0.198524	0.202305	0.20477	0.152011
1956	0.202962	0.100403	0.200168	0.208057	0.20362	0.201483	0.144944
1957	0.202962	0.101554	0.197867	0.198031	0.200661	0.200825	0.145602
1958	0.20362	0.103033	0.199675	0.199182	0.198031	0.202305	0.148724
1959	0.199346	0.10139	0.198853	0.200168	0.201319	0.204606	0.14856
1960	0.20099	0.100568	0.199182	0.203784	0.200004	0.198689	0.153655
1961	0.198853	0.109279	0.203784	0.200168	0.200004	0.203291	0.156613
1962	0.198524	0.115524	0.20362	0.201154	0.200661	0.202633	0.155627
1963	0.198031	0.114867	0.201483	0.201319	0.208715	0.203291	0.159079
1964	0.200497	0.119469	0.199839	0.200168	0.202469	0.204277	0.163681
1965	0.199839	0.116346	0.201812	0.201647	0.202305	0.204441	0.160887
1966	0.199346	0.121112	0.200168	0.200825	0.202633	0.203784	0.165489
1967	0.201647	0.120619	0.197045	0.205099	0.202469	0.202305	0.168283
1968	0.201812	0.00672	0.196388	0.200661	0.199182	0.205756	0.168612
1969	0.200332	0.013294	0.20099	0.201976	0.201647	0.205921	0.16894
1970	0.200004	0.021348	0.197867	0.202305	0.20362	0.207728	0.168447
1971	0.204606	0.00409	0.196552	0.203291	0.202633	0.201647	0.17157
1972	0.197703	0.014938	0.197703	0.198689	0.204113	0.199675	0.169926
1973	0.20099	0.020197	0.202469	0.202633	0.199675	0.20362	0.171734
1974	0.198196	0.028908	0.19836	0.198196	0.201647	0.203455	0.169926
1975	0.203291	0.034661	0.198853	0.198689	0.199182	0.204606	0.176829
1976	0.199675	0.042385	0.199511	0.196552	0.202469	0.200825	0.173871
1977	0.201319	0.048302	0.202305	0.200497	0.199839	0.204277	0.176665
1978	0.199018	0.05389	0.19458	0.202305	0.206414	0.199182	0.17272
1979	0.200168	0.060465	0.201154	0.201812	0.199511	0.20099	0.178802
1980	0.199346	0.064245	0.197538	0.202633	0.201319	0.20362	0.180445
1981	0.196717	0.069011	0.200332	0.20362	0.19573	0.200332	0.180774
1982	0.197045	0.070162	0.200168	0.204606	0.20362	0.200332	0.183239
1983	0.197538	0.079201	0.199346	0.195073	0.203948	0.201154	0.183075
1984	0.199839	0.082653	0.20214	0.20477	0.200825	0.201319	0.18554
1985	0.198031	0.086104	0.199346	0.201812	0.204606	0.201812	0.180774
1986	0.205427	0.089885	0.200004	0.202633	0.201483	0.200168	0.188992
1987	0.198689	0.097116	0.198853	0.20214	0.203455	0.200661	0.182417
1988	0.198524	0.104019	0.201483	0.203291	0.201647	0.201812	0.185705
1989	0.196717	0.109114	0.196552	0.198524	0.192443	0.198196	0.008199
1990	0.208715	0.107471	0.200825	0.201154	0.19721	0.19836	0.020526
1991	0.196388	0.113552	0.196223	0.201319	0.203291	0.200168	0.025621
1992	0.201812	0.117332	0.195566	0.202305	0.198524	0.198524	0.033346
1993	0.197867	0.117332	0.199182	0.193922	0.201647	0.200497	0.042221
1994	0.201647	0.122427	0.201483	0.197538	0.198031	0.206085	0.050274
1995	0.19836	0.126372	0.201483	0.201647	0.201319	0.202962	0.053397
1996	0.199018	0.128673	0.204277	0.200332	0.201647	0.201812	0.05652
1997	0.200332	0.131631	0.198524	0.199511	0.201319	0.201154	0.06671
1998	0.200332	0.137877	0.203455	0.20099	0.198196	0.199675	0.067039
1999	0.201319	0.134918	0.204113	0.203784	0.200004	0.202798	0.075585
2000	0.199346	0.141	0.197867	0.198031	0.204113	0.200332	0.082982
2001	0.200168	0.141	0.200168	0.204934	0.198031	0.197867	0.08709
2002	0.197867	0.146752	0.198524	0.20099	0.199182	0.199511	0.093172
2003	0.20477	0.14593	0.198196	0.204113	0.197538	0.193594	0.095473
2004	0.199018	0.148889	0.200004	0.204606	0.203948	0.197538	0.097774
2005	0.199346	0.149382	0.199839	0.200661	0.20099	0.204113	0.107142
2006	0.199675	0.153655	0.20214	0.201154	0.203291	0.198524	0.105334
2007	0.204277	0.152669	0.201647	0.203948	0.196552	0.200168	0.111908
2008	0.203291	0.156778	0.199839	0.201154	0.203455	0.200497	0.114702
2009	0.202633	0.16253	0.199839	0.205756	0.201647	0.196881	0.118318
2010	0.200332	0.157764	0.196552	0.200497	0.20099	0.195237	0.119469
2011	0.200497	0.164667	0.200497	0.19836	0.200168	0.196552	0.125386
2012	0.200497	0.158914	0.198031	0.205099	0.200332	0.200168	0.125714
2013	0.198689	0.164503	0.201154	0.201812	0.20362	0.200004	0.129166
2014	0.197703	0.166146	0.199511	0.202962	0.200332	0.203948	0.128673
2015	0.198689	0.166146	0.199839	0.201976	0.199839	0.199675	0.13574
2016	0.199018	0.166968	0.197538	0.207564	0.201812	0.201976	0.136562
2017	0.199018	0.171406	0.200004	0.200332	0.201319	0.199018	0.136069
2018	0.201483	0.16779	0.201154	0.204441	0.198196	0.202633	0.142314
2019	0.19836	0.171241	0.199346	0.201483	0.200332	0.203455	0.122756
2020	0.198853	0.172885	0.201647	0.20214	0.201154	0.20362	0.016088
2021	0.194251	0.174693	0.200004	0.20099	0.203291	0.201483	0.021019
2022	0.199018	0.172885	0.201319	0.201319	0.20099	0.200825	0.030223
2023	0.202305	0.177815	0.199839	0.20214	0.201976	0.200168	0.03614
2024	0.197867	0.181431	0.20477	0.203126	0.201976	0.200497	0.041728
2025	0.194251	0.176829	0.200497	0.200004	0.202469	0.200004	0.049288
2026	0.199511	0.180281	0.200004	0.207728	0.199511	0.196388	0.054219
2027	0.195566	0.180445	0.202469	0.20855	0.201319	0.200825	0.061779
2028	0.199182	0.182911	0.20214	0.202798	0.200661	0.197867	0.068682
2029	0.19836	0.179623	0.203291	0.203784	0.199346	0.201976	0.072791
2030	0.195073	0.178802	0.200825	0.203126	0.201154	0.205099	0.080845
2031	0.196552	0.184718	0.20099	0.202962	0.202633	0.203455	0.083968
2032	0.196717	0.18439	0.199839	0.201647	0.203455	0.200168	0.087748
2033	0.197538	0.182089	0.202633	0.203126	0.201647	0.202962	0.096459
2034	0.189156	0.181596	0.199511	0.203455	0.205263	0.20214	0.099417
2035	0.198524	0.18554	0.201647	0.205099	0.200004	0.201976	0.101718
2036	0.197867	0.185705	0.203126	0.200168	0.202798	0.201976	0.102704
2037	0.199346	0.179952	0.201154	0.202633	0.202469	0.199511	0.112566
2038	0.199018	0.183897	0.197703	0.204934	0.20099	0.20362	0.003761
2039	0.19836	0.186691	0.201976	0.197538	0.20099	0.199839	0.011322
2040	0.19721	0.193922	0.199675	0.203126	0.20099	0.201319	0.016746
2041	0.158586	0.188992	0.202798	0.202469	0.201483	0.199839	0.027922
2042	0.162366	0.191457	0.200004	0.199018	0.204277	0.201976	0.031867
2043	0.165982	0.196388	0.199839	0.201319	0.199675	0.200332	0.039756
2044	0.166475	0.189978	0.201976	0.198853	0.203455	0.206414	0.034989
2045	0.168776	0.190471	0.201154	0.200825	0.200497	0.204441	0.045179
2046	0.169433	0.189814	0.199182	0.20362	0.198689	0.202962	0.046659
2047	0.167954	0.191128	0.200004	0.201483	0.202633	0.20099	0.034332
2048	0.171734	0.190142	0.199182	0.199675	0.20099	0.204277	0.046659
2049	0.171734	0.190471	0.199018	0.205427	0.199675	0.198524	0.051425
2050	0.175843	0.192772	0.202469	0.203784	0.200332	0.200497	0.058328
2051	0.172392	0.193594	0.199511	0.201812	0.205592	0.201976	0.064902
2052	0.175843	0.193101	0.200825	0.204606	0.204934	0.202633	0.078873
2053	0.183075	0.197045	0.198196	0.201647	0.205592	0.202798	0.073942
2054	0.178309	0.194744	0.198689	0.203948	0.20362	0.199839	0.07838
2055	0.17913	0.195237	0.014609	0.197703	0.204277	0.203291	0.08331
2056	0.178144	0.194909	0.021512	0.205263	0.202305	0.200825	0.089885
2057	0.177322	0.194251	0.025292	0.203948	0.202633	0.199346	0.093665
2058	0.182746	0.196881	0.039263	0.20362	0.201154	0.20099	0.098102
2059	0.182746	0.198853	0.039427	0.201483	0.20214	0.197374	0.103691
2060	0.184225	0.195073	0.047973	0.201154	0.203291	0.197867	0.107964
2061	0.182253	0.194909	0.055698	0.204934	0.201976	0.202633	0.107635
2062	0.184225	0.20099	0.061451	0.201154	0.200661	0.199675	0.115853
2063	0.185212	0.199018	0.067368	0.203126	0.202962	0.201319	0.104019
2064	0.184718	0.194744	0.071477	0.203455	0.197867	0.200004	0.119304
2065	0.187184	0.197538	0.07575	0.205427	0.199182	0.201976	0.123906
2066	0.186526	0.19573	0.079366	0.199182	0.204441	0.201319	0.128673
2067	0.186526	0.192936	0.088077	0.204441	0.202633	0.202633	0.132453
2068	0.187348	0.197703	0.090542	0.201319	0.201319	0.199018	0.129495
2069	0.186362	0.191457	0.095801	0.203291	0.202469	0.19836	0.135083
2070	0.186691	0.196388	0.097281	0.201154	0.203126	0.200168	0.140506
2071	0.192279	0.194909	0.103033	0.202962	0.200332	0.19836	0.141657
2072	0.188827	0.194744	0.109279	0.200497	0.204277	0.201154	0.141657
2073	0.190635	0.198031	0.113552	0.201154	0.203291	0.199675	0.146095
2074	0.18817	0.198853	0.114702	0.199511	0.202962	0.201319	0.141657
2075	0.19195	0.193429	0.120455	0.199675	0.203784	0.200825	0.149053
2076	0.188663	0.199839	0.103362	0.202305	0.201812	0.202305	0.151847
2077	0.189156	0.200004	0.10632	0.196388	0.201154	0.198689	0.153326
2078	0.189156	0.197703	0.111087	0.198196	0.203291	0.199346	0.148396
2079	0.192608	0.199511	0.113552	0.200497	0.202798	0.20214	0.150204
2080	0.193758	0.197867	0.125057	0.199675	0.202798	0.200825	0.15612
2081	0.18817	0.198689	0.122592	0.201154	0.199675	0.200497	0.151847
2082	0.192443	0.19721	0.124235	0.202798	0.197867	0.201154	0.159901
2083	0.192443	0.199346	0.128508	0.200825	0.201483	0.201976	0.159572
2084	0.191128	0.192772	0.131796	0.201812	0.202469	0.199511	0.163681
2085	0.190142	0.196223	0.131796	0.200004	0.203784	0.204277	0.162037
2086	0.189978	0.195237	0.136233	0.203291	0.202962	0.200661	0.051261
2087	0.187019	0.199346	0.13837	0.199511	0.204113	0.20214	0.057999
2088	0.190142	0.198031	0.139192	0.201976	0.200825	0.20477	0.064738
2089	0.188992	0.197374	0.142314	0.20362	0.203784	0.201483	0.069011
2090	0.194416	0.200825	0.145766	0.202962	0.197867	0.197867	0.073778
2091	0.188992	0.203948	0.144451	0.200661	0.206249	0.199346	0.080023
2092	0.188827	0.202798	0.149382	0.200168	0.201976	0.200332	0.082324
2093	0.188663	0.200661	0.152998	0.200661	0.20099	0.202305	0.08972
2094	0.189649	0.201319	0.157107	0.199675	0.198689	0.198524	0.093993
2095	0.18932	0.200004	0.158257	0.201812	0.200168	0.208879	0.095473
2096	0.188827	0.201483	0.157107	0.200004	0.199675	0.200332	0.102047
2097	0.189649	0.201812	0.159572	0.202305	0.201154	0.199511	0.107799
2098	0.188827	0.200004	0.159736	0.201976	0.20099	0.201483	0.105005
2099	0.037948	0.202633	0.159408	0.202469	0.198689	0.201812	0.108293
2100	0.019375	0.200497	0.161215	0.202962	0.198031	0.199675	0.113059
2101	0.025785	0.199018	0.164338	0.202798	0.197374	0.202962	0.116839
2102	0.026114	0.202798	0.162695	0.202305	0.197867	0.200825	0.121112
2103	0.038112	0.201319	0.167461	0.203126	0.20099	0.201647	0.121934
2104	0.034661	0.199346	0.165817	0.207893	0.20099	0.204934	0.126536
2105	0.053233	0.199675	0.17272	0.201483	0.201319	0.201812	0.130152
2106	0.050603	0.202305	0.16894	0.201154	0.201647	0.205099	0.130809
2107	0.056684	0.201319	0.170748	0.199182	0.202305	0.201154	0.13311
2108	0.062601	0.201812	0.171734	0.20099	0.201154	0.202962	0.138534
2109	0.030552	0.197374	0.172063	0.202469	0.20099	0.201483	0.1267
2110	0.033674	0.201483	0.177322	0.200168	0.201812	0.20362	0.131138
2111	0.042878	0.202633	0.176994	0.203126	0.202633	0.203948	0.126536
2112	0.044029	0.200168	0.172063	0.202633	0.201154	0.201647	0.123413
2113	0.051425	0.196388	0.177158	0.202305	0.199675	0.202305	0.126043
2114	0.053069	0.198689	0.17798	0.204113	0.198853	0.201483	0.12818
2115	0.060958	0.200168	0.180445	0.20477	0.198031	0.201976	0.129988
2116	0.063094	0.198689	0.179459	0.201319	0.20099	0.201483	0.129823
2117	0.069833	0.200168	0.180116	0.199346	0.203948	0.20099	0.137877
2118	0.074106	0.198031	0.182253	0.205756	0.204606	0.206907	0.142643
2119	0.079694	0.201154	0.180116	0.201483	0.202962	0.200004	0.141821
2120	0.084954	0.197867	0.182582	0.205921	0.203455	0.201976	0.145766
2121	0.08709	0.197867	0.180116	0.197374	0.205592	0.203455	0.153655
2122	0.093829	0.201976	0.184061	0.206249	0.198853	0.199675	0.153655
2123	0.097938	0.205099	0.185212	0.200661	0.20099	0.200004	0.147574
2124	0.100896	0.196552	0.187348	0.206907	0.201154	0.200332	0.157435
2125	0.104348	0.205099	0.185705	0.202962	0.20214	0.199018	0.154477
2126	0.108786	0.19836	0.186691	0.203291	0.201812	0.201812	0.155463
2127	0.109607	0.201647	0.185869	0.197374	0.203126	0.199839	0.159243
2128	0.116675	0.200332	0.187184	0.205921	0.198524	0.199675	0.16138
2129	0.11914	0.197703	0.18554	0.201154	0.205921	0.205263	0.162859
2130	0.123742	0.199675	0.186691	0.201483	0.200661	0.200661	0.164338
2131	0.1267	0.199346	0.190142	0.202962	0.20099	0.201976	0.162366
2132	0.129823	0.201154	0.189485	0.20099	0.203784	0.197867	0.164831
2133	0.133603	0.200332	0.189485	0.205263	0.208222	0.200168	0.166311
2134	0.133603	0.200497	0.192115	0.201154	0.20214	0.198524	0.166146
2135	0.137384	0.197703	0.191621	0.202798	0.203291	0.200497	0.170584
2136	0.140178	0.196717	0.190635	0.199839	0.199675	0.200661	0.169598
2137	0.141986	0.194416	0.195073	0.208386	0.203455	0.199182	0.172885
2138	0.144287	0.19573	0.192279	0.19721	0.201319	0.199018	0.174035
2139	0.149382	0.197045	0.194909	0.201319	0.201319	0.19836	0.174364
2140	0.143629	0.198196	0.192772	0.201154	0.204934	0.198031	0.174364
2141	0.155299	0.196717	0.193265	0.199675	0.204277	0.202305	0.181431
2142	0.153819	0.200004	0.190307	0.198524	0.204934	0.199511	0.174857
2143	0.157107	0.200332	0.194416	0.204113	0.201154	0.201976	0.173049
2144	0.159572	0.200004	0.190307	0.199675	0.193758	0.200661	0.173707
2145	0.161051	0.203126	0.188006	0.196552	0.196059	0.201647	0.178802
2146	0.16138	0.200497	0.190964	0.199511	0.201483	0.199839	0.177158
2147	0.164174	0.200332	0.193429	0.199018	0.198524	0.198689	0.177651
2148	0.165489	0.19836	0.194909	0.188992	0.20099	0.19721	0.180281
2149	0.164338	0.200004	0.194909	0.196059	0.201319	0.200661	0.181924
2150	0.16779	0.199018	0.198689	0.199182	0.200497	0.201319	0.181267
2151	0.166146	0.201154	0.194251	0.19836	0.202962	0.197703	0.181924
2152	0.126536	0.197374	0.194744	0.201319	0.198689	0.200825	0.185212
2153	0.009514	0.202798	0.196059	0.198031	0.201154	0.200825	0.185047
2154	0.007049	0.203948	0.196223	0.20099	0.203455	0.202305	0.183732
2155	0.012308	0.199018	0.195073	0.198524	0.202962	0.197538	0.184061
2156	0.029566	0.200825	0.197045	0.20099	0.199182	0.197703	0.186362
2157	0.031209	0.200497	0.194251	0.203291	0.202469	0.199018	0.184554
2158	0.040084	0.197703	0.196717	0.200168	0.199675	0.200332	0.186691
2159	0.044851	0.205592	0.192772	0.198689	0.204606	0.201647	0.185212
2160	0.052082	0.201483	0.197374	0.198689	0.202469	0.203126	0.187841
2161	0.051589	0.201647	0.19458	0.200825	0.202469	0.201647	0.187019
2162	0.061944	0.200825	0.195402	0.200004	0.199018	0.202469	0.188499
2163	0.068682	0.201319	0.196552	0.200661	0.201647	0.203455	0.186691
2164	0.072791	0.207564	0.19458	0.199675	0.201483	0.199839	0.185869
2165	0.017732	0.201647	0.195895	0.200332	0.201483	0.199018	0.189156
2166	0.000967	0.203455	0.193594	0.199182	0.200825	0.200332	0.18439
2167	0.00294	0.200661	0.191621	0.201319	0.19458	0.202962	0.188827
2168	0.010829	0.201154	0.196881	0.201154	0.197538	0.202305	0.189649
2169	0.017732	0.198689	0.195566	0.203784	0.200497	0.204113	0.188006
2170	0.022498	0.20214	0.192772	0.201319	0.199346	0.201483	0.189485
2171	0.032031	0.199511	0.197867	0.204441	0.201154	0.202962	0.1908
2172	0.037783	0.199675	0.194416	0.200168	0.20362	0.200332	0.190142
2173	0.048795	0.202305	0.199511	0.203126	0.200168	0.201647	0.196388
2174	0.052575	0.198524	0.197703	0.200497	0.201483	0.203291	0.190307
2175	0.058985	0.20477	0.198689	0.195402	0.204113	0.201812	0.189649
2176	0.062766	0.204934	0.196552	0.200332	0.204113	0.20214	0.188827
2177	0.068847	0.198689	0.197538	0.203455	0.206249	0.198031	0.192772
2178	0.073284	0.201812	0.196881	0.199675	0.204934	0.204277	0.193265
2179	0.077229	0.20477	0.196059	0.197538	0.203784	0.202962	0.19195
2180	0.082653	0.19836	0.197703	0.201483	0.203126	0.202962	0.190307
2181	0.085118	0.201976	0.197045	0.198196	0.19836	0.200825	0.192936
2182	0.090542	0.198196	0.198853	0.203455	0.199346	0.198689	0.192279
2183	0.095144	0.200332	0.201812	0.200497	0.199346	0.199182	0.193922
2184	0.104019	0.200825	0.199182	0.202305	0.197538	0.20214	0.190635
2185	0.104512	0.197374	0.198689	0.201319	0.200004	0.199839	0.19836
2186	0.107142	0.200497	0.201154	0.202305	0.20214	0.201319	0.193265
2187	0.112073	0.201319	0.199675	0.200497	0.199511	0.200004	0.191786
2188	0.11536	0.197867	0.202798	0.204441	0.201319	0.199675	0.19573
2189	0.12292	0.20099	0.198689	0.203291	0.206907	0.20099	0.192443
2190	0.120948	0.204606	0.199839	0.201319	0.200168	0.199675	0.197045
2191	0.124564	0.199018	0.197867	0.201319	0.200497	0.200825	0.196717
2192	0.12818	0.197045	0.19836	0.202469	0.203455	0.200497	0.200825
2193	0.127194	0.198524	0.197374	0.201483	0.204277	0.201483	0.199675
2194	0.132782	0.200332	0.201483	0.199511	0.201154	0.200168	0.198031
2195	0.140835	0.198853	0.19836	0.199839	0.200661	0.201483	0.198689
2196	0.13837	0.199511	0.200332	0.198031	0.201319	0.201319	0.199018
2197	0.14215	0.200497	0.201976	0.198689	0.203126	0.201976	0.196388
2198	0.143794	0.201647	0.200004	0.197703	0.198524	0.19836	0.195895
2199	0.148067	0.199839	0.200332	0.202962	0.200168	0.202469	0.196388
2200	0.138041	0.200825	0.200825	0.199675	0.20477	0.198524	0.196059
2201	0.150039	0.200497	0.201647	0.202798	0.199182	0.198196	0.198031
2202	0.151683	0.201483	0.199346	0.20099	0.200332	0.198689	0.196059
2203	0.155134	0.198524	0.202469	0.203948	0.201154	0.201812	0.200497
2204	0.155627	0.200661	0.198196	0.204113	0.203291	0.199346	0.195402
2205	0.15875	0.196552	0.197867	0.202633	0.204277	0.196223	0.198196
2206	0.160394	0.199346	0.196881	0.200004	0.208222	0.201976	0.199018
2207	0.160887	0.199346	0.200004	0.202469	0.205592	0.204277	0.202305
2208	0.162859	0.204606	0.200332	0.203948	0.206414	0.20362	0.195566
2209	0.16516	0.204934	0.202798	0.20214	0.202962	0.201647	0.19836
2210	0.165817	0.199346	0.198031	0.198196	0.204441	0.205263	0.199182
2211	0.168118	0.202305	0.201976	0.203291	0.202798	0.201812	0.200661
2212	0.165489	0.198853	0.199018	0.199511	0.202962	0.200661	0.19836
2213	0.17157	0.199511	0.200168	0.200168	0.20099	0.201483	0.196881
2214	0.168118	0.200004	0.200332	0.203291	0.201812	0.20214	0.199018
2215	0.170091	0.200004	0.195566	0.198196	0.199675	0.199839	0.199839
2216	0.16894	0.199018	0.202633	0.201976	0.201812	0.199182	0.199511
2217	0.17157	0.199346	0.199346	0.200168	0.200168	0.202962	0.197867
2218	0.177815	0.200825	0.200004	0.201154	0.203948	0.200004	0.185376
2219	0.175679	0.20214	0.199346	0.200661	0.20477	0.202305	0.199511
2220	0.176665	0.200825	0.19458	0.202305	0.20214	0.203291	0.193265
2221	0.176829	0.199182	0.199018	0.201154	0.202633	0.205592	0.195402
2222	0.182417	0.197374	0.201976	0.202962	0.202633	0.204934	0.200825
2223	0.178309	0.200004	0.200168	0.19836	0.201976	0.202962	0.200332
2224	0.179952	0.199511	0.199675	0.201154	0.201647	0.202305	0.199675
2225	0.180445	0.200661	0.20099	0.204113	0.204934	0.203455	0.199346
2226	0.183075	0.201976	0.200332	0.205592	0.204441	0.202305	0.203948
2227	0.18176	0.20099	0.203126	0.199018	0.204113	0.202469	0.198031
2228	0.182911	0.201976	0.201154	0.203126	0.200332	0.205263	0.202633
2229	0.180445	0.203291	0.199018	0.207071	0.202798	0.207235	0.197045
2230	0.181924	0.200661	0.199511	0.200332	0.195566	0.199839	0.197045
2231	0.184554	0.20477	0.195073	0.200825	0.200497	0.204113	0.200004
2232	0.182746	0.202962	0.197703	0.201154	0.199182	0.200332	0.19836
2233	0.183568	0.199182	0.200168	0.203455	0.199675	0.201483	0.19836
2234	0.188663	0.200332	0.200004	0.201319	0.199018	0.199839	0.19836
2235	0.186526	0.202469	0.201154	0.202633	0.202798	0.200332	0.200168
2236	0.187184	0.19836	0.202962	0.200332	0.199839	0.201976	0.198689
2237	0.188006	0.198031	0.202962	0.201647	0.200497	0.201647	0.201647
2238	0.187841	0.198196	0.19836	0.201483	0.201976	0.201647	0.201154
2239	0.192772	0.201647	0.201976	0.203291	0.200168	0.20362	0.200497
2240	0.187184	0.200661	0.200004	0.201976	0.201319	0.202305	0.199018
2241	0.190964	0.203948	0.200825	0.201319	0.203126	0.202469	0.203291
2242	0.190307	0.204606	0.201812	0.201976	0.203126	0.203948	0.194744
2243	0.190142	0.203291	0.200825	0.202798	0.203291	0.203291	0.196881
2244	0.190307	0.201647	0.19836	0.199182	0.204113	0.201483	0.197703
2245	0.194087	0.201976	0.199675	0.199675	0.200332	0.19836	0.200825
2246	0.187019	0.205263	0.19721	0.20099	0.198524	0.201812	0.202305
2247	0.189814	0.203126	0.20099	0.199346	0.200168	0.198853	0.200825
2248	0.192608	0.201319	0.201154	0.199839	0.199182	0.200825	0.199511
2249	0.187513	0.202305	0.199182	0.198689	0.198031	0.195237	0.203126
2250	0.193922	0.200497	0.199182	0.202798	0.197538	0.199511	0.201319
2251	0.193429	0.202305	0.201976	0.20099	0.201812	0.198524	0.200332
2252	0.193594	0.197703	0.202469	0.199182	0.203126	0.199839	0.20362
2253	0.194416	0.203291	0.201154	0.201154	0.203291	0.200497	0.199182
2254	0.194744	0.199182	0.198524	0.20362	0.202469	0.202305	0.202633
2255	0.19458	0.200497	0.193101	0.203784	0.203784	0.202798	0.200168
2256	0.198524	0.199675	0.202798	0.204277	0.206907	0.203784	0.199839
2257	0.192443	0.203784	0.201812	0.20099	0.208386	0.208715	0.200332
2258	0.196059	0.202798	0.201319	0.206578	0.204113	0.202798	0.20362
2259	0.194909	0.199675	0.199346	0.205756	0.205099	0.206249	0.198196
2260	0.197045	0.201154	0.200004	0.201483	0.20214	0.201154	0.201812
2261	0.193594	0.200332	0.200332	0.203784	0.203455	0.205263	0.201976
2262	0.194251	0.20099	0.201976	0.201483	0.204441	0.197867	0.202469
2263	0.197045	0.200004	0.202633	0.202962	0.202962	0.206085	0.205921
2264	0.196717	0.200825	0.200825	0.199839	0.201319	0.201154	0.196717
2265	0.193594	0.198524	0.20214	0.200661	0.203291	0.203126	0.195402
2266	0.199018	0.203126	0.194087	0.20362	0.202798	0.195566	0.186691
2267	0.200825	0.198853	0.200332	0.20099	0.199839	0.200168	0.182911
2268	0.196223	0.203948	0.199182	0.200497	0.201812	0.201976	0.182417
2269	0.198689	0.202469	0.198524	0.201154	0.202305	0.201647	0.183404
2270	0.198689	0.199675	0.20099	0.204113	0.201812	0.204277	0.18554
2271	0.199675	0.198031	0.199675	0.20214	0.200825	0.202469	0.182911
2272	0.195237	0.202633	0.201483	0.199346	0.202798	0.204606	0.183897
2273	0.198031	0.199018	0.201483	0.203948	0.203784	0.20477	0.188499
2274	0.196223	0.199675	0.202469	0.206742	0.204277	0.206578	0.186362
2275	0.202469	0.200497	0.202633	0.203455	0.201812	0.202962	0.189649
2276	0.19836	0.201812	0.201319	0.201812	0.203126	0.204441	0.186855
2277	0.19836	0.200825	0.200332	0.202633	0.200497	0.203126	0.188663
2278	0.196388	0.203455	0.20214	0.200332	0.196059	0.202798	0.189485
2279	0.197374	0.202305	0.201976	0.200332	0.200332	0.20214	0.190964
2280	0.197703	0.200168	0.197703	0.197045	0.199675	0.202633	0.188499
2281	0.199675	0.204277	0.201812	0.197703	0.198853	0.201483	0.195073
2282	0.20214	0.200825	0.199839	0.199839	0.201483	0.201483	0.188006
2283	0.201976	0.204277	0.149546	0.197538	0.199346	0.20099	0.190635
2284	0.198689	0.199839	0.149382	0.20099	0.206085	0.205427	0.190307
2285	0.201647	0.196717	0.158421	0.202962	0.201319	0.20477	0.189814
2286	0.201319	0.199018	0.15612	0.201319	0.198031	0.204441	0.1908
2287	0.199511	0.195402	0.157271	0.19721	0.201812	0.205263	0.187841
2288	0.201319	0.200332	0.160065	0.205427	0.206907	0.205427	0.194087
2289	0.20099	0.200661	0.157271	0.200825	0.199675	0.20477	0.189814
2290	0.202305	0.199675	0.162202	0.206414	0.200332	0.204441	0.194416
2291	0.164503	0.201812	0.163516	0.201976	0.202962	0.207564	0.192772
2292	0.044851	0.202962	0.165653	0.203291	0.202633	0.203784	0.1908
2293	0.050439	0.204606	0.165653	0.197538	0.200661	0.204606	0.193758
2294	0.059314	0.204441	0.166639	0.20099	0.198689	0.208222	0.197045
2295	0.0603	0.205592	0.168118	0.199018	0.203784	0.202469	0.194251
2296	0.067368	0.20362	0.170913	0.200825	0.204441	0.200332	0.196223
2297	0.07312	0.201647	0.170913	0.201319	0.194251	0.200332	0.19458
2298	0.075092	0.204113	0.173214	0.203291	0.197703	0.200825	0.192772
2299	0.077558	0.20477	0.173049	0.204606	0.197867	0.203455	0.193594
2300	0.08709	0.204934	0.172227	0.20214	0.19458	0.199346	0.194251
2301	0.089227	0.204934	0.176008	0.206085	0.198196	0.200332	0.193429
2302	0.091199	0.202633	0.174035	0.202798	0.201154	0.202798	0.195073
2303	0.099253	0.20214	0.176336	0.194909	0.197867	0.204441	0.196717
2304	0.099089	0.202962	0.178802	0.201154	0.198853	0.205099	0.193922
2305	0.104512	0.200825	0.187184	0.204606	0.200825	0.206249	0.196059
2306	0.109772	0.203291	0.178144	0.201483	0.201647	0.206249	0.194251
2307	0.113881	0.198853	0.179295	0.202469	0.199675	0.207893	0.196552
2308	0.117661	0.202633	0.182253	0.199018	0.204277	0.206249	0.195566
2309	0.120784	0.200332	0.183568	0.206578	0.201154	0.20362	0.197045
2310	0.12292	0.201319	0.183732	0.200497	0.201154	0.203126	0.195402
2311	0.123906	0.203126	0.182253	0.202305	0.19836	0.201319	0.198689
2312	0.1267	0.202633	0.18439	0.202469	0.200004	0.201647	0.197045
2313	0.133275	0.203126	0.185047	0.202962	0.199182	0.20099	0.202798
2314	0.136069	0.205427	0.184225	0.201812	0.201154	0.204441	0.198196
2315	0.139356	0.209043	0.185047	0.200825	0.195566	0.203126	0.196717
2316	0.000146	0.203291	0.186855	0.202305	0.203126	0.201647	0.200497
2317	-0.004949	0.203784	0.187677	0.200661	0.199839	0.199346	0.199018
2318	0.011979	0.200661	0.188334	0.201154	0.200332	0.203126	0.199839
2319	0.01691	0.202305	0.186198	0.201812	0.200825	0.199511	0.195237
2320	0.026771	0.20099	0.186198	0.203291	0.200497	0.206907	0.199675
2321	0.03236	0.202798	0.186855	0.199675	0.202305	0.200332	0.195895
2322	0.041728	0.20099	0.193758	0.205592	0.200004	0.200825	0.196388
2323	0.045672	0.197867	0.18932	0.201483	0.201154	0.201976	0.194416
2324	0.052411	0.201647	0.192443	0.204934	0.201647	0.201319	0.197045
2325	0.057671	0.201154	0.193265	0.204113	0.201319	0.201647	0.195895
2326	0.061122	0.199675	0.192772	0.202305	0.200825	0.20362	0.199018
2327	0.065067	0.20099	0.192772	0.201647	0.205099	0.20099	0.197045
2328	0.07049	0.201812	0.195237	0.201319	0.202962	0.196717	0.200332
2329	0.073449	0.202469	0.190964	0.198524	0.208222	0.201812	0.19836
2330	0.087912	0.203126	0.195895	0.197538	0.201319	0.200497	0.199018
2331	0.090378	0.20214	0.195402	0.201154	0.202962	0.192936	0.201976
2332	0.094322	0.201483	0.192608	0.19573	0.199839	0.196388	0.200168
2333	0.100403	0.199675	0.19458	0.200825	0.202305	0.199839	0.199675
2334	0.103362	0.205099	0.188334	0.20099	0.202633	0.200168	0.201976
2335	0.108457	0.200825	0.193101	0.201483	0.202469	0.198031	0.19721
2336	0.112237	0.20099	0.188992	0.200332	0.20099	0.199511	0.200661
2337	0.11273	0.199511	0.195073	0.202305	0.204113	0.201154	0.201154
2338	0.117496	0.202798	0.196552	0.198689	0.201319	0.201812	0.200661
2339	0.126536	0.198689	0.199018	0.200497	0.198196	0.203126	0.202633
2340	0.124893	0.198524	0.196881	0.198524	0.201319	0.20099	0.194416
2341	0.12933	0.199675	0.197703	0.197703	0.201483	0.20214	0.198524
2342	0.129166	0.197703	0.195073	0.198196	0.201319	0.202962	0.197374
2343	0.131467	0.201976	0.198031	0.197538	0.200168	0.199675	0.203455
2344	0.131302	0.202305	0.197703	0.198689	0.20477	0.20362	0.197045
2345	0.136726	0.204113	0.196881	0.198031	0.198524	0.204277	0.20362
2346	0.14215	0.199839	0.196059	0.198853	0.200004	0.20099	0.198031
2347	0.143958	0.202469	0.197538	0.199346	0.206414	0.195566	0.204606
2348	0.146259	0.203291	0.193594	0.202633	0.196223	0.198689	0.200497
2349	0.148067	0.201483	0.196552	0.199346	0.202305	0.195402	0.201319
2350	0.152998	0.20099	0.198196	0.199675	0.194087	0.202305	0.19836
2351	0.151354	0.201647	0.194087	0.196881	0.200004	0.199182	0.202305
2352	0.154641	0.202305	0.196223	0.203455	0.200004	0.198689	0.199346
2353	0.156613	0.204277	0.196717	0.200332	0.200497	0.202798	0.198689
2354	0.158093	0.201647	0.197045	0.201647	0.197867	0.201483	0.200332
2355	0.165489	0.201812	0.196881	0.20214	0.205427	0.205263	0.196059
2356	0.160229	0.204934	0.193101	0.201812	0.198689	0.203948	0.199675
2357	0.160887	0.200332	0.196388	0.198689	0.198853	0.204277	0.195402
2358	0.164338	0.19721	0.199839	0.198196	0.198689	0.200332	0.200332
2359	0.162695	0.199839	0.195566	0.200825	0.202469	0.201647	0.198853
2360	0.165324	0.201154	0.198031	0.202469	0.196717	0.200661	0.200168
2361	0.165653	0.200497	0.200168	0.20214	0.204113	0.204277	0.199511
2362	0.16401	0.201319	0.197703	0.201154	0.199839	0.204113	0.204441
2363	0.167461	0.204113	0.199018	0.201812	0.202469	0.206578	0.199839
2364	0.168447	0.205099	0.197867	0.202469	0.201812	0.206742	0.200168
2365	0.171734	0.202305	0.19458	0.201812	0.201976	0.207893	0.19836
2366	0.163516	0.20477	0.194416	0.20214	0.202633	0.202633	0.201154
2367	0.174035	0.192115	0.194744	0.202469	0.200497	0.203784	0.202305
2368	0.176665	0.199675	0.194087	0.200497	0.198689	0.201812	0.201319
2369	0.176994	0.200332	0.196717	0.203784	0.198031	0.20214	0.199675
2370	0.176829	0.20099	0.194416	0.199182	0.200497	0.20362	0.19836
2371	0.179952	0.200168	0.198031	0.204113	0.198689	0.203948	0.197538
2372	0.177487	0.201319	0.197374	0.056684	0.201812	0.201483	0.19573
2373	0.179788	0.201976	0.200332	0.009185	0.198853	0.205592	0.191128
2374	0.181267	0.205263	0.197703	0.014938	0.199839	0.201647	0.192443
2375	0.18176	0.201154	0.201812	0.021841	0.203126	0.204277	0.196059
2376	0.179952	0.201647	0.198196	0.02595	0.206907	0.209043	0.198031
2377	0.181431	0.199511	0.199018	0.037619	0.202633	0.198031	0.203126
2378	0.177487	0.202469	0.201319	0.044358	0.202633	0.208715	0.201647
2379	0.180281	0.199018	0.197703	0.048795	0.196388	0.201483	0.20099
2380	0.183075	0.199839	0.20362	0.053726	0.20099	0.202962	0.20362
2381	0.182417	0.199839	0.202469	0.068354	0.200168	0.202798	0.203948
2382	0.183568	0.197867	0.19721	0.066381	0.201319	0.201976	0.203784
2383	0.185047	0.198689	0.199675	0.071477	0.199675	0.200332	0.20362
2384	0.186362	0.198689	0.200825	0.078215	0.203455	0.202305	0.200825
2385	0.185869	0.199018	0.201483	0.081009	0.200332	0.201483	0.200661
2386	0.188663	0.198524	0.202798	0.089227	0.202798	0.20099	0.202469
2387	0.186198	0.200332	0.195566	0.088734	0.202633	0.202962	0.20362
2388	0.190635	0.198031	0.197045	0.094651	0.202798	0.201483	0.201483
2389	0.188006	0.199675	0.201154	0.100568	0.20362	0.202962	0.202633
2390	0.190471	0.19573	0.201319	0.104677	0.201647	0.201812	0.204113
2391	0.189156	0.198196	0.197703	0.107799	0.203126	0.201812	0.202469
2392	0.18932	0.194251	0.204934	0.114045	0.201976	0.202469	0.20477
2393	0.192279	0.199018	0.199511	0.114209	0.204441	0.202633	0.203126
2394	0.194744	0.199346	0.20214	0.118976	0.198524	0.202305	0.205427
2395	0.18817	0.201319	0.204934	0.118811	0.204113	0.206249	0.207564
2396	0.189978	0.201812	0.199839	0.122592	0.203291	0.203291	0.205756
2397	0.19195	0.201319	0.205921	0.125714	0.202962	0.20362	0.202962
2398	0.193922	0.200497	0.197703	0.124399	0.201976	0.199182	0.203291
2399	0.193922	0.200168	0.198689	0.132124	0.203455	0.201483	0.206249
2400	0.197703	0.203948	0.199182	0.127358	0.199839	0.19836	0.20099
2401	0.19573	0.20362	0.199346	0.137548	0.20099	0.199511	0.202962
2402	0.195895	0.201812	0.198031	0.139027	0.197374	0.197703	0.202962
2403	0.197045	0.199839	0.200497	0.144122	0.203784	0.199839	0.201319
2404	0.19458	0.201976	0.190635	0.143794	0.199018	0.201319	0.200497
2405	0.198031	0.200332	0.19721	0.147574	0.197703	0.201319	0.201483
2406	0.19458	0.201976	0.200661	0.147903	0.204441	0.206414	0.200332
2407	0.19721	0.196552	0.202633	0.150697	0.206085	0.202962	0.202469
2408	0.197867	0.198196	0.203126	0.149546	0.201812	0.199018	0.200332
2409	0.197045	0.198689	0.200661	0.154148	0.204934	0.203784	0.200497
2410	0.195402	0.199675	0.19836	0.158257	0.201976	0.202962	0.199018
2411	0.200168	0.20099	0.200661	0.159408	0.202305	0.200497	0.204934
2412	0.194087	0.201647	0.200497	0.161709	0.202962	0.204113	0.201976
2413	0.191293	0.203455	0.20099	0.162037	0.200497	0.203455	0.202633
2414	0.163516	0.200497	0.199346	0.164831	0.202305	0.207235	0.201976
2415	0.168118	0.200168	0.197374	0.164503	0.20477	0.202798	0.203948
2416	0.171241	0.199182	0.198031	0.167297	0.20214	0.203784	0.204113
2417	0.173542	0.201319	0.19836	0.166311	0.201154	0.200497	0.201483
2418	0.16894	0.197867	0.199839	0.01313	0.202798	0.205099	0.203291
2419	0.172392	0.203291	0.193101	0.01691	0.199839	0.203291	0.201154
2420	0.176501	0.20099	0.200004	0.026607	0.201483	0.202469	0.200497
2421	0.173707	0.20362	0.200004	0.035318	0.204277	0.202305	0.198524
2422	0.176008	0.201812	0.202305	0.042714	0.199018	0.201483	0.203784
2423	0.176501	0.202469	0.200168	0.046494	0.200661	0.203291	0.198524
2424	0.175843	0.199511	0.202798	0.052904	0.203784	0.20214	0.199346
2425	0.177158	0.203455	0.201647	0.058985	0.204934	0.202469	0.199675
2426	0.178637	0.200168	0.202962	0.066546	0.198031	0.205592	0.201647
2427	0.17798	0.20099	0.202305	0.069011	0.199675	0.204606	0.200332
2428	0.178802	0.201812	0.203291	0.076572	0.200168	0.201647	0.203126
2429	0.175679	0.200825	0.201154	0.081831	0.205592	0.205263	0.203126
2430	0.180281	0.202633	0.201976	0.087419	0.203291	0.201812	0.203784
2431	0.180938	0.201812	0.199675	0.090706	0.20477	0.202469	0.202798
2432	0.18176	0.202305	0.198524	0.091857	0.202469	0.202305	0.20362
2433	0.182089	0.199346	0.197703	0.098924	0.201154	0.199346	0.20477
2434	0.183568	0.196881	0.197538	0.10139	0.198524	0.201647	0.20099
2435	0.184554	0.200825	0.200497	0.108457	0.198689	0.202798	0.201976
2436	0.186033	0.197374	0.201976	0.107964	0.201319	0.198524	0.202305
2437	0.186362	0.199182	0.207564	0.113223	0.199018	0.199346	0.202305
2438	0.186033	0.202633	0.199182	0.115689	0.201812	0.202962	0.200825
2439	0.187513	0.201319	0.201319	0.120784	0.200825	0.20099	0.204606
2440	0.188006	0.20214	0.202305	0.123413	0.202305	0.201812	0.203291
2441	0.187513	0.199511	0.20214	0.128508	0.201483	0.201154	0.208879
2442	0.183404	0.200332	0.201812	0.128508	0.202305	0.202305	0.200497
2443	0.19195	0.200332	0.203126	0.135904	0.203291	0.200168	0.202469
2444	0.188663	0.200497	0.202633	0.134097	0.202633	0.201154	0.200497
2445	0.188827	0.202469	0.206578	0.137219	0.199675	0.199018	0.199839
2446	0.18817	0.200168	0.19836	0.140835	0.200825	0.198031	0.199675
2447	0.184718	0.200168	0.202633	0.146588	0.199346	0.197867	0.204934
2448	0.182911	0.200497	0.200661	0.145273	0.20099	0.198853	0.202962
2449	0.190471	0.201483	0.200825	0.147574	0.200004	0.198853	0.20477
2450	0.190307	0.200332	0.202798	0.148396	0.200825	0.201976	0.201976
2451	0.187677	0.201319	0.20099	0.150204	0.204606	0.199182	0.203455
2452	0.192772	0.20362	0.200168	0.153326	0.202305	0.198031	0.204606
2453	0.185376	0.203291	0.197703	0.133768	0.204113	0.194416	0.198853
2454	0.184883	0.20099	0.202633	0.139192	0.201812	0.19721	0.202633
2455	0.185705	0.201812	0.199839	0.140013	0.200661	0.198524	0.203126
2456	0.188006	0.199839	0.202305	0.14215	0.198853	0.199675	0.201319
2457	0.184718	0.198031	0.202305	0.144451	0.201976	0.199346	0.200168
2458	0.189485	0.197538	0.20099	0.141657	0.208879	0.199511	0.204277
2459	0.187513	0.200332	0.199018	0.147574	0.203784	0.199675	0.20214
2460	0.139192	0.198031	0.205756	0.15234	0.202962	0.201483	0.200661
2461	0.138041	0.199346	0.202962	0.152176	0.207564	0.204606	0.205263
2462	0.138699	0.197374	0.204113	0.155956	0.202305	0.196388	0.203455
2463	0.145766	0.200825	0.203948	0.158421	0.203126	0.20362	0.202962
2464	0.151518	0.203948	0.202962	0.160065	0.202469	0.20362	0.205263
2465	0.151354	0.201319	0.20099	0.162366	0.206907	0.199182	0.204277
2466	0.152176	0.20099	0.197703	0.160394	0.200497	0.199839	0.203455
2467	0.154477	0.202305	0.198689	0.163845	0.205099	0.19721	0.200661
2468	0.155627	0.20477	0.198524	0.162366	0.200168	0.196552	0.199018
2469	0.160887	0.198689	0.200825	0.166968	0.201647	0.198853	0.201976
2470	0.160887	0.201812	0.199511	0.164667	0.197703	0.19836	0.20099
2471	0.160394	0.202962	0.20477	0.170913	0.202305	0.199511	0.199511
2472	0.159572	0.20099	0.200004	0.170091	0.20362	0.19836	0.200497
2473	0.163681	0.200661	0.202962	0.170091	0.198524	0.199675	0.206742
2474	0.164338	0.201976	0.201976	0.16894	0.201812	0.199839	0.196552
2475	0.165982	0.200825	0.204441	0.175021	0.203784	0.201483	0.205756
2476	0.164996	0.203784	0.199018	0.17272	0.190142	0.200332	0.199675
2477	0.167954	0.198524	0.202798	0.176172	0.197867	0.195895	0.200661
2478	0.164338	0.200825	0.202633	0.176665	0.200497	0.200661	0.200825
2479	0.16779	0.199511	0.201483	0.178802	0.199839	0.198524	0.202469
2480	0.167625	0.199018	0.201647	0.179788	0.204441	0.201154	0.203455
2481	0.171406	0.201812	0.201812	0.177487	0.198524	0.201483	0.203948
2482	0.174364	0.202469	0.204934	0.176665	0.203455	0.201976	0.204441
2483	0.173542	0.204277	0.20214	0.179788	0.198689	0.199839	0.20214
2484	0.172227	0.197867	0.200497	0.180445	0.201976	0.200004	0.20214
2485	0.160394	0.201154	0.20099	0.178144	0.20099	0.198524	0.201812
2486	0.161544	0.200004	0.202469	0.185376	0.200661	0.193429	0.202798
2487	0.164503	0.201812	0.202798	0.178802	0.200168	0.196223	0.201647
2488	0.163681	0.199839	0.203948	0.183568	0.197867	0.199018	0.201812
2489	0.164503	0.205921	0.200497	0.185869	0.200825	0.20099	0.200497
2490	0.169105	0.20214	0.201647	0.186033	0.199182	0.197045	0.204934
2491	0.169762	0.20099	0.200168	0.183568	0.202305	0.199675	0.199839
2492	0.171077	0.200825	0.201976	0.189814	0.201319	0.201812	0.201812
2493	0.170255	0.202305	0.202305	0.184225	0.200825	0.198853	0.201976
2494	0.171406	0.200661	0.202469	0.188827	0.198524	0.200661	0.201812
2495	0.173049	0.200661	0.198853	0.187841	0.202633	0.202633	0.202633
2496	0.178966	0.202962	0.203948	0.187841	0.19836	0.204113	0.205921
2497	0.176008	0.200661	0.20099	0.189485	0.201647	0.19836	0.20362
2498	0.174693	0.20362	0.202305	0.189978	0.200497	0.195073	0.205099
2499	0.178473	0.200497	0.199511	0.194416	0.197703	0.198689	0.202962
