Ladekurvenmessung
Zeit: 2018_05_04 09.08.15
Info: FVA3, v = 1.05, T = 23, F = 20, h = 518.2
Ladewiderstand[Ohm]: 1012700
Störkapazität[pF]: 0.000000
Entladezeit[ms]: 200
Abtastrate[Hz]: 250000
Anzahl der Messwerte: 2500.000000
Verzögerung[ms]: 3
Ladespannung[V]: 0.200000
	Kurve_1	Kurve_2	Kurve_3	Kurve_4	Kurve_5	Kurve_6
0	0.001296	0.001132	0.002447	-0.004128	-0.000512	-0.003306
1	0.000146	0.001954	0.005076	-0.002813	0.002447	0.002282
2	-1.9e-05	0.004583	0.001954	-0.000347	0.002282	-0.002484
3	0.000639	0.004255	0.00031	0.000967	0.000474	-0.001827
4	-0.001662	0.002447	0.003433	0.001132	0.001954	0.001296
5	-0.000347	0.002775	0.004255	0.004912	0.001954	0.000803
6	-0.000841	0.000803	0.000803	0.00031	0.001296	-0.000183
7	0.001789	0.001625	0.002118	0.003268	0.001625	0.001132
8	-0.000347	0.002611	0.000803	-1.9e-05	-0.003963	0.000803
9	0.000967	0.001625	0.003268	0.00294	0.002118	0.001625
10	0.001132	0.001789	0.002775	0.00031	-0.000512	0.001789
11	0.001132	0.002118	0.001296	0.000639	0.000146	-1.9e-05
12	0.003597	-0.001334	-0.001662	0.001954	-0.002813	0.003104
13	0.001789	0.002447	-0.000676	0.002447	-0.001169	0.000967
14	0.001789	-0.000841	0.000803	0.001132	-0.00347	-0.000347
15	0.00031	0.002447	0.002775	0.002611	0.000146	0.001789
16	0.000474	-0.001498	0.001132	0.001789	-0.000183	-0.001662
17	-0.000347	0.001625	0.002282	0.001789	-0.000676	-0.001005
18	-0.000183	0.007542	0.00409	0.001296	0.000474	0.004255
19	-0.002155	0.00294	0.000639	0.000639	-1.9e-05	-0.001498
20	0.001954	-1.9e-05	0.004419	0.001132	0.00146	0.001132
21	-0.001991	0.003268	0.002775	-0.002484	-0.003635	0.001296
22	0.004255	0.001954	0.006062	0.001954	0.002611	-0.001991
23	0.001132	0.001625	0.000803	0.002611	0.001296	0.000639
24	0.003761	0.002775	0.002118	0.002447	-0.00232	-0.000512
25	-0.000841	0.000803	0.001296	-0.000676	-0.001005	-0.001827
26	0.00409	0.002118	-0.000347	0.001625	0.000146	-0.000512
27	0.003761	-0.000841	-0.003142	0.002447	-0.002648	0.000803
28	0.003268	0.000474	-0.000183	0.001789	-0.00232	-0.000841
29	0.003926	0.000474	-0.000347	-0.001334	0.001296	0.000474
30	0.001625	-0.001169	-0.00232	0.002447	-0.002813	-0.001334
31	0.002775	-0.000676	0.003926	0.00409	0.001625	0.000967
32	0.002282	-1.9e-05	0.005734	0.000639	0.000146	-0.000841
33	0.00409	0.000474	0.004255	0.001132	0.002447	0.003433
34	0.001625	0.00031	0.003268	0.001132	-1.9e-05	-0.000347
35	0.00294	0.001296	0.003433	0.000474	0.002447	0.001296
36	0.003104	-0.003142	0.002611	-0.001827	-0.000841	0.001954
37	0.005734	-0.000512	0.004583	0.002775	-1.9e-05	-0.003306
38	0.002775	-0.000183	0.00146	-0.000183	-0.002977	-0.000183
39	0.002447	0.003597	0.006884	0.001954	0.000146	-0.000841
40	0.005898	-0.000676	0.006062	0.001132	-0.002648	-0.002484
41	0.002282	-0.001334	0.00146	-0.000183	-0.003635	0.00031
42	0.002282	-0.000841	0.003104	0.000474	-0.000347	-0.001169
43	0.003926	0.001296	0.003268	0.000967	-0.000347	-0.001169
44	0.004419	-0.000676	0.001296	-0.001169	0.004419	-1.9e-05
45	0.002118	0.00146	0.001954	0.000967	-0.001169	-0.000347
46	0.005405	-0.000676	0.000639	-0.003799	0.000474	-0.000841
47	0.002775	-0.000347	0.001625	-0.004292	-0.001991	-0.001498
48	0.002282	0.00031	0.00294	0.001625	0.000639	0.000146
49	0.003761	0.000146	0.000967	-0.005771	-0.002484	-0.00232
50	0.00409	0.000639	0.002282	-0.000347	-0.000676	-0.002155
51	0.002447	0.00146	0.003268	0.000146	0.000639	-0.000676
52	0.006062	0.000639	0.00294	0.002775	-0.001005	0.000803
53	0.001296	-0.000183	0.002118	-0.001827	0.000146	-0.002648
54	0.002118	0.002118	0.006556	-0.000841	-1.9e-05	-0.002484
55	0.00294	0.00031	-0.000183	0.001789	0.002118	-0.001169
56	0.002282	0.001625	0.004255	0.00146	0.000146	-0.001498
57	0.002775	0.000474	0.003433	0.000803	-0.000841	0.000803
58	0.002282	0.002611	0.003104	-0.000183	0.000803	-0.001334
59	0.003926	0.001625	0.000803	0.00146	-1.9e-05	0.00031
60	0.002447	0.001954	0.00146	0.001789	-0.002155	-0.002977
61	0.005241	0.000639	-0.001169	-0.002155	-1.9e-05	-1.9e-05
62	0.003104	0.000474	0.000146	0.001789	0.000474	-0.00232
63	-0.000676	-0.000512	-1.9e-05	0.001296	0.003433	0.00146
64	-0.002155	0.003597	0.003597	-0.000841	0.003761	0.002118
65	0.002775	0.002282	0.003926	0.000146	0.00294	0.000803
66	-1.9e-05	-0.000841	0.00146	-0.000512	0.00031	0.000146
67	0.002775	-0.001169	0.003433	0.000146	0.000967	-0.00232
68	0.001132	-0.001334	0.000803	0.000474	-0.00232	0.004912
69	0.003268	0.001625	0.003761	0.000474	0.000639	-0.003142
70	0.00672	-1.9e-05	0.001132	0.002118	-0.000347	-0.000183
71	0.004912	-0.002155	0.003433	0.001296	-0.001005	0.000639
72	0.00787	0.001132	0.001954	0.000474	-0.001991	0.000146
73	0.005076	0.002447	0.00294	-1.9e-05	-0.000841	-0.001169
74	0.002118	0.003926	0.000803	0.003268	-0.001169	0.001296
75	0.001789	-0.002155	0.001296	0.002118	0.000474	-0.002155
76	0.002282	0.00031	0.000146	-0.001334	0.000639	0.001296
77	0.000639	0.001132	-0.002155	0.002118	0.000639	-0.000183
78	0.001296	-0.00347	0.000967	-0.000347	-1.9e-05	0.000146
79	-1.9e-05	-0.000841	-0.001498	-0.002155	-0.001005	-0.001005
80	0.001625	-1.9e-05	-0.003306	-0.004292	0.001625	-0.000676
81	0.00294	-0.002648	-0.00347	-0.000841	0.000967	0.001789
82	0.001625	0.000803	0.001625	0.000803	-0.001169	0.004748
83	0.001132	0.001296	0.001132	-0.001991	-0.001991	0.001296
84	0.003926	0.000474	0.002282	0.002775	-0.001005	-0.000183
85	0.001954	-0.001334	-0.000183	-0.000183	-0.001498	0.00031
86	0.000474	-0.000512	0.002611	-0.000841	-0.000512	-0.003142
87	0.001625	-1.9e-05	0.002447	-0.001005	-0.000841	-0.00347
88	-1.9e-05	-0.000512	0.002118	0.001954	-0.001334	-0.00347
89	0.000146	-0.004785	0.006227	0.00146	0.00031	0.001954
90	-0.001005	0.001954	0.004419	0.001625	-0.001334	-0.000512
91	-1.9e-05	0.000803	0.001789	-0.000183	-0.002155	0.001789
92	-0.000512	0.004419	0.00031	0.001625	-0.005607	0.00031
93	-1.9e-05	0.000639	0.001132	0.000639	-0.003142	0.001954
94	-0.001005	0.001789	0.001296	0.000474	-0.000183	0.001625
95	0.00031	0.003433	0.00146	-0.000183	0.000803	-0.000841
96	-0.00725	-0.000841	-0.000841	-0.001169	-0.002484	-0.000347
97	-0.001991	0.000803	0.001789	-0.000676	0.001625	0.002775
98	-0.003306	-0.000347	0.000146	-0.001827	0.000146	-0.001169
99	-0.001662	-0.001334	0.001625	-0.001991	0.002282	-0.001005
100	-0.003799	0.000474	0.000146	-0.001827	-0.000676	-0.002648
101	0.002447	0.001132	0.000803	-0.000512	0.000474	-0.002155
102	0.00031	-0.001005	0.00031	-0.005443	-0.000676	-0.000183
103	0.000967	0.002447	-0.000512	-0.001991	-0.001005	-0.001991
104	-0.000841	-0.000512	0.001625	0.001789	0.000474	-0.001169
105	-0.001991	0.000967	0.00146	-1.9e-05	-0.000183	-0.001662
106	0.001296	0.001789	0.00294	0.00146	-1.9e-05	0.001132
107	-0.005607	0.000967	-0.001662	0.00409	-0.001169	-0.000676
108	-0.001991	-0.000347	0.002447	0.000803	0.002447	0.004419
109	-0.003142	0.000474	-0.000841	0.000803	0.000803	0.001296
110	-0.001662	-1.9e-05	-0.000676	0.001132	0.002611	0.001625
111	-0.006593	-0.000183	-0.001662	0.002118	-0.003635	0.000803
112	-0.002813	0.001954	-0.001991	0.000474	0.00409	0.001132
113	-0.006757	-0.001498	0.000967	-0.001662	0.00146	-0.000676
114	-0.005278	0.000967	-0.000841	0.002447	-0.001169	0.000803
115	-0.004949	-0.001169	-0.002813	-0.000841	-0.000841	0.003268
116	-0.004785	0.001296	-0.000183	-1.9e-05	0.001296	0.002611
117	-0.001991	0.001789	-0.001827	0.000639	0.000146	0.002447
118	-0.005936	-0.001662	-0.006429	0.002118	-0.004785	0.000146
119	-0.00347	-0.002648	-0.003799	0.000146	0.001954	0.000474
120	-0.000676	-0.001169	-0.001991	0.002118	-0.001498	-0.000676
121	-0.006757	-0.001991	-0.001827	0.001132	-0.000676	0.002611
122	-0.006264	-0.001334	-0.001498	0.00031	0.000639	-0.001827
123	-0.005114	0.00146	-0.003142	0.000639	0.000474	0.005734
124	-0.004785	0.001954	-0.004128	-0.001498	-0.000512	-0.00347
125	-0.002648	-0.002648	-0.004456	0.002775	0.00031	0.00294
126	-0.003306	0.002282	-0.006593	0.001789	-0.000676	0.000967
127	-0.003799	0.000474	-0.003635	0.003597	0.002775	0.001296
128	-0.004785	0.000967	-0.006757	0.000639	-0.001334	0.001789
129	-0.004456	0.003761	-0.006757	0.002775	0.001625	0.003268
130	-0.005771	-0.002648	-0.003799	-0.003799	0.001625	-0.000183
131	-0.004785	0.000803	-0.003963	-0.000347	0.001296	0.001954
132	-0.004128	0.001296	-0.004292	-0.001991	-0.000347	-0.001005
133	-0.004621	0.000639	-0.002484	0.000146	0.001296	-0.002484
134	-0.00347	0.002611	-0.004292	-0.001334	-0.003142	-0.000183
135	-0.003963	0.001296	-0.003306	-0.001498	-0.004292	-0.004621
136	-0.00347	0.002118	-0.003963	0.001296	0.001789	-0.000183
137	-0.004292	-0.001991	-0.002155	0.001625	-0.003799	0.001789
138	-0.002155	-1.9e-05	-0.001991	0.001954	0.001296	0.004419
139	-0.003306	0.001789	0.001954	0.003597	-0.003799	0.000639
140	-0.003306	-0.000347	-0.003963	0.00409	-0.002155	0.001296
141	-0.004456	0.000803	-0.003142	0.002118	0.00409	0.001132
142	-0.006593	-0.002484	-0.001169	-0.001169	0.002282	0.00031
143	-0.005607	-0.000347	-0.00347	0.002447	0.000146	0.002118
144	-0.004949	0.00031	0.001954	0.003104	0.000146	0.000474
145	-0.003963	0.001625	-0.002155	-0.000183	0.001954	0.00146
146	-0.006429	0.005241	-0.00232	-0.000676	-0.000183	-0.000841
147	-0.0061	-0.001334	-0.002484	0.00409	0.00146	0.002118
148	-0.005936	0.002775	-0.00347	0.001789	0.002447	0.000146
149	-0.005114	-0.000347	-0.002977	-0.001498	0.000474	0.000639
150	-0.003799	0.002611	-0.00232	0.001625	-0.000512	-0.001498
151	-0.006264	0.000639	-0.005607	0.000474	-0.001827	0.00146
152	-0.007744	0.000639	-0.00232	-0.001498	0.000146	-0.004456
153	-0.00347	-0.001005	-0.001662	-0.000512	-0.000512	0.000803
154	-0.005114	0.000803	0.000146	0.000967	-0.000512	-0.004621
155	-0.001169	0.000146	-0.003142	0.001132	0.000803	-0.004292
156	-0.004128	0.000967	-0.000512	0.003433	0.00146	0.000803
157	-0.003142	0.000967	-0.001334	0.00146	-0.000183	-0.000841
158	-0.00232	0.00031	-0.002155	0.00294	-0.000347	0.000474
159	-0.00232	0.000474	-0.000676	0.003761	0.001789	0.001625
160	-0.002977	0.000474	-0.002977	0.002282	0.000639	0.002775
161	-0.003799	0.001296	-0.001334	0.001625	0.002611	0.002447
162	-0.005936	0.001296	-0.004292	0.000474	0.001296	0.00409
163	-0.004128	0.003761	0.000967	0.003433	-1.9e-05	0.000146
164	-0.005607	-0.000676	-0.003963	0.001132	0.003926	0.002118
165	-0.005443	0.001296	-0.003306	-0.001005	0.002118	-0.003142
166	-0.004785	-0.000512	-0.004292	-0.002155	-0.00232	-0.000347
167	-0.002977	0.003433	-0.002813	0.004912	0.00146	-0.000512
168	-0.004621	0.004912	-0.003963	-0.00232	-0.001662	-0.000512
169	-0.005771	0.000967	-0.002484	0.002775	-0.001498	0.000146
170	-0.003799	-0.001827	-1.9e-05	0.001789	-0.000512	0.001625
171	-0.002155	-0.002155	-0.004621	0.003104	-0.002155	-0.000676
172	0.000474	-0.000676	-0.000841	0.005405	-1.9e-05	0.000967
173	0.001296	-0.001334	-0.003306	0.002775	-0.001334	0.001132
174	-1.9e-05	-0.001827	-0.001498	0.001954	0.000146	0.000146
175	-0.002484	-0.001991	-0.000841	0.00294	-0.000512	0.000967
176	-0.002155	0.00031	-1.9e-05	0.003268	0.001789	0.002775
177	-0.001662	-0.000183	-0.003306	0.00031	0.000474	-0.000676
178	-0.003142	0.002775	-0.001334	0.00146	0.003433	-0.000512
179	-0.002155	0.001954	-0.001662	-0.001169	0.000803	0.001132
180	-0.000512	0.004583	-0.000676	0.003761	0.000967	0.00031
181	-0.001334	-0.000347	-0.003635	-0.000676	0.002611	0.002447
182	-0.001991	0.000639	-0.00232	0.00146	-0.000183	-0.00347
183	-1.9e-05	-0.001005	-0.00232	-0.000676	-1.9e-05	-0.000347
184	-0.002813	0.001625	-0.002813	0.001625	-0.00232	-0.001334
185	-0.001334	0.005076	-0.001498	-1.9e-05	-0.003306	-0.000347
186	-0.001662	-0.002813	-0.001334	-0.000841	-0.003799	-0.002977
187	-0.000183	-0.003306	0.000639	0.001789	-0.000347	-0.000676
188	-0.000841	0.000967	-0.001827	0.000967	-0.002813	-0.00347
189	-1.9e-05	-1.9e-05	0.002447	0.002775	0.001132	-0.004949
190	-0.002155	-0.00232	0.001132	-1.9e-05	-0.003142	0.000146
191	0.00031	-0.004785	-0.001662	0.003268	-0.004785	0.000803
192	0.000803	-0.00347	-0.000183	0.002282	-0.001169	0.000639
193	0.000474	0.002611	0.001132	0.00294	-1.9e-05	0.001296
194	0.001132	-0.001005	-0.000676	0.001954	-0.002813	0.002611
195	-0.001005	0.000639	0.000967	0.003926	-0.004621	0.00146
196	-0.001991	0.00031	0.00146	0.004419	0.001296	0.001954
197	-0.000676	0.001132	0.000803	0.002447	-1.9e-05	-0.001498
198	-0.003142	-0.000347	0.001625	-0.000347	0.003433	0.00146
199	-0.000676	0.001625	-0.001334	0.003268	0.002118	0.00031
200	0.00146	0.00409	-0.001169	-0.001498	0.001625	-0.000676
201	-0.003635	0.003268	-0.000347	-0.004128	-0.001662	-0.000676
202	0.00146	0.000639	-0.000841	0.001296	0.00031	-0.001005
203	-0.00347	0.001625	-0.002977	0.005241	-0.000512	-0.001005
204	-0.002484	-0.000347	0.00031	0.002611	0.001132	-0.000841
205	-0.001169	0.000146	-0.0061	0.001625	-0.001991	-0.003799
206	0.00146	-0.001498	0.001132	0.00409	-0.000183	-0.000183
207	-0.001498	-0.001498	-0.002813	0.002282	-0.000183	-0.001662
208	-1.9e-05	-0.000347	0.00031	0.002118	-0.000676	-0.000676
209	-0.003635	-0.00232	-0.000183	0.001296	0.000967	-0.000841
210	0.001625	0.001132	0.000146	0.002775	0.000639	-0.001005
211	0.000474	0.002118	-0.002977	0.001296	0.001789	-0.000347
212	-0.001662	0.002775	0.000803	0.000474	-0.004128	-0.002977
213	-0.000183	0.001789	-0.000841	0.004419	-0.000347	0.004255
214	-0.001005	0.002611	-0.001827	0.003926	0.000146	-0.001334
215	-0.000347	-1.9e-05	-0.001334	0.00294	-0.004456	-0.000841
216	0.001625	0.002282	-0.001334	0.001789	-0.001662	-0.003635
217	0.001132	-0.001169	0.000146	0.004748	-0.000512	0.00146
218	-0.004949	0.002282	0.000146	0.001296	-0.001498	0.000639
219	-0.000183	0.00409	-0.001005	0.000803	0.000967	-0.000347
220	-0.00232	-0.000183	-1.9e-05	0.001789	0.00146	-1.9e-05
221	0.000474	-0.001827	-0.001498	0.00031	-0.000676	0.000146
222	-0.001005	0.00146	-0.002813	0.003597	-0.001498	-0.001005
223	-0.004128	0.001132	0.000639	-0.001498	0.000146	-0.001005
224	-0.001991	-0.001662	-0.001827	0.00409	-0.001334	0.001789
225	-1.9e-05	-0.000183	-0.002977	0.00146	-0.001169	-0.000676
226	-0.000183	-0.001498	-0.002813	0.001625	-0.001334	0.001954
227	0.001132	0.000146	-0.002155	0.002775	0.000146	-0.001005
228	-0.000183	0.001132	-0.000347	0.00031	-0.001005	0.001625
229	-0.000512	-0.001827	0.00031	0.004419	0.001954	-0.000183
230	-1.9e-05	0.000639	0.000639	0.001625	0.002118	-0.00347
231	-0.000512	0.002447	0.002118	-0.001498	-0.000676	-0.002977
232	-0.000676	-0.000347	0.003104	0.000803	0.002447	-0.000676
233	-0.001169	0.005076	-0.000512	-0.001334	-0.000347	0.000803
234	-0.000347	0.001625	0.001789	-0.002977	0.000146	-0.001498
235	-0.000676	-0.00232	-0.003799	0.000146	0.000146	0.000146
236	0.000803	0.000146	-0.000841	0.00031	-0.001005	0.000146
237	-0.001662	-0.004292	-0.000183	-0.001005	-0.000512	0.00146
238	0.002118	-0.003142	0.003761	-0.000183	-0.000676	-0.001662
239	-0.001991	-0.004621	-0.001498	-0.001169	-0.005936	-1.9e-05
240	-0.000676	-0.001991	0.000803	-1.9e-05	-0.000841	0.001625
241	-0.000347	-0.004949	-0.001662	-0.004128	0.001954	-0.002977
242	0.000803	0.001132	0.001954	-0.001498	0.002775	-1.9e-05
243	-0.000841	0.001132	-0.000676	-0.002155	-0.000183	0.002282
244	0.000146	0.00409	-0.002977	-0.001005	0.005569	0.000146
245	-0.000183	0.000803	0.001132	-0.005443	0.000639	-0.000512
246	0.000803	0.005405	0.003926	0.004255	0.000639	0.00031
247	0.002118	-0.000183	0.000803	0.000639	0.000146	0.000146
248	-0.001498	0.001625	-0.000841	-0.002648	-1.9e-05	-0.000183
249	0.00031	0.004912	0.00146	-0.000676	0.003761	-0.000183
250	-0.002648	0.002118	-0.003635	-0.001498	-0.000512	-0.000512
251	-0.000841	0.000803	-1.9e-05	-0.003306	0.00146	-0.000183
252	-0.001169	0.00031	-0.000676	-0.005607	0.003104	-0.001169
253	0.002118	0.001625	-0.002648	-0.006264	0.001296	-0.003799
254	-1.9e-05	-0.001334	-0.003799	-0.00347	0.000967	-0.000183
255	-0.003635	0.004419	-0.003799	-0.004785	0.001625	-0.001005
256	-0.00347	0.000474	-0.000841	-0.004785	-0.001334	0.000967
257	-0.001334	0.001132	-1.9e-05	-0.00232	0.000146	0.002118
258	0.000146	-0.000512	-0.001827	-0.004621	-0.000347	0.003433
259	0.001132	0.001296	-0.004785	-0.00232	0.000474	-0.000512
260	0.003104	-0.001662	0.000474	-0.002648	-1.9e-05	0.002447
261	-0.004949	0.000474	-0.00232	-0.000512	-0.004621	-0.000183
262	0.001296	-0.002648	0.000146	-0.001334	0.002611	0.000146
263	-0.00232	-0.001005	0.001132	-0.001334	0.00031	-0.000676
264	-0.000512	0.000967	0.000474	-0.001005	0.001625	0.00146
265	-0.002977	-0.000512	-0.001662	-0.002813	0.00146	-0.000841
266	-0.001005	0.00294	0.004255	-0.001169	0.003268	-0.003799
267	-0.004456	0.003433	-1.9e-05	-0.003142	0.001954	-0.001005
268	-0.000676	0.000146	0.000474	-0.000183	0.001625	0.002282
269	0.003433	0.003104	0.000474	0.00146	0.00031	0.000146
270	0.003926	0.00146	0.001625	-0.001827	0.000474	0.000803
271	0.000803	-0.000183	0.00031	-0.005936	0.000146	0.000474
272	-0.000183	0.000146	-0.000347	0.000803	-0.000512	0.000474
273	-0.002977	-0.000512	-0.001005	-0.005114	0.000803	0.00146
274	-0.001662	0.000474	-0.000183	-0.002977	0.000639	-0.000183
275	0.001789	-0.000676	-0.001005	-0.002977	-0.001334	-0.001334
276	-0.000676	0.000474	-0.003635	-0.002648	0.000639	0.000967
277	0.002282	0.000803	-0.004785	-0.003306	-0.000183	-0.000347
278	0.000146	0.002447	-0.005443	-0.002813	-0.000512	-0.00347
279	0.003433	-0.000183	-0.002155	0.003597	-0.000512	0.000639
280	-0.000347	0.000803	-0.002813	-0.002155	-0.001498	-0.003142
281	0.001296	-0.000676	0.000639	-0.001827	-0.000347	-0.001498
282	0.001789	0.002282	0.00294	-0.001498	0.000803	-0.000676
283	-0.000183	0.002611	0.00031	0.00031	-0.000347	0.002611
284	-1.9e-05	-0.000676	-0.000512	-0.005771	0.000967	-0.001334
285	0.000639	-0.00347	0.002447	-0.000183	-1.9e-05	0.00031
286	-0.001169	-0.002813	0.00031	-0.000347	0.000146	0.001132
287	-0.001498	-0.000183	-0.000183	-0.001498	-0.000841	-0.000676
288	-0.002484	-0.001169	-0.002648	-0.001827	-0.001498	0.00146
289	-0.002155	-0.000183	0.000146	-0.001991	-0.001498	0.000803
290	0.001132	-0.000347	-0.002977	-0.002484	-0.003635	0.003597
291	-0.001334	0.003597	0.001132	0.00031	-0.001991	0.00031
292	0.00146	0.002118	-0.00347	-0.001662	-0.000512	0.000639
293	0.000803	0.004419	-0.000841	-0.001498	-0.000841	0.000967
294	-0.000676	-0.000841	0.000474	-0.000183	-0.000841	0.002447
295	-1.9e-05	0.00031	0.000474	-0.00232	0.000967	-0.00232
296	0.000146	0.000474	0.001296	0.00294	0.00294	-0.00232
297	0.000474	-1.9e-05	0.002775	0.002282	-0.000183	0.00146
298	0.001296	0.001625	-0.002977	-0.001498	0.000146	-0.000512
299	-0.002648	0.002447	-0.001498	-0.001498	0.002611	0.000639
300	-0.001005	0.002447	0.003433	0.001296	0.001296	-0.00232
301	-1.9e-05	-0.000676	-0.002484	-0.000676	-1.9e-05	0.000639
302	-1.9e-05	-0.000676	0.001625	-0.000841	0.00146	0.000803
303	0.000967	-0.001498	-0.000512	-0.003142	0.001954	0.00146
304	0.002282	0.00409	0.001625	0.00031	0.003597	-0.001498
305	-0.001005	0.000146	-1.9e-05	-0.001334	-0.000512	0.000803
306	-1.9e-05	0.000639	-0.003635	0.001625	-0.000841	0.00031
307	0.00031	0.000146	0.000474	-0.001334	0.000967	0.003433
308	-0.000347	0.001296	-0.000347	0.001789	-0.001005	0.001789
309	0.001625	-0.000183	-0.007908	-0.002648	0.003433	-0.000183
310	0.00031	0.001954	-0.001991	-0.001005	-0.001662	-0.001662
311	-0.001005	0.003597	-0.000841	-0.000841	0.000639	-0.000183
312	0.00294	-1.9e-05	-0.001005	0.00146	0.000474	-0.000841
313	-0.000183	-0.000676	0.000967	0.000474	-0.000183	0.000474
314	-0.002648	-0.000512	-0.002484	0.000474	0.001625	0.00031
315	0.00294	0.001296	-0.000676	0.00031	0.000146	-0.000676
316	-0.003635	-0.002155	0.001789	-1.9e-05	-0.000347	-0.001662
317	0.000474	0.00146	0.000474	0.001132	-0.000841	-0.001334
318	-0.000676	0.00031	-0.000512	-0.000183	-0.001498	0.001296
319	-1.9e-05	0.001954	0.003268	0.001789	0.000803	-0.000347
320	-0.001991	0.00031	-0.007579	0.001625	-0.001169	0.00146
321	-0.001662	0.00294	-0.001169	-0.002155	0.000474	0.001954
322	-0.000676	0.002282	0.00031	-0.000676	0.000967	-0.000347
323	-0.000676	0.003268	-0.002155	-0.000183	-0.001334	0.002775
324	0.00031	-0.001827	-0.003306	-0.000512	-0.000347	0.004255
325	0.00146	0.001625	-0.001005	0.000146	0.000474	-0.001991
326	0.002775	0.001954	-0.00232	-0.000512	0.00031	0.000474
327	-0.003799	-0.000512	-0.004456	-0.000512	-0.004621	-0.000676
328	0.002611	-0.001498	-0.002977	-0.000347	0.000803	-0.000347
329	-0.000347	0.002118	-0.001662	-0.000347	-0.000512	-0.001827
330	-1.9e-05	-0.000347	0.000474	-0.000347	0.000474	-0.003142
331	0.000639	-0.000676	-0.011031	-0.002813	-0.001498	-0.000841
332	0.002282	0.000146	-0.001169	-0.001005	-0.000183	-0.001334
333	-0.001498	-0.000347	-0.000676	-0.005771	-0.000512	0.000803
334	0.002118	-0.001169	-0.000347	0.004583	-0.001498	-0.000841
335	-1.9e-05	-0.006922	0.000474	-0.001498	-0.002484	0.000967
336	0.000967	-0.001991	0.00031	0.002775	-0.000841	0.00031
337	0.000803	-0.000183	0.000146	0.000967	-0.001169	0.00031
338	-0.001991	-0.002813	-0.002155	-0.000183	-0.00347	0.002118
339	-0.000676	-0.002484	-0.001991	-0.001169	0.00294	0.001296
340	-0.000512	0.000146	0.00031	0.001296	-0.001334	-0.00232
341	-0.000347	-0.000183	0.000639	-0.001662	-0.001991	-0.001005
342	-0.001169	-0.000183	-0.009223	0.001296	-0.001005	-0.00232
343	0.000967	0.001954	0.00031	-0.000841	-0.001334	-0.001334
344	-0.001991	-0.000676	-0.000841	-0.002813	-0.00232	-0.002977
345	0.001954	-0.002648	-1.9e-05	0.002775	-0.00347	0.000474
346	-1.9e-05	0.000474	-0.001498	0.00294	0.00146	0.000803
347	0.001296	0.000146	-0.000183	0.002611	0.000803	-1.9e-05
348	0.003104	0.00031	-0.000512	0.000146	-1.9e-05	0.000146
349	0.000803	-0.001169	-0.005607	0.001625	0.00031	0.000639
350	-1.9e-05	-0.002484	-0.000512	-0.000512	0.002611	0.000474
351	-1.9e-05	-0.000183	0.00146	-0.001991	0.002118	-0.001334
352	-0.001662	-0.001005	-0.000841	-0.001169	0.002611	0.00031
353	-0.000183	-0.000676	-0.006264	-0.000841	0.000803	-0.006429
354	0.003926	0.000803	-0.001827	-0.000841	0.001789	-0.000183
355	0.00146	0.003597	0.003433	0.000474	-0.001827	-0.003635
356	0.000967	-0.000676	-0.000676	0.006391	0.001954	-0.001169
357	0.000474	0.001789	-0.000347	0.00146	0.000639	-0.000676
358	0.001132	0.000474	0.000967	0.000967	0.000474	-0.000347
359	0.002282	0.003597	-0.002155	0.000803	-1.9e-05	-0.000841
360	-0.001005	-0.001662	-0.00347	0.000803	-0.000183	0.001296
361	0.000474	-0.001334	-0.000676	-0.000347	0.001789	-0.000183
362	0.001296	0.003597	0.002447	0.000967	0.003926	-0.000841
363	-0.000183	0.000967	-0.002813	-0.000183	-0.000512	-0.000512
364	-0.001498	-0.001334	-0.005607	-0.000183	0.001789	-0.000347
365	0.000146	-0.000676	-0.002813	-0.001005	0.002118	-0.002648
366	-0.000183	0.001954	-1.9e-05	-0.001827	-0.001498	-0.003799
367	-0.00232	-0.000676	-0.002813	0.001625	-0.003142	0.002447
368	0.00031	-1.9e-05	-0.003142	0.002447	0.001296	0.000803
369	-0.00232	-0.001498	0.00031	0.002118	0.000803	0.000146
370	-0.002155	0.002447	-0.001005	0.002447	0.000146	0.000146
371	-0.000841	-0.000183	-0.00347	0.000639	-0.000676	0.001625
372	-0.000183	0.00146	0.00146	0.001132	0.00294	0.002118
373	-0.001827	0.000803	0.00146	0.000967	0.001625	0.000803
374	-0.002484	0.00031	-0.002813	-0.000183	-0.000347	0.000146
375	-0.000183	-0.000347	0.002447	0.000803	0.00031	0.000474
376	-0.00347	0.002447	-0.002155	-0.000841	-0.001169	-0.001498
377	0.000474	0.002447	-0.001334	-0.001005	-0.000676	-0.001498
378	-0.001169	0.000474	-0.002484	0.001132	-0.001498	0.002611
379	-0.001334	0.000639	-0.002648	0.002775	0.000803	-1.9e-05
380	0.000474	-0.001005	-0.001991	-0.006429	-0.002977	-0.004785
381	0.004419	0.000474	0.001296	0.000146	-1.9e-05	0.001296
382	-0.001334	-0.002813	-0.002155	-0.003142	-0.002977	-0.001827
383	0.002282	-0.000183	-0.000676	-1.9e-05	0.000474	-0.001991
384	-0.001334	-0.000676	-0.000183	0.000146	-0.002155	-0.000676
385	-0.000676	-0.001991	-1.9e-05	-0.000183	-0.002155	-0.001991
386	0.001132	-0.004292	0.003104	-0.001169	-1.9e-05	0.000967
387	-0.001662	-0.001498	-0.001334	-0.000183	-0.001005	-0.001991
388	0.002775	0.000803	0.000803	0.000803	0.001625	-0.000347
389	0.001954	-0.00232	0.001132	-0.001498	0.00146	0.00031
390	-1.9e-05	-0.000183	0.002447	0.002282	0.001132	0.00031
391	0.000146	0.00146	-0.001498	-0.001498	-0.001005	-0.002155
392	0.003761	-0.001005	0.002611	0.000639	0.000146	0.001954
393	-0.001991	-0.004292	-0.000347	-0.004456	-0.002977	0.002447
394	0.000146	-0.001005	0.001296	-0.000512	0.000639	-0.001662
395	-0.000676	-0.000183	-0.000676	-0.003306	-0.002648	0.002118
396	-0.000183	0.001789	-0.000676	-0.001991	-1.9e-05	-0.000841
397	-0.00232	-0.001334	0.003104	-0.003963	-0.001169	-0.001662
398	-0.000676	0.001789	-0.002155	-0.001498	-0.000347	0.000639
399	-0.003142	0.001132	-0.00232	-0.001498	-0.000347	-0.002648
400	-0.000347	-0.001827	-0.000347	-0.002484	-0.001498	-0.001334
401	-0.000183	0.000967	-0.000347	-0.005771	-0.001827	-0.000512
402	0.000967	0.001625	-0.000841	-1.9e-05	0.000146	-0.00347
403	-0.000183	-0.001169	0.000639	-0.001169	0.001296	-0.003142
404	0.000474	-0.000512	-0.000512	-0.000841	-1.9e-05	0.001296
405	0.001789	-0.000183	0.001296	-1.9e-05	0.000967	0.00294
406	-0.001498	0.000474	0.004583	0.000146	0.00031	-0.001827
407	0.002118	0.001132	0.001625	0.000146	0.001132	0.000474
408	0.000474	0.002611	0.00672	-0.002977	-0.001005	-0.000512
409	0.002118	-0.004128	0.000146	0.001132	0.001789	0.00409
410	-0.003142	0.00146	0.000639	-0.002977	0.000803	-0.000512
411	0.002118	0.002447	-0.000841	0.000474	0.002447	0.000639
412	-0.000512	0.000474	-0.001827	0.000474	0.002118	0.000474
413	-0.000183	0.000639	0.000639	-0.000347	-0.000183	-0.001498
414	0.000146	-1.9e-05	-0.00232	-0.001005	-0.000841	0.002447
415	-0.003635	0.000639	-0.000183	-0.000183	-0.001169	-0.001169
416	-0.001169	-0.001169	-0.001662	-0.001991	0.000474	0.001625
417	-0.00232	0.001296	-0.001827	-0.001991	0.003104	0.000803
418	-0.004128	-0.002484	-0.00232	-0.004456	0.000967	-1.9e-05
419	-0.003963	0.003433	0.003104	-0.001498	0.000639	-0.000841
420	0.000639	-0.002648	0.000474	-0.001005	0.002447	0.000474
421	-0.001991	0.001625	-0.001827	-0.00232	-0.000512	-0.002155
422	0.002118	0.000967	0.000474	0.002118	-0.001334	-0.000183
423	0.000474	0.001132	0.000146	0.000474	-0.002484	0.00031
424	0.003926	0.000474	0.001296	0.001296	0.001954	0.001789
425	0.001625	0.00031	0.003761	-0.000347	-0.000841	-0.000347
426	-0.002155	0.001132	0.003761	0.001296	-0.000183	0.001296
427	0.003597	0.000474	-0.000183	-0.000512	0.002775	0.000474
428	0.001954	0.001954	-0.000841	-0.000347	0.001296	0.002282
429	0.000146	-0.001005	-0.001334	-0.002648	0.001132	0.001296
430	0.000803	0.000474	0.003433	0.002611	0.000146	-1.9e-05
431	-0.001005	-0.003142	-0.004949	-0.000183	0.001296	-0.001498
432	-0.003142	0.001789	-0.002813	-0.002155	-0.000183	-0.003963
433	0.000639	0.000967	-0.002155	-0.001662	-0.001498	-0.001498
434	0.000474	0.000474	0.000803	-0.000183	0.000803	-0.000512
435	0.001789	-0.00232	0.000967	0.000639	-0.001498	-0.004128
436	0.000474	-0.000676	-0.001334	-0.001005	-0.001827	0.000803
437	0.001132	-0.003799	0.003104	0.00031	-0.001991	-0.000841
438	0.000967	-0.003635	0.000639	0.000146	-0.002977	-0.002484
439	0.00409	-0.001334	-1.9e-05	-0.001827	-0.003306	-0.001005
440	0.000639	-0.002813	-1.9e-05	0.000967	-0.001498	-0.000183
441	0.00409	-0.001827	0.005241	0.001789	-0.000512	-0.000183
442	0.001625	-0.001827	-0.001334	0.000146	0.001296	0.00409
443	-0.002484	0.00146	0.000474	-0.001498	-0.001169	0.00146
444	-1.9e-05	0.002611	-0.000512	0.003433	-0.000841	0.002447
445	0.003926	0.004912	0.00031	-1.9e-05	0.000474	0.000803
446	-0.001169	0.001132	0.000474	-0.001498	-0.000347	0.002282
447	-0.000512	0.00294	-1.9e-05	-0.003635	-0.000512	-0.001498
448	-0.002155	0.000639	-0.000841	-0.002813	-0.001827	0.001954
449	-0.00232	0.001132	0.000146	-0.001334	0.000967	0.002611
450	0.000474	0.000474	0.000803	-0.0061	-0.001005	0.00031
451	-0.001498	-1.9e-05	-0.001498	-0.003142	0.000474	-0.001827
452	-1.9e-05	-0.000512	0.003104	0.003761	0.001789	-0.002155
453	-0.00347	-0.001005	-0.002155	-1.9e-05	-0.003142	-0.001827
454	-0.00232	0.000803	0.002447	0.00146	-1.9e-05	-0.001827
455	0.000146	-0.001334	-0.002648	0.004583	-0.001334	-0.000841
456	0.00146	-0.000183	-0.001498	0.000474	-0.000512	-0.001827
457	0.000639	0.001954	-0.000512	0.001132	-0.000183	0.000474
458	0.004419	0.002447	0.001789	0.003761	-0.000347	0.000803
459	0.000639	-0.001662	-0.00232	0.001296	-0.001334	0.00146
460	0.000639	-0.001662	0.00146	0.003597	0.003761	0.000639
461	0.001625	-0.001498	-0.000676	0.002118	0.003761	0.001954
462	0.000146	0.000146	0.000639	0.005076	0.001625	0.00031
463	-0.001662	-0.001662	0.00146	0.001625	0.000639	0.001296
464	-0.000676	0.000474	-0.004621	0.000967	0.002118	-0.002977
465	-0.003799	0.00146	0.00031	-0.000841	-0.001334	0.002118
466	-0.003635	0.003104	0.000146	0.003104	-0.000841	0.005898
467	0.001296	0.003597	0.000474	0.000474	0.000803	0.001132
468	-0.003635	0.000639	-0.000512	-0.002155	-0.002155	0.000967
469	-0.001662	0.001789	0.001789	0.001132	-0.002484	0.002118
470	-0.001498	0.000803	0.004419	-0.006922	-0.004128	-0.002648
471	0.001789	0.000146	-0.000183	-0.005443	-0.000841	-0.001005
472	-0.000841	-1.9e-05	0.000146	-0.004785	-0.002813	-0.000183
473	0.00146	0.001296	0.00146	-0.002648	-0.002484	-0.000183
474	0.001954	-0.004949	0.00031	-0.003963	-1.9e-05	0.001132
475	0.000639	-0.002648	0.001789	-0.003799	0.00031	-0.000676
476	0.003104	0.002775	-0.001169	-0.003799	0.003761	0.000146
477	0.001789	-0.000512	-0.000676	-0.000347	-0.000512	0.000474
478	0.001132	0.00031	-1.9e-05	-0.003963	0.000639	0.003268
479	-0.000512	0.000967	0.00031	0.003104	0.001132	0.000803
480	0.000639	0.00146	-0.001662	-0.000841	-0.000512	0.002447
481	0.001625	0.000639	-0.002648	-0.004621	0.000803	0.003926
482	0.000146	0.000803	0.001954	0.000474	0.003268	-0.001169
483	-0.00232	0.001954	-0.001005	-0.001662	-0.001334	-0.000512
484	0.000474	0.000474	0.002611	-0.000183	0.001625	-0.000512
485	-0.000676	0.00031	0.001625	-0.000512	-0.000841	-0.000512
486	0.000146	-0.004621	-0.000841	0.000967	-0.000841	-0.000676
487	-0.000512	0.000639	0.000967	-0.001662	-0.004292	-0.00347
488	0.000803	-0.003142	-0.002977	0.001789	-0.003799	0.000639
489	0.000474	-0.00232	-0.003306	0.000146	-0.003142	0.000967
490	0.002447	0.000803	0.000967	0.000967	-0.004949	0.00031
491	0.003926	0.002775	-0.001005	0.000967	-0.001827	-0.000841
492	0.000639	0.00031	0.00031	0.002611	-0.001005	0.002282
493	0.00031	-0.000183	0.000967	-0.001498	0.000474	0.001625
494	0.000146	0.00031	0.001132	0.00146	0.00031	-0.000676
495	0.002447	0.001789	0.000967	0.002611	-0.000347	0.000639
496	-0.000183	-0.000512	0.00146	0.001296	-0.001169	0.00031
497	-0.001498	-0.001169	0.001132	-0.002648	0.002611	0.000639
498	-0.002813	0.003104	-0.000183	-0.006922	-0.002813	-0.000347
499	0.004748	0.00031	0.00146	0.003926	0.00146	0.001625
500	-0.000512	0.001625	-0.000841	-0.002648	-1.9e-05	-0.001005
501	-0.000183	0.002118	-0.000841	-0.002484	0.00146	-0.001662
502	0.004255	0.001954	0.00031	-0.001662	-1.9e-05	-0.00232
503	-0.003799	0.000146	-0.001334	-0.001827	-0.001005	-0.001827
504	-0.004949	-1.9e-05	0.001132	-0.001827	-0.002155	-0.001334
505	-0.000841	0.000967	0.002118	0.000146	0.001625	-0.001827
506	0.00031	0.001954	0.00031	0.000967	-0.001169	-0.000841
507	0.001625	0.000474	-0.001169	0.001132	-0.000841	-1.9e-05
508	0.00146	-0.001334	-0.002813	-0.002155	0.000146	0.000474
509	0.000146	0.003926	-0.001005	0.003597	-0.001169	-0.001169
510	0.002118	-0.000183	-0.000512	0.001789	0.003104	0.002118
511	-0.000183	0.001296	-0.000183	0.00146	0.002447	0.001296
512	-0.001827	-0.000841	0.001625	0.001954	0.001132	0.000474
513	0.005898	0.002118	0.000146	-0.000512	-0.001334	0.000803
514	-0.001498	-0.001005	0.000639	-0.000841	0.001789	0.003597
515	-0.002484	0.002447	0.000967	-0.000512	0.000474	0.001296
516	-0.001005	0.00146	0.00409	0.001296	0.001789	0.001296
517	-0.001005	0.001954	0.002282	-1.9e-05	0.000474	0.000639
518	0.001296	0.001789	0.003104	-0.001005	0.000146	0.000803
519	-0.001991	0.000967	0.00031	-0.00232	-0.003142	0.000146
520	0.001789	0.00409	0.007213	0.000474	-0.001498	-0.004456
521	0.001954	0.002118	-0.000512	0.000146	-0.001169	-0.000512
522	0.002447	0.002118	-0.000841	0.001789	-0.000676	0.001954
523	0.002118	-0.000841	0.001954	-0.001169	-0.001005	0.001954
524	0.008199	0.001296	-0.005771	-0.000512	0.000803	0.000639
525	0.001132	-0.002977	-0.009387	-0.000183	-0.000512	-0.000841
526	0.002775	0.000146	-0.000347	0.000146	-0.000841	-1.9e-05
527	-0.001169	-0.001991	0.001132	0.00031	0.003268	-0.000347
528	-0.00347	0.000474	-0.001498	0.002118	-0.000183	0.000803
529	-0.001005	0.000967	0.00031	0.002118	0.001296	0.001296
530	-0.000183	0.000803	-0.000347	0.000474	0.001789	0.00146
531	-0.000676	0.001132	0.001789	-0.001662	-0.002155	0.002611
532	0.002611	-1.9e-05	-0.000183	0.000967	-0.000512	0.006391
533	0.002118	0.001132	0.003597	0.000803	0.001296	0.001296
534	0.00031	0.003597	0.00146	-0.000841	-0.002484	0.000639
535	0.010007	0.003104	0.002282	0.000474	-0.001827	-0.001005
536	-0.002648	-0.003306	0.000967	-0.001005	0.000474	0.000474
537	-0.002484	-0.000512	0.00409	0.00146	0.001296	-0.001991
538	0.000803	-0.000841	0.002611	-0.001169	-0.00347	-0.000676
539	0.001789	-0.001169	0.003104	0.000639	0.002118	-0.000676
540	0.002282	-0.002977	0.002775	-0.000841	-0.000183	0.000803
541	0.001132	-0.000841	0.001132	-0.000512	-1.9e-05	-0.002484
542	0.000639	-0.001169	0.002611	-1.9e-05	-1.9e-05	0.002611
543	0.000639	0.000803	0.00031	0.000639	-0.001334	0.000146
544	0.001132	-0.001169	0.003761	0.001132	0.000146	-0.005278
545	-0.001662	0.000967	0.001625	-1.9e-05	-0.001169	-0.002813
546	0.008199	-0.00232	0.002611	0.002611	-0.002977	-1.9e-05
547	-0.001991	-0.00232	0.000967	0.002775	-0.000841	-0.000183
548	0.000803	0.00031	0.004419	0.000803	0.001789	0.000967
549	0.000803	-0.000512	0.002282	-0.003306	0.001625	0.000803
550	-0.000183	-1.9e-05	0.004255	-0.000512	0.002282	-0.002648
551	-0.000512	-1.9e-05	0.003433	0.000146	-0.000512	-0.001498
552	0.001296	0.001625	0.004419	-0.000676	0.002118	-0.003306
553	-0.002813	0.001296	0.001132	-0.005771	-0.000841	-0.002155
554	-0.003963	0.002118	0.003433	0.00031	0.000146	-0.000841
555	0.003104	0.000146	0.001954	0.002118	0.00031	0.000967
556	0.00031	-1.9e-05	0.001132	0.000146	-0.001498	-0.000183
557	0.008857	-1.9e-05	0.005569	0.000146	-0.000183	0.001132
558	-0.002484	0.000474	0.001954	0.00031	-0.000676	-0.001169
559	0.000967	-0.001169	0.003597	0.005734	0.001625	0.000803
560	-1.9e-05	0.001132	0.002282	0.000967	0.000639	-0.000841
561	0.00146	-0.001005	0.003268	0.001789	0.001132	-0.001498
562	0.00031	-0.001334	0.003268	0.000803	0.000967	0.000474
563	0.00031	-0.001662	0.002282	0.000146	0.001132	-0.000841
564	-0.000347	0.001789	0.00031	0.002118	0.001132	0.000146
565	0.001625	0.000803	0.003926	0.002118	0.000803	-0.000841
566	-0.000347	0.002611	0.003761	0.001789	0.002282	-0.000183
567	-0.000183	0.001625	0.003761	0.005898	-0.001005	-0.000347
568	0.003761	0.002282	0.002775	0.000474	-0.000841	0.000474
569	-0.002155	0.00294	0.003268	0.002447	-0.000347	-0.000347
570	0.002447	-0.001005	0.007049	0.001789	0.004419	0.000803
571	0.00146	0.001789	0.002118	-0.000347	0.002447	-0.001169
572	0.001954	-0.001334	0.003104	-1.9e-05	0.000967	0.001132
573	0.000146	0.00031	0.003597	0.00146	-0.000183	0.001132
574	0.003104	-0.00232	-0.001169	-0.002155	0.000803	0.000146
575	-0.001334	-0.001498	-0.000841	-0.001334	-0.000183	-0.001991
576	0.001625	-0.000512	0.000146	0.000146	-0.000183	0.00294
577	0.000967	-1.9e-05	0.000146	-0.000183	-0.001334	-0.001005
578	-0.001498	-0.001169	0.00409	-0.000512	0.001132	0.000803
579	0.007213	0.000474	-0.002484	-0.003635	-0.000512	0.000146
580	0.003268	-0.000183	0.003268	-0.00232	-1.9e-05	0.001296
581	0.00146	-0.001498	0.003761	-0.001334	0.000803	0.004419
582	0.002775	0.000474	0.003268	-0.001169	0.004419	-0.002977
583	0.002118	0.001789	0.002611	-0.002155	-0.002155	0.001296
584	-1.9e-05	0.005898	0.006062	0.001132	-0.001991	0.000146
585	0.002282	0.001132	0.00146	-0.001334	-0.002155	0.001296
586	0.001132	0.001132	0.002611	-0.000512	-0.003635	-0.000676
587	0.001132	0.000803	0.003104	0.000967	0.002611	0.001625
588	0.001132	0.003761	-0.002155	0.000146	-0.002813	-0.000183
589	0.001954	-0.002155	-1.9e-05	-0.000841	0.00146	0.000639
590	0.002775	-0.002484	0.000146	0.000474	0.000146	0.000967
591	-1.9e-05	0.000474	0.000146	-0.000841	0.000803	0.000803
592	0.001132	-0.000512	-1.9e-05	-0.000183	0.00294	-1.9e-05
593	-0.001827	0.000474	-0.001334	-0.002484	0.002447	-0.001827
594	-0.000841	0.000803	-0.000676	-0.00232	-0.001169	-0.002648
595	0.000803	-0.000347	-0.000512	-0.001334	-0.001827	-0.002648
596	0.000967	-0.001827	0.001296	-0.003306	-0.000183	-1.9e-05
597	-0.001498	0.005734	0.003268	-0.002155	0.00146	-0.003635
598	0.000146	0.001625	0.000146	-0.000676	-0.001498	0.001132
599	0.002611	0.001132	0.000474	-1.9e-05	0.00031	-0.001662
600	0.002118	0.001296	0.001132	-0.001991	0.000474	-0.000841
601	0.006391	0.002118	-0.000512	0.000639	-0.000183	-0.00347
602	-0.000676	-1.9e-05	0.001296	-0.001005	0.001132	-0.001827
603	-0.001662	0.002775	0.000474	0.000639	0.00294	-0.003142
604	-0.001662	-0.000347	0.010664	0.00031	0.001789	0.002611
605	0.00146	0.001296	0.004255	-0.000512	-1.9e-05	0.00031
606	0.002611	-0.001334	-0.002813	-0.001169	0.00409	0.002282
607	-0.001005	-0.001334	-0.006757	-0.000347	0.002775	0.000474
608	0.000803	-0.000183	0.000146	0.002118	-0.000841	0.00031
609	-0.001498	0.000967	-0.002977	0.000474	-0.000183	0.001296
610	0.002611	0.000146	-0.000512	-0.001991	0.002447	0.000967
611	0.000639	0.000474	-0.003799	-0.001827	-1.9e-05	-0.000512
612	0.009021	0.001296	-0.000347	0.001954	0.003761	-0.000841
613	-0.004456	0.00031	-0.001498	-0.001827	0.000967	0.002282
614	0.00031	0.00031	-0.000183	-0.001662	0.002611	-0.002813
615	0.000639	0.000474	0.000146	0.000474	-0.000183	-0.000183
616	0.001132	0.001954	0.003761	0.002611	0.001296	0.000474
617	0.000803	0.001296	0.005405	-0.000183	-0.000841	-0.00232
618	-0.002813	0.000803	-0.001991	0.001625	0.00146	0.000474
619	-0.00232	-0.001169	0.003761	-0.000841	0.000803	0.002611
620	0.003926	-1.9e-05	-1.9e-05	0.004583	-0.000676	-0.001662
621	0.002611	0.001789	-0.001827	0.002611	0.00409	0.003268
622	0.000803	-0.001334	-0.002977	-0.001498	-0.002648	0.001296
623	0.007049	-0.000183	0.003597	-1.9e-05	-0.000183	0.00146
624	-0.001498	-0.000183	-0.000183	0.001296	0.001625	0.001296
625	0.001789	0.000146	0.003104	-0.001662	0.002118	-0.000676
626	-0.000512	0.000967	0.002447	-0.002155	0.000146	0.001132
627	0.001625	0.000967	0.008857	0.00294	0.000967	-0.000183
628	0.000474	0.000803	0.008199	-0.002813	-0.000183	-1.9e-05
629	0.00672	-0.000676	0.008363	0.001789	0.002118	-0.000676
630	0.001625	0.001625	0.010007	-0.002484	-0.001498	-0.000183
631	0.003268	0.001296	0.011158	0.000967	-0.001334	-0.001662
632	0.003597	-0.001498	0.008199	0.00031	0.00031	0.00031
633	0.002611	0.00146	0.016253	-0.000183	0.000146	-0.002813
634	0.007049	-0.001498	0.018554	0.000146	-0.001169	-0.000183
635	0.000474	0.00146	0.008692	0.002447	-0.004949	-0.000512
636	-0.000183	0.00146	0.014773	-0.000841	-0.001334	-0.000347
637	0.001132	0.001132	0.0105	0.000146	-1.9e-05	-0.000512
638	0.002775	0.000967	0.012965	0.001132	-0.000512	0.002775
639	-1.9e-05	0.001625	0.011322	-0.00232	-0.003142	0.001625
640	-0.001005	-0.001169	0.00935	0.002611	0.002447	-0.000512
641	-0.002484	-0.000347	0.007377	-0.001662	-0.00347	0.001625
642	0.003597	0.001625	0.008199	0.001132	0.003761	-1.9e-05
643	0.002118	0.000146	0.006227	-0.001498	0.000146	0.000474
644	0.002611	-0.001498	0.004912	0.000474	0.000474	0.001132
645	0.002282	0.000474	0.000474	-0.000841	-0.001662	-0.001005
646	0.001625	0.003761	-0.000347	-0.001827	0.001625	0.002611
647	0.000474	-1.9e-05	-0.000347	-0.005771	0.001132	0.000146
648	0.001954	0.003761	0.000639	-0.004949	-0.000676	-0.001991
649	0.00146	-0.000183	0.000803	-0.000512	0.000474	-1.9e-05
650	0.002611	0.002118	0.000639	-0.002977	0.000639	-0.001498
651	0.00146	-0.000183	-0.001169	-0.002155	0.001789	-0.001334
652	-1.9e-05	-1.9e-05	0.000146	0.001132	-0.000676	-0.003306
653	-0.000512	0.000967	0.000639	0.002118	-0.000347	0.000146
654	0.00031	0.00031	-0.000512	0.000803	0.001954	-0.001005
655	0.002118	0.001954	0.001789	0.002118	0.000967	0.005076
656	0.003104	0.00146	0.001789	0.000803	0.000474	-0.001662
657	0.000474	-0.001498	-0.001169	0.002611	0.003104	0.002775
658	-0.001662	0.000639	0.001625	-0.001334	0.004255	0.001132
659	0.001789	0.002282	0.001625	0.001954	0.002611	0.00031
660	0.00031	-0.000512	0.001132	-0.001662	0.001296	0.00146
661	-0.000347	0.002118	0.003268	-0.001827	0.002775	-0.000512
662	-0.000512	-0.001334	0.00294	-0.002155	0.003597	-0.000183
663	-0.001827	0.001132	0.00031	-0.002977	0.000803	0.001789
664	0.001625	0.003104	0.001132	-0.001827	-0.001169	0.003433
665	0.000639	0.002118	0.001625	-0.001827	0.00146	-1.9e-05
666	-0.000841	-0.000347	-0.000183	0.00146	0.000146	0.001789
667	0.001296	0.003597	0.00031	0.000639	-0.000347	0.000146
668	0.001296	-0.003142	0.000146	0.000639	0.001296	0.001296
669	-0.002155	-0.00232	0.000967	0.000474	0.000967	-0.000347
670	0.005898	-0.001169	0.000967	0.002118	0.000639	0.000474
671	-0.002484	-0.001169	0.000967	0.00146	-0.000512	0.002282
672	0.001625	-0.000347	0.002611	0.001132	-0.004785	0.00146
673	-0.000347	-0.000841	-0.000347	-0.001005	-0.001662	0.00146
674	0.000967	0.000639	0.002118	0.00031	0.002775	-0.001991
675	0.000803	0.00146	0.003268	-0.000347	-0.000183	0.001789
676	0.000967	0.003761	0.00031	0.002118	0.001789	0.000967
677	0.000967	0.00031	0.001789	0.003268	0.001954	0.001132
678	0.003104	0.004255	0.001789	0.003433	-0.002648	-1.9e-05
679	-0.001498	-0.001991	-0.001662	0.003268	0.00031	0.000146
680	-0.001498	0.002282	-0.002155	-0.002813	0.001132	-0.001169
681	0.000639	0.000639	0.002611	0.00031	-0.000183	-0.000183
682	0.002282	0.00031	0.001296	0.000146	0.00031	0.000639
683	-0.000347	-1.9e-05	0.001132	0.000803	-0.000676	-0.001005
684	0.000474	-0.001498	-0.005771	0.000639	0.001954	-0.00232
685	0.002447	-0.004292	0.00031	-0.000676	-0.001662	-0.002155
686	0.000967	-0.001334	-0.001334	0.000474	-0.003306	0.001296
687	0.001789	0.000639	-1.9e-05	0.00146	-0.000183	-0.001662
688	0.001296	-0.003142	0.001789	0.001132	-0.001498	0.002282
689	0.002282	0.000803	0.004748	0.000803	-0.000347	0.001789
690	0.000474	0.000803	-0.000347	0.000967	-0.001334	0.000639
691	-0.000512	0.001789	0.005076	0.000803	0.003104	0.001954
692	0.000639	0.001132	0.00031	0.000639	0.001954	0.000639
693	0.003268	0.002611	0.002611	0.001132	0.002118	-0.000512
694	0.000639	0.002447	0.003597	0.001625	0.002775	0.000639
695	0.000639	0.002118	-0.000676	0.001132	-0.004128	-0.002484
696	-0.002484	0.001954	0.001625	-0.000841	-0.000512	0.006227
697	0.001132	0.002447	0.001132	0.004748	0.001954	0.002282
698	0.002282	0.002775	0.002447	-0.001334	-0.000676	0.000146
699	-0.001827	-0.001662	-0.001005	-0.000347	0.000803	0.000474
700	0.004255	0.001625	0.001789	0.000803	0.001789	0.002447
701	0.000146	0.000474	-0.000841	-0.002484	-0.000512	0.002447
702	-0.000183	-0.002155	0.000474	-0.000676	0.002775	-0.001662
703	-0.003142	0.00031	0.001132	0.000146	-0.000512	0.00031
704	0.001296	-0.000512	0.001625	-0.000347	0.000967	-0.001005
705	0.001296	0.000474	-0.000183	-0.002648	-1.9e-05	-0.000183
706	0.000967	0.003104	-0.000512	0.001296	0.00146	0.00031
707	0.000146	0.000803	-0.000183	0.000639	0.000639	-0.001827
708	0.001132	0.002775	0.00294	0.004255	0.002118	0.001954
709	-0.000183	0.002282	-0.000347	0.001954	-0.000841	0.003926
710	0.002118	0.001789	0.001625	0.001625	-0.000183	-0.005936
711	0.003268	0.002118	-0.00232	-0.000347	-1.9e-05	0.005076
712	-0.000183	0.002118	-0.002484	0.002775	0.003268	0.000803
713	0.001296	0.001132	0.005241	0.001132	0.00294	0.00146
714	-0.002155	0.001954	-0.000183	0.001789	-0.001334	0.000474
715	-0.001005	0.001132	-0.000512	-0.000347	0.00409	-0.001827
716	-0.00232	0.000639	0.001296	0.001296	0.000639	-0.000347
717	-1.9e-05	-0.001334	0.001132	0.002447	0.000146	-0.000841
718	-0.006922	-0.000347	-0.000676	-0.002155	-0.001662	-0.00232
719	-0.000841	0.002118	0.000803	0.001954	0.001789	0.000474
720	-0.003306	0.000146	0.00031	0.005076	-0.002155	0.000474
721	0.00146	0.000146	0.000967	0.000474	-0.001334	-0.001005
722	0.002447	0.000474	0.001132	0.002611	-0.003142	0.001789
723	0.000474	0.00146	0.00146	0.001296	0.002447	0.000474
724	0.002118	-0.001005	0.000803	0.001625	0.004255	0.001296
725	0.000474	0.00031	0.000474	0.003268	0.001954	-0.000676
726	-0.000841	0.001789	-0.001169	0.001789	0.001296	0.000474
727	0.000803	0.002282	0.00294	0.004255	0.00146	-0.001005
728	-0.000841	0.000474	-1.9e-05	0.002611	0.000967	0.001132
729	-0.005936	0.000474	-0.001005	-0.000676	-0.001334	-0.000183
730	0.001789	0.004419	0.001789	0.002282	0.00146	0.000967
731	-0.002813	0.004912	0.001132	-0.000347	-0.001169	-0.000676
732	0.002118	-0.000183	-0.005278	0.002775	0.000803	0.001132
733	0.000803	0.000639	0.000967	0.001625	-0.00232	0.001132
734	-0.000676	-0.000183	0.002447	0.000639	0.000474	0.003433
735	-0.000183	-0.002977	0.000803	0.000639	-0.000347	-0.000676
736	-1.9e-05	-0.006757	0.001954	0.003433	-0.000676	0.000146
737	0.000639	-0.003635	0.000967	-0.001169	-0.001498	-0.000183
738	0.001132	-0.000676	0.00294	-0.001991	-0.000347	-0.001498
739	0.000474	-0.002484	0.000146	0.002447	0.00031	0.001625
740	-0.000841	0.000803	0.000474	0.00294	0.000474	-0.000841
741	0.001954	0.000967	0.000639	-0.000183	0.000967	0.001625
742	-0.000512	0.000967	0.001132	0.002611	0.00031	-0.001662
743	0.001132	0.002775	0.002118	0.002118	-1.9e-05	0.000967
744	0.002118	0.002447	-0.001498	0.002775	0.002447	-0.001662
745	0.000474	0.000967	0.002447	0.003268	0.005405	0.003433
746	-0.000512	0.002611	0.002611	0.001954	0.003104	0.002611
747	0.000803	0.000803	0.001789	0.002447	0.004419	0.00031
748	-0.001169	0.000474	-0.001005	0.003926	0.002118	0.000639
749	0.001132	-0.000841	-0.000183	0.000474	0.001954	-0.002648
750	-0.001498	-0.001169	0.001625	0.002611	0.001132	-0.001827
751	0.002118	0.006556	0.005898	0.006062	0.005405	0.002118
752	0.009514	0.012308	0.011158	0.011815	0.009021	0.012965
753	0.021348	0.020526	0.021512	0.019868	0.022827	0.014773
754	0.028908	0.027265	0.025785	0.027429	0.027265	0.027429
755	0.038276	0.039427	0.033346	0.036304	0.035318	0.033017
756	0.042878	0.043043	0.043207	0.043536	0.044358	0.044522
757	0.049781	0.049781	0.050603	0.049781	0.050603	0.045672
758	0.057013	0.05537	0.056027	0.055698	0.055863	0.054219
759	0.059643	0.061451	0.060629	0.063423	0.061286	0.0603
760	0.068847	0.066546	0.072627	0.068682	0.067861	0.067039
761	0.073449	0.077722	0.072791	0.074928	0.068025	0.072134
762	0.077393	0.077722	0.077065	0.08331	0.079201	0.076736
763	0.080023	0.085283	0.077065	0.089063	0.082817	0.084789
764	0.086104	0.08857	0.084132	0.092186	0.089556	0.088405
765	0.091035	0.092514	0.08972	0.095308	0.0935	0.091857
766	0.096623	0.098595	0.094651	0.099417	0.099253	0.097281
767	0.096788	0.101718	0.097609	0.102047	0.105663	0.101883
768	0.10139	0.107306	0.10517	0.10632	0.10632	0.104184
769	0.106978	0.110265	0.108128	0.108293	0.109936	0.109772
770	0.110429	0.113881	0.110922	0.114209	0.112401	0.112566
771	0.116839	0.117496	0.118811	0.115195	0.115853	0.117825
772	0.120455	0.120784	0.116182	0.121277	0.121277	0.118976
773	0.12292	0.12292	0.122756	0.125386	0.126372	0.124071
774	0.128344	0.12818	0.123742	0.131302	0.12933	0.1267
775	0.133768	0.126865	0.128015	0.132782	0.130809	0.127358
776	0.131138	0.133439	0.129988	0.134918	0.13311	0.132782
777	0.140013	0.136562	0.134261	0.139192	0.136562	0.137548
778	0.136233	0.138205	0.135083	0.137219	0.138863	0.137548
779	0.142314	0.141328	0.138863	0.143629	0.14478	0.141328
780	0.144122	0.144451	0.140342	0.142807	0.143629	0.144615
781	0.14593	0.146423	0.145108	0.145437	0.147409	0.146095
782	0.150039	0.148396	0.154148	0.148067	0.149053	0.146259
783	0.14856	0.152669	0.150861	0.152669	0.145437	0.147245
784	0.150204	0.149382	0.148724	0.150039	0.153984	0.152505
785	0.156778	0.157928	0.152998	0.154312	0.155463	0.152833
786	0.153326	0.1576	0.154312	0.153819	0.15497	0.155134
787	0.158586	0.157107	0.157928	0.157271	0.157107	0.157764
788	0.160722	0.160887	0.157928	0.160394	0.159079	0.163516
789	0.160887	0.162202	0.161709	0.160722	0.161215	0.160558
790	0.163188	0.158257	0.16401	0.16253	0.164174	0.163023
791	0.165489	0.162202	0.163516	0.164503	0.16516	0.163352
792	0.165653	0.164503	0.168283	0.165817	0.166804	0.166475
793	0.166311	0.167132	0.17157	0.165982	0.167954	0.167297
794	0.170091	0.170255	0.16779	0.169926	0.170748	0.169105
795	0.168118	0.1742	0.169433	0.168447	0.173214	0.170091
796	0.169926	0.172227	0.171406	0.174693	0.172227	0.174035
797	0.172392	0.172063	0.172227	0.169269	0.175021	0.169269
798	0.173707	0.172227	0.175679	0.173049	0.176665	0.169105
799	0.17272	0.175021	0.171734	0.174364	0.176501	0.174035
800	0.173871	0.175186	0.176008	0.174364	0.176665	0.16894
801	0.174364	0.17535	0.177651	0.17535	0.179295	0.175186
802	0.178144	0.178802	0.177322	0.175021	0.178802	0.176829
803	0.179623	0.177815	0.178802	0.17535	0.180281	0.180938
804	0.181431	0.179952	0.183897	0.176008	0.181267	0.181431
805	0.182417	0.181267	0.178309	0.178802	0.180281	0.181267
806	0.181924	0.182746	0.17798	0.177651	0.184061	0.178966
807	0.184225	0.182911	0.185047	0.182089	0.18176	0.183075
808	0.184225	0.185047	0.180938	0.183404	0.180445	0.178802
809	0.185047	0.183239	0.187184	0.184883	0.185212	0.179295
810	0.184554	0.184225	0.182582	0.18554	0.183239	0.186526
811	0.187513	0.185212	0.178802	0.186526	0.183732	0.184718
812	0.185705	0.184883	0.185376	0.185705	0.183732	0.184554
813	0.185705	0.187184	0.188992	0.188499	0.186033	0.188006
814	0.184718	0.186198	0.186198	0.187841	0.187513	0.190142
815	0.186855	0.189156	0.194416	0.190142	0.188992	0.187348
816	0.186198	0.188663	0.185705	0.187513	0.18817	0.192115
817	0.184883	0.193265	0.189649	0.188827	0.189649	0.188334
818	0.189649	0.189156	0.190142	0.189649	0.18817	0.190307
819	0.188006	0.193429	0.188663	0.18932	0.189814	0.189649
820	0.188827	0.18932	0.1908	0.189156	0.189814	0.191786
821	0.187184	0.191621	0.189156	0.190307	0.189978	0.193594
822	0.1908	0.18932	0.191128	0.191457	0.190635	0.190635
823	0.189156	0.190635	0.191128	0.190142	0.192443	0.188499
824	0.192772	0.190307	0.191786	0.189978	0.194251	0.193101
825	0.191457	0.192443	0.191293	0.194416	0.192115	0.190964
826	0.192279	0.191293	0.197538	0.194251	0.193922	0.191786
827	0.192443	0.191621	0.186198	0.190307	0.190307	0.194087
828	0.193758	0.194909	0.191293	0.195237	0.191457	0.192279
829	0.195566	0.192443	0.190471	0.194909	0.193265	0.196059
830	0.193429	0.195073	0.193429	0.196059	0.195237	0.193429
831	0.195402	0.192772	0.191457	0.194251	0.19573	0.195895
832	0.197703	0.19458	0.196223	0.197703	0.196223	0.195402
833	0.193429	0.195073	0.19458	0.195237	0.189485	0.196552
834	0.194744	0.195237	0.198689	0.194909	0.196717	0.194087
835	0.194744	0.192608	0.198853	0.193758	0.195402	0.196059
836	0.194416	0.195402	0.195237	0.194744	0.194087	0.195402
837	0.194744	0.194416	0.200661	0.195566	0.195895	0.193101
838	0.194416	0.198689	0.193758	0.195566	0.192936	0.192279
839	0.197703	0.195237	0.196223	0.194416	0.195073	0.19721
840	0.19458	0.194416	0.19573	0.197703	0.194416	0.196059
841	0.197703	0.195402	0.196881	0.19721	0.196552	0.19721
842	0.196388	0.195402	0.197374	0.197538	0.196059	0.195402
843	0.197374	0.197374	0.196717	0.200168	0.197045	0.197374
844	0.194909	0.194087	0.193922	0.201647	0.196881	0.198524
845	0.198196	0.195237	0.198196	0.197045	0.197374	0.195402
846	0.197374	0.195073	0.195566	0.197045	0.197867	0.19836
847	0.196059	0.196388	0.197538	0.195237	0.199346	0.195566
848	0.196388	0.196059	0.198031	0.052904	0.199182	0.194909
849	0.196881	0.196388	0.196552	0.059314	0.199346	0.196717
850	0.195566	0.202469	0.19836	0.063587	0.198031	0.196717
851	0.19573	0.20099	0.198031	0.071148	0.198853	0.198524
852	0.197867	0.200168	0.200332	0.077558	0.199511	0.195895
853	0.199018	0.198031	0.198689	0.085776	0.198196	0.199182
854	0.197867	0.195073	0.198196	0.091528	0.199511	0.199018
855	0.193429	0.197045	0.195073	0.093172	0.195073	0.198853
856	0.198031	0.198853	0.199018	0.099417	0.199839	0.19573
857	0.196552	0.196881	0.199346	0.102704	0.19836	0.196059
858	0.197867	0.199182	0.199346	0.107635	0.19836	0.200825
859	0.198853	0.197374	0.195073	0.110265	0.198853	0.201483
860	0.199511	0.199346	0.197538	0.114867	0.200004	0.197374
861	0.194744	0.200497	0.196881	0.115524	0.194909	0.198689
862	0.197867	0.197538	0.197538	0.124235	0.203948	0.198196
863	0.191786	0.197703	0.193758	0.125879	0.19836	0.200004
864	0.195073	0.199675	0.19721	0.129001	0.198031	0.198689
865	0.19836	0.198524	0.201976	0.130645	0.197703	0.200497
866	0.192443	0.198524	0.199182	0.137055	0.19836	0.201647
867	0.196717	0.19836	0.199839	0.137548	0.200332	0.197703
868	0.194416	0.198196	0.199346	0.140178	0.199018	0.198524
869	0.198853	0.201483	0.202305	0.144615	0.200661	0.202962
870	0.197538	0.198524	0.195402	0.145766	0.198689	0.197867
871	0.196552	0.198524	0.199182	0.148889	0.200825	0.198853
872	0.195566	0.201812	0.19836	0.146752	0.198524	0.197538
873	0.19836	0.200497	0.200661	0.153326	0.199675	0.200661
874	0.193594	0.199675	0.199182	0.155463	0.199511	0.199182
875	0.197703	0.199182	0.199675	0.156613	0.194909	0.202633
876	0.198524	0.201154	0.198689	0.15497	0.198196	0.199018
877	0.197045	0.197045	0.195566	0.159572	0.198031	0.203455
878	0.19573	0.198524	0.196223	0.156942	0.198689	0.19836
879	0.196059	0.198196	0.198689	0.16138	0.200332	0.201319
880	0.198196	0.198524	0.198031	0.161873	0.200661	0.201647
881	0.195402	0.201154	0.187677	0.164338	0.201154	0.197867
882	0.20214	0.200497	0.19721	0.16516	0.200004	0.199839
883	0.195402	0.201319	0.201976	0.168447	0.200332	0.197703
884	0.199346	0.199839	0.198853	0.168447	0.199182	0.201976
885	0.19836	0.198689	0.19573	0.171077	0.199511	0.19836
886	0.199018	0.196059	0.200168	0.172556	0.201154	0.200661
887	0.200661	0.197045	0.199675	0.173871	0.199511	0.200825
888	0.19836	0.198853	0.200497	0.176665	0.195073	0.204606
889	0.199675	0.198689	0.200004	0.176665	0.197867	0.198031
890	0.201483	0.19836	0.202633	0.178966	0.202469	0.198031
891	0.198031	0.196552	0.199346	0.178309	0.200825	0.200661
892	0.201483	0.197867	0.193594	0.180774	0.201647	0.198031
893	0.199839	0.198689	0.198031	0.179952	0.200004	0.199675
894	0.199346	0.201319	0.200497	0.184718	0.197045	0.197703
895	0.199839	0.199346	0.198524	0.184061	0.198524	0.200497
896	0.200004	0.201483	0.199675	0.184883	0.199018	0.199346
897	0.200332	0.199018	0.200661	0.184883	0.200332	0.200825
898	0.201647	0.201483	0.20214	0.183897	0.200332	0.197703
899	0.202305	0.19836	0.199511	0.186033	0.200661	0.20099
900	0.198031	0.199675	0.201319	0.187513	0.201647	0.197374
901	0.19721	0.201319	0.201483	0.186691	0.201319	0.200661
902	0.201976	0.202469	0.202305	0.189649	0.20099	0.195895
903	0.198689	0.200661	0.194087	0.186526	0.20214	0.197538
904	0.200661	0.202469	0.199675	0.190471	0.200825	0.199346
905	0.199346	0.202305	0.20362	0.19458	0.201154	0.200004
906	0.201976	0.202633	0.20099	0.193101	0.200332	0.202633
907	0.205592	0.201812	0.20362	0.195402	0.201812	0.199018
908	0.199346	0.200168	0.199182	0.195073	0.198689	0.205099
909	0.201812	0.199018	0.197045	0.199346	0.201154	0.200497
910	0.201812	0.200497	0.197045	0.192443	0.200332	0.20477
911	0.196881	0.200661	0.199182	0.19573	0.203455	0.201483
912	0.198689	0.198853	0.201647	0.195073	0.203948	0.200497
913	0.200168	0.201976	0.196552	0.19458	0.20214	0.19836
914	0.19573	0.199346	0.188334	0.195402	0.201483	0.201647
915	0.19573	0.201976	0.19836	0.196223	0.200825	0.197703
916	0.199511	0.201154	0.201154	0.196223	0.204606	0.199511
917	0.199675	0.200497	0.19836	0.198853	0.198524	0.199675
918	0.201647	0.202962	0.203455	0.197703	0.200168	0.200497
919	0.198524	0.199675	0.201483	0.199018	0.198524	0.200661
920	0.202469	0.204277	0.201319	0.201154	0.201976	0.20099
921	0.201812	0.201154	0.199839	0.19836	0.198853	0.201812
922	0.200825	0.200332	0.20362	0.202633	0.202962	0.199346
923	0.197703	0.201319	0.198196	0.199675	0.201154	0.201812
924	0.199675	0.201319	0.20362	0.199839	0.203784	0.196223
925	0.198031	0.199018	0.192608	0.202962	0.199018	0.202962
926	0.199018	0.202962	0.198853	0.201976	0.201647	0.200825
927	0.19836	0.19836	0.199839	0.197703	0.200332	0.197867
928	0.199346	0.201647	0.196388	0.201483	0.20099	0.19836
929	0.200168	0.200332	0.197538	0.198853	0.200661	0.200661
930	0.199839	0.201483	0.195895	0.004419	0.201319	0.200661
931	0.199182	0.200825	0.199675	0.013787	0.204277	0.20099
932	0.200497	0.201976	0.194744	0.020855	0.197703	0.200661
933	0.198689	0.201647	0.20099	0.029237	0.200661	0.199346
934	0.197045	0.197703	0.198853	0.036797	0.200332	0.198196
935	0.20214	0.197374	0.202633	0.045179	0.198196	0.198196
936	0.199346	0.199511	0.193594	0.049288	0.19836	0.198853
937	0.200825	0.202633	0.203455	0.057999	0.20099	0.200497
938	0.19836	0.201647	0.20099	0.059972	0.201154	0.19721
939	0.202305	0.20099	0.202633	0.071148	0.20362	0.205427
940	0.20099	0.202305	0.201319	0.07312	0.19836	0.20214
941	0.199839	0.203291	0.200661	0.07953	0.202305	0.200168
942	0.198689	0.201319	0.201483	0.084954	0.203455	0.202633
943	0.198689	0.20362	0.198524	0.086597	0.197703	0.203455
944	0.198524	0.201976	0.201647	0.090378	0.201319	0.201154
945	0.198689	0.201812	0.201647	0.094487	0.202305	0.199839
946	0.200004	0.201319	0.200332	0.097281	0.202305	0.201483
947	0.198853	0.201812	0.19195	0.102704	0.201154	0.198853
948	0.20099	0.201812	0.201319	0.105992	0.202962	0.20099
949	0.198031	0.203291	0.199182	0.107471	0.200332	0.197867
950	0.201647	0.200332	0.201976	0.115524	0.20099	0.20099
951	0.19836	0.200497	0.198196	0.114867	0.198031	0.199675
952	0.204113	0.201647	0.20214	0.076407	0.200332	0.197867
953	0.202633	0.20214	0.202962	0.080516	0.200004	0.201483
954	0.201976	0.199182	0.197703	0.085283	0.200004	0.201647
955	0.203455	0.201154	0.201319	0.089227	0.201647	0.19836
956	0.200825	0.199511	0.201483	0.096952	0.201812	0.200825
957	0.203948	0.200497	0.201647	0.098431	0.199018	0.197867
958	0.19721	0.201154	0.19836	0.105005	0.202469	0.198196
959	0.198853	0.200004	0.203455	0.107306	0.204441	0.201976
960	0.199182	0.203455	0.200004	0.109114	0.201154	0.194416
961	0.200332	0.199839	0.200661	0.113552	0.201154	0.201976
962	0.199511	0.20099	0.200497	0.116839	0.198031	0.201812
963	0.202469	0.200661	0.203948	0.119797	0.201976	0.20214
964	0.198524	0.20214	0.199346	0.121277	0.203126	0.202469
965	0.198524	0.199675	0.199511	0.129166	0.200332	0.203126
966	0.199018	0.202305	0.199346	0.125386	0.20099	0.198689
967	0.201812	0.200168	0.202633	0.133603	0.201812	0.200004
968	0.19836	0.199182	0.202798	0.134754	0.198524	0.200168
969	0.200168	0.201319	0.197703	0.011979	0.198689	0.199018
970	0.199018	0.200004	0.200004	0.013952	0.200661	0.201976
971	0.199346	0.202798	0.200825	0.018882	0.204113	0.19836
972	0.20362	0.199511	0.200497	0.0271	0.200004	0.201976
973	0.199675	0.199839	0.20099	0.035154	0.202305	0.20099
974	0.200661	0.200004	0.201319	0.043536	0.201812	0.202633
975	0.200497	0.201976	0.201154	0.047152	0.200004	0.20214
976	0.199346	0.20099	0.197538	0.055534	0.202305	0.206085
977	0.199839	0.200825	0.199839	0.057671	0.204277	0.200825
978	0.200497	0.201154	0.202633	0.063587	0.205756	0.202305
979	0.198196	0.202633	0.19721	0.071805	0.201976	0.201319
980	0.202469	0.201483	0.20214	0.078051	0.203455	0.203784
981	0.200004	0.202305	0.199182	0.081174	0.204113	0.198853
982	0.203126	0.201154	0.20362	0.085447	0.199839	0.197045
983	0.198196	0.201483	0.199675	0.090378	0.196552	0.202469
984	0.199346	0.200332	0.202962	0.096459	0.200332	0.197045
985	0.201483	0.199018	0.201812	0.099417	0.198196	0.200168
986	0.202962	0.200825	0.202633	0.104512	0.199182	0.200332
987	0.200661	0.198853	0.19721	0.110265	0.197374	0.203291
988	0.199182	0.198031	0.200497	0.112237	0.201812	0.197867
989	0.203455	0.199675	0.200497	0.115031	0.202469	0.200497
990	0.201154	0.199182	0.20099	0.120948	0.20099	0.199182
991	0.200004	0.201647	0.201647	0.120455	0.202469	0.202962
992	0.200661	0.201976	0.200168	0.126865	0.202469	0.199182
993	0.20099	0.205099	0.202798	0.129001	0.202798	0.201647
994	0.200497	0.202798	0.200004	0.131467	0.204277	0.202798
995	0.20099	0.200332	0.203126	0.134918	0.205756	0.20214
996	0.199346	0.202962	0.200661	0.135083	0.20214	0.201812
997	0.200497	0.201812	0.20099	0.136398	0.203784	0.199182
998	0.197538	0.200497	0.200168	0.140342	0.198196	0.20099
999	0.200661	0.200497	0.202633	0.141986	0.202962	0.19836
1000	0.199839	0.201812	0.199839	0.143958	0.20214	0.197374
1001	0.201319	0.200168	0.202962	0.149546	0.202633	0.196717
1002	0.202305	0.19836	0.199839	0.149546	0.198853	0.20099
1003	0.203126	0.204441	0.196223	0.153819	0.201976	0.199346
1004	0.199839	0.200332	0.200332	0.1576	0.200004	0.198689
1005	0.199675	0.200004	0.203291	0.159901	0.200661	0.200825
1006	0.202469	0.199346	0.201319	0.160229	0.202469	0.201319
1007	0.200004	0.200497	0.199839	0.163188	0.20214	0.20362
1008	0.201154	0.198853	0.199839	0.16253	0.202633	0.204606
1009	0.198196	0.202469	0.197045	0.16516	0.199675	0.20477
1010	0.200825	0.199511	0.204113	0.165982	0.203126	0.20362
1011	0.200168	0.20477	0.199839	0.164996	0.200661	0.204934
1012	0.199018	0.203126	0.202962	0.168283	0.200332	0.202962
1013	0.195237	0.201483	0.200332	0.169105	0.198196	0.20362
1014	0.20099	0.203291	0.203455	0.170913	0.203948	0.199511
1015	0.200004	0.201976	0.202469	0.168776	0.201154	0.199675
1016	0.197374	0.201647	0.201976	0.174693	0.200168	0.20099
1017	0.198689	0.200661	0.20099	0.173049	0.199675	0.200825
1018	0.200661	0.201812	0.203126	0.176008	0.20099	0.200168
1019	0.197374	0.198853	0.19836	0.174364	0.200497	0.200497
1020	0.202633	0.199018	0.198524	0.179459	0.197703	0.201976
1021	0.201812	0.198524	0.200497	0.176336	0.203126	0.20099
1022	0.200661	0.198689	0.199839	0.176008	0.201483	0.199511
1023	0.201154	0.19836	0.202633	0.180774	0.202469	0.201483
1024	0.199839	0.200168	0.199511	0.180281	0.200168	0.199182
1025	0.199018	0.200661	0.201319	0.178473	0.203784	0.201483
1026	0.197703	0.203455	0.199839	0.182746	0.202469	0.202305
1027	0.132289	0.200661	0.199018	0.189156	0.204441	0.202305
1028	0.131302	0.202305	0.199346	0.183239	0.198524	0.202469
1029	0.135576	0.201319	0.203126	0.185212	0.201154	0.201483
1030	0.135904	0.20214	0.20099	0.185376	0.198524	0.201154
1031	0.139685	0.201647	0.201483	0.187513	0.200168	0.201319
1032	0.142314	0.199839	0.201647	0.186855	0.200332	0.200825
1033	0.143136	0.200332	0.202305	0.185869	0.198524	0.198689
1034	0.148724	0.200497	0.202962	0.185212	0.201154	0.199346
1035	0.148724	0.201976	0.199839	0.187841	0.199839	0.200825
1036	0.154312	0.198031	0.19721	0.186362	0.201483	0.202798
1037	0.155627	0.200168	0.196717	0.187513	0.19836	0.196552
1038	0.160394	0.19836	0.200168	0.190142	0.198853	0.202798
1039	0.159243	0.201154	0.197703	0.190142	0.200004	0.19836
1040	0.161215	0.19573	0.202469	0.191128	0.203455	0.19721
1041	0.16138	0.199018	0.199511	0.190307	0.20099	0.199675
1042	0.164174	0.203291	0.201319	0.194087	0.200825	0.204277
1043	0.163516	0.203948	0.201812	0.191457	0.20362	0.201812
1044	0.166639	0.20362	0.202798	0.192772	0.203784	0.200825
1045	0.166804	0.20099	0.201483	0.189649	0.20362	0.201812
1046	0.167625	0.204606	0.202469	0.194087	0.202305	0.199511
1047	0.16894	0.201976	0.200168	0.191786	0.201483	0.199511
1048	0.170584	0.203784	0.201812	0.191293	0.202305	0.19721
1049	0.170091	0.204934	0.202798	0.193429	0.20214	0.203126
1050	0.172227	0.202469	0.199675	0.1908	0.20099	0.19836
1051	0.175843	0.200661	0.199675	0.188992	0.201483	0.201319
1052	0.177815	0.201483	0.200497	0.194416	0.20214	0.200661
1053	0.172556	0.199182	0.198196	0.194909	0.20099	0.204606
1054	0.172063	0.20362	0.199675	0.191128	0.203291	0.200497
1055	0.175843	0.197867	0.203126	0.196059	0.203291	0.201154
1056	0.174857	0.200661	0.197045	0.19721	0.201647	0.201812
1057	0.178144	0.197867	0.202798	0.197867	0.204606	0.20214
1058	0.176336	0.201319	0.197867	0.196223	0.203784	0.200825
1059	0.179459	0.20362	0.198853	0.195237	0.202633	0.201319
1060	0.18176	0.200825	0.199675	0.198196	0.202962	0.202633
1061	0.178309	0.199675	0.200497	0.19836	0.201154	0.199018
1062	0.179623	0.197374	0.200825	0.197538	0.201154	0.200661
1063	0.181431	0.200168	0.204934	0.19836	0.201154	0.200661
1064	0.179623	0.199839	0.197703	0.199182	0.200168	0.204277
1065	0.182089	0.202798	0.207893	0.198853	0.20214	0.199675
1066	0.182089	0.200497	0.201483	0.197867	0.201812	0.203291
1067	0.186855	0.203126	0.201647	0.198689	0.198853	0.200497
1068	0.187184	0.200661	0.20214	0.197374	0.195237	0.203291
1069	0.187841	0.200004	0.200661	0.195566	0.197703	0.203948
1070	0.187513	0.200661	0.198853	0.195895	0.200004	0.19836
1071	0.124399	0.200497	0.199182	0.196388	0.198853	0.201812
1072	0.129988	0.199018	0.201647	0.200497	0.199675	0.201483
1073	0.135247	0.201976	0.198689	0.19836	0.199346	0.200825
1074	0.135083	0.199182	0.201812	0.198196	0.202305	0.199675
1075	0.136726	0.19836	0.19836	0.20214	0.199675	0.204113
1076	0.142643	0.199346	0.201319	0.200004	0.20099	0.201319
1077	0.145108	0.200825	0.19836	0.19836	0.201647	0.201154
1078	0.146095	0.200497	0.200004	0.199839	0.201154	0.200661
1079	0.149217	0.20099	0.204277	0.194909	0.203291	0.20099
1080	0.14971	0.200661	0.202798	0.203126	0.201483	0.200168
1081	0.154641	0.202633	0.199675	0.196881	0.199839	0.201483
1082	0.155134	0.202469	0.200332	0.203784	0.201483	0.20099
1083	0.156778	0.20099	0.201976	0.197045	0.200661	0.203948
1084	0.156449	0.20099	0.199675	0.200168	0.19836	0.20099
1085	0.159572	0.198031	0.20099	0.200332	0.201154	0.202633
1086	0.155956	0.199675	0.199018	0.200661	0.198853	0.20477
1087	0.162859	0.198853	0.204277	0.199675	0.203291	0.204277
1088	0.159736	0.198853	0.203291	0.199675	0.196388	0.201154
1089	0.163352	0.198031	0.201154	0.199018	0.199182	0.201976
1090	0.16894	0.198031	0.200497	0.19458	0.197867	0.205099
1091	0.168447	0.197703	0.202305	0.200497	0.202633	0.200168
1092	0.168447	0.198853	0.200497	0.197538	0.199182	0.20099
1093	0.17272	0.200004	0.200661	0.199018	0.200332	0.198196
1094	0.169762	0.201483	0.200661	0.200168	0.201812	0.202305
1095	0.174364	0.20214	0.204441	0.20099	0.201647	0.198196
1096	0.175679	0.199839	0.200004	0.200332	0.201647	0.201483
1097	0.176008	0.203948	0.201154	0.205263	0.201812	0.200825
1098	0.170419	0.200825	0.202798	0.196552	0.201154	0.199675
1099	0.174528	0.201483	0.20099	0.202305	0.203784	0.195402
1100	0.174528	0.199675	0.202469	0.200825	0.203291	0.202305
1101	0.175515	0.201647	0.199182	0.197867	0.202469	0.200497
1102	0.178637	0.199346	0.200168	0.198031	0.20477	0.200168
1103	0.175843	0.203948	0.20099	0.195073	0.202962	0.199839
1104	0.178966	0.201154	0.199511	0.199182	0.202469	0.201647
1105	0.178637	0.201154	0.204113	0.197374	0.200661	0.201154
1106	0.18061	0.19836	0.20099	0.198524	0.201483	0.201647
1107	0.181103	0.20099	0.200497	0.198853	0.200332	0.195895
1108	0.18176	0.200825	0.201647	0.203455	0.201483	0.201319
1109	0.181596	0.201812	0.200168	0.197867	0.198031	0.197867
1110	0.185047	0.199675	0.201812	0.200332	0.202469	0.198031
1111	0.180445	0.196881	0.199839	0.20099	0.200497	0.199839
1112	0.18554	0.202798	0.197538	0.202633	0.20362	0.201976
1113	0.18554	0.201976	0.199346	0.200332	0.201976	0.201976
1114	0.183568	0.206085	0.199018	0.200497	0.203784	0.198031
1115	0.186526	0.202305	0.200825	0.201647	0.202633	0.205427
1116	0.185869	0.202305	0.199675	0.202469	0.199182	0.20214
1117	0.188006	0.200004	0.202962	0.203291	0.202305	0.202798
1118	0.189649	0.201319	0.201647	0.200661	0.203126	0.202305
1119	0.186198	0.199675	0.200168	0.202798	0.207071	0.204934
1120	0.186526	0.201319	0.200661	0.201154	0.202633	0.200661
1121	0.188992	0.200825	0.200661	0.201812	0.203455	0.200004
1122	0.188334	0.199346	0.201319	0.201812	0.203126	0.202798
1123	0.186526	0.200168	0.198031	0.200825	0.200168	0.200661
1124	0.190635	0.197538	0.197867	0.200332	0.200004	0.200661
1125	0.192115	0.200661	0.20214	0.20099	0.202633	0.198689
1126	0.190635	0.201483	0.196717	0.198853	0.199346	0.204606
1127	0.190635	0.201319	0.19721	0.198031	0.201319	0.199511
1128	0.19195	0.200168	0.199839	0.200004	0.200661	0.202633
1129	0.194087	0.202305	0.200168	0.203784	0.200661	0.201647
1130	0.189649	0.198853	0.199675	0.199675	0.200168	0.203291
1131	0.190471	0.201812	0.20099	0.202305	0.200497	0.199182
1132	0.193758	0.199182	0.199182	0.201154	0.199839	0.201154
1133	0.193265	0.200825	0.200661	0.200661	0.199675	0.200332
1134	0.192608	0.199346	0.196223	0.202469	0.204277	0.203291
1135	0.194909	0.197867	0.199182	0.201976	0.199182	0.199511
1136	0.194744	0.199182	0.202798	0.196717	0.201812	0.201647
1137	0.016088	0.200825	0.200332	0.201976	0.201976	0.204606
1138	0.029894	0.202305	0.203948	0.201483	0.201812	0.200825
1139	0.034496	0.199018	0.199346	0.197538	0.207564	0.20362
1140	0.046166	0.202798	0.201319	0.200004	0.20362	0.199839
1141	0.047973	0.199511	0.198031	0.202305	0.199839	0.205099
1142	0.055205	0.199018	0.201154	0.202305	0.204277	0.200661
1143	0.060958	0.198853	0.200497	0.198031	0.199182	0.202798
1144	0.068518	0.200004	0.200661	0.203126	0.201483	0.200661
1145	0.073942	0.199346	0.19573	0.200825	0.202305	0.202305
1146	0.075092	0.201483	0.197538	0.201154	0.200825	0.200004
1147	0.083475	0.199346	0.200332	0.199346	0.202469	0.200497
1148	0.085283	0.199511	0.199675	0.202305	0.201154	0.200825
1149	0.092186	0.201154	0.199839	0.198689	0.201647	0.200004
1150	0.096788	0.200168	0.200332	0.203455	0.201976	0.201319
1151	0.103526	0.202469	0.201319	0.202962	0.202798	0.203126
1152	0.105005	0.200332	0.199346	0.199839	0.201647	0.200661
1153	0.110265	0.200661	0.203784	0.198689	0.204441	0.200168
1154	0.111251	0.20214	0.20099	0.199839	0.201647	0.20477
1155	0.117825	0.201812	0.20099	0.198853	0.202962	0.200497
1156	0.119962	0.199675	0.194087	0.199839	0.202305	0.201483
1157	0.124564	0.197538	0.198524	0.200825	0.201647	0.198031
1158	0.126207	0.201976	0.200497	0.196388	0.200168	0.201154
1159	0.130645	0.201483	0.199675	0.202962	0.199182	0.201812
1160	0.134097	0.201483	0.201647	0.198853	0.200661	0.201812
1161	0.135083	0.205921	0.198196	0.201812	0.200332	0.202798
1162	0.138699	0.200168	0.200825	0.201647	0.20099	0.205099
1163	0.138863	0.20214	0.196552	0.202305	0.198524	0.199839
1164	0.142314	0.196552	0.19721	0.202305	0.202469	0.200332
1165	0.144287	0.199018	0.199839	0.202305	0.202305	0.201483
1166	0.147245	0.201812	0.201154	0.201319	0.202962	0.201976
1167	0.147738	0.199511	0.194087	0.204113	0.202798	0.20362
1168	0.153491	0.198689	0.200168	0.202962	0.202798	0.202469
1169	0.152176	0.201647	0.201812	0.197374	0.196717	0.201319
1170	0.15875	0.20099	0.202305	0.204934	0.202798	0.204113
1171	0.156942	0.20099	0.200661	0.203455	0.199839	0.203455
1172	0.161215	0.201154	0.20099	0.20214	0.203784	0.20362
1173	0.006391	0.200661	0.202305	0.200497	0.202633	0.203455
1174	0.013952	0.200661	0.199675	0.203126	0.200332	0.202798
1175	0.022663	0.199839	0.201154	0.199182	0.200497	0.201812
1176	0.031209	0.201812	0.200332	0.202305	0.201154	0.201319
1177	0.04107	0.200497	0.200497	0.202469	0.199511	0.201154
1178	0.044522	0.201647	0.197703	0.20362	0.199675	0.202962
1179	0.05274	0.197867	0.198524	0.202305	0.202469	0.203784
1180	0.056191	0.201812	0.197374	0.198853	0.19836	0.19721
1181	0.065888	0.199839	0.200825	0.202962	0.201154	0.202633
1182	0.068518	0.200004	0.198031	0.201976	0.196717	0.20099
1183	0.075914	0.200332	0.197867	0.201647	0.199675	0.20099
1184	0.080187	0.200497	0.198524	0.201483	0.200661	0.203126
1185	0.087419	0.200332	0.201154	0.202633	0.197867	0.20214
1186	0.091528	0.197703	0.201976	0.19836	0.20099	0.200168
1187	0.090213	0.199346	0.202305	0.202469	0.20477	0.196717
1188	0.099253	0.199675	0.201154	0.200497	0.20362	0.196223
1189	0.103691	0.197867	0.199839	0.201154	0.201647	0.192936
1190	0.10632	0.195402	0.201319	0.203126	0.203455	0.19458
1191	0.109114	0.203126	0.199839	0.199511	0.201483	0.192608
1192	0.115689	0.201319	0.20099	0.200004	0.200004	0.198524
1193	0.117332	0.203291	0.20099	0.202305	0.200497	0.195566
1194	0.124071	0.200168	0.20099	0.199511	0.202633	0.197045
1195	0.124235	0.201647	0.199346	0.199839	0.201647	0.195402
1196	0.1267	0.198853	0.198853	0.201647	0.199018	0.19721
1197	0.130974	0.200332	0.199182	0.197538	0.201647	0.195402
1198	0.137877	0.198524	0.202469	0.195566	0.202305	0.195073
1199	0.137219	0.199182	0.199675	0.199511	0.199675	0.196059
1200	0.141164	0.200332	0.203948	0.200168	0.201976	0.194909
1201	0.142314	0.197703	0.197703	0.196552	0.201319	0.196717
1202	0.145273	0.201647	0.202305	0.200332	0.203291	0.193429
1203	0.14856	0.202798	0.20099	0.201154	0.200497	0.196059
1204	0.149546	0.203948	0.202962	0.205921	0.202469	0.19721
1205	0.151354	0.200004	0.203455	0.201812	0.202305	0.19836
1206	0.154806	0.204441	0.198853	0.201154	0.202305	0.19721
1207	0.154806	0.196223	0.201976	0.203784	0.200825	0.201647
1208	0.15612	0.202962	0.201976	0.203948	0.201319	0.19836
1209	0.159572	0.200661	0.201647	0.197374	0.202962	0.19836
1210	0.160394	0.20477	0.202962	0.20099	0.200497	0.200332
1211	0.164174	0.200825	0.203948	0.201154	0.201812	0.197538
1212	0.163188	0.197374	0.19836	0.199839	0.200497	0.193594
1213	0.164503	0.201319	0.197703	0.199346	0.203291	0.195566
1214	0.166639	0.201812	0.195402	0.201483	0.199675	0.195895
1215	0.166475	0.205099	0.200497	0.202633	0.202305	0.195402
1216	0.166475	0.203291	0.199675	0.201812	0.195237	0.19836
1217	0.172556	0.201319	0.201976	0.202633	0.200497	0.195073
1218	0.168612	0.199675	0.20099	0.201976	0.200168	0.198031
1219	0.170091	0.200825	0.201483	0.201976	0.199839	0.193429
1220	0.177487	0.200661	0.202305	0.201976	0.201647	0.19573
1221	0.176829	0.202305	0.202305	0.205427	0.201976	0.195402
1222	0.176336	0.199346	0.205427	0.199511	0.200825	0.193922
1223	0.178637	0.199182	0.202469	0.20362	0.200825	0.192936
1224	0.174693	0.201154	0.200825	0.200661	0.20477	0.193101
1225	0.179459	0.201976	0.20099	0.202305	0.198689	0.192608
1226	0.18061	0.199675	0.201483	0.204113	0.202962	0.02595
1227	0.178473	0.20214	0.197867	0.201976	0.20099	0.007377
1228	0.18439	0.201483	0.199675	0.202798	0.199511	0.018225
1229	0.182253	0.199511	0.200004	0.200497	0.199839	0.024964
1230	0.187019	0.199018	0.201483	0.201976	0.203948	0.030387
1231	0.182746	0.198689	0.197045	0.199346	0.199346	0.033181
1232	0.187677	0.198031	0.200825	0.202305	0.201483	0.039427
1233	0.183568	0.200168	0.204934	0.200004	0.198524	0.044193
1234	0.188334	0.199018	0.198031	0.201319	0.200661	0.054383
1235	0.185705	0.200825	0.201154	0.200004	0.200004	0.061451
1236	0.18932	0.201483	0.20099	0.203291	0.20099	0.062273
1237	0.1908	0.19836	0.202305	0.202633	0.198031	0.069504
1238	0.188663	0.203291	0.200661	0.203948	0.199018	0.073778
1239	0.190471	0.202962	0.201154	0.203291	0.20214	0.080023
1240	0.18817	0.200661	0.202633	0.205921	0.203948	0.074106
1241	0.191293	0.199018	0.20362	0.204113	0.202305	-0.003799
1242	0.189156	0.201647	0.203948	0.203455	0.20099	0.004748
1243	0.189814	0.202798	0.203455	0.200332	0.203291	0.001132
1244	0.188006	0.204934	0.202962	0.204113	0.201319	0.011651
1245	0.193265	0.200661	0.199346	0.204113	0.203948	0.017732
1246	0.191128	0.201812	0.198853	0.199511	0.200661	0.023649
1247	0.191786	0.200661	0.201647	0.204441	0.203126	0.031538
1248	0.192115	0.200661	0.199675	0.202962	0.198524	0.039427
1249	0.190964	0.200168	0.20099	0.204441	0.202962	0.045179
1250	0.191128	0.201483	0.199511	0.196552	0.201812	0.051754
1251	0.195566	0.200661	0.199675	0.202305	0.200825	0.059314
1252	0.192443	0.199511	0.201647	0.201976	0.202798	0.065231
1253	0.195237	0.201976	0.200661	0.204113	0.200661	0.070162
1254	0.196552	0.199346	0.202469	0.20362	0.202798	0.076243
1255	0.193429	0.200825	0.207235	0.2074	0.201154	0.080352
1256	0.196223	0.199182	0.199839	0.200825	0.202962	0.088077
1257	0.19195	0.202962	0.20362	0.205427	0.201319	0.091199
1258	0.197045	0.202633	0.203784	0.20477	0.202305	0.099417
1259	0.195566	0.205427	0.198853	0.201812	0.200332	0.102869
1260	0.194251	0.19836	0.202469	0.204277	0.203784	0.106485
1261	0.193265	0.199346	0.199346	0.203126	0.201812	0.110593
1262	0.196223	0.197703	0.201483	0.204606	0.20214	0.112237
1263	0.192772	0.200332	0.199511	0.202962	0.203291	0.118647
1264	0.192443	0.202962	0.197374	0.205427	0.202962	0.12177
1265	0.194744	0.197538	0.199675	0.200497	0.201154	0.124071
1266	0.195895	0.198689	0.202962	0.203784	0.201319	0.127029
1267	0.197703	0.19721	0.200332	0.20214	0.198524	0.130481
1268	0.195566	0.202469	0.200825	0.200497	0.200661	0.12818
1269	0.199182	0.198853	0.199346	0.203291	0.203455	0.137548
1270	0.199018	0.203455	0.200004	0.20362	0.201647	0.13574
1271	0.199346	0.201154	0.201647	0.206578	0.200497	0.139356
1272	0.197703	0.201483	0.200825	0.202962	0.201319	0.140178
1273	0.198853	0.200168	0.201976	0.204277	0.198524	0.149382
1274	0.199675	0.202469	0.199839	0.203291	0.202469	0.146588
1275	0.201812	0.200661	0.199346	0.204113	0.203948	0.14971
1276	0.198524	0.201976	0.200004	0.203784	0.200332	0.152011
1277	0.196059	0.200825	0.204934	0.204934	0.203948	0.153655
1278	0.196223	0.201483	0.196881	0.198524	0.203126	0.158257
1279	0.192443	0.202633	0.201319	0.200004	0.20214	0.156942
1280	0.196388	0.200661	0.201812	0.204441	0.201483	0.16138
1281	0.197045	0.202305	0.201154	0.202305	0.202962	0.160558
1282	0.199839	0.200332	0.198196	0.199839	0.203948	0.163516
1283	0.199182	0.20362	0.200825	0.203126	0.198196	0.16253
1284	0.198689	0.198031	0.200168	0.201483	0.197867	0.166804
1285	0.199675	0.199018	0.201154	0.201319	0.20099	0.163188
1286	0.202633	0.196552	0.201812	0.201647	0.19458	0.167132
1287	0.201319	0.197538	0.199839	0.202633	0.19721	0.166804
1288	0.202633	0.19721	0.202305	0.202962	0.200825	0.169598
1289	0.199018	0.199675	0.202798	0.20477	0.198524	0.174364
1290	0.200661	0.201976	0.203126	0.204441	0.198524	0.170584
1291	0.198689	0.202962	0.202469	0.204606	0.199182	0.1742
1292	0.201319	0.199675	0.201812	0.205592	0.203126	0.174364
1293	0.200661	0.20214	0.201647	0.202633	0.199675	0.179459
1294	0.201483	0.204113	0.204606	0.205099	0.202633	0.178309
1295	0.198689	0.201319	0.199182	0.201647	0.20099	0.183075
1296	0.197867	0.204113	0.203784	0.204277	0.200661	0.177158
1297	0.197703	0.201154	0.201812	0.200332	0.202469	0.182746
1298	0.191621	0.203948	0.202305	0.201319	0.200661	0.181103
1299	0.201483	0.200332	0.201812	0.198196	0.200004	0.182582
1300	0.200332	0.199839	0.199839	0.201483	0.201812	0.181267
1301	0.198524	0.202305	0.20099	0.196552	0.200004	0.181267
1302	0.20099	0.203126	0.20099	0.201483	0.198524	0.18176
1303	0.203784	0.200661	0.202633	0.200004	0.196881	0.18439
1304	0.199346	0.201812	0.199839	0.202469	0.195895	0.184718
1305	0.204934	0.199839	0.205099	0.207071	0.199018	0.185047
1306	0.198196	0.200661	0.200004	0.203455	0.194909	0.191621
1307	0.201812	0.200332	0.201976	0.200497	0.198689	0.188334
1308	0.200825	0.200661	0.200661	0.201319	0.196717	0.188663
1309	0.200332	0.198031	0.202305	0.201976	0.198031	0.189649
1310	0.199018	0.200332	0.201647	0.197703	0.19573	0.188499
1311	0.197867	0.199182	0.201976	0.199346	0.19836	0.1908
1312	0.196388	0.201812	0.199839	0.201154	0.193265	0.190471
1313	0.198031	0.201154	0.203126	0.199182	0.195402	0.192115
1314	0.196717	0.203291	0.199839	0.197045	0.194744	0.189649
1315	0.198689	0.202633	0.201976	0.200497	0.191786	0.116839
1316	0.202962	0.199182	0.201976	0.197045	0.193594	0.12292
1317	0.199182	0.206249	0.200825	0.200332	0.190307	0.127522
1318	0.201812	0.20099	0.202305	0.19573	0.187841	0.126207
1319	0.199839	0.201154	0.200661	0.196552	0.189814	0.129988
1320	0.201154	0.200004	0.202305	0.198196	0.189485	0.13311
1321	0.200332	0.202305	0.200497	0.19721	0.184554	0.135247
1322	0.203291	0.198524	0.201319	0.19721	0.186855	0.138205
1323	0.198689	0.201647	0.198524	0.195073	0.181596	0.141493
1324	0.202469	0.200004	0.199839	0.19836	0.182089	0.133768
1325	0.203784	0.200332	0.200661	0.198196	0.179788	0.138534
1326	0.201976	0.20214	0.197045	0.200497	0.178473	0.13837
1327	0.205921	0.201154	0.198196	0.197703	0.176172	0.142643
1328	0.199018	0.201319	0.200825	0.199511	0.172392	0.148231
1329	0.19836	0.198853	0.19721	0.196881	0.173049	0.144451
1330	0.200332	0.202305	0.20214	0.200004	0.168776	0.148231
1331	0.198524	0.20099	0.20477	0.19836	0.166475	0.152833
1332	0.198689	0.202469	0.200332	0.197374	0.164831	0.153984
1333	0.200661	0.200332	0.203126	0.195895	0.163681	0.157107
1334	0.196388	0.200825	0.201976	0.19458	0.159572	0.15497
1335	0.201812	0.200825	0.201319	0.19573	0.159243	0.156449
1336	0.200825	0.201483	0.200168	0.196059	0.156778	0.158586
1337	0.202798	0.196223	0.200661	0.196059	0.163845	0.160722
1338	0.202962	0.198031	0.199839	0.196388	0.159572	0.161709
1339	0.201812	0.197538	0.200825	0.20099	0.156613	0.16516
1340	0.200332	0.198031	0.199839	0.196717	0.158586	0.004419
1341	0.203784	0.200168	0.199675	0.19836	0.16138	0.011486
1342	0.19836	0.198853	0.199018	0.197538	0.156613	0.020197
1343	0.202962	0.199346	0.20099	0.198031	0.155627	0.027922
1344	0.199346	0.201154	0.19836	0.196552	0.155792	0.002282
1345	0.193758	0.202469	0.202798	0.197374	0.157107	0.009678
1346	0.19836	0.200825	0.20099	0.195073	0.153655	0.026443
1347	0.199018	0.203126	0.200661	0.197045	0.154641	0.023977
1348	0.202305	0.200168	0.202633	0.194251	0.154641	0.035482
1349	0.201154	0.201647	0.199511	0.193594	0.153819	0.0271
1350	0.201154	0.20099	0.201647	0.198524	0.153326	0.037619
1351	0.198031	0.201812	0.202305	0.196223	0.153819	0.042385
1352	0.201976	0.200004	0.200497	0.195073	0.152176	0.05011
1353	0.199675	0.201154	0.199346	0.19573	0.151518	0.053233
1354	0.200661	0.200004	0.199675	0.200004	0.15497	0.063752
1355	0.202798	0.199839	0.198689	0.199346	0.152833	0.069669
1356	0.199182	0.200168	0.199346	0.196388	0.15497	0.075257
1357	0.200497	0.199839	0.198524	0.198524	0.154641	0.083475
1358	0.202962	0.200825	0.198853	0.200004	0.156285	0.085283
1359	0.198196	0.196388	0.199182	0.199018	0.156285	0.0935
1360	0.202798	0.198853	0.199182	0.202305	0.160065	0.092843
1361	0.200497	0.20099	0.199675	0.195402	0.159243	0.101061
1362	0.200825	0.200332	0.200332	0.20099	0.162037	0.101718
1363	0.197703	0.200661	0.200661	0.198524	0.162037	0.01576
1364	0.197374	0.203784	0.204441	0.199018	0.162859	0.016253
1365	0.198196	0.20099	0.202633	0.200332	0.161544	0.000474
1366	0.199346	0.20362	0.197538	0.198853	0.162202	0.012308
1367	0.199839	0.204277	0.202962	0.199018	0.165489	0.020197
1368	0.199511	0.202305	0.200825	0.198689	0.164338	-0.000841
1369	0.201976	0.20099	0.20099	0.200004	0.166311	0.009514
1370	0.199675	0.200497	0.200332	0.200497	0.16894	0.013294
1371	0.201976	0.200004	0.199839	0.199018	0.168776	0.022005
1372	0.200004	0.194087	0.198689	0.198196	0.167625	0.032195
1373	0.199839	0.200168	0.200825	0.198196	0.172392	0.036304
1374	0.198524	0.198524	0.198853	0.198031	0.171077	0.003433
1375	0.201647	0.199511	0.198689	0.197867	0.172392	0.00935
1376	0.20099	0.199182	0.199018	0.199182	0.173378	0.013787
1377	0.199839	0.198689	0.197538	0.201319	0.174857	0.013294
1378	0.203948	0.198853	0.200168	0.196881	0.175515	0.022663
1379	0.201154	0.20099	0.197374	0.203948	0.176008	0.031538
1380	0.203291	0.200004	0.196717	0.200661	0.176994	0.027429
1381	0.200004	0.201319	0.200168	0.198853	0.176829	0.033674
1382	0.203126	0.200825	0.205099	0.199511	0.178144	0.040084
1383	0.199018	0.201483	0.20099	0.199839	0.175515	-0.010045
1384	0.200661	0.19836	0.203291	0.198524	0.179952	-0.002648
1385	0.198689	0.199182	0.202305	0.197703	0.179295	0.008035
1386	0.201319	0.201647	0.201483	0.19836	0.185869	0.011979
1387	0.200497	0.199675	0.200168	0.197703	0.187348	0.020033
1388	0.202633	0.19836	0.199346	0.201154	0.184554	0.029894
1389	0.200332	0.199346	0.200168	0.19721	0.183897	0.036469
1390	0.202633	0.200004	0.200825	0.203291	0.187019	0.046001
1391	0.200661	0.19721	0.196881	0.19721	0.183404	0.049781
1392	0.201812	0.19721	0.197045	0.199511	0.184554	0.054055
1393	0.202469	0.19836	0.20099	0.197703	0.184554	0.063587
1394	0.196388	0.197703	0.198689	0.20099	0.187677	0.069011
1395	0.202633	0.198853	0.202305	0.201812	0.188334	0.072791
1396	0.199346	0.199839	0.201154	0.196881	0.18817	0.077722
1397	0.201154	0.200497	0.201319	0.196388	0.189978	0.007213
1398	0.201812	0.202798	0.202305	0.197703	0.189978	0.013952
1399	0.199018	0.199675	0.199839	0.197867	0.192279	0.020855
1400	0.194087	0.201812	0.200168	0.196552	0.18932	0.0271
1401	0.200168	0.201647	0.20099	0.199018	0.188827	0.037455
1402	0.199346	0.201483	0.202962	0.199675	0.191621	0.048138
1403	0.200332	0.202305	0.19836	0.200661	0.1908	0.047152
1404	0.199675	0.201319	0.198196	0.199182	0.192936	0.060136
1405	0.199511	0.200661	0.199511	0.205263	0.190964	0.066217
1406	0.199182	0.200004	0.199839	0.197703	0.193101	0.072627
1407	0.199675	0.199018	0.20214	0.20099	0.194087	0.078873
1408	0.200332	0.199839	0.199346	0.199018	0.191457	0.07953
1409	0.199839	0.199511	0.200661	0.199018	0.19458	0.085776
1410	0.20099	0.194416	0.19836	0.198689	0.196059	0.089556
1411	0.200825	0.20362	0.197538	0.198689	0.192772	0.091692
1412	0.198689	0.198689	0.200497	0.197703	0.195895	0.098267
1413	0.199839	0.201483	0.200497	0.201647	0.194251	0.100568
1414	0.201812	0.202305	0.200825	0.202469	0.195895	0.004419
1415	0.199182	0.202633	0.200661	0.202633	0.195566	0.015595
1416	0.199018	0.199018	0.200168	0.201976	0.193429	0.027429
1417	0.197538	0.198689	0.200825	0.199675	0.195895	0.031373
1418	0.199675	0.197703	0.201812	0.201319	0.196717	0.03614
1419	0.200332	0.199346	0.200168	0.199346	0.194744	0.04633
1420	0.201483	0.199018	0.203291	0.203291	0.193101	0.049617
1421	0.200004	0.198196	0.199675	0.201647	0.196552	0.057999
1422	0.200825	0.200004	0.199182	0.198524	0.196223	0.061779
1423	0.202798	0.199839	0.199346	0.036469	0.195237	0.065888
1424	0.201483	0.201154	0.199511	0.02595	0.199675	0.074435
1425	0.201976	0.198031	0.198524	0.030059	0.197045	0.078873
1426	0.202469	0.202305	0.199182	0.038769	0.195073	0.081667
1427	0.198853	0.200168	0.200661	0.053397	0.196881	0.091857
1428	0.197867	0.202305	0.198853	0.05274	0.197867	0.090378
1429	0.202469	0.197703	0.200825	0.059314	0.200661	0.095473
1430	0.20099	0.199182	0.195237	0.065231	0.19721	0.094651
1431	0.20214	0.199839	0.196717	0.066381	0.196717	0.009185
1432	0.201647	0.199182	0.197045	0.076243	0.195402	0.01428
1433	0.201976	0.202305	0.19836	0.081667	0.197538	0.022169
1434	0.201319	0.202633	0.198031	0.088241	0.197045	0.032195
1435	0.201483	0.199182	0.200004	0.09235	0.197045	0.038112
1436	0.200497	0.198031	0.198689	0.096623	0.199675	0.046987
1437	0.20214	0.20099	0.200332	0.104019	0.198853	0.051425
1438	0.198524	0.199346	0.200168	0.10895	0.198689	0.060629
1439	0.198853	0.199346	0.200004	0.109936	0.20099	0.062766
1440	0.20099	0.198196	0.203291	0.113881	0.199018	0.070819
1441	0.199675	0.19836	0.19836	0.116017	0.199182	0.072956
1442	0.201483	0.199511	0.206085	0.119633	0.19836	0.078051
1443	0.201154	0.198196	0.198853	0.123578	0.202962	0.083968
1444	0.202633	0.196388	0.201812	0.1267	0.200661	0.084954
1445	0.20362	0.201483	0.199182	0.131467	0.197374	0.094651
1446	0.201319	0.201812	0.201976	0.137548	0.201154	0.097116
1447	0.20099	0.196059	0.198524	0.132453	0.197374	0.101554
1448	0.204277	0.201483	0.200332	0.136233	0.198196	0.103362
1449	0.197374	0.200497	0.199346	0.143136	0.198031	0.110593
1450	0.20362	0.201647	0.201976	0.142479	0.202633	0.110922
1451	0.202305	0.202798	0.200825	0.143301	0.199839	0.116346
1452	0.203784	0.199346	0.205592	0.14971	0.201812	0.117825
1453	0.199511	0.200661	0.201976	0.150532	0.200332	0.122592
1454	0.202633	0.200168	0.199675	0.155299	0.201319	0.124728
1455	0.20214	0.200497	0.201483	0.155463	0.200497	0.127687
1456	0.198524	0.202633	0.197867	0.157928	0.199675	0.135904
1457	0.200661	0.199675	0.199511	0.157107	0.201976	0.137219
1458	0.199346	0.201976	0.201483	0.160394	0.196552	0.14215
1459	0.201647	0.202469	0.199182	0.161709	0.200332	0.140506
1460	0.198524	0.197867	0.198524	0.165489	0.200332	0.145437
1461	0.20099	0.200332	0.201154	0.165653	0.201647	0.143465
1462	0.199511	0.200497	0.199839	0.166475	0.200332	0.146423
1463	0.199675	0.200497	0.202305	0.16779	0.197045	0.146588
1464	0.197703	0.200332	0.196881	0.170419	0.200168	0.151683
1465	0.201647	0.197045	0.198689	0.17272	0.199675	0.153655
1466	0.197703	0.202798	0.200004	0.17157	0.198196	0.156449
1467	0.200497	0.202962	0.19836	0.176829	0.198689	0.158257
1468	0.202962	0.198689	0.20099	0.17535	0.198853	0.158421
1469	0.201483	0.202962	0.200661	0.178144	0.199839	0.16138
1470	0.203126	0.201976	0.200168	0.182582	0.19836	0.162859
1471	0.197867	0.202962	0.200332	0.184718	0.197538	0.165817
1472	0.198031	0.199018	0.202469	0.181103	0.202962	0.166146
1473	0.198196	0.201647	0.200168	0.179295	0.198689	0.165982
1474	0.202633	0.19836	0.201812	0.180938	0.201976	0.167461
1475	0.197538	0.201483	0.20099	0.182911	0.200332	0.170584
1476	0.203126	0.200004	0.199182	0.182746	0.201812	0.170748
1477	0.200004	0.201812	0.199839	0.181924	0.20099	0.169433
1478	0.199182	0.199182	0.199511	0.185869	0.200497	0.171899
1479	0.197703	0.200497	0.195566	0.184883	0.199511	0.173707
1480	0.20214	0.198524	0.200004	0.186198	0.201976	0.172885
1481	0.201319	0.20477	0.195073	0.183568	0.200168	0.1742
1482	0.200661	0.197867	0.195073	0.188992	0.197374	0.173871
1483	0.20099	0.199675	0.199839	0.185047	0.198524	0.176829
1484	0.20214	0.198853	0.199839	0.188006	0.200661	0.175679
1485	0.202305	0.196059	0.200497	0.186198	0.202305	0.176829
1486	0.200332	0.196223	0.200825	0.187841	0.197374	0.179295
1487	0.202962	0.196717	0.200332	0.18817	0.199511	0.181103
1488	0.200168	0.20099	0.20099	0.18817	0.199346	0.181924
1489	0.202305	0.199346	0.201154	0.187513	0.201647	0.18554
1490	0.200168	0.203126	0.199839	0.189978	0.200332	0.181924
1491	0.202798	0.200661	0.201647	0.188663	0.202305	0.185705
1492	0.201319	0.203455	0.203291	0.18932	0.204441	0.176336
1493	0.202962	0.200168	0.203291	0.18932	0.202962	0.008857
1494	0.200825	0.196552	0.203126	0.188006	0.202469	0.016581
1495	0.201483	0.198031	0.201976	0.189814	0.201483	0.023813
1496	0.199182	0.200661	0.201647	0.190635	0.199346	0.032031
1497	0.20099	0.199018	0.200168	0.1908	0.201154	0.037126
1498	0.200004	0.19836	0.198196	0.187348	0.200497	0.04633
1499	0.200168	0.20214	0.200661	0.1908	0.201812	0.050439
1500	0.201483	0.198524	0.200004	0.192443	0.199346	0.059972
1501	0.202305	0.204277	0.199182	0.191457	0.199511	0.064574
1502	0.200168	0.199346	0.202305	0.19195	0.203455	0.070326
1503	0.200332	0.200825	0.200168	0.194251	0.200004	0.077558
1504	0.198524	0.200825	0.199511	0.151354	0.197867	0.083968
1505	0.197374	0.201812	0.200825	0.147409	0.203126	0.084954
1506	0.20214	0.200168	0.202469	0.14971	0.203291	0.095308
1507	0.199675	0.201154	0.200004	0.152505	0.200497	0.099417
1508	0.200168	0.20362	0.204277	0.153326	0.203126	0.104512
1509	0.19721	0.200332	0.197867	0.155299	0.20099	0.106649
1510	0.197703	0.205263	0.201976	0.157928	0.201647	0.108128
1511	0.195566	0.202962	0.200004	0.159243	0.201154	0.114867
1512	0.201319	0.201812	0.199346	0.161215	0.200661	0.117332
1513	0.199182	0.201483	0.195566	0.16253	0.197538	0.121441
1514	0.202469	0.202798	0.199018	0.164667	0.198689	0.125221
1515	0.200168	0.199018	0.196388	0.165324	0.197867	0.127029
1516	0.20099	0.201483	0.196388	0.165489	0.197374	0.128673
1517	0.201976	0.197867	0.199511	0.16779	0.201154	0.135904
1518	0.201647	0.203291	0.200661	0.169433	0.200661	0.131467
1519	0.200825	0.201812	0.202962	0.170255	0.201812	0.139356
1520	0.201483	0.198689	0.196881	0.173542	0.201647	0.140178
1521	0.203291	0.200004	0.200332	0.171406	0.19836	0.143794
1522	0.200497	0.20099	0.200497	0.177322	0.202305	0.146423
1523	0.199346	0.199182	0.201483	0.175186	0.202305	0.151354
1524	0.201812	0.202962	0.199839	0.176665	0.200332	0.152176
1525	0.201319	0.201319	0.202305	0.172392	0.202962	0.153655
1526	0.196388	0.201319	0.198853	0.178473	0.199346	0.157107
1527	0.202305	0.20099	0.200332	0.178144	0.202633	0.157107
1528	0.201319	0.200004	0.200168	0.178966	0.201483	0.160394
1529	0.197045	0.199346	0.197538	0.011486	0.201976	0.160394
1530	0.200168	0.199018	0.199839	0.017567	0.198524	0.164667
1531	0.204277	0.200661	0.200004	0.030716	0.200004	0.164667
1532	0.202633	0.199018	0.198031	0.035154	0.197703	0.164996
1533	0.199511	0.200661	0.199182	0.029072	0.19721	0.166804
1534	0.202633	0.199675	0.199839	0.034496	0.198524	0.168776
1535	0.20214	0.200661	0.198689	0.044029	0.197703	0.166639
1536	0.203784	0.196059	0.201812	0.048302	0.200661	0.174035
1537	0.199675	0.199182	0.199346	0.054383	0.19573	0.173049
1538	0.202633	0.199018	0.200332	0.028415	0.202798	0.1742
1539	0.201976	0.19836	0.199675	0.039263	0.199675	0.176008
1540	0.20214	0.200661	0.202798	0.008363	0.202305	0.173214
1541	0.202305	0.201154	0.201154	-0.000183	0.201812	0.175515
1542	0.20214	0.199839	0.201154	0.009843	0.204277	0.176665
1543	0.200332	0.20214	0.200661	0.013459	0.197045	0.178966
1544	0.20362	0.199839	0.204277	0.024142	0.199346	0.178802
1545	0.197703	0.202633	0.200332	0.034003	0.201319	0.181431
1546	0.199839	0.200332	0.200004	0.0437	0.199511	0.181431
1547	0.20099	0.199511	0.199839	0.048138	0.200661	0.179295
1548	0.199182	0.200004	0.198524	0.056849	0.199182	0.18061
1549	0.201647	0.199839	0.197703	0.058328	0.202798	0.183897
1550	0.201976	0.20099	0.199018	0.067039	0.200332	0.180116
1551	0.197538	0.199675	0.199511	0.070819	0.201976	0.183404
1552	0.201647	0.200332	0.199346	0.075914	0.199346	0.182911
1553	0.204277	0.198031	0.201812	0.081995	0.203126	0.185212
1554	0.201319	0.201154	0.199182	0.085283	0.200497	0.186198
1555	0.204113	0.201154	0.201154	0.091857	0.202962	0.187677
1556	0.200825	0.200332	0.20214	0.095801	0.199018	0.187019
1557	0.202962	0.20099	0.201154	0.103526	0.202633	0.18817
1558	0.201647	0.200825	0.203291	0.101883	0.201647	0.192115
1559	0.20099	0.200661	0.198689	0.114374	0.200497	0.189978
1560	0.198853	0.207564	0.202469	0.112073	0.205263	0.189814
1561	0.201154	0.201647	0.201812	0.117168	0.201812	0.190635
1562	0.200332	0.200004	0.199675	0.120784	0.206742	0.191786
1563	0.199511	0.203291	0.199511	0.124071	0.202962	0.190964
1564	0.199839	0.197045	0.200825	0.125221	0.20362	0.192772
1565	0.198524	0.201812	0.201319	0.130645	0.201976	0.189814
1566	0.203291	0.200497	0.200004	0.129166	0.199839	0.192608
1567	0.202633	0.199511	0.200168	0.134425	0.199511	0.189978
1568	0.201812	0.200332	0.201812	0.138699	0.200004	0.189156
1569	0.201647	0.196717	0.196223	0.139192	0.202305	0.192115
1570	0.202305	0.195402	0.202469	0.142807	0.202469	0.192115
1571	0.200332	0.198196	0.198689	0.145602	0.200661	0.193758
1572	0.204606	0.197045	0.201154	0.150204	0.20362	0.189814
1573	0.202305	0.197867	0.201154	0.151025	0.202305	0.197703
1574	0.202962	0.200661	0.201319	0.153162	0.200332	0.192608
1575	0.202962	0.200497	0.201154	0.153984	0.201976	0.196059
1576	0.200168	0.200661	0.199839	0.157271	0.201812	0.195402
1577	0.201319	0.201483	0.200332	0.158586	0.204113	0.19836
1578	0.202633	0.202962	0.200004	0.161873	0.200168	0.193594
1579	0.199675	0.198031	0.200661	0.160722	0.201812	0.196388
1580	0.201812	0.201812	0.197374	0.164831	0.199675	0.195895
1581	0.200332	0.199182	0.202633	0.163188	0.199018	0.198853
1582	0.198689	0.200661	0.204113	0.163845	0.199346	0.196717
1583	0.200004	0.197538	0.202962	0.169433	0.200661	0.196223
1584	0.199839	0.201812	0.201154	0.164174	0.198031	0.196552
1585	0.202305	0.199675	0.203948	0.167954	0.19836	0.196717
1586	0.201647	0.196388	0.198689	0.167461	0.198031	0.197867
1587	0.201483	0.197703	0.200497	0.17157	0.201976	0.197867
1588	0.199182	0.20099	0.199675	0.173378	0.199511	0.199511
1589	0.206249	0.198689	0.199839	0.175186	0.200661	0.196059
1590	0.201154	0.199346	0.201483	0.173871	0.200497	0.19836
1591	0.204606	0.200004	0.201647	0.178966	0.201647	0.195237
1592	0.201483	0.200825	0.20099	0.169926	0.202633	0.199839
1593	0.200004	0.200825	0.202962	0.012308	0.202962	0.19836
1594	0.195237	0.197703	0.201812	0.01313	0.201483	0.202305
1595	0.198689	0.201976	0.197045	0.008528	0.204934	0.197867
1596	0.198853	0.198853	0.202305	-0.001498	0.202469	0.200004
1597	0.199346	0.197703	0.199018	0.005898	0.20214	0.199839
1598	0.199346	0.202305	0.202469	0.014116	0.202633	0.199182
1599	0.198689	0.202305	0.198689	0.027922	0.199839	0.202305
1600	0.201647	0.200825	0.200497	0.010664	0.201976	0.201976
1601	0.200004	0.200661	0.200004	0.018389	0.201154	0.20362
1602	0.203948	0.198689	0.20099	0.026278	0.201483	0.201812
1603	0.202633	0.202633	0.196388	0.03351	0.199182	0.202305
1604	0.073778	0.199018	0.201812	0.040084	0.203784	0.202633
1605	0.077722	0.199675	0.199675	0.046166	0.199511	0.201812
1606	0.084296	0.20214	0.200497	0.055698	0.200332	-0.000347
1607	0.087255	0.201319	0.202305	0.0603	0.20099	0.004748
1608	0.094487	0.199839	0.199675	0.068189	0.201483	0.014116
1609	0.097938	0.203291	0.200168	0.072134	0.201647	0.02447
1610	0.101554	0.206085	0.200497	0.080681	0.20099	0.031373
1611	0.105005	0.204606	0.202633	0.083968	0.199018	0.041892
1612	0.108457	0.202305	0.200332	0.090871	0.199675	0.046823
1613	0.113552	0.201647	0.204113	0.09498	0.202305	0.054712
1614	0.113881	0.203455	0.199511	0.095637	0.200497	0.060958
1615	0.115689	0.198853	0.199675	0.101718	0.203784	0.062601
1616	0.120784	0.202305	0.200168	0.104512	0.199675	0.07312
1617	0.127029	0.201154	0.203784	0.109279	0.202633	0.07575
1618	0.127851	0.201976	0.201812	0.112566	0.199182	0.084296
1619	0.132453	0.195566	0.200332	0.116839	0.204113	0.08972
1620	0.128344	0.197867	0.201976	0.11914	0.200004	0.093829
1621	0.134918	0.200168	0.199182	0.12177	0.202798	0.096294
1622	0.137877	0.197703	0.199182	0.12818	0.200332	0.102047
1623	0.141657	0.200825	0.200497	0.131138	0.200661	0.103362
1624	0.144615	0.199511	0.199839	0.132617	0.200825	0.109936
1625	0.145602	0.202469	0.197538	0.137712	0.199346	0.112566
1626	0.14856	0.199182	0.201647	0.140013	0.202633	0.116182
1627	0.14971	0.200661	0.199675	0.143136	0.201319	0.124893
1628	0.153326	0.200004	0.197703	0.145108	0.201647	0.122592
1629	0.157107	0.20099	0.200332	0.147738	0.201154	0.125057
1630	0.156449	0.19836	0.201319	0.150532	0.204606	0.128837
1631	0.155299	0.203455	0.193265	0.150039	0.199346	0.13196
1632	0.160887	0.20099	0.174857	0.154641	0.199018	0.136233
1633	0.159243	0.198524	0.165324	0.151354	0.199346	0.139356
1634	0.162037	0.200497	0.168447	0.15234	0.200825	0.141328
1635	0.167461	0.199182	0.169926	0.15612	0.199346	0.143465
1636	0.163845	0.196223	0.170584	0.16138	0.197538	0.145766
1637	0.165653	0.196881	0.17272	0.159079	0.203126	0.148231
1638	0.170091	0.199839	0.173378	0.16516	0.202469	0.150368
1639	0.169762	0.198524	0.175021	0.164503	0.200004	0.15234
1640	0.173214	0.199675	0.177322	0.165653	0.200825	0.150532
1641	0.1742	0.198031	0.175515	0.168776	0.201647	0.000474
1642	0.174364	0.199675	0.176336	0.168612	0.199346	0.00294
1643	0.176665	0.197703	0.180774	0.173378	0.200661	0.000474
1644	0.171899	0.196059	0.179295	0.174035	0.204113	0.007542
1645	0.175186	0.201319	0.178966	0.175843	0.199839	0.012801
1646	0.17798	0.20362	0.182253	0.174528	0.199182	0.019211
1647	0.177651	0.198524	0.183075	0.175186	0.202633	0.029401
1648	0.176172	0.202305	0.184883	0.175679	0.202798	0.036469
1649	0.179295	0.201154	0.187184	0.175679	0.202962	0.042878
1650	0.179788	0.201483	0.185705	0.175843	0.200825	0.051096
1651	0.182746	0.20214	0.18817	0.177651	0.20362	0.057671
1652	0.180774	0.198853	0.184883	0.179952	0.20214	0.064245
1653	0.184225	0.201976	0.185047	0.178473	0.201976	0.067532
1654	0.18176	0.201154	0.186033	0.179295	0.200332	0.074764
1655	0.185212	0.201319	0.188334	0.185047	0.200661	0.078215
1656	0.186198	0.200168	0.187184	0.182089	0.199675	0.084461
1657	0.187841	0.200168	0.188006	0.186362	0.200168	0.083803
1658	0.186526	0.199018	0.189649	0.181596	0.199675	0.091199
1659	0.185705	0.200497	0.189156	0.188006	0.201319	0.09613
1660	0.187841	0.198689	0.189156	0.186855	0.202469	0.098924
1661	0.186855	0.203126	0.187677	0.187677	0.201154	0.10517
1662	0.187841	0.199182	0.194909	0.18817	0.200004	0.109443
1663	0.185705	0.201319	0.186691	0.189485	0.199675	0.113552
1664	0.18932	0.202633	0.190307	0.189485	0.20099	0.116346
1665	0.191786	0.202469	0.192279	0.188499	0.200168	0.119797
1666	0.190635	0.20099	0.193429	0.1908	0.202798	0.124071
1667	0.18817	0.201319	0.193101	0.1908	0.199839	0.127358
1668	0.194251	0.203948	0.193922	0.1908	0.20214	0.131138
1669	0.191786	0.199018	0.192772	0.189156	0.203948	0.134425
1670	0.191293	0.201812	0.193101	0.194251	0.203948	0.13459
1671	0.190471	0.205427	0.19573	0.188334	0.203126	0.137877
1672	0.193101	0.200497	0.19195	0.18817	0.202469	0.137055
1673	0.193594	0.200661	0.199018	0.189978	0.201812	0.141328
1674	0.192936	0.200661	0.192115	0.191457	0.200661	0.143465
1675	0.193429	0.200661	0.194087	0.191293	0.200497	0.145766
1676	0.194744	0.201154	0.192279	0.192772	0.200004	0.147574
1677	0.196717	0.198524	0.195895	0.195073	0.20214	0.150368
1678	0.194744	0.201154	0.193265	0.195402	0.200004	0.153162
1679	0.201154	0.199018	0.19573	0.194251	0.201976	0.153984
1680	0.196059	0.199839	0.193594	0.194909	0.200004	0.15612
1681	0.19573	0.203948	0.191786	0.194416	0.202305	0.157928
1682	0.194909	0.201319	0.193429	0.193265	0.199675	0.158421
1683	0.196388	0.200825	0.195566	0.194416	0.202633	0.163352
1684	0.195073	0.199346	0.197538	0.193429	0.201483	0.163516
1685	0.19721	0.199346	0.194087	0.19836	0.201647	0.162202
1686	0.192443	0.200332	0.195402	0.195566	0.197703	0.166804
1687	0.195895	0.199346	0.19721	0.197045	0.201319	0.167954
1688	0.197703	0.199675	0.196059	0.196717	0.200497	0.170748
1689	0.19573	0.201812	0.197374	0.195402	0.201976	0.16894
1690	0.198196	0.200661	0.199182	0.194416	0.202469	0.17157
1691	0.199839	0.199839	0.193758	0.194087	0.199675	0.170748
1692	0.19573	0.198853	0.197867	0.195073	0.202305	0.168283
1693	0.197374	0.199018	0.19721	0.194909	0.200004	0.165982
1694	0.194087	0.200168	0.199839	0.198689	0.201647	0.159408
1695	0.19573	0.199182	0.201154	0.197538	0.199346	0.153491
1696	0.198031	0.199839	0.195566	0.196881	0.198524	0.141
1697	0.195402	0.202633	0.196223	0.195566	0.200332	0.109443
1698	0.198689	0.202305	0.199346	0.198524	0.201154	0.083968
1699	0.198031	0.20362	0.198196	0.19721	0.201154	0.050603
1700	0.199018	0.200825	0.199346	0.197374	0.204277	0.025785
1701	0.196388	0.200332	0.199182	0.193922	0.200825	0.024142
1702	0.197867	0.200661	0.198031	0.198196	0.201483	0.019868
1703	0.197703	0.199675	0.201483	0.196223	0.202962	0.02595
1704	0.194909	0.201483	0.197374	0.195402	0.200661	0.032031
1705	0.195895	0.20099	0.200825	0.197867	0.203126	0.041235
1706	0.196717	0.201319	0.203784	0.198031	0.200825	0.048138
1707	0.199511	0.199839	0.196388	0.198853	0.202633	0.055205
1708	0.196717	0.201483	0.199182	0.196388	0.201647	0.05389
1709	0.200661	0.198689	0.199675	0.200825	0.20477	0.057671
1710	0.199675	0.199346	0.195566	0.197703	0.202469	-0.000347
1711	0.200497	0.200661	0.196388	0.199511	0.203126	-0.000183
1712	0.196388	0.199675	0.196223	0.198524	0.201154	-0.000676
1713	0.198853	0.197867	0.195073	0.19721	0.199839	-0.003963
1714	0.197374	0.201319	0.198524	0.199182	0.20214	0.006227
1715	0.198524	0.20099	0.198196	0.199839	0.201812	0.001296
1716	0.198031	0.202798	0.200332	0.196881	0.201483	0.005405
1717	0.199018	0.201483	0.205921	0.200332	0.202469	0.00031
1718	0.200497	0.202962	0.198524	0.198853	0.200332	0.003926
1719	0.201319	0.204277	0.200168	0.19836	0.20362	0.009514
1720	0.201483	0.199675	0.20099	0.200004	0.202798	0.020855
1721	0.199675	0.203948	0.199675	0.197703	0.202962	0.017074
1722	0.204606	0.196881	0.203455	0.200497	0.204113	0.027429
1723	0.201154	0.200825	0.20099	0.196223	0.199839	0.034332
1724	0.198031	0.199018	0.197045	0.197703	0.201812	0.041564
1725	0.199675	0.198196	0.200332	0.195073	0.199675	0.047152
1726	0.20099	0.200004	0.19721	0.198031	0.203291	0.054876
1727	0.200168	0.200332	0.195237	0.198196	0.199839	0.059643
1728	0.201483	0.198524	0.201976	0.166639	0.201812	0.031702
1729	0.203455	0.200168	0.193922	0.006227	0.200168	0.007706
1730	0.200332	0.200332	0.199018	0.017074	0.198196	0.016088
1731	0.200825	0.203784	0.199839	-1.9e-05	0.199018	0.022169
1732	0.203291	0.20214	0.199346	0.004912	0.198853	0.021841
1733	0.20214	0.201812	0.200332	-0.000676	0.199839	0.027758
1734	0.201319	0.199182	0.201812	0.011979	0.201319	0.036797
1735	0.199675	0.197703	0.201319	0.014609	0.200661	0.045179
1736	0.200168	0.202633	0.202633	0.00294	0.200004	0.049453
1737	0.201483	0.198524	0.198689	0.009021	0.204934	0.058164
1738	0.200332	0.200332	0.200497	0.01691	0.201319	0.063916
1739	0.201319	0.198031	0.205427	0.026771	0.203126	0.07312
1740	0.200004	0.201976	0.198031	0.031538	0.201319	0.075257
1741	0.200497	0.200168	0.201154	-0.002155	0.203455	0.081995
1742	0.199675	0.200661	0.202962	0.00935	0.199839	0.085283
1743	0.200497	0.201483	0.200497	0.018718	0.200004	0.088898
1744	0.199018	0.203784	0.198031	0.023484	0.202469	0.095801
1745	0.201812	0.200661	0.202305	0.034332	0.198524	0.099746
1746	0.198689	0.198689	0.198031	0.038276	0.196881	0.104677
1747	0.202305	0.199511	0.199018	0.047316	0.202633	0.103362
1748	0.200168	0.201154	0.200661	0.049617	0.202962	0.111251
1749	0.201976	0.201154	0.199839	0.058328	0.202633	0.114209
1750	0.201976	0.199675	0.206907	0.06556	0.20214	0.116839
1751	0.20099	0.20099	0.198524	0.069669	0.20099	0.120948
1752	0.200825	0.201154	0.199675	0.075257	0.200661	0.125221
1753	0.200168	0.202798	0.199346	0.083968	0.200332	0.128015
1754	0.199182	0.198031	0.201812	0.091199	0.201976	0.134425
1755	0.202469	0.203126	0.199675	0.093829	0.200497	0.136562
1756	0.205099	0.200661	0.203948	0.098595	0.200825	0.139849
1757	0.199675	0.200661	0.196059	0.065067	0.199839	0.145602
1758	0.202305	0.200661	0.19836	0.069833	0.202962	0.146095
1759	0.200497	0.198031	0.201647	0.076243	0.201647	0.147409
1760	0.196717	0.199346	0.200497	0.083146	0.202798	0.149546
1761	0.201319	0.199018	0.20214	0.084789	0.201483	0.151518
1762	0.201483	0.199675	0.199018	0.093172	0.201812	0.151025
1763	0.199346	0.199839	0.198853	0.09498	0.200332	0.155134
1764	0.201319	0.20099	0.197703	0.028908	0.199839	0.155956
1765	0.20214	0.199839	0.200168	0.038605	0.200825	0.159079
1766	0.20362	0.20214	0.198524	0.046494	0.199675	0.159572
1767	0.204606	0.201154	0.201976	0.05274	0.200497	0.161873
1768	0.198524	0.201647	0.198853	0.059972	0.197538	0.164503
1769	0.206085	0.194909	0.200661	0.063094	0.204277	0.164503
1770	0.202633	0.20099	0.200004	0.070819	0.202305	0.162859
1771	0.203291	0.200332	0.202633	0.077229	0.203126	0.164503
1772	0.203291	0.198196	0.199182	0.085611	0.200825	0.167954
1773	0.203455	0.197045	0.200661	0.088405	0.20362	0.170748
1774	0.199839	0.200168	0.199511	0.090706	0.201319	0.171734
1775	0.20477	0.200168	0.201483	0.098267	0.201976	0.173542
1776	0.198853	0.198689	0.200332	0.100568	0.201647	0.175021
1777	0.204277	0.201319	0.196717	0.104348	0.201154	0.176994
1778	0.206249	0.201812	0.196717	0.106978	0.202633	0.176172
1779	0.204277	0.198689	0.196717	0.112894	0.197374	0.178637
1780	0.202469	0.198031	0.198196	0.114538	0.200168	0.179623
1781	0.206249	0.202633	0.199182	0.115853	0.198031	0.177158
1782	0.20477	0.199675	0.199346	0.120784	0.202305	0.178966
1783	0.204277	0.201319	0.195895	0.125386	0.198689	0.179295
1784	0.204934	0.199675	0.200661	0.127687	0.200825	0.180281
1785	0.203455	0.20099	0.200332	0.132453	0.200004	0.180774
1786	0.204441	0.199346	0.205263	0.137548	0.198031	0.187019
1787	0.204606	0.201483	0.19836	0.138041	0.201976	0.18176
1788	0.205921	0.199346	0.203948	0.140506	0.203291	0.185869
1789	0.205427	0.200168	0.201976	0.144451	0.201976	0.183897
1790	0.204606	0.197538	0.201483	0.14593	0.202305	0.18817
1791	0.202469	0.20099	0.20214	0.145602	0.202798	0.185705
1792	0.204113	0.203291	0.201647	0.14971	0.203126	0.185869
1793	0.200497	0.200497	0.200661	0.149546	0.202305	0.18932
1794	0.205099	0.205099	0.195895	0.15234	0.202305	0.185047
1795	0.20099	0.199675	0.198524	0.153984	0.203784	0.188006
1796	0.200661	0.201812	0.20099	0.15497	0.20477	0.186691
1797	0.204441	0.206414	0.200004	0.155792	0.205263	0.191293
1798	0.202469	0.199346	0.200168	0.159243	0.200004	0.186362
1799	0.203126	0.199018	0.199182	0.15875	0.202798	0.18932
1800	0.206085	0.202798	0.199182	0.162859	0.200004	0.188992
1801	0.205592	0.199511	0.20099	0.164667	0.197703	0.194744
1802	0.200825	0.197538	0.201154	0.168612	0.203455	0.190142
1803	0.205099	0.199511	0.198689	0.165817	0.200332	0.191457
1804	0.205099	0.201647	0.200332	0.169105	0.20477	0.194744
1805	0.204606	0.200661	0.193101	0.170255	0.202962	0.192279
1806	0.202633	0.200825	0.202962	0.170091	0.199839	0.193758
1807	0.199839	0.202305	0.20362	0.17272	0.20362	0.190307
1808	0.197867	0.20099	0.204277	0.174364	0.199675	0.195402
1809	0.198031	0.203784	0.201319	0.176172	0.199675	0.194909
1810	0.193265	0.197045	0.20362	0.176501	0.201647	0.197703
1811	0.189156	0.201319	0.200332	0.177322	0.200004	0.194087
1812	0.190635	0.197045	0.199182	0.180281	0.201647	0.197867
1813	0.190471	0.200497	0.200661	0.179295	0.202798	0.195402
1814	0.191621	0.200168	0.200004	0.178473	0.201319	0.196059
1815	0.191786	0.200332	0.200497	0.179623	0.199839	0.194744
1816	0.193922	0.200004	0.1908	0.181431	0.198689	0.19573
1817	0.1908	0.202633	0.19836	0.180938	0.20099	0.196881
1818	0.195402	0.198524	0.201483	0.182582	0.200497	0.194744
1819	0.193922	0.200332	0.197703	0.182417	0.198524	0.197374
1820	0.196388	0.199675	0.200497	0.175186	0.202305	0.194744
1821	0.193758	0.199511	0.199511	0.007213	0.199511	0.19458
1822	0.194744	0.199839	0.200168	0.001789	0.20099	0.197045
1823	0.19458	0.197538	0.199675	0.002447	0.199675	0.199839
1824	0.193265	0.200825	0.203784	0.010829	0.203455	0.19573
1825	0.194087	0.199018	0.201812	0.01691	0.202305	0.197538
1826	0.195073	0.202633	0.200332	0.02595	0.201812	0.199018
1827	0.193429	0.20099	0.192279	0.033017	0.20362	0.199346
1828	0.195237	0.203455	0.19721	0.043865	0.20214	0.196388
1829	0.19195	0.201154	0.200497	0.047809	0.201154	0.198524
1830	0.19458	0.198031	0.200168	0.050603	0.199018	0.19836
1831	0.191786	0.199675	0.198196	0.030552	0.199018	0.197045
1832	0.195895	0.200661	0.196881	0.038112	0.202633	0.196388
1833	0.195895	0.199511	0.200004	0.044522	0.200332	0.198524
1834	0.191293	0.200168	0.196881	0.05011	0.196223	0.198853
1835	0.198196	0.199346	0.202305	0.002118	0.196881	0.196223
1836	0.193101	0.196223	0.19721	0.011979	0.19836	0.198689
1837	0.195073	0.196881	0.200497	0.012472	0.200497	0.196717
1838	0.194416	0.200661	0.193101	0.024142	0.200825	0.199018
1839	0.194909	0.198689	0.199182	0.008857	0.203291	0.194744
1840	0.190964	0.199182	0.202305	0.010171	0.200332	0.198031
1841	0.193922	0.20214	0.201154	0.004583	0.201976	0.200661
1842	0.193265	0.200004	0.197703	0.012308	0.202305	0.185212
1843	0.195566	0.202305	0.203784	0.018389	0.202305	0.188334
1844	0.193101	0.199018	0.202962	0.006227	0.202305	0.186526
1845	0.192936	0.201319	0.198853	0.016088	0.199675	0.183732
1846	0.1908	0.198689	0.202798	0.018225	0.20362	0.186855
1847	0.192115	0.199839	0.200825	0.026936	0.20099	0.18817
1848	0.192936	0.202633	0.20214	0.036633	0.199511	0.186362
1849	0.191786	0.20099	0.194251	0.005734	0.198524	0.188499
1850	0.193594	0.202962	0.200661	-1.9e-05	0.202469	0.185376
1851	0.190635	0.201319	0.198031	0.000639	0.196881	0.188006
1852	0.194416	0.200825	0.200004	0.01428	0.201319	0.191457
1853	0.193429	0.200168	0.198689	0.023156	0.200825	0.192115
1854	0.19458	0.196388	0.198524	0.032524	0.199182	0.190471
1855	0.192772	0.201812	0.200825	0.038605	0.200497	0.193758
1856	0.196388	0.201154	0.197538	0.048795	0.199018	0.194416
1857	0.191457	0.197374	0.205263	0.049781	0.206907	0.191128
1858	0.191621	0.201647	0.200168	0.058985	0.200661	0.192115
1859	0.191293	0.201154	0.198524	0.064574	0.201647	0.192772
1860	0.189978	0.206742	0.195073	0.068847	0.198689	0.192443
1861	0.190471	0.203291	0.200332	0.070819	0.20477	0.194909
1862	0.188827	0.201812	0.195895	0.058492	0.200004	0.19195
1863	0.193594	0.20099	0.202633	0.061615	0.200661	0.195566
1864	0.192772	0.202798	0.199839	0.068682	0.199839	0.195237
1865	0.193922	0.200497	0.200497	0.075092	0.200497	0.192115
1866	0.195402	0.202305	0.199839	0.078544	0.199511	0.19721
1867	0.193101	0.199346	0.199839	0.08972	0.202798	0.195237
1868	0.193922	0.20099	0.200004	0.071477	0.198853	0.194909
1869	0.195237	0.199018	0.199346	0.017074	0.200661	0.194251
1870	0.194909	0.197703	0.198196	0.024799	0.197867	0.196552
1871	0.194744	0.199839	0.19458	0.003104	0.200332	0.193594
1872	0.194744	0.199346	0.198689	0.01313	0.200168	0.199182
1873	0.195237	0.202633	0.199346	0.020526	0.198031	0.197045
1874	0.195237	0.203126	0.200332	0.028908	0.201319	0.199346
1875	0.195073	0.201812	0.200497	0.034825	0.20214	0.194909
1876	0.198853	0.201647	0.20099	0.00935	0.201154	0.197045
1877	0.195566	0.202305	0.200332	0.018389	0.20099	0.19721
1878	0.192936	0.200168	0.200825	0.032031	0.200825	0.197538
1879	0.192936	0.202633	0.198196	0.034989	0.201483	0.196223
1880	0.195566	0.19836	0.200825	0.040084	0.202305	0.197045
1881	0.193922	0.198524	0.199182	0.04633	0.196717	0.197867
1882	0.196388	0.199839	0.193594	0.052411	0.200332	0.193922
1883	0.195073	0.200332	0.195566	0.054383	0.199346	0.198853
1884	0.193922	0.199675	0.200004	0.030059	0.198524	0.194744
1885	0.197538	0.198853	0.200661	0.035647	0.19836	0.199018
1886	0.196388	0.19836	0.201812	0.016088	0.197045	0.198524
1887	0.201319	0.198524	0.200497	-0.000512	0.199675	0.198031
1888	0.198524	0.200168	0.199346	0.005241	0.198196	0.197045
1889	0.197703	0.198524	0.199675	-0.003142	0.199182	0.20099
1890	0.196881	0.198689	0.199346	0.003597	0.201319	0.196552
1891	0.198524	0.198689	0.20214	0.002775	0.201483	0.196881
1892	0.196552	0.196059	0.201483	0.006227	0.201812	0.197703
1893	0.196552	0.201483	0.196717	0.012801	0.202798	0.19721
1894	0.198031	0.20362	0.198524	0.02069	0.202305	0.196552
1895	0.19836	0.201647	0.201812	0.030716	0.20099	0.195237
1896	0.198689	0.202798	0.200661	0.036797	0.200332	0.196059
1897	0.198196	0.201647	0.20214	0.040249	0.199346	0.194087
1898	0.19721	0.20214	0.201647	0.010993	0.197538	0.200661
1899	0.200168	0.202633	0.20099	0.025128	0.199346	0.199511
1900	0.196552	0.19836	0.198524	0.017074	0.201319	0.197374
1901	0.197538	0.199182	0.201976	0.003268	0.201647	0.196223
1902	0.19836	0.199511	0.198853	0.007049	0.200497	0.199675
1903	0.195402	0.198524	0.201154	0.017732	0.200661	0.196223
1904	0.19836	0.198689	0.192772	0.005734	0.200661	0.200332
1905	0.198853	0.200004	0.19721	0.016581	0.200004	0.19721
1906	0.193594	0.199182	0.198031	0.023156	0.203784	0.200497
1907	0.194416	0.197538	0.196881	0.033181	0.199182	0.199182
1908	0.196059	0.199839	0.203291	0.036962	0.203455	0.199018
1909	0.194251	0.201154	0.200497	0.04633	0.199675	0.199675
1910	0.196552	0.19836	0.200661	0.05389	0.201483	0.198689
1911	0.196717	0.196552	0.200661	0.061615	0.200825	0.200825
1912	0.19836	0.201812	0.200825	0.066217	0.202469	0.201812
1913	0.196552	0.20214	0.199675	0.06934	0.200004	0.202305
1914	0.199839	0.201319	0.201647	0.078708	0.20214	0.203455
1915	0.198031	0.200332	0.192279	0.081831	0.199839	0.20099
1916	0.203291	0.200661	0.198853	0.084954	0.201976	0.200661
1917	0.196552	0.200825	0.200168	0.08594	0.202469	0.200332
1918	0.199839	0.200661	0.201483	0.008363	0.199182	0.199511
1919	0.199675	0.199839	0.199018	0.012637	0.19721	0.20099
1920	0.199839	0.200332	0.200004	0.008528	0.200168	0.199675
1921	0.198196	0.198524	0.199511	0.012308	0.199839	0.200661
1922	0.200661	0.199346	0.199018	-0.000183	0.199675	0.199182
1923	0.200004	0.197374	0.200661	0.002611	0.199511	0.200004
1924	0.199182	0.202305	0.198196	0.001954	0.200497	0.199675
1925	0.200661	0.199018	0.201647	0.011158	0.201647	0.198689
1926	0.198689	0.200332	0.188992	0.000639	0.200332	0.200661
1927	0.199346	0.202962	0.199018	0.007213	0.200168	0.081995
1928	0.196717	0.20362	0.199018	0.012965	0.196552	0.007542
1929	0.198524	0.201319	0.200497	0.022169	0.200168	0.018225
1930	0.199839	0.200332	0.196059	0.027922	0.199018	0.023977
1931	0.200497	0.201812	0.20099	0.035811	0.200004	0.032688
1932	0.200332	0.200004	0.200168	0.041399	0.199346	0.04255
1933	0.200497	0.199346	0.198031	0.050768	0.198853	0.046001
1934	0.19721	0.197867	0.19836	0.000967	0.202305	0.050439
1935	0.197538	0.197538	0.196717	-1.9e-05	0.200332	0.056027
1936	0.198853	0.198031	0.199839	-0.000183	0.204441	0.06556
1937	0.199675	0.196388	0.193758	0.003926	0.200332	0.069997
1938	0.200825	0.196717	0.200332	0.011815	0.200497	0.077722
1939	0.196881	0.201647	0.198196	0.000146	0.199839	0.079859
1940	0.201976	0.199675	0.202469	0.010007	0.201154	0.087255
1941	0.200661	0.203455	0.199182	0.014445	0.198524	0.091692
1942	0.19836	0.201647	0.200825	0.028415	0.200168	0.096294
1943	0.200168	0.201647	0.198689	-0.000512	0.199182	0.099746
1944	0.198689	0.199675	0.198524	0.001132	0.200332	0.103362
1945	0.19573	0.200332	0.200825	0.001296	0.201154	0.10895
1946	0.197867	0.201319	0.20099	0.008692	0.201647	0.111744
1947	0.200825	0.201319	0.203126	0.000639	0.20099	0.116182
1948	0.199182	0.201976	0.193101	-1.9e-05	0.202305	0.118154
1949	0.199346	0.201483	0.198853	-0.000183	0.200497	0.121605
1950	0.198689	0.202633	0.199018	-1.9e-05	0.205921	0.123085
1951	0.197703	0.201154	0.20099	-0.000512	0.202469	0.130645
1952	0.199511	0.201647	0.199839	0.000803	0.202305	0.130645
1953	0.199839	0.20099	0.199018	-0.001334	0.20099	0.069997
1954	0.198031	0.200661	0.198689	-0.001498	0.201154	0.075585
1955	0.199675	0.199511	0.20099	0.000967	0.200168	0.081338
1956	0.199346	0.200497	0.198031	-1.9e-05	0.202962	0.085776
1957	0.19721	0.197703	0.200332	0.00031	0.203948	0.088898
1958	0.198031	0.201976	0.198524	0.002775	0.201647	0.012637
1959	0.202469	0.197867	0.197703	0.003597	0.201647	0.013294
1960	0.200168	0.201319	0.195402	0.001625	0.199839	0.023484
1961	0.200497	0.199018	0.198196	0.000146	0.200332	0.026771
1962	0.199511	0.197374	0.197867	-0.000347	0.19836	0.036304
1963	0.20099	0.199346	0.198524	0.001296	0.200661	0.042714
1964	0.199675	0.200497	0.199839	-0.000347	0.200168	0.04896
1965	0.200004	0.199511	0.20099	-0.000841	0.201483	0.056356
1966	0.199018	0.20099	0.197703	-0.00347	0.199675	0.065395
1967	0.199018	0.201483	0.199839	-1.9e-05	0.201483	0.068682
1968	0.199346	0.195237	0.202305	-0.001005	0.20099	0.077229
1969	0.200168	0.197703	0.199839	0.001954	0.203455	0.080023
1970	0.200825	0.199839	0.201976	-1.9e-05	0.20362	0.085283
1971	0.19836	0.200661	0.19836	0.00031	0.203126	0.091035
1972	0.200004	0.198196	0.199675	0.000146	0.202962	0.093665
1973	0.200332	0.200661	0.201976	-0.000183	0.199839	0.099089
1974	0.20099	0.201154	0.199675	0.003926	0.200004	0.084954
1975	0.200661	0.199511	0.19836	0.006227	0.200661	0.088734
1976	0.202469	0.196717	0.201154	0.0105	0.202469	0.0935
1977	0.200004	0.193594	0.195237	0.004255	0.19721	0.099253
1978	0.203455	0.199675	0.19721	0.003104	0.197374	0.101061
1979	0.202305	0.198853	0.19836	0.006227	0.200497	0.107306
1980	0.201976	0.19836	0.198524	0.002447	0.200004	0.108128
1981	0.202469	0.200497	0.200497	0.001954	0.200168	0.114374
1982	0.200168	0.198689	0.197703	0.004419	0.199839	0.115524
1983	0.197045	0.201154	0.201812	0.002118	0.199018	0.119469
1984	0.201647	0.201812	0.201976	-0.001662	0.200497	0.131796
1985	0.200497	0.197867	0.204441	-0.000183	0.201812	0.130974
1986	0.198689	0.201154	0.200661	-0.000347	0.199675	0.130645
1987	0.202962	0.199018	0.198031	-0.000512	0.207893	0.138205
1988	0.198031	0.198689	0.200825	-0.000676	0.201483	0.137548
1989	0.199346	0.198031	0.204113	-0.000183	0.203126	0.138699
1990	0.200004	0.198524	0.203784	0.000146	0.202469	0.141657
1991	0.200497	0.199675	0.201483	0.000146	0.201976	0.144451
1992	0.199182	0.197867	0.205099	0.000146	0.199346	0.145108
1993	0.201154	0.195402	0.200332	-1.9e-05	0.200497	0.146423
1994	0.19836	0.199018	0.197374	-1.9e-05	0.200168	0.150204
1995	0.204934	0.201812	0.200497	-0.000183	0.200168	0.149875
1996	0.197867	0.200168	0.202305	-0.000512	0.198689	0.155299
1997	0.200004	0.20099	0.200332	-0.000676	0.200661	0.154477
1998	0.201647	0.200661	0.201647	-0.000347	0.201154	0.153655
1999	0.199675	0.200661	0.199346	-0.000347	0.200825	0.16138
2000	0.197538	0.199839	0.201647	-0.000347	0.207071	0.161709
2001	0.198196	0.201976	0.200497	0.000146	0.203784	0.163023
2002	0.197045	0.200168	0.202633	0.000146	0.203455	0.166968
2003	0.19836	0.20214	0.205263	0.001132	0.201483	0.167132
2004	0.19836	0.197538	0.199018	0.000474	0.202798	0.167132
2005	0.193758	0.202962	0.201812	0.008035	0.198524	0.171241
2006	0.199182	0.201319	0.205756	0.018554	0.203126	0.172227
2007	0.195237	0.201647	0.201976	0.018718	0.200004	0.172885
2008	0.195566	0.200332	0.199346	-0.000512	0.203291	0.170913
2009	0.196717	0.201154	0.202798	-0.000512	0.200825	0.173214
2010	0.083803	0.20099	0.202633	-1.9e-05	0.20099	0.174035
2011	0.082817	0.19836	0.20099	-1.9e-05	0.199346	0.175186
2012	0.08972	0.204606	0.199675	0.001954	0.200661	0.173542
2013	0.08972	0.197703	0.201483	0.000639	0.20099	0.179952
2014	0.092186	0.204606	0.202962	0.006227	0.199182	0.176829
2015	0.100568	0.197045	0.199346	0.000146	0.200004	0.17535
2016	0.099746	0.204113	0.199839	0.005076	0.200004	0.178309
2017	0.101061	0.200168	0.199346	0.004419	0.198853	0.182417
2018	0.10254	0.202305	0.199346	0.013294	0.202798	0.181431
2019	0.104348	0.197374	0.201319	0.005076	0.203126	0.182417
2020	0.105334	0.203126	0.20099	0.010993	0.201319	0.18554
2021	0.10517	0.200661	0.200168	0.017239	0.200661	0.183897
2022	0.107142	0.199839	0.20099	0.017239	0.201976	0.185212
2023	0.107799	0.199346	0.202633	-1.9e-05	0.201483	0.184061
2024	0.105498	0.199182	0.201154	-1.9e-05	0.201483	0.187019
2025	0.107142	0.204441	0.205427	0.003433	0.201647	0.185047
2026	0.108621	0.19836	0.199182	0.000146	0.199839	0.186526
2027	0.112401	0.208057	0.200332	0.00031	0.200332	0.186526
2028	0.115853	0.201976	0.195895	0.002282	0.198689	0.188992
2029	0.119962	0.202962	0.198196	0.007213	0.199511	0.186198
2030	0.123249	0.200497	0.201483	0.012144	0.199018	0.188334
2031	0.127194	0.203126	0.197374	0.017239	0.198031	0.18817
2032	0.129495	0.197703	0.196881	0.025292	0.198031	0.18932
2033	0.131631	0.200168	0.196552	0.024142	0.200497	0.1908
2034	0.136233	0.200661	0.20099	0.030059	0.197703	0.189978
2035	0.136398	0.200004	0.201154	0.03236	0.198689	0.188827
2036	0.139849	0.199839	0.204606	0.034003	0.201483	0.192443
2037	0.143465	0.198196	0.197374	0.03729	0.199182	0.191128
2038	0.143136	0.205592	0.201483	0.040084	0.202469	0.18932
2039	0.147903	0.201976	0.201647	0.040084	0.200004	0.194087
2040	0.150368	0.201812	0.20214	0.043536	0.202469	0.192279
2041	0.149875	0.199839	0.20214	0.04255	0.201319	0.194087
2042	0.15497	0.20214	0.201647	0.045344	0.20214	0.192115
2043	0.153162	0.200332	0.197867	0.046494	0.201319	0.193101
2044	0.155463	0.200497	0.199675	0.047316	0.201647	0.1908
2045	0.160394	0.199839	0.201976	0.047316	0.201154	0.191457
2046	0.161215	0.20099	0.200497	0.047973	0.200497	0.191786
2047	0.165489	0.199675	0.203126	0.051754	0.201647	0.191786
2048	0.163845	0.198853	0.19836	0.053069	0.200004	0.189649
2049	0.164996	0.202633	0.201154	0.056027	0.201154	0.189978
2050	0.169598	0.20099	0.199018	0.059314	0.201647	0.196388
2051	0.166968	0.200497	0.200168	0.061286	0.203291	0.193429
2052	0.170255	0.200825	0.200332	0.06934	0.201483	0.195073
2053	0.173707	0.201976	0.201483	0.071477	0.201647	0.196388
2054	0.170584	0.201154	0.198196	0.075092	0.198689	0.197538
2055	0.17157	0.201154	0.204934	0.079366	0.198689	0.193758
2056	0.17272	0.201812	0.199675	0.082324	0.200332	0.196388
2057	0.176008	0.201812	0.200661	0.086269	0.202469	0.194909
2058	0.176665	0.200661	0.201976	0.091364	0.201154	0.195895
2059	0.179623	0.199182	0.199675	0.097609	0.20099	0.195237
2060	0.178309	0.199839	0.20099	0.09613	0.201483	0.199511
2061	0.178309	0.200661	0.197703	0.103362	0.200661	0.195566
2062	0.179295	0.199511	0.19836	0.107635	0.201319	0.192608
2063	0.178309	0.201154	0.199675	0.109936	0.198853	0.196552
2064	0.182746	0.197867	0.198853	0.114702	0.200332	0.199675
2065	0.181596	0.199018	0.19573	0.120126	0.198031	0.196881
2066	0.183239	0.195895	0.201154	0.121112	0.202469	0.192772
2067	0.182746	0.196717	0.19836	0.124071	0.199839	0.197538
2068	0.187348	0.200332	0.20099	0.127687	0.198524	0.19573
2069	0.18554	0.199346	0.200168	0.128673	0.19836	0.197374
2070	0.187019	0.195073	0.200332	0.132946	0.202469	0.196223
2071	0.184883	0.201976	0.199346	0.13574	0.199182	0.196717
2072	0.188992	0.198524	0.200497	0.141328	0.201976	0.196552
2073	0.187348	0.198853	0.202962	0.140506	0.200332	0.198524
2074	0.188499	0.198689	0.199839	0.145108	0.202633	0.196552
2075	0.188992	0.198524	0.201483	0.144615	0.201154	0.201483
2076	0.186526	0.198853	0.197374	0.150697	0.19836	0.198031
2077	0.188006	0.196059	0.201647	0.149217	0.202633	0.197374
2078	0.187348	0.197538	0.199675	0.149875	0.201154	0.19721
2079	0.191457	0.196223	0.198524	0.151025	0.199018	0.197045
2080	0.189814	0.195895	0.199182	0.156942	0.198689	0.194744
2081	0.191457	0.190635	0.197867	0.157928	0.200825	0.196552
2082	0.1908	0.19721	0.196059	0.155792	0.197538	0.198689
2083	0.19458	0.194744	0.198689	0.16138	0.197867	0.195237
2084	0.191457	0.192772	0.197538	0.162859	0.197374	0.197538
2085	0.194251	0.190964	0.198524	0.164996	0.199182	0.201483
2086	0.195566	0.190471	0.199675	0.164503	0.200332	0.199839
2087	0.195073	0.1908	0.197045	0.171241	0.200332	0.198524
2088	0.192608	0.186691	0.200661	0.168776	0.196552	0.19836
2089	0.194251	0.192772	0.197045	0.170419	0.200497	0.199018
2090	0.194416	0.192115	0.20099	0.170091	0.202962	0.199182
2091	0.191786	0.192115	0.201483	0.174857	0.200825	0.197374
2092	0.194744	0.186526	0.19836	0.1742	0.203455	0.199511
2093	0.193758	0.19195	0.200332	0.175515	0.198853	0.19836
2094	0.19573	0.188006	0.201483	0.176994	0.202469	0.200661
2095	0.190471	0.187513	0.198689	0.177487	0.201812	0.19573
2096	0.19195	0.186198	0.201319	0.178966	0.201976	0.199675
2097	0.194087	0.18554	0.200497	0.173542	0.200004	0.197374
2098	0.194416	0.183239	0.200497	0.182417	0.200332	0.197867
2099	0.193922	0.182746	0.197867	0.178802	0.20099	0.195895
2100	0.196717	0.181431	0.201812	0.178637	0.20362	0.19721
2101	0.196552	0.182253	0.199511	0.180938	0.198031	0.198524
2102	0.196881	0.180116	0.201812	0.184061	0.201483	0.196881
2103	0.196388	0.178309	0.198689	0.183897	0.201319	0.200004
2104	0.199346	0.181431	0.200825	0.185869	0.199346	0.193758
2105	0.197867	0.175186	0.199182	0.186526	0.200497	0.198031
2106	0.197045	0.179788	0.197703	0.186526	0.200332	0.198689
2107	0.19836	0.176829	0.198853	0.188499	0.201154	0.20099
2108	0.196552	0.177651	0.200332	0.188663	0.200004	0.198524
2109	0.19458	0.174035	0.200004	0.190471	0.201154	0.202798
2110	0.200332	0.174857	0.19721	0.187841	0.202469	0.198031
2111	0.194087	0.173707	0.200332	0.188499	0.203126	0.20099
2112	0.194087	0.173871	0.199018	0.190307	0.201647	0.201812
2113	0.196881	0.172227	0.202305	0.188499	0.201976	0.198196
2114	0.197374	0.170091	0.198689	0.18932	0.201812	0.199839
2115	0.197867	0.169433	0.199018	0.189485	0.200497	0.20099
2116	0.197538	0.172063	0.197538	0.191457	0.199018	0.197703
2117	0.199839	0.168283	0.199346	0.194744	0.200332	0.200497
2118	0.199346	0.171077	0.198689	0.190142	0.201483	0.201483
2119	0.200004	0.170748	0.198524	0.193429	0.201647	0.198689
2120	0.199346	0.167297	0.200661	0.196223	0.200168	0.201483
2121	0.199511	0.171241	0.201319	0.193265	0.200497	0.198689
2122	0.201319	0.166804	0.201483	0.192936	0.202798	0.199182
2123	0.198524	0.168447	0.199511	0.194251	0.201483	0.198031
2124	0.199675	0.166146	0.202633	0.194744	0.20214	0.200332
2125	0.199182	0.165489	0.199182	0.196717	0.201812	0.200004
2126	0.199839	0.168612	0.20099	0.192772	0.20099	0.199346
2127	0.201812	0.168612	0.19721	0.195402	0.200497	0.201154
2128	0.200004	0.166804	0.200825	0.197703	0.200497	0.20099
2129	0.197867	0.167461	0.196717	0.191293	0.200661	0.200168
2130	0.201647	0.168118	0.199018	0.193265	0.202305	0.199675
2131	0.197374	0.166146	0.196717	0.193758	0.19721	0.199018
2132	0.197538	0.168118	0.200825	0.195237	0.19836	0.199182
2133	0.199675	0.166804	0.202798	0.192115	0.200168	0.198524
2134	0.199182	0.166968	0.200332	0.19573	0.20099	0.198524
2135	0.200168	0.167461	0.202469	0.195237	0.200497	0.196388
2136	0.203291	0.17157	0.200497	0.196388	0.199839	0.19573
2137	0.203948	0.176172	0.198689	0.195073	0.201319	0.199675
2138	0.202469	0.1742	0.199346	0.198689	0.204113	0.198689
2139	0.201812	0.174693	0.200497	0.197374	0.203455	0.199839
2140	0.199839	0.171899	0.197538	0.198853	0.200497	0.200168
2141	0.200497	0.172556	0.199346	0.197538	0.202633	0.200332
2142	0.19836	0.174857	0.198031	0.200825	0.199511	0.20214
2143	0.197538	0.175021	0.201319	0.19836	0.20099	0.201812
2144	0.199346	0.177651	0.200332	0.196059	0.198689	0.201154
2145	0.200497	0.176008	0.201483	0.200497	0.205592	0.200168
2146	0.198689	0.178802	0.202305	0.198031	0.199346	0.199839
2147	0.200332	0.177815	0.200168	0.200825	0.200168	0.199182
2148	0.198196	0.179623	0.200661	0.195073	0.203126	0.199675
2149	0.201976	0.179952	0.199675	0.186691	0.200168	0.199675
2150	0.200332	0.181103	0.201319	0.187184	0.199675	0.200004
2151	0.203784	0.18176	0.20099	0.164667	0.198689	0.198689
2152	0.200168	0.181924	0.200004	0.165653	0.19836	0.201319
2153	0.200661	0.181596	0.199018	0.171077	0.196388	0.204277
2154	0.19836	0.181924	0.199511	0.169269	0.203455	0.201812
2155	0.200661	0.185376	0.199675	0.172885	0.201154	0.199346
2156	0.200332	0.183732	0.197703	0.17535	0.201319	0.200497
2157	0.200661	0.185376	0.199675	0.176829	0.202305	0.200661
2158	0.201154	0.185705	0.199018	0.175186	0.200825	0.202962
2159	0.198853	0.188499	0.199675	0.176829	0.199675	0.202469
2160	0.200661	0.187184	0.200497	0.180938	0.202305	0.200825
2161	0.19836	0.189814	0.201483	0.177158	0.199346	0.198853
2162	0.200332	0.18817	0.204113	0.182746	0.202962	0.20214
2163	0.196388	0.191128	0.20099	0.146423	0.202798	0.201812
2164	0.201154	0.190142	0.200168	0.153162	0.204277	0.202962
2165	0.200661	0.187348	0.202305	0.152011	0.202469	0.197703
2166	0.198524	0.188992	0.198853	0.155299	0.20099	0.199346
2167	0.201483	0.18554	0.200497	0.151354	0.201976	0.202305
2168	0.201483	0.186855	0.20099	0.15497	0.200332	0.003597
2169	0.201812	0.188663	0.20099	0.155299	0.199511	0.014116
2170	0.200825	0.190635	0.200825	0.147081	0.198853	0.019375
2171	0.198853	0.189649	0.199675	0.049453	0.199346	0.030552
2172	0.199182	0.19195	0.19721	0.001625	0.196881	0.034332
2173	0.202469	0.190471	0.201319	0.00787	0.200661	0.045672
2174	0.200332	0.193101	0.197703	0.00672	0.20099	0.050768
2175	0.201319	0.192772	0.200497	0.013952	0.199182	0.057671
2176	0.199675	0.194909	0.200825	0.017567	0.200825	0.064738
2177	0.200004	0.195073	0.200168	0.026443	0.200332	0.068847
2178	0.200332	0.196388	0.200661	0.031045	0.198031	0.073284
2179	0.200497	0.194909	0.201154	0.006062	0.199182	0.079694
2180	0.201483	0.192772	0.198196	0.003761	0.199839	0.085283
2181	0.202469	0.19836	0.196881	0.011158	0.198031	0.088734
2182	0.198689	0.195895	0.197703	0.021348	0.19836	0.094651
2183	0.200168	0.196223	0.199182	0.030387	0.197538	0.09991
2184	0.199839	0.19458	0.199675	0.031373	0.200004	0.105005
2185	0.202305	0.194416	0.198524	0.042221	0.200497	0.107635
2186	0.20099	0.19721	0.199018	0.048631	0.19836	0.117825
2187	0.201319	0.194909	0.20099	0.03614	0.200661	0.114538
2188	0.201154	0.189156	0.202305	0.041892	0.200497	0.118318
2189	0.199839	0.192608	0.199018	0.011158	0.198853	0.122263
2190	0.202305	0.193265	0.199346	0.003597	0.200004	0.126043
2191	0.201647	0.19573	0.197374	0.010007	0.199182	0.126372
2192	0.203126	0.196223	0.200825	-0.000183	0.200004	0.129659
2193	0.200168	0.199182	0.196717	0.002282	0.202305	0.134918
2194	0.201976	0.198689	0.202633	0.00672	0.204441	0.137384
2195	0.200332	0.198689	0.201319	0.006391	0.199511	0.139356
2196	0.201319	0.199511	0.201319	0.017239	0.197703	0.13952
2197	0.199675	0.197374	0.199839	0.02069	0.193101	0.144615
2198	0.201154	0.199182	0.202469	0.001132	0.195566	0.143794
2199	0.199675	0.196059	0.201154	0.007706	0.193265	0.148724
2200	0.198524	0.200004	0.200004	0.018554	0.194744	0.147903
2201	0.201976	0.197867	0.201154	-0.002484	0.193429	0.152505
2202	0.202798	0.197538	0.199346	0.003104	0.195895	0.155627
2203	0.204113	0.198689	0.200332	-0.006429	0.194087	0.15497
2204	0.198196	0.19836	0.198031	0.002775	0.191457	0.1576
2205	0.203948	0.19721	0.197703	0.01313	0.195073	0.161051
2206	0.200825	0.199511	0.197867	0.01691	0.19458	0.161873
2207	0.204606	0.198196	0.201154	0.029237	0.196717	0.163681
2208	0.199675	0.197703	0.197538	0.03614	0.192772	0.166311
2209	0.202305	0.197045	0.201483	-0.000183	0.196059	0.165817
2210	0.201976	0.198031	0.200497	-0.000183	0.195895	0.170255
2211	0.20214	0.199675	0.199675	0.005734	0.195566	0.16894
2212	0.201483	0.199839	0.199018	0.007049	0.194909	0.171241
2213	0.202305	0.200004	0.198196	0.017896	0.195402	0.168118
2214	0.201319	0.201647	0.198689	0.023649	0.190635	0.174035
2215	0.200004	0.201483	0.200168	0.034496	0.193758	0.1742
2216	0.19836	0.200497	0.199511	0.040906	0.195566	0.174857
2217	0.200661	0.203126	0.199675	0.047809	0.19458	0.174035
2218	0.205099	0.200825	0.202798	0.056027	0.197374	0.178802
2219	0.198853	0.196881	0.198031	0.063259	0.194909	0.179623
2220	0.201154	0.198689	0.202798	0.069833	0.19836	0.17798
2221	0.201812	0.199346	0.200168	0.07312	0.196388	0.17913
2222	0.201154	0.196552	0.200332	0.080187	0.198196	0.179623
2223	0.201647	0.199511	0.199675	0.087748	0.196717	0.180445
2224	0.205427	0.197045	0.200332	0.018225	0.200004	0.181267
2225	0.20362	0.199346	0.198853	0.014773	0.196388	0.183075
2226	0.201812	0.200004	0.199675	0.014609	0.196717	0.184225
2227	0.202962	0.199346	0.20214	0.023156	0.197703	0.184883
2228	0.204934	0.199675	0.198196	0.034332	0.194251	0.18061
2229	0.206085	0.201976	0.199018	0.044193	0.197045	0.186691
2230	0.201319	0.199839	0.199018	0.051425	0.19573	0.186526
2231	0.201647	0.20099	0.201319	0.05389	0.198689	0.186855
2232	0.202633	0.200661	0.196881	0.061779	0.196388	0.190307
2233	0.202798	0.19836	0.199511	0.062437	0.196881	0.188663
2234	0.201154	0.20099	0.199675	0.06556	0.198196	0.188827
2235	0.205263	0.196717	0.20099	0.070162	0.204113	0.190635
2236	0.202633	0.194251	0.199839	0.073284	0.199182	0.188827
2237	0.204441	0.196552	0.203126	0.080023	0.200168	0.186855
2238	0.201812	0.201647	0.201976	0.087912	0.199018	0.189156
2239	0.203126	0.197867	0.201812	0.09235	0.200168	0.189485
2240	0.203784	0.199675	0.198196	0.093007	0.199182	0.190307
2241	0.202633	0.197703	0.199346	0.101061	0.199182	0.192115
2242	0.202633	0.200332	0.200497	0.102704	0.197045	0.191128
2243	0.203455	0.199675	0.199675	0.107142	0.196717	0.187348
2244	0.201812	0.198689	0.199511	0.109607	0.196881	0.190964
2245	0.203784	0.201319	0.203455	0.114045	0.200661	0.190471
2246	0.204441	0.198196	0.200168	0.111087	0.201647	0.189978
2247	0.201647	0.20099	0.200168	0.115031	0.198853	0.192115
2248	0.203291	0.199346	0.202469	0.121112	0.202305	0.193101
2249	0.201976	0.200661	0.198689	0.124893	0.200661	0.194909
2250	0.202469	0.200168	0.202469	0.12818	0.199839	0.195402
2251	0.204934	0.20214	0.199346	0.129495	0.199182	0.194909
2252	0.198689	0.197538	0.200825	0.13837	0.20214	0.197867
2253	0.200497	0.199675	0.19836	0.134918	0.20099	0.195566
2254	0.203126	0.20214	0.199839	0.137384	0.205263	0.193922
2255	0.200497	0.199839	0.198196	0.138041	0.199018	0.194909
2256	0.201154	0.198853	0.202798	0.144944	0.200661	0.194251
2257	0.201976	0.199511	0.202305	0.141	0.203948	0.193594
2258	0.204441	0.198524	0.199346	0.147574	0.200332	0.194251
2259	0.200661	0.200497	0.200332	0.147245	0.201319	0.195237
2260	0.202305	0.199018	0.195402	0.15119	0.007377	0.194909
2261	0.199018	0.198853	0.201647	0.151025	0.013459	0.197374
2262	0.204113	0.201483	0.198031	0.155627	0.021676	0.19458
2263	0.205592	0.200825	0.196717	0.159243	0.031373	0.197538
2264	0.201812	0.198689	0.199839	0.159572	0.039427	0.19836
2265	0.202633	0.197374	0.201154	0.159901	0.049781	0.200004
2266	0.20214	0.200332	0.200332	0.161873	0.052411	0.196223
2267	0.20362	0.199182	0.201647	0.164174	0.062766	0.197374
2268	0.203784	0.203291	0.199182	0.163845	0.067696	0.198689
2269	0.202469	0.202469	0.201976	0.168283	0.070655	0.196223
2270	0.204113	0.200332	0.201647	0.165982	0.07838	0.195237
2271	0.20855	0.202633	0.200661	0.152833	0.083803	0.197703
2272	0.201319	0.198031	0.201647	0.116675	0.08857	0.197867
2273	0.205921	0.198196	0.201812	0.121441	0.092514	0.196388
2274	0.067532	0.200497	0.199018	0.124728	0.096623	0.201976
2275	-0.000512	0.198689	0.200168	0.12555	0.102211	0.197703
2276	0.008199	0.199346	0.201812	0.130481	0.105005	0.198524
2277	0.016253	0.199511	0.200332	0.130152	0.110758	0.196223
2278	0.026771	0.199346	0.203126	0.133439	0.115524	0.197538
2279	0.033017	0.200497	0.19573	0.135247	0.115689	0.196059
2280	0.044522	0.200168	0.202305	0.141164	0.119304	0.19573
2281	0.04633	0.201976	0.201483	0.145108	0.12292	0.200661
2282	0.054712	0.20099	0.200332	0.144944	0.12818	0.198031
2283	0.058985	0.200497	0.198524	0.146588	0.127522	0.19836
2284	0.067203	0.196717	0.19721	0.150697	0.132289	0.201154
2285	0.071312	0.200497	0.200661	0.152669	0.137877	0.198689
2286	0.076407	0.201812	0.200497	0.152505	0.142643	0.196059
2287	0.079201	0.200004	0.200332	0.155627	0.144615	0.198196
2288	0.085611	0.203126	0.20362	0.156285	0.146916	0.198524
2289	0.091528	0.200661	0.204934	0.159408	0.148889	0.200004
2290	0.096294	0.193922	0.198853	0.159901	0.152011	0.197867
2291	0.101718	0.201319	0.199839	0.159736	0.152669	0.198853
2292	0.103526	0.201483	0.19836	0.164831	0.155956	0.199346
2293	0.108786	0.200004	0.198689	0.000639	0.158093	0.199511
2294	0.11273	0.200825	0.096294	0.006556	0.155299	0.197045
2295	0.117003	0.199346	0.084296	0.013952	0.158914	0.197538
2296	0.117496	0.201976	0.086433	0.024964	0.158914	0.198689
2297	0.123413	0.200332	0.094158	0.029237	0.164831	0.197703
2298	0.123906	0.200168	0.097609	0.04107	0.163516	0.196717
2299	0.129988	0.201483	0.101554	0.044851	0.166804	0.196717
2300	0.132782	0.201647	0.108293	0.050768	0.168118	0.200332
2301	0.137877	0.199018	0.109279	0.061451	0.17157	0.199346
2302	0.138534	0.202469	0.111908	0.060793	0.169433	0.199346
2303	0.143301	0.200661	0.119469	0.070655	0.173378	0.200168
2304	0.141164	0.205427	0.119962	0.075257	0.171899	0.204441
2305	0.144944	0.200332	0.124071	0.081667	0.17272	0.200004
2306	0.145273	0.20099	0.132124	0.086104	0.17535	0.20099
2307	0.145108	0.20214	0.12933	0.093172	0.173542	0.201647
2308	0.147903	0.198524	0.136562	0.094815	0.17913	0.199675
2309	0.15119	0.199346	0.13574	0.100403	0.175515	0.198689
2310	0.154641	0.201976	0.140342	0.102704	0.17913	0.197703
2311	0.153984	0.201976	0.142479	0.108786	0.177158	0.198196
2312	0.158421	0.199675	0.143301	0.112566	0.184061	0.199511
2313	0.162366	0.202469	0.145108	0.115853	0.181267	0.199511
2314	0.163188	0.202633	0.153162	0.119962	0.18176	0.20099
2315	0.164174	0.202798	0.147081	0.124399	0.177158	0.201319
2316	0.166475	0.198689	0.152011	0.127687	0.182746	0.202469
2317	0.165489	0.199018	0.155134	0.129988	0.18439	0.201483
2318	0.167625	0.19836	0.155134	0.135904	0.182417	0.202305
2319	0.168447	0.200004	0.159572	0.134261	0.183897	0.20099
2320	0.168612	0.200825	0.162202	0.140342	0.189649	0.199346
2321	0.168612	0.200332	0.163516	0.138863	0.186855	0.201483
2322	0.169269	0.20099	0.166311	0.142314	0.188334	0.19836
2323	0.170419	0.198031	0.166311	0.145602	0.191786	0.203455
2324	0.170913	0.20362	0.164338	0.147738	0.187513	0.200332
2325	0.141164	0.199839	0.172227	0.148396	0.190142	0.204113
2326	0.029401	0.201154	0.168118	0.152011	0.189485	0.200825
2327	0.037783	0.200168	0.168612	0.152669	0.187184	0.199839
2328	0.045837	0.201976	0.170913	0.153326	0.189156	0.198689
2329	0.050603	0.199675	0.171899	0.155792	0.187841	0.201647
2330	0.057835	0.200497	0.168118	0.159079	0.188827	0.201319
2331	0.064409	0.199675	0.171241	0.16138	0.190471	0.197374
2332	0.06671	0.199346	0.175186	0.161873	0.190471	0.198196
2333	0.077393	0.198689	0.179295	0.163681	0.192115	0.197374
2334	0.080023	0.199675	0.177487	0.166146	0.195566	0.200497
2335	0.085118	0.199839	0.178802	0.167132	0.193922	0.197703
2336	0.090378	0.202798	0.180281	0.168118	0.194416	0.200332
2337	0.090378	0.199182	0.182089	0.171406	0.195073	0.201319
2338	0.098267	0.200332	0.183239	0.171406	0.194744	0.206249
2339	0.101554	0.201647	0.185212	0.172227	0.194416	0.200825
2340	0.104512	0.201647	0.182582	0.175186	0.195073	0.20362
2341	0.108621	0.205756	0.182746	0.176008	0.195237	0.202962
2342	0.113388	0.201976	0.186526	0.174364	0.195895	0.200661
2343	0.115195	0.200497	0.18554	0.176501	0.195895	0.200168
2344	0.120291	0.200497	0.187841	0.176336	0.200004	0.200168
2345	0.123578	0.201319	0.186855	0.176829	0.198689	0.198031
2346	0.127522	0.198031	0.187348	0.178144	0.19721	0.198524
2347	0.129495	0.199839	0.185212	0.180116	0.196881	0.199511
2348	0.133603	0.199839	0.188827	0.181924	0.196388	0.197867
2349	0.133603	0.199675	0.187184	0.180116	0.195073	0.199018
2350	0.140342	0.200825	0.189485	0.186362	0.19721	0.197867
2351	0.139849	0.199182	0.188992	0.181596	0.196552	0.204277
2352	0.140835	0.20099	0.189156	0.181596	0.197045	0.199018
2353	0.148889	0.201319	0.191457	0.181267	0.197867	0.201483
2354	0.150532	0.201319	0.193101	0.18932	0.199346	0.199182
2355	0.148724	0.20099	0.190964	0.186691	0.199182	0.202798
2356	0.152011	0.20099	0.193265	0.18817	0.20099	0.20099
2357	0.155299	0.201154	0.194744	0.187348	0.200497	0.202962
2358	0.153491	0.201154	0.193922	0.188663	0.196223	0.202962
2359	0.158421	0.200661	0.192115	0.187841	0.199182	0.202962
2360	0.156778	0.201154	0.192608	0.186033	0.19836	0.201483
2361	0.160394	0.202962	0.193758	0.189485	0.200332	0.201319
2362	0.158093	0.200004	0.193758	0.192608	0.197703	0.206414
2363	0.162037	0.198689	0.194744	0.189485	0.197703	0.197703
2364	0.165324	0.19836	0.190142	0.188827	0.196223	0.199182
2365	0.16894	0.198196	0.192608	0.192608	0.200168	0.201319
2366	0.168447	0.202305	0.192279	0.189485	0.199018	0.202798
2367	0.172227	0.199839	0.192443	0.193101	0.200168	0.199675
2368	0.168447	0.199346	0.19458	0.190964	0.199839	0.201319
2369	0.17272	0.200332	0.194251	0.193922	0.19836	0.200661
2370	0.171899	0.196717	0.195073	0.193101	0.199182	0.200168
2371	0.17535	0.200497	0.196717	0.195566	0.198689	0.20214
2372	0.177158	0.200661	0.196552	0.194251	0.20099	0.200497
2373	0.175021	0.20099	0.19458	0.195895	0.197867	0.20362
2374	0.178637	0.199675	0.197867	0.194416	0.20099	0.201483
2375	0.176829	0.20214	0.197045	0.192772	0.200497	0.200168
2376	0.180116	0.200497	0.198853	0.193429	0.198196	0.200825
2377	0.178309	0.201319	0.194416	0.193101	0.196388	0.200332
2378	0.181267	0.199018	0.19573	0.194251	0.201154	0.198689
2379	0.18061	0.202305	0.19573	0.193265	0.198689	0.202633
2380	0.181103	0.200004	0.190964	0.193429	0.197867	0.19721
2381	0.183897	0.20099	0.195402	0.193101	0.19836	0.197374
2382	0.183404	0.198689	0.195073	0.19573	0.198853	0.197867
2383	0.182089	0.198853	0.196881	0.193265	0.198524	0.198524
2384	0.182911	0.197045	0.197045	0.198031	0.197703	0.200661
2385	0.184718	0.197374	0.199839	0.194909	0.20099	0.200661
2386	0.185212	0.198853	0.196552	0.193101	0.199018	0.200168
2387	0.184718	0.19836	0.199182	0.197045	0.201647	0.201483
2388	0.186691	0.198689	0.199675	0.199182	0.199018	0.198689
2389	0.188499	0.198689	0.199346	0.195237	0.202633	0.198196
2390	0.188663	0.201319	0.197374	0.197045	0.20099	0.197867
2391	0.188663	0.198196	0.199018	0.198196	0.202305	0.201812
2392	0.187019	0.19721	0.198031	0.197374	0.200825	0.199182
2393	0.192443	0.200004	0.201154	0.19836	0.199839	0.197538
2394	0.187184	0.201976	0.19836	0.197703	0.199182	0.201812
2395	0.187841	0.200004	0.201812	0.199511	0.197703	0.201154
2396	0.188663	0.20099	0.198524	0.19721	0.201976	0.198689
2397	0.188827	0.198689	0.199182	0.200004	0.201812	0.19573
2398	0.190142	0.200497	0.200004	0.197045	0.200332	0.200004
2399	0.1908	0.201976	0.200168	0.197045	0.200168	0.200497
2400	0.190964	0.198196	0.199182	0.19573	0.201319	0.200497
2401	0.193265	0.201976	0.197703	0.195402	0.198853	0.198689
2402	0.192608	0.200332	0.198689	0.196388	0.200332	0.20099
2403	0.189978	0.201319	0.197538	0.203126	0.19836	0.200168
2404	0.194416	0.200825	0.199675	0.19836	0.201483	0.199675
2405	0.19195	0.201647	0.196388	0.199511	0.199839	0.20099
2406	0.192115	0.199182	0.201154	0.202962	0.198031	0.204277
2407	0.192279	0.201319	0.200004	0.199346	0.200497	0.199346
2408	0.194251	0.200661	0.201154	0.198689	0.202305	0.198689
2409	0.1908	0.202469	0.200004	0.198524	0.201154	0.201154
2410	0.192443	0.200497	0.202633	0.201154	0.201647	0.201319
2411	0.193101	0.20099	0.198031	0.197867	0.201154	0.201812
2412	0.193265	0.203291	0.201154	0.199182	0.196388	0.199346
2413	0.191786	0.199839	0.199018	0.199346	0.198689	0.201319
2414	0.193594	0.201154	0.196388	0.200661	0.197867	0.199839
2415	0.196388	0.200004	0.197703	0.197867	0.196552	0.200004
2416	0.193758	0.200661	0.20099	0.199018	0.194744	0.202469
2417	0.19721	0.201154	0.197045	0.200168	0.196223	0.204441
2418	0.197045	0.202305	0.199182	0.197703	0.197538	0.198031
2419	0.198196	0.199511	0.200004	0.197867	0.197867	0.201483
2420	0.200497	0.200661	0.199182	0.19721	0.200004	0.20099
2421	0.198853	0.198524	0.202469	0.202305	0.202469	0.199346
2422	0.197374	0.200168	0.198031	0.201319	0.201483	0.202305
2423	0.198031	0.199018	0.200825	0.20099	0.199182	0.199182
2424	0.195566	0.202305	0.19836	0.201154	0.199511	0.20214
2425	0.196552	0.200168	0.199839	0.201483	0.200168	0.200661
2426	0.19721	0.201976	0.201319	0.199675	0.199182	0.201154
2427	0.198524	0.201483	0.199182	0.199675	0.201647	0.199839
2428	0.195402	0.199346	0.200825	0.199346	0.19573	0.201647
2429	0.197538	0.202305	0.202633	0.200332	0.201154	0.200661
2430	0.196388	0.199182	0.201319	0.196717	0.201319	0.199182
2431	0.196552	0.200332	0.198196	0.197538	0.197538	0.198031
2432	0.196881	0.198689	0.201976	0.196717	0.19836	0.19836
2433	0.198031	0.198689	0.197374	0.198853	0.201483	0.199839
2434	0.199346	0.201319	0.198524	0.195073	0.199346	0.197867
2435	0.197867	0.194416	0.196388	0.198689	0.200004	0.200661
2436	0.198853	0.196388	0.198196	0.199675	0.199675	0.199346
2437	0.199511	0.200004	0.20099	0.199839	0.196388	0.199675
2438	0.200168	0.198689	0.200497	0.200332	0.20214	0.199346
2439	0.198031	0.197538	0.199018	0.199346	0.197045	0.199018
2440	0.200004	0.198031	0.198689	0.200004	0.200168	0.200825
2441	0.197867	0.200168	0.199182	0.202305	0.199018	0.202633
2442	0.198524	0.201812	0.200332	0.20099	0.199182	0.201154
2443	0.197538	0.205427	0.201812	0.200004	0.200661	0.202305
2444	0.197703	0.198853	0.198524	0.199182	0.201812	0.201483
2445	0.197867	0.201647	0.201154	0.199182	0.197867	0.199839
2446	0.198689	0.202962	0.199182	0.205921	0.199018	0.197867
2447	0.196059	0.199675	0.200661	0.201976	0.201976	0.200825
2448	0.196717	0.203455	0.199839	0.200497	0.198853	0.198853
2449	0.198524	0.20099	0.201154	0.196717	0.201483	0.199346
2450	0.200332	0.200004	0.19836	0.199675	0.197374	0.200332
2451	0.20099	0.199675	0.202633	0.197045	0.20099	0.198689
2452	0.199675	0.199182	0.200004	0.19573	0.202469	0.20099
2453	0.201483	0.200332	0.200332	0.195566	0.201319	0.197374
2454	0.199511	0.201976	0.198853	0.195402	0.198853	0.200004
2455	0.201647	0.198689	0.197045	0.198853	0.203948	0.200168
2456	0.199018	0.200825	0.197867	0.197538	0.198689	0.199511
2457	0.200825	0.199675	0.198524	0.200004	0.200168	0.200497
2458	0.19836	0.200004	0.198689	0.199675	0.200661	0.200168
2459	0.199346	0.20214	0.199018	0.200497	0.200004	0.200168
2460	0.199839	0.201319	0.200497	0.199675	0.201647	0.200004
2461	0.196223	0.199182	0.197703	0.202305	0.197538	0.200332
2462	0.196717	0.200168	0.199182	0.197703	0.204934	0.200661
2463	0.196717	0.201647	0.199839	0.203291	0.202798	0.199675
2464	0.194744	0.199675	0.199346	0.198853	0.201976	0.202469
2465	0.198524	0.200825	0.199675	0.199182	0.201812	0.198853
2466	0.200168	0.201154	0.203126	0.199675	0.205756	0.201812
2467	0.196717	0.201154	0.198689	0.198853	0.20214	0.201647
2468	0.20099	0.199839	0.20099	0.198524	0.202305	0.201319
2469	0.19721	0.20362	0.200497	0.197867	0.202305	0.201647
2470	0.199839	0.199675	0.200497	0.198524	0.200825	0.200004
2471	0.200004	0.201976	0.197703	0.199511	0.197867	0.199839
2472	0.198196	0.19573	0.199182	0.203291	0.199182	0.201483
2473	0.199018	0.200332	0.19836	0.199346	0.200332	0.202469
2474	0.199839	0.199182	0.201812	0.199511	0.194251	0.199839
2475	0.201976	0.199182	0.196552	0.200661	0.201483	0.201154
2476	0.200004	0.200825	0.198689	0.200168	0.201976	0.197867
2477	0.202962	0.198524	0.200497	0.199018	0.202469	0.200497
2478	0.199839	0.201319	0.200497	0.200497	0.199839	0.199346
2479	0.198196	0.201976	0.196552	0.199839	0.198031	0.20099
2480	0.199182	0.200497	0.197538	0.19836	0.200004	0.200168
2481	0.199182	0.201812	0.199839	0.196881	0.200825	0.199675
2482	0.201647	0.200168	0.194909	0.198689	0.19836	0.201812
2483	0.200004	0.199018	0.199839	0.198853	0.198689	0.202469
2484	0.197374	0.198031	0.199511	0.197374	0.201976	0.203291
2485	0.200661	0.194251	0.199839	0.198689	0.202633	0.201154
2486	0.198853	0.199182	0.20099	0.19836	0.20099	0.201812
2487	0.199839	0.196059	0.200661	0.199675	0.201812	0.198689
2488	0.200004	0.195895	0.197703	0.197867	0.201319	0.204441
2489	0.201154	0.198853	0.19573	0.199182	0.201319	0.201976
2490	0.200332	0.199511	0.196388	0.199346	0.203948	0.204113
2491	0.200168	0.203455	0.197045	0.201319	0.20099	0.202469
2492	0.199182	0.201976	0.199675	0.199839	0.199182	0.203784
2493	0.202305	0.201154	0.197538	0.201154	0.203784	0.199346
2494	0.197538	0.199839	0.197867	0.199839	0.201647	0.199675
2495	0.199018	0.200825	0.200004	0.202962	0.205099	0.197538
2496	0.198853	0.201154	0.19836	0.201319	0.201976	0.200661
2497	0.197538	0.200332	0.198853	0.197867	0.201647	0.200004
2498	0.201154	0.200497	0.203126	0.198524	0.203126	0.199182
2499	0.197374	0.199346	0.19836	0.198689	0.201647	0.201483
