Ladekurvenmessung
Zeit: 2018_05_04 09.59.20
Info: FVA3, v = 1.05, T = 23, F = 20, h = 587.3
Ladewiderstand[Ohm]: 1012700
Störkapazität[pF]: 0.000000
Entladezeit[ms]: 200
Abtastrate[Hz]: 250000
Anzahl der Messwerte: 2500.000000
Verzögerung[ms]: 3
Ladespannung[V]: 0.200000
	Kurve_1	Kurve_2	Kurve_3	Kurve_4
0	0.00031	0.000967	-0.000347	0.001296
1	0.000474	0.003268	-0.000512	0.003761
2	0.004748	0.003104	-0.000676	0.000803
3	0.00031	0.001296	-0.001005	0.002447
4	0.004255	0.000803	-0.001169	0.003926
5	0.002282	0.002282	-0.001334	0.002775
6	0.001954	0.002611	-0.000347	0.006556
7	-0.001334	0.001625	-0.000676	-0.001662
8	0.001625	0.001296	-0.000512	0.000146
9	0.000639	0.001625	-0.000512	0.000967
10	0.002611	-0.002155	-1.9e-05	0.004255
11	0.002282	0.003926	-0.000183	0.003926
12	0.00146	0.002611	0.000146	0.008692
13	0.003926	0.004255	-0.000183	0.001789
14	0.002775	-1.9e-05	-0.000676	0.003761
15	0.003268	0.001625	-0.001005	0.005076
16	0.001954	0.001625	-0.000841	0.003104
17	0.003761	0.00031	-0.001005	0.002611
18	0.00294	0.003268	-0.001169	0.003104
19	0.003761	-0.001498	-0.000183	0.001954
20	0.004419	0.001789	-0.000841	0.002118
21	-0.000841	0.002118	-0.000183	0.005898
22	0.001132	0.001296	-0.000676	0.001954
23	0.00146	-0.001498	-0.000183	0.002118
24	0.00146	0.001789	-0.000512	0.00146
25	0.002447	-0.000512	0.000803	0.002447
26	0.003597	-0.001498	-0.000183	0.00146
27	0.002775	0.003433	-0.001005	0.003597
28	0.000803	0.001789	-0.001662	0.001132
29	0.004255	-0.000183	0.00031	0.006227
30	0.003104	-0.001498	-0.000183	0.001789
31	0.000474	0.000639	-0.000347	0.004419
32	0.002118	-0.002155	-0.001005	-0.001498
33	-0.001169	0.000967	-0.000676	-0.003306
34	0.004748	-0.001334	0.000146	0.002118
35	0.001132	0.001625	-0.001991	-0.003142
36	-0.001991	-1.9e-05	0.00031	-0.000676
37	-0.000183	-0.002155	-0.00347	0.00031
38	0.001789	0.002611	0.000474	0.00294
39	-0.001827	0.001789	-0.002977	-0.002813
40	0.000474	-0.001169	-1.9e-05	0.003268
41	0.004419	0.002447	-0.001498	0.000803
42	0.001954	-0.000841	-0.001005	0.001789
43	0.006884	-1.9e-05	0.00031	0.00146
44	0.001625	0.001625	-0.001662	0.003268
45	0.00409	-0.000183	-0.000512	0.001625
46	0.003104	-0.001498	0.00146	0.001954
47	0.003268	0.00294	0.000474	0.006556
48	0.001954	-0.000347	-0.001005	0.003268
49	0.002775	0.000639	0.002447	0.004419
50	0.001789	-0.000347	-0.001005	0.001625
51	0.001296	-0.000512	0.002447	0.003433
52	0.00146	0.001132	0.000474	-0.000841
53	0.000474	-0.000347	0.001789	0.003104
54	0.000146	-0.000841	-0.001827	0.001789
55	0.001132	-0.002155	0.001625	-0.000841
56	-0.001334	0.00146	-0.001334	0.000803
57	0.001625	-0.000512	0.000639	-0.000676
58	-0.000841	0.002775	-0.000841	-0.003963
59	0.001132	-0.003142	-0.001662	-0.000676
60	0.003433	0.000803	-0.003306	0.004912
61	0.001296	0.001296	-0.002484	0.002447
62	0.00031	0.003761	-0.000512	0.002611
63	-1.9e-05	0.000474	-0.005278	0.002447
64	0.001954	-0.002813	-0.004128	0.002611
65	-0.000183	-0.002648	-1.9e-05	0.002775
66	0.003597	-0.001005	0.001625	0.002447
67	0.002775	0.000474	-0.000183	0.000146
68	0.000803	-0.001827	0.004255	-0.001169
69	0.006391	0.00031	0.003597	0.000474
70	0.004419	-0.005114	0.000967	0.001789
71	-0.001005	0.000474	0.001625	0.00294
72	0.00409	-0.002648	0.001954	0.001625
73	-0.000676	-0.000183	-0.00347	0.000474
74	-0.000347	-0.001005	0.002282	0.002118
75	0.003433	0.00146	0.00031	-0.002484
76	-0.001827	0.00031	0.001625	0.000146
77	0.000803	0.002447	0.005076	0.001132
78	0.002775	-0.001169	0.000146	0.000967
79	-0.000347	0.00031	0.009021	0.000146
80	0.001954	0.000967	0.000967	0.00146
81	0.001132	-0.001498	0.00935	0.000146
82	0.000474	0.002282	-0.002155	-0.00347
83	0.004748	-0.000841	0.00409	-1.9e-05
84	0.000474	0.000146	0.001296	-0.002813
85	-0.000347	-0.00347	0.002118	-0.001662
86	-0.002813	0.001132	0.000967	-0.002155
87	0.00146	-0.004456	0.001296	-0.001334
88	-0.000841	0.000967	0.002611	-1.9e-05
89	-0.001169	0.002282	-1.9e-05	-0.001498
90	0.000474	-0.000676	0.002775	-0.003799
91	-0.000512	0.000803	0.001296	0.002118
92	0.00294	0.002775	-1.9e-05	-0.000512
93	-0.000183	-0.001991	0.002118	0.000967
94	0.000967	0.00031	0.002611	0.002611
95	-0.002155	0.002282	0.000474	-0.000512
96	0.00294	0.001296	0.001789	0.001625
97	-0.001991	-0.000347	0.000967	0.00031
98	0.002118	-0.004785	-0.001334	0.007049
99	0.002447	0.001296	0.000474	0.001789
100	0.000146	-1.9e-05	0.001789	0.002447
101	0.003761	0.00146	0.006556	0.000474
102	0.003104	-0.001169	0.002611	0.004255
103	0.000146	0.002447	0.002118	0.000639
104	0.001132	-0.00232	0.002611	0.003433
105	0.002447	-0.001005	0.002775	0.001296
106	-0.001991	0.000803	0.001954	0.002611
107	0.000803	0.000967	0.00146	-0.000676
108	-0.003799	0.001789	-0.000841	-0.000183
109	-0.000183	0.002118	0.000803	-0.001498
110	0.000474	0.001625	-0.000841	0.000967
111	0.003597	0.004583	0.000803	0.002447
112	0.001296	0.002282	-0.000841	-0.000183
113	0.001132	0.001132	0.005405	0.002611
114	0.002118	0.002775	0.001954	0.001132
115	0.002611	-0.000512	0.000803	0.003104
116	0.003597	0.000967	0.004583	0.00031
117	0.00294	0.000146	0.002775	0.002611
118	0.002118	-0.001005	0.000639	-1.9e-05
119	0.003761	-0.001005	0.002775	-0.001827
120	0.005076	-0.000512	0.002118	-0.003142
121	-0.001498	0.001954	0.001789	0.00146
122	0.002447	-0.000512	0.003433	0.002118
123	-0.000512	-0.000676	0.003104	0.00031
124	0.000803	0.000967	0.004748	0.003597
125	0.001296	-1.9e-05	0.001625	0.001625
126	0.002118	0.001789	0.001296	0.001625
127	0.000474	0.002775	0.006884	0.003597
128	0.000474	0.001789	0.005734	0.003433
129	0.000146	0.006227	0.000474	0.000967
130	0.002282	-0.000183	-0.001827	0.003104
131	0.003597	0.002775	0.002611	0.000474
132	0.001132	0.002447	0.001625	0.002447
133	0.003268	0.00146	0.002775	0.00031
134	0.003761	0.001954	0.004748	0.002447
135	0.000146	0.00146	-0.0061	0.001954
136	-0.000347	0.00146	0.006884	0.001296
137	0.004583	0.002118	0.001954	0.000803
138	-1.9e-05	-0.005114	0.005076	0.002447
139	0.001625	-0.002155	0.00409	0.003926
140	-0.000841	0.001296	0.000146	0.002611
141	0.001625	0.001625	0.004748	0.002775
142	0.00031	-1.9e-05	0.001296	0.001954
143	0.000639	0.003597	0.001789	0.001132
144	-0.004292	0.003268	-0.001498	0.001296
145	-0.001498	0.000803	0.003268	0.002282
146	0.001296	0.004419	0.000639	0.000639
147	0.000803	0.001954	0.000967	0.004583
148	0.001296	0.002775	-0.00232	-0.000676
149	0.003104	0.00146	0.007049	0.008199
150	0.002282	0.002282	0.000474	0.004255
151	0.001789	-0.001827	0.001296	-0.001498
152	0.00146	0.004419	0.004748	0.00031
153	0.001625	-0.004128	0.002282	0.009514
154	0.006227	0.003104	0.003433	0.010336
155	-0.004785	-0.000841	0.002282	0.001625
156	0.000803	-0.000183	0.007049	0.000146
157	-0.000512	-0.000183	0.002118	0.000967
158	0.002282	0.002775	0.004748	0.002775
159	-0.001662	0.000474	0.003104	0.004748
160	-1.9e-05	-0.000676	0.003268	0.006556
161	-0.000183	-0.001169	0.000146	-1.9e-05
162	0.003926	0.001296	-1.9e-05	-0.000841
163	0.001132	0.002118	-0.002155	-0.001498
164	0.003433	-0.000347	-0.00232	0.00294
165	0.003104	0.003761	0.000803	0.004255
166	0.00146	0.000639	0.005241	0.00031
167	0.002611	0.001625	0.003268	0.000967
168	0.00409	0.000639	0.004419	0.006391
169	0.003926	0.003926	0.004419	0.006884
170	0.003761	-0.001334	0.003268	0.009185
171	0.000803	-0.001498	0.004419	0.021841
172	-0.000183	-0.002648	0.002118	0.019868
173	0.002611	-0.003963	0.005405	0.008363
174	0.000967	-0.002155	0.003104	-1.9e-05
175	0.00409	-0.004456	0.006227	-0.001827
176	0.002282	0.001789	0.003268	0.000146
177	0.001954	0.000967	0.005898	-1.9e-05
178	-1.9e-05	0.00146	0.00672	-0.005771
179	0.003433	-0.003306	0.005734	0.00146
180	0.002775	0.005076	0.006062	-0.001169
181	0.001296	-0.000841	0.005569	0.008528
182	0.003597	0.003104	0.003926	-0.002155
183	0.00146	0.001625	0.00031	0.017403
184	0.006884	0.000967	0.003268	0.021676
185	0.002118	0.000803	0.003268	0.00146
186	-0.000676	-0.000841	0.005405	0.003926
187	0.004419	0.002118	-1.9e-05	0.005076
188	0.000803	0.00031	0.005076	0.007213
189	0.00146	0.00031	0.003926	-0.000676
190	0.004419	-0.000676	0.004583	0.003761
191	0.003268	0.002447	0.008363	0.007706
192	0.003104	-0.001991	0.006062	-0.000347
193	0.001789	-0.000183	0.005076	-0.003306
194	0.003926	-1.9e-05	0.006227	0.005569
195	0.002775	-0.001169	0.004419	0.000146
196	0.003268	-0.000841	0.004912	0.000474
197	0.002447	-0.001005	0.003926	-0.001991
198	0.002611	-0.000676	0.001625	-0.001334
199	0.00031	0.002611	0.005734	-0.001334
200	0.00294	0.000803	0.003761	-0.001169
201	0.004419	0.002447	0.004583	0.002447
202	0.00294	-0.001498	0.003761	-0.000512
203	0.003104	-0.003799	0.005076	0.003104
204	0.00294	-0.006429	0.000474	0.000639
205	0.00409	-0.004128	0.004419	0.003268
206	0.001625	-0.003306	0.003761	-0.000676
207	0.004748	-0.004128	0.006391	0.002282
208	0.001789	-0.004621	0.003761	-0.004456
209	0.003104	-0.000512	0.004912	-1.9e-05
210	-0.002813	-0.001662	0.003761	-0.000676
211	-0.002484	-0.001334	0.003104	-0.004621
212	0.003926	-0.000512	0.002611	-0.002648
213	-0.000347	0.001625	0.003104	-0.001498
214	-0.00232	0.001132	0.002611	-0.004128
215	0.005898	-0.000183	0.00031	-0.001827
216	-0.000347	0.002118	0.001789	-0.000841
217	0.001954	-0.001991	0.000967	-0.000841
218	0.003926	0.000474	0.000639	-0.001991
219	0.000639	0.000803	-0.002813	-0.004292
220	0.000639	-0.001005	0.00294	-0.00232
221	0.001132	-1.9e-05	0.002775	-0.002648
222	0.002447	-0.002155	-0.000347	-0.003635
223	0.00146	0.00146	0.002775	-0.001005
224	0.003926	0.001789	0.003926	0.006227
225	0.003433	-0.003963	0.00294	-0.005607
226	0.005405	-0.001991	0.004583	0.00294
227	0.002118	0.001132	0.000639	-0.000676
228	0.001625	-0.003635	0.002118	0.003104
229	0.00146	0.002118	0.002447	0.002775
230	0.001132	0.000639	-0.001334	-0.005607
231	0.002118	0.000967	-0.000841	-0.001005
232	0.00146	0.001625	-0.001662	-0.002648
233	0.001789	-0.000676	-0.001169	-0.005936
234	0.001954	0.004255	-0.002484	-0.00232
235	0.006227	0.00146	-0.001498	-0.002155
236	-0.002648	0.001296	-0.002813	-0.002484
237	0.001789	0.000803	0.000803	-0.001005
238	0.00031	0.003433	-0.005278	-0.004292
239	0.003104	0.001625	-0.006757	-0.000841
240	-0.001005	0.001296	-0.007415	-1.9e-05
241	0.002611	0.001789	-0.005443	0.002118
242	0.000474	0.003104	-0.002648	0.000639
243	0.00409	-0.000512	0.00031	0.002447
244	0.001954	0.002447	-0.004621	-0.001991
245	0.005241	0.00031	0.002282	0.003926
246	0.00409	-1.9e-05	0.000146	0.002611
247	0.001296	0.000803	-0.005607	0.001789
248	0.00294	0.001132	0.000146	0.005405
249	0.000639	0.004419	-0.004128	-0.001662
250	0.003268	-0.000183	-0.001991	-0.001827
251	-0.001005	0.004419	-0.003142	0.00146
252	0.002447	0.005734	-0.001169	0.000967
253	-0.000676	0.010336	-0.003963	0.000639
254	-0.002484	0.004912	-0.001169	0.003597
255	0.001296	0.006062	-0.005278	0.001296
256	-1.9e-05	-0.000512	-0.001169	0.002775
257	0.002447	0.003104	-0.002813	0.001132
258	-0.000676	0.000474	-0.003142	0.005405
259	-0.000347	-0.001991	-0.001169	0.002611
260	0.000639	0.000803	-0.006757	0.002611
261	0.002447	0.002611	0.00031	-0.00232
262	0.001296	-0.001169	-0.004621	0.000967
263	0.004255	0.003104	-0.000676	0.003597
264	0.001789	0.004748	-0.002813	0.001625
265	0.003433	0.003268	0.000146	0.00294
266	0.001132	0.001954	-0.002484	0.004583
267	0.004419	0.003597	-0.000183	0.007213
268	0.000639	0.003433	-0.001334	0.00409
269	0.003104	0.000639	-0.000512	0.005734
270	-0.002648	0.001789	0.001132	0.002611
271	-0.002155	0.00146	0.000474	0.003104
272	0.001954	0.001132	-0.001827	0.001132
273	0.00146	-0.0061	-0.000512	0.002775
274	0.003268	0.003597	0.000474	0.004255
275	0.004912	0.005734	-0.002155	0.002775
276	0.002775	0.004419	0.001132	0.005405
277	0.003268	0.002282	-0.003306	0.007377
278	0.006062	0.003761	0.000146	0.004419
279	0.003926	0.003104	0.000146	0.007049
280	0.006884	0.001132	0.00031	0.000639
281	0.001296	0.003597	0.002775	0.003926
282	0.004912	0.001625	0.002282	0.005734
283	0.003597	0.004419	-0.002484	0.002775
284	0.00409	0.002775	0.002118	0.005405
285	0.006062	0.006884	-0.000841	-1.9e-05
286	0.005241	0.004912	-1.9e-05	0.004255
287	0.003433	0.00409	-0.002484	-0.003142
288	0.002611	0.003761	-0.001334	0.004255
289	0.00294	0.004912	-0.000183	0.001296
290	0.003104	0.004419	0.000803	0.000639
291	0.004748	0.003104	0.005241	0.003761
292	0.005076	0.003104	0.001625	0.001132
293	0.002282	0.000967	0.002118	0.002118
294	0.005569	0.001625	-0.000347	0.003104
295	0.006884	0.003104	-0.000183	0.001296
296	0.001296	0.004912	-0.003142	0.00294
297	0.003597	0.003104	0.003926	0.003597
298	0.001954	0.004748	-0.001827	0.002447
299	0.004583	0.002447	0.004419	0.00935
300	0.001132	0.003268	0.003597	0.004419
301	0.003926	0.001132	-0.001005	0.003926
302	0.003268	0.000967	0.003104	0.001789
303	0.004419	-0.001005	0.000474	0.001625
304	0.000474	0.002118	-0.001662	0.001132
305	-0.000512	0.00146	-0.001005	0.000803
306	-0.001005	0.005076	0.003433	-0.002155
307	0.00031	0.004255	-0.001498	-0.000841
308	0.005405	0.006062	-0.000183	-0.002155
309	0.003597	0.004419	0.001132	0.001954
310	0.00294	0.001625	-0.002648	0.002611
311	0.002775	0.005405	0.000146	0.001296
312	0.005898	0.001132	-0.000512	0.000639
313	0.000803	0.000967	-0.000183	0.001132
314	0.007706	0.001789	0.004255	0.00294
315	0.000967	0.002282	-0.001005	0.000146
316	-1.9e-05	0.000474	0.004583	0.000474
317	0.003926	0.00031	0.001789	0.002118
318	-1.9e-05	0.006556	-0.000512	0.005076
319	-0.000841	0.00294	-0.000183	0.000639
320	-0.000841	-0.000183	-0.002155	0.001954
321	-0.002155	0.001132	-0.001662	0.002447
322	-0.000183	-0.000676	-0.000183	0.002775
323	0.001296	0.006391	0.000474	-1.9e-05
324	-0.001498	0.001625	0.001954	-0.000183
325	0.002282	0.001625	0.006391	0.000474
326	-0.005278	0.001954	-0.00232	0.002282
327	-0.002484	0.000474	0.001625	0.003104
328	-1.9e-05	0.000639	-0.000347	0.001789
329	-0.001498	0.006556	0.000967	0.001789
330	0.002118	0.00294	0.000474	0.003433
331	0.000967	0.003104	0.004255	0.005734
332	-0.004621	-0.000841	0.001789	0.004912
333	0.000639	0.00031	0.003926	0.003926
334	-0.000841	0.00672	0.00409	-0.000676
335	-0.000347	-0.001005	0.002775	0.002611
336	0.001132	0.001296	0.008528	0.000146
337	-0.00232	0.00031	0.001789	0.003926
338	-0.001991	-0.001498	0.006062	0.000639
339	-0.003963	0.001296	0.003104	0.000146
340	-0.002813	0.006556	0.000146	0.003597
341	-0.005936	0.003268	-0.000347	-0.003142
342	-0.000512	0.00409	-0.003142	0.003926
343	-0.005607	0.002282	-0.003635	0.002611
344	-0.001827	0.001789	0.001132	0.003104
345	-0.002484	0.004255	-0.000676	-0.000347
346	-0.004785	-0.000512	0.002118	0.001954
347	-0.003963	0.000146	0.006391	0.001789
348	-0.00232	0.001789	0.000639	0.002447
349	-0.002813	0.003104	0.001789	-0.002977
350	-0.003963	-0.001991	0.004255	0.005241
351	-0.000841	0.007542	0.001296	0.000639
352	-0.00347	0.00294	0.003761	0.004583
353	-0.003142	-0.000347	0.002282	0.002775
354	-0.002813	-0.001334	0.000146	0.000639
355	-1.9e-05	-0.0061	0.004912	-0.000676
356	-0.007415	-0.001991	0.001625	0.00031
357	-0.001005	-0.000676	0.005898	0.000146
358	-0.001005	-0.001169	0.002775	-0.000183
359	-0.002977	0.000474	0.00031	-0.000183
360	-0.005443	0.001954	-0.004292	-0.001827
361	-0.003142	0.002775	-0.000841	0.000803
362	-0.001498	0.00146	-0.000183	0.002282
363	-0.002813	0.002282	-0.004785	0.001625
364	0.001789	0.000474	0.000639	0.000146
365	-0.000512	-0.000841	0.000967	0.000474
366	-0.000841	0.000803	0.004583	0.000146
367	0.000967	-0.001005	0.005569	0.00146
368	0.000639	-0.000841	0.005569	0.000474
369	-0.000512	-0.002813	0.005569	0.002775
370	-0.000183	-0.004128	0.00672	0.000803
371	-0.000512	-0.003963	0.002775	-0.001662
372	-0.001169	-0.001169	0.005898	-0.001991
373	-1.9e-05	0.000967	0.001625	-1.9e-05
374	0.000639	-0.0061	0.003104	-0.001498
375	-0.002977	0.00294	0.000474	0.000967
376	-0.000512	-0.003306	0.002447	0.000803
377	-1.9e-05	0.001296	0.000146	-0.000512
378	-0.001334	0.000803	0.002775	0.003597
379	-0.000841	0.001625	0.000639	0.001954
380	0.005898	-0.001005	-0.00725	0.001954
381	-0.001991	0.000803	0.000803	-0.000347
382	0.000146	0.002118	0.001296	0.00031
383	-0.00347	-0.001169	0.001954	-0.001827
384	-0.000347	-0.000676	0.002118	0.002611
385	0.003761	0.002118	0.003268	0.000967
386	0.003926	-0.004128	0.004419	0.000146
387	-0.000183	0.000146	0.003268	-0.001498
388	0.001296	-0.000183	0.000639	0.001789
389	0.001789	0.000803	0.005405	0.00146
390	0.001954	-0.000676	-0.001662	0.003104
391	-0.000347	-0.001498	-0.005607	0.003926
392	-0.001662	-0.000183	0.002611	0.002447
393	-1.9e-05	-0.00347	0.001954	0.001954
394	-0.00232	0.00031	-0.001334	-1.9e-05
395	-1.9e-05	0.000967	0.000639	0.004419
396	0.000639	0.000803	-0.001498	0.003433
397	0.000639	-0.000676	-0.003142	0.00031
398	0.002118	0.002118	-0.001169	0.006227
399	0.004583	0.001296	0.000967	0.001954
400	0.002611	-1.9e-05	0.000803	-0.000347
401	0.001625	-0.004128	0.000639	0.007542
402	-0.006264	-0.000676	-0.004785	0.004255
403	-0.001334	-0.002648	-0.000183	0.007377
404	0.002775	0.000803	0.003268	0.00787
405	0.002775	0.002611	0.000639	0.003433
406	-0.002813	-1.9e-05	-0.001005	0.005569
407	-0.002813	0.000803	-0.002813	0.004748
408	0.001296	0.000967	-0.001827	0.005569
409	-0.002155	0.001954	-0.002813	0.005569
410	0.001132	0.000639	-0.001334	0.002447
411	-0.001991	0.00409	-1.9e-05	0.003761
412	-0.001169	-1.9e-05	0.005076	0.005898
413	-0.010045	0.003926	-0.000347	0.003433
414	-0.002648	0.001296	-0.000841	0.011486
415	0.002118	0.00294	0.000803	0.0105
416	-1.9e-05	0.002118	0.002447	0.006062
417	0.001954	-0.000347	0.00294	0.005241
418	0.00146	-0.003799	0.00146	0.005569
419	0.002447	-0.000347	0.004583	0.004583
420	0.003433	-0.000183	0.003761	0.003761
421	0.003926	-0.002484	0.009678	0.003761
422	0.001954	-0.001662	0.003433	0.003926
423	0.003268	-0.004456	-0.001005	0.005076
424	-0.002977	0.00294	-1.9e-05	0.004912
425	-0.000512	-0.001498	0.005241	-0.000512
426	-1.9e-05	0.004748	0.002447	-0.002977
427	-1.9e-05	-0.000347	0.001789	0.002611
428	-1.9e-05	0.002775	-1.9e-05	0.005405
429	-0.001169	0.000967	-0.003306	0.00409
430	0.001296	0.00146	-0.002648	0.001789
431	-0.001005	0.001296	-0.005114	0.00294
432	0.004583	0.001789	-0.001498	0.002447
433	0.001296	0.005569	-0.002977	0.003104
434	0.002447	-0.001662	0.00146	0.005405
435	-0.001498	0.000967	-0.000841	0.003597
436	-0.000512	0.00409	-0.002813	0.001296
437	0.001132	-0.001662	-0.002813	0.002282
438	0.004748	0.000474	0.004255	0.00409
439	0.00409	0.002447	0.000967	0.000639
440	0.00031	-0.002484	0.004419	0.00294
441	0.003268	-1.9e-05	0.00409	0.00031
442	0.000967	0.00031	0.000474	0.002118
443	0.002775	-0.000183	0.002282	0.003433
444	-0.00232	0.000474	0.005405	0.002611
445	0.003268	0.001789	0.001296	0.00294
446	0.000803	0.00031	0.003104	0.00409
447	-0.002155	0.003926	0.003761	0.001789
448	0.00146	0.000474	0.003268	-0.000347
449	0.006884	0.00294	0.005569	0.002282
450	0.00146	0.001625	0.003597	0.000803
451	0.00146	-0.000841	0.00787	0.004583
452	0.002447	0.001132	0.005734	0.003597
453	0.002447	0.000967	0.006391	0.005734
454	0.002611	-0.001169	0.007377	-0.000347
455	0.003104	-1.9e-05	0.009185	0.00409
456	-0.000183	0.003104	0.007213	0.003761
457	-0.000183	-0.000512	0.007377	-0.000183
458	0.000803	0.000803	0.00672	0.003104
459	-0.001005	-0.000183	0.008692	0.001132
460	-0.001005	-0.000841	0.009843	0.000639
461	-0.001827	-0.000841	0.008692	0.001954
462	0.00031	-0.001498	0.008857	-0.000676
463	-0.001334	0.001625	0.008692	-0.001169
464	0.001625	0.001789	-0.000183	0.00031
465	0.000146	-0.000841	0.000474	-0.001827
466	0.002447	0.001132	0.00787	0.000803
467	0.003433	0.000639	0.006227	-0.002813
468	0.004748	-0.003799	0.010829	-0.001005
469	0.00146	-0.001498	0.010829	-0.001005
470	0.000803	-0.00232	0.003761	-0.003306
471	0.000474	-0.002977	0.002775	-0.001169
472	0.003597	-0.004292	0.005405	-0.000347
473	0.002611	-0.00232	0.004419	-0.002484
474	0.000803	-0.001005	0.00672	0.003104
475	0.001789	0.001132	0.00409	0.006391
476	0.001625	-0.001827	0.009514	-0.000347
477	0.003926	-0.001498	0.010007	0.001296
478	0.000639	-0.001334	0.006556	-0.000183
479	0.003268	-0.000183	0.00672	-0.004128
480	0.000803	-0.000676	0.00031	-0.002155
481	0.000967	0.001132	0.000803	-0.001662
482	-0.001005	-1.9e-05	-1.9e-05	-0.00232
483	0.004583	-0.001005	0.000967	-0.001005
484	-0.001827	-0.001005	0.00031	-0.005443
485	-0.000347	-0.001662	-0.001169	-0.00232
486	-0.000676	0.000803	0.000639	-0.003963
487	0.000639	0.000474	0.00146	-0.002155
488	0.001954	0.003433	0.003104	-0.003306
489	0.000146	-0.003799	0.004748	0.000474
490	0.002282	-0.001334	0.005405	-0.001334
491	0.003761	-0.002648	-0.000347	0.001132
492	0.000967	-0.000347	0.00935	-0.000347
493	0.000474	-0.001498	0.017567	-0.000512
494	0.002282	-0.004621	0.022663	0.000146
495	0.002282	-0.001334	0.010993	-0.001334
496	-0.002155	0.000474	0.024799	0.00146
497	0.001954	-0.001662	0.011158	-0.001827
498	0.007049	-0.000512	-0.000512	-0.000841
499	0.000146	0.000146	-0.001498	0.000639
500	0.000639	-0.004949	-0.005114	0.001132
501	-0.001169	0.002282	-0.002648	-0.00347
502	0.003104	-0.000512	-0.000183	0.001132
503	0.003268	0.00146	-0.003635	-0.002648
504	-1.9e-05	-0.001334	-0.00232	-0.001991
505	0.003433	-0.002813	-0.002813	-0.002813
506	-0.000347	-0.000183	-0.001169	0.003268
507	0.001132	-0.000841	-0.000183	-1.9e-05
508	-0.000512	-0.001827	-0.002813	0.004255
509	0.002611	-0.00232	-0.001334	0.000474
510	-0.000676	-0.000841	-0.000676	0.00031
511	0.005076	-0.001662	0.00146	0.003104
512	0.001625	-0.000676	-0.001005	-0.001991
513	0.005241	-0.003963	0.004583	0.004748
514	0.002118	-0.000676	0.001625	0.002611
515	0.002447	-0.001662	-0.001005	-0.002155
516	0.000639	-0.000347	-0.000512	-0.001169
517	0.004255	-0.003799	0.000967	-0.002977
518	-0.000841	0.000639	-0.001005	-0.001827
519	-0.003306	-0.002813	-0.001169	0.000639
520	0.002118	-0.001005	0.004255	-0.002977
521	0.000967	0.005569	-0.003799	0.000474
522	0.003761	0.001625	0.004255	0.000146
523	0.00294	-0.003142	0.000639	0.002282
524	0.004583	-0.002813	0.002775	0.005076
525	0.001296	-0.002155	0.001296	-0.003635
526	0.002775	-0.001005	0.001625	0.003268
527	0.000474	-0.000512	0.004419	0.001789
528	0.003268	-0.004456	0.005569	0.003761
529	0.00031	-1.9e-05	0.005734	0.002118
530	0.004419	-0.005114	0.00146	0.002447
531	0.003104	-0.001498	0.000639	-0.00232
532	0.001954	-0.000347	-0.001662	-0.000512
533	0.001954	-0.003635	-0.002977	-0.000183
534	0.002447	-0.002648	-0.001991	0.00031
535	0.002118	-0.001498	-0.002977	-0.001498
536	0.00409	-0.002155	-0.000676	-0.003306
537	0.000639	0.000967	-0.000183	-0.002155
538	-0.000183	-0.001827	-0.003142	-0.000841
539	0.002775	-0.001498	-0.002977	-0.002155
540	-0.000183	-1.9e-05	-0.001005	0.003268
541	-0.000183	-0.000183	-0.001991	0.001296
542	0.001954	-0.002813	0.00031	-0.001498
543	0.002775	-0.013989	0.003433	0.00294
544	0.004255	-0.002484	-0.003635	0.001296
545	0.004583	-0.005771	0.002282	0.002282
546	0.003104	-0.001662	0.000967	-0.002155
547	0.005405	-0.009551	-0.001169	0.001132
548	0.001789	0.003268	-0.000183	-0.001662
549	0.001625	-0.003963	0.000967	0.00031
550	-0.002484	-0.004785	-0.001827	0.000146
551	-0.002155	-0.000183	-0.000841	0.001132
552	-0.00347	-0.002155	-0.001991	-0.001334
553	0.002775	-0.006429	0.000146	0.000803
554	0.005734	-0.010866	-0.000676	0.003104
555	0.001132	-0.005114	-0.001498	-0.002484
556	-0.000676	-0.005936	0.003597	-0.000676
557	0.001132	-0.002648	-0.001662	-0.000676
558	-0.001498	-0.003635	0.000146	0.001625
559	-0.001498	-0.002648	-0.003963	0.000146
560	0.00294	-0.004292	-0.002484	-0.000347
561	0.000146	-0.004128	-0.001498	0.001296
562	0.004255	-0.001169	-0.001334	0.001625
563	-0.000347	-0.001005	-0.00232	-0.001662
564	0.004583	-0.004292	0.002118	0.003433
565	0.00409	-0.003635	0.002447	0.000967
566	0.004255	-0.0061	0.000803	0.002118
567	0.00409	-0.001169	-0.000676	0.000639
568	-0.001498	-0.003142	0.000146	0.00146
569	0.003104	-0.001169	-0.003142	-0.00232
570	0.001296	-0.003963	-0.001827	-0.00347
571	0.001625	0.001954	0.001789	0.001625
572	-0.001498	-0.002155	-0.003963	-0.001662
573	0.002447	-0.002648	-0.002155	-0.001827
574	-0.00347	-0.001169	-0.004621	-0.005607
575	0.002118	-0.002813	0.000146	0.001789
576	0.001132	-0.000347	-0.004785	0.00409
577	0.001132	-0.003635	-0.0061	-0.002484
578	0.000639	-0.005607	-0.00232	-0.000676
579	0.003268	-0.005114	-0.004785	0.001132
580	0.000474	-0.000512	-0.006922	-0.00347
581	0.001789	-0.004456	-0.005114	0.001132
582	0.002447	-0.003306	-0.008401	-0.001005
583	-0.000676	-0.002977	-0.005936	0.000803
584	0.005241	-0.001169	-0.005443	0.002447
585	-0.001827	-0.001991	-0.009716	-0.000676
586	0.002611	-1.9e-05	-0.007086	0.000639
587	0.00409	0.001296	-0.008894	0.000967
588	0.000146	0.000803	-0.012017	0.00146
589	-0.002155	-0.001334	-0.011031	0.002118
590	0.003268	-0.001005	-0.010866	0.002775
591	-0.003963	0.001296	-0.013167	-0.001334
592	-0.001991	-0.002155	-0.008894	0.006062
593	-0.002813	-0.000183	-0.016783	-0.000347
594	-0.000841	-0.002484	-0.020563	0.003926
595	0.000474	0.000474	-0.01251	0.000803
596	-0.001498	-0.003799	-0.012839	0.005898
597	0.002447	-0.002155	-0.010538	0.002447
598	0.001789	0.000967	-0.007086	0.003433
599	0.000967	-0.000183	-0.011688	0.005076
600	-0.002648	-0.004292	-0.012017	0.004419
601	-0.000676	-0.001662	-0.009716	0.007377
602	-0.006429	-0.004785	-0.011195	0.004583
603	-0.000512	-0.001991	-0.012181	0.001789
604	-0.002484	-0.000512	-0.012017	0.00146
605	-0.000183	-0.004785	-0.010538	0.007542
606	-0.003963	-0.003963	-0.011359	0.004912
607	-0.003635	-0.0061	-0.011524	0.005241
608	-0.000512	-0.002648	-0.011852	0.00409
609	-0.002813	-0.002977	-0.009716	0.008692
610	-0.003142	-0.004949	-0.013825	0.003597
611	-0.000512	-0.001991	-0.011524	0.00787
612	0.001296	-0.001005	-0.007744	0.00672
613	0.001296	-0.002484	-0.013332	0.003433
614	0.000803	-0.001662	-0.013003	0.005241
615	0.001132	-0.004456	-0.008072	0.006391
616	0.002282	-0.002484	-0.007744	0.004583
617	0.005076	-0.004292	-0.007744	0.005241
618	-1.9e-05	-0.002977	-0.007908	0.005241
619	0.000803	-0.004621	-0.007086	0.005569
620	0.002118	-0.001991	-0.0061	0.002611
621	-0.000676	-0.000183	-0.005607	0.004419
622	0.003268	-0.007908	-0.003799	-0.001005
623	-0.001991	-0.003142	-0.005771	0.003926
624	0.001132	-0.001005	-0.005936	0.001296
625	-0.001005	-0.002813	-0.008072	-0.001169
626	-0.001169	-0.00347	-0.005936	-0.000841
627	0.001625	0.000474	-0.008072	-0.001169
628	-0.001005	-0.001334	-0.0061	0.002118
629	-0.001498	0.000967	-0.007086	0.002611
630	0.003597	0.002282	-0.00347	-0.000841
631	0.002611	0.000146	-0.003306	0.002775
632	0.000474	0.001132	-0.005278	0.001954
633	0.003433	-0.001827	-0.003799	0.00031
634	0.003268	-0.001827	-0.008072	0.000474
635	0.003761	-0.001827	-0.001662	-0.000841
636	-0.001662	0.001132	-0.002155	-0.001991
637	-0.001005	-0.000841	-0.010538	0.000639
638	-0.003306	0.00031	-0.005114	-0.001005
639	0.002775	0.000803	-0.00347	0.001789
640	-0.004128	-0.001827	-0.005607	0.000639
641	0.001954	-0.000676	-0.001169	-1.9e-05
642	0.004255	0.001625	-0.004949	-0.000183
643	0.000967	0.000146	-0.004621	0.000967
644	0.001132	-0.000512	-0.004456	0.000639
645	0.002282	-0.002484	-0.005278	-0.012017
646	0.002611	0.002282	-0.003142	-0.001334
647	0.001625	-0.003963	-0.004128	0.001132
648	0.001296	-0.002977	-0.002977	0.005569
649	0.000639	0.000474	0.001789	0.000474
650	0.002447	0.000474	-0.003799	-0.001991
651	-1.9e-05	-0.001498	-0.00347	-0.000676
652	0.008692	-0.000841	0.00146	0.00672
653	0.005734	-0.001827	-0.002484	0.001789
654	0.001789	-0.000512	-0.000841	0.003433
655	-0.001169	0.001132	-0.002484	0.003433
656	0.000474	-0.000841	0.003268	-0.004128
657	-0.000347	-0.006922	-0.003799	0.001789
658	-0.00232	0.000803	-0.004128	0.002447
659	0.00146	-0.000841	-0.004785	0.000639
660	0.000967	-0.005771	-0.00232	-1.9e-05
661	0.003104	0.004748	-0.00347	-0.000512
662	-0.003306	-0.001991	-0.006757	-0.000676
663	0.004912	0.000474	0.000639	0.000474
664	0.006227	0.001625	-0.004621	0.00031
665	0.007213	-0.000183	-0.000512	0.001789
666	0.001132	0.001625	-0.000841	0.000146
667	0.005076	-0.002977	-0.001169	0.00031
668	-0.001662	-0.002813	-0.003635	-0.001005
669	0.004583	-0.001991	0.001789	0.00146
670	0.003433	0.000474	-0.002648	-0.000347
671	0.002282	-0.004456	0.000474	0.002775
672	0.00294	-0.00347	0.001789	0.002447
673	0.002282	-0.002648	0.00031	0.004748
674	0.007049	-0.004949	0.003761	0.00294
675	0.002282	-0.000512	0.001625	0.003268
676	0.00146	0.003268	0.000967	0.004912
677	0.002447	-0.000841	0.000146	0.003268
678	0.003433	0.001132	-0.000347	-1.9e-05
679	-0.002648	0.003268	-0.001827	-0.001991
680	0.003433	0.003433	-0.000183	0.000146
681	-0.000183	0.002447	-0.001662	-0.000347
682	0.002118	0.000639	0.000639	0.001789
683	0.001789	0.002118	-0.000676	-0.000183
684	0.005076	-0.000676	-0.001662	0.00031
685	0.003104	0.002282	0.005241	0.002447
686	0.00409	0.002447	0.00294	0.002447
687	0.002775	0.003597	-0.00232	-0.00347
688	0.001625	-0.001662	0.001789	0.003597
689	0.002447	0.002118	0.002282	0.000803
690	0.000639	-0.002155	0.001625	-0.002648
691	0.001132	0.000639	0.005076	-0.001334
692	0.000967	-1.9e-05	-0.000676	0.000967
693	0.00146	0.002118	0.000967	-0.000512
694	-0.001169	0.002282	0.002118	0.000639
695	0.005405	0.00031	0.001296	0.000639
696	-0.000347	0.000474	0.00294	0.000146
697	0.001132	0.003104	0.00146	0.00146
698	-0.001827	0.003268	-0.000841	-0.000676
699	-0.000841	0.00031	0.001954	0.002775
700	-0.000676	0.00146	0.002447	0.000474
701	-0.002813	-1.9e-05	0.004419	0.001625
702	-0.001827	-0.000183	0.001789	-0.002813
703	0.000146	0.000803	0.003597	0.002282
704	-0.002155	0.00146	0.001625	0.003597
705	-0.001169	-0.001827	0.005241	-0.000841
706	0.001625	0.001132	0.004912	-0.003799
707	-0.001827	-0.002813	0.00409	-0.002155
708	-0.001005	0.000803	0.002447	0.000803
709	-0.002813	0.001954	0.002775	0.000146
710	-0.001005	-0.000676	0.003597	0.000146
711	-0.005771	0.005405	-1.9e-05	0.001789
712	0.003597	-0.000841	0.002447	0.000474
713	-0.001498	0.001954	0.007213	0.000967
714	0.001296	0.000967	0.005405	0.001296
715	-0.002155	0.002775	0.003268	-0.001498
716	-0.004128	-0.000512	0.006884	0.001296
717	0.00031	0.002118	0.002611	-0.000676
718	-0.001005	-0.000676	0.007377	0.000146
719	-0.001005	-0.001498	0.006062	-0.000347
720	-0.000183	0.00294	0.003761	0.002282
721	-0.000347	-1.9e-05	0.004748	0.001789
722	-0.000512	-0.006757	0.008528	0.000639
723	-0.002155	-0.00232	0.007706	0.000967
724	-0.001169	-0.002648	0.005569	0.001132
725	-0.001005	-0.001334	0.008035	-0.001169
726	-0.00232	0.001132	0.005898	0.000146
727	-0.001498	0.001132	0.006884	-0.002484
728	0.000146	0.001296	0.005734	-0.003142
729	0.000474	0.004748	0.009514	-1.9e-05
730	-0.002977	-0.002484	0.006391	-0.001005
731	-0.000347	-0.002813	0.00787	0.00031
732	-0.000183	0.002611	0.006062	0.000146
733	-0.002484	-0.001991	0.010993	0.000967
734	-0.001827	0.003433	0.003761	-0.000676
735	-0.003306	-0.000841	0.007377	-0.001991
736	0.000803	0.00146	0.006391	-0.000347
737	-0.001827	0.000146	0.003926	0.001625
738	0.000474	0.000803	0.00787	0.000967
739	0.001132	-0.000347	0.007377	0.001789
740	0.001625	-0.000347	0.009185	-0.000512
741	-0.00232	-0.000512	0.012308	0.001625
742	-0.004292	-0.000347	0.009514	0.003104
743	-0.004292	-0.001005	0.008692	0.001625
744	0.000146	-0.001005	0.012308	0.001625
745	-0.001827	-0.000183	0.00672	0.002775
746	0.00031	0.001296	0.001132	0.000639
747	-0.002977	0.002611	0.007213	0.000639
748	-0.000676	0.00031	0.010007	-0.000347
749	-0.001991	0.003104	0.00787	0.000639
750	0.000639	-0.00232	0.009185	0.001789
751	0.005898	0.004583	0.01576	0.004583
752	0.011322	0.007542	0.021019	0.01428
753	0.019868	0.020197	0.029237	0.020033
754	0.027265	0.025621	0.038441	0.028251
755	0.032031	0.031373	0.045179	0.034825
756	0.038934	0.035154	0.049946	0.043371
757	0.049124	0.042057	0.058164	0.046659
758	0.053069	0.049946	0.061615	0.051918
759	0.0603	0.05537	0.068189	0.060465
760	0.064409	0.063752	0.07312	0.063423
761	0.074599	0.067861	0.081502	0.075092
762	0.079037	0.075585	0.082488	0.075421
763	0.07838	0.0769	0.092186	0.086762
764	0.084461	0.082982	0.095473	0.086104
765	0.091857	0.085776	0.100896	0.093336
766	0.09498	0.0935	0.105005	0.093336
767	0.099417	0.097774	0.106978	0.10254
768	0.105498	0.096623	0.1101	0.101554
769	0.10895	0.100732	0.117661	0.106649
770	0.114538	0.108293	0.116346	0.109936
771	0.116675	0.109114	0.120948	0.114702
772	0.124399	0.109772	0.12933	0.118647
773	0.1267	0.112566	0.132289	0.115031
774	0.128837	0.118318	0.134261	0.125057
775	0.131138	0.120126	0.135083	0.127522
776	0.135411	0.123413	0.140835	0.132124
777	0.139356	0.12818	0.140671	0.131302
778	0.140342	0.124728	0.143136	0.144615
779	0.144615	0.137877	0.147738	0.14215
780	0.142972	0.131467	0.148724	0.142479
781	0.146423	0.134097	0.151025	0.142479
782	0.148067	0.141493	0.152011	0.146752
783	0.153655	0.14478	0.152176	0.145108
784	0.155299	0.14478	0.159243	0.148231
785	0.156778	0.145437	0.156613	0.152011
786	0.156942	0.148067	0.157764	0.152669
787	0.161709	0.147738	0.15612	0.158257
788	0.159079	0.149053	0.160394	0.155956
789	0.16253	0.151847	0.163845	0.163352
790	0.165489	0.154148	0.160065	0.158586
791	0.164996	0.155134	0.16401	0.16138
792	0.170913	0.153984	0.16253	0.157928
793	0.170584	0.156778	0.163352	0.152669
794	0.168776	0.160229	0.16894	0.122427
795	0.173378	0.156942	0.172392	0.069011
796	0.173871	0.16401	0.167297	0.035318
797	0.173707	0.163516	0.174693	0.00146
798	0.176501	0.163352	0.174035	0.002775
799	0.175021	0.165817	0.174693	0.00146
800	0.176829	0.165653	0.173378	0.001296
801	0.179295	0.167625	0.17535	0.00294
802	0.178309	0.16779	0.172885	0.003433
803	0.178966	0.16779	0.174035	0.00146
804	0.181924	0.169433	0.17798	0.000967
805	0.18176	0.171406	0.17535	0.00146
806	0.177815	0.166639	0.169433	0.002775
807	0.180116	0.172063	0.136398	-0.002484
808	0.183732	0.17157	0.138205	-0.000183
809	0.183075	0.174857	0.076243	0.00031
810	0.185376	0.173871	0.079201	0.00031
811	0.181924	0.174693	0.081667	-0.001005
812	0.184554	0.175843	0.086762	0.003433
813	0.189814	0.178144	0.090871	-1.9e-05
814	0.189156	0.175186	0.097774	0.000967
815	0.188499	0.177651	0.101883	0.002447
816	0.187841	0.17798	0.107964	0.000967
817	0.186526	0.177322	0.1101	0.000146
818	0.186198	0.177487	0.112401	0.001954
819	0.188992	0.179295	0.11651	0.003104
820	0.189814	0.177487	0.117661	-0.002155
821	0.193101	0.180445	0.126043	0.000474
822	0.188663	0.177651	0.121934	-0.003799
823	0.192115	0.180774	0.029401	0.002611
824	0.188663	0.184554	0.03351	0.00146
825	0.192443	0.178637	0.041564	0.002447
826	0.193758	0.181924	0.044686	0.001789
827	0.194251	0.181103	0.055863	0.003433
828	0.191293	0.182582	0.057835	0.001132
829	0.193265	0.182417	0.064902	0.004419
830	0.192772	0.183075	0.067203	0.000474
831	0.192608	0.181267	0.075257	0.001132
832	0.200332	0.185705	0.08216	0.003597
833	0.192936	0.182582	0.07953	0.001132
834	0.194744	0.182417	0.089391	0.005241
835	0.193101	0.182253	0.092843	0.000639
836	0.196223	0.180938	0.097774	0.003104
837	0.194416	0.187677	0.096952	0.007213
838	0.19573	0.183897	0.104677	0.005241
839	0.19458	0.187184	0.105827	0.00146
840	0.194416	0.183239	0.109936	0.005076
841	0.191786	0.189485	0.110429	0.005241
842	0.195073	0.183897	0.117661	0.005405
843	0.20362	0.188334	0.12555	0.00787
844	0.19836	0.185376	0.122098	0.022005
845	0.19836	0.178637	0.126865	0.026607
846	0.192772	0.186691	0.134425	0.033674
847	0.197374	0.186033	0.135247	0.04107
848	0.197538	0.186362	0.137712	0.04748
849	0.196223	0.185705	0.141	0.056356
850	0.195895	0.186691	0.140671	0.057671
851	0.198689	0.186033	0.145273	0.065067
852	0.199839	0.189156	0.04633	0.068189
853	0.19836	0.185047	0.020526	0.073284
854	0.193101	0.18932	0.030059	0.080516
855	0.196881	0.184554	0.030552	0.087255
856	0.195073	0.187513	0.036962	0.090542
857	0.194744	0.187677	0.045015	0.105005
858	0.195402	0.190635	0.051589	0.097281
859	0.196059	0.192443	0.058164	0.104348
860	0.197703	0.19195	0.066053	0.108457
861	0.198524	0.190471	0.069833	0.111415
862	0.20099	0.191128	0.076572	0.117003
863	0.200825	0.190635	0.081502	0.121112
864	0.198031	0.189814	0.091528	0.123413
865	0.190471	0.191293	0.093007	0.127029
866	0.198031	0.189978	0.098102	0.131138
867	0.197538	0.189814	0.09991	0.129166
868	0.199346	0.187348	0.106485	0.133603
869	0.199346	0.192608	0.108128	0.135411
870	0.199346	0.189814	0.113716	0.140835
871	0.196223	0.193758	0.120784	0.139027
872	0.197867	0.194744	0.121277	0.141164
873	0.198853	0.19458	0.123249	0.146916
874	0.198689	0.190307	0.074599	0.027593
875	0.200004	0.194416	0.07838	0.005898
876	0.190142	0.191786	0.078708	0.013952
877	0.199346	0.193758	0.010171	0.024635
878	0.199182	0.19458	0.016088	0.028415
879	0.196552	0.193922	0.029401	0.033674
880	0.199839	0.19458	0.031702	0.040084
881	0.200004	0.192936	0.040742	0.049453
882	0.199346	0.19573	0.048467	0.054712
883	0.200168	0.192608	0.054548	0.057999
884	0.200168	0.193922	0.059314	0.065724
885	0.199839	0.192936	0.063587	0.073613
886	0.199675	0.195566	0.074106	0.074106
887	0.190964	0.192772	0.074435	0.081831
888	0.198524	0.19573	0.032195	0.087419
889	0.198689	0.19721	0.035975	0.090871
890	0.20099	0.19721	0.042714	0.095801
891	0.198196	0.197045	0.051754	0.100896
892	0.198689	0.201647	0.056849	0.104019
893	0.197045	0.194744	0.06293	0.105663
894	0.200497	0.200168	0.068354	0.111908
895	0.201647	0.197538	0.071477	0.115195
896	0.199018	0.199346	0.081502	0.121934
897	0.201976	0.196552	0.082982	0.121605
898	0.193265	0.195566	0.078051	0.125879
899	0.197867	0.197374	0.090706	0.128344
900	0.201976	0.194744	0.097938	0.13311
901	0.20099	0.198524	0.100568	0.131302
902	0.200332	0.196223	0.106156	0.137877
903	0.195402	0.202798	0.109443	0.137877
904	0.193429	0.198524	0.114209	0.141821
905	0.192443	0.199675	0.114702	0.141821
906	0.20099	0.202633	0.118976	0.149875
907	0.19573	0.20362	0.082488	0.152176
908	0.195237	0.201319	0.06408	0.150697
909	0.186691	0.204277	0.002118	0.151683
910	0.195895	0.20214	-0.004128	0.153655
911	0.200004	0.20362	0.008363	0.154477
912	0.19573	0.20362	0.014938	0.155956
913	0.198031	0.203126	0.025128	0.160887
914	0.19836	0.205263	0.031373	0.159901
915	0.20214	0.203948	0.038605	0.163188
916	0.203455	0.204277	0.044029	0.159408
917	0.202798	0.203126	0.053233	0.166804
918	0.199346	0.204113	0.055698	0.165817
919	0.201319	0.201319	0.064738	0.169269
920	0.190964	0.206249	0.059314	0.168283
921	0.196388	0.203455	0.077558	0.170584
922	0.200168	0.206414	0.080681	0.171241
923	0.200661	0.205921	0.08216	0.176501
924	0.199182	0.210029	0.088405	0.173049
925	0.198524	0.210358	0.09235	0.175679
926	0.199511	0.209208	0.095308	0.174693
927	0.198196	0.20855	0.097938	0.175679
928	0.200825	0.207564	0.103033	0.179952
929	0.19836	0.211016	0.104512	0.176008
930	0.20099	0.206414	0.108457	0.18061
931	0.189156	0.206414	0.100896	0.185376
932	0.199675	0.206907	0.107964	0.182253
933	0.200004	0.206414	0.117003	0.180774
934	0.199018	0.202469	0.118483	0.182582
935	0.203455	0.209208	0.116839	0.180281
936	0.200825	0.2074	0.123085	0.184883
937	0.202305	0.210687	0.128344	0.182746
938	0.199675	0.205756	0.128837	0.182582
939	0.202305	0.208222	0.130809	0.18932
940	0.199346	0.209536	0.131138	0.186198
941	0.203455	0.209043	0.136891	0.186855
942	0.190635	0.211673	0.128344	0.18817
943	0.192443	0.212166	0.132617	0.191621
944	0.196388	0.21118	0.133932	0.188499
945	0.201647	0.20855	0.13952	0.189978
946	0.19836	0.213481	0.138699	0.188334
947	0.199018	0.209208	0.144122	0.191128
948	0.200332	0.212495	0.140671	0.188499
949	0.199511	0.209372	0.137548	0.189485
950	0.205592	0.20855	0.145437	0.191128
951	0.201483	0.20855	0.147081	0.19458
952	0.201976	0.213152	0.149546	0.194744
953	0.193594	0.207071	0.147409	0.194909
954	0.200332	0.212988	0.150532	0.194416
955	0.200332	0.211837	0.151518	0.193265
956	0.200661	0.210523	0.153655	0.195402
957	0.201154	0.211837	0.151847	0.196552
958	0.20099	0.213152	0.151025	0.196552
959	0.196388	0.21381	0.150204	0.194416
960	0.199346	0.212166	0.153326	0.195566
961	0.199675	0.213481	0.152011	0.196388
962	0.197703	0.212166	0.153162	0.195402
963	0.198524	0.213152	0.152669	0.192772
964	0.192443	0.212002	0.153162	0.196717
965	0.197867	0.214467	-0.011195	0.191621
966	0.197703	0.212824	0.005898	0.193594
967	0.199511	0.214138	0.012965	0.194251
968	0.19836	0.210194	0.022169	0.19573
969	0.199675	0.210523	0.030223	0.196059
970	0.190635	0.212166	0.039756	0.196717
971	0.191293	0.210687	0.042057	0.193594
972	0.187513	0.208715	0.049617	0.198031
973	0.191128	0.213317	0.057671	0.204277
974	0.189156	0.215289	0.061615	0.197538
975	0.189978	0.213152	0.068189	0.199839
976	0.188992	0.217097	0.071312	0.198031
977	0.191293	0.21233	0.079201	0.198031
978	0.188992	0.216111	0.082982	0.196388
979	0.191128	0.215125	0.088405	0.199182
980	0.190964	0.212002	0.091692	0.192279
981	0.190307	0.214467	0.098924	0.200497
982	0.191786	0.217261	0.097445	0.193265
983	0.191457	0.21233	0.105334	0.199839
984	0.194744	0.212988	0.108293	0.195566
985	0.193594	0.216768	0.111251	0.196388
986	0.193922	0.216439	0.117661	0.200332
987	0.192115	0.21381	0.115853	0.20099
988	0.194744	0.216439	0.125057	0.198689
989	0.190142	0.214303	0.130316	0.20099
990	0.195566	0.214467	0.13196	0.199675
991	0.190471	0.213481	0.133275	0.19836
992	0.19721	0.214467	0.137384	0.201483
993	0.196388	0.217754	0.138534	0.199346
994	0.192608	0.215453	0.140506	0.201319
995	0.192772	0.215125	0.142643	0.198524
996	0.193758	0.215125	0.150368	0.200497
997	0.193594	0.215946	0.012472	0.198196
998	0.192608	0.213645	0.017896	0.197867
999	0.19573	0.21759	0.028744	0.193594
1000	0.196552	0.213645	0.037619	0.199511
1001	0.19458	0.217261	0.045508	0.198524
1002	0.196881	0.214138	0.051425	0.19836
1003	0.196717	0.215618	0.059478	0.200825
1004	0.194909	0.214138	0.0603	0.201647
1005	0.195073	0.213974	0.068189	0.201154
1006	0.194251	0.210851	0.074271	0.203291
1007	0.198196	0.215946	0.058328	0.201812
1008	0.193429	0.21118	0.057342	0.200825
1009	0.196059	0.212495	0.066217	0.203948
1010	0.194909	0.215453	0.074599	0.198853
1011	0.189485	0.211837	0.078544	0.20099
1012	0.19721	0.214631	0.082817	0.198853
1013	0.197867	0.206742	0.087748	0.200168
1014	0.197538	0.219069	0.094158	0.199182
1015	0.196717	0.21381	0.098431	0.20099
1016	0.196388	0.213974	0.103526	0.199182
1017	0.199018	0.214138	0.106156	0.199182
1018	0.202469	0.214138	0.112073	0.198689
1019	0.199675	0.213645	0.113881	0.199839
1020	0.196552	0.209043	0.117168	0.201976
1021	0.196552	0.215453	0.119469	0.197374
1022	0.199675	0.21118	0.12555	0.202305
1023	0.19721	0.209372	0.128015	0.203455
1024	0.199839	0.208222	0.132617	0.204934
1025	0.198524	0.212988	0.135576	0.200825
1026	0.199346	0.208222	0.140671	0.206907
1027	0.202469	0.214303	0.141657	0.200497
1028	0.19836	0.211016	0.146916	0.202633
1029	0.200661	0.212166	0.147738	0.204441
1030	0.199675	0.211016	0.146752	0.199346
1031	0.19836	0.212495	0.149053	0.200497
1032	0.197867	0.212988	0.152011	0.192443
1033	0.199182	0.213317	0.153326	0.20214
1034	0.199018	0.214303	0.155463	0.197374
1035	0.199839	0.213317	0.156449	0.201154
1036	0.197703	0.216111	0.159901	0.198853
1037	0.198689	0.212002	0.16138	0.203291
1038	0.200497	0.213974	0.156942	0.201647
1039	0.203291	0.210358	0.165489	0.202469
1040	0.200332	0.209536	0.166146	0.20362
1041	0.20099	0.207893	0.168612	0.204113
1042	0.198853	0.209372	0.16894	0.204934
1043	0.197045	0.205099	0.172063	0.20099
1044	0.20362	0.21118	0.170748	0.199182
1045	0.197045	0.209536	0.172556	0.204113
1046	0.197374	0.207893	0.1742	0.201976
1047	0.200332	0.20855	0.175515	0.203784
1048	0.197867	0.209372	0.174364	0.202305
1049	0.200168	0.210029	0.177158	0.201812
1050	0.201483	0.2074	0.184061	0.202305
1051	0.198689	0.209208	0.178309	0.202798
1052	0.200825	0.209043	0.182746	0.201976
1053	0.197045	0.208386	0.176665	0.203291
1054	0.19573	0.206578	0.182746	0.200004
1055	0.196223	0.207235	0.178966	0.201812
1056	0.19836	0.205921	0.180445	0.203948
1057	0.200497	0.207564	0.183897	0.20477
1058	0.198853	0.208386	0.184061	0.205592
1059	0.200168	0.209536	0.182746	0.203784
1060	0.197867	0.205921	0.181267	0.205592
1061	0.203291	0.206085	0.187677	0.203291
1062	0.199182	0.206249	0.186855	0.203455
1063	0.202633	0.205427	0.191128	0.204113
1064	0.200497	0.205921	0.187184	0.205099
1065	0.201976	0.203126	0.188334	0.20214
1066	0.202305	0.207071	0.191293	0.201812
1067	0.205592	0.204113	0.18932	0.203784
1068	0.19721	0.204277	0.189978	0.20099
1069	0.199182	0.203784	0.190142	0.203948
1070	0.196881	0.207071	0.188334	0.201154
1071	0.200168	0.207728	0.194909	0.201483
1072	0.199675	0.212002	0.189649	0.201319
1073	0.200332	0.204441	0.193265	0.206907
1074	0.202469	0.206085	0.194251	0.206085
1075	0.200661	0.205263	0.192443	0.204606
1076	0.201812	0.205921	0.195073	0.202962
1077	0.205099	0.202798	0.197374	0.205263
1078	0.20099	0.205756	0.193758	0.202633
1079	0.199839	0.202962	0.19573	0.203948
1080	0.201154	0.204113	0.19573	0.205592
1081	0.199018	0.206249	0.19458	0.203455
1082	0.203784	0.202798	0.197538	0.199839
1083	0.201319	0.207564	0.195237	0.20362
1084	0.200661	0.20477	0.198031	0.205921
1085	0.19836	0.206742	0.196059	0.20214
1086	0.203126	0.206742	0.196388	0.199182
1087	0.197045	0.206578	0.195566	0.200497
1088	0.197703	0.203455	0.201319	0.202469
1089	0.199839	0.205921	0.194744	0.196059
1090	0.199346	0.200825	0.197045	0.20362
1091	0.200332	0.200661	0.196223	0.201812
1092	0.199675	0.203455	0.199182	0.199675
1093	0.153984	0.201319	0.200661	0.202305
1094	0.044851	0.201976	0.200332	0.202633
1095	0.025621	0.207564	0.200168	0.201483
1096	0.028086	0.201647	0.199346	0.199675
1097	0.013952	0.20214	0.199839	0.206907
1098	0.009843	0.202633	0.198689	0.199839
1099	0.018061	0.201154	0.202962	0.201483
1100	0.025128	0.202633	0.20214	0.202305
1101	0.034496	0.20214	0.204934	0.201154
1102	0.039427	0.203455	0.201812	0.196552
1103	0.045672	0.201319	0.199346	0.202305
1104	0.050439	0.205263	0.202633	0.193101
1105	0.056684	0.201976	0.200497	0.198853
1106	0.064409	0.205099	0.205099	0.199675
1107	0.069504	0.201483	0.19836	0.199346
1108	0.077558	0.202469	0.199839	0.197045
1109	0.077065	0.204441	0.202633	0.196717
1110	0.089391	0.200332	0.203126	0.200168
1111	0.095473	0.200825	0.197867	0.198196
1112	0.102704	0.20099	0.203455	0.199182
1113	0.097774	0.201154	0.202305	0.196059
1114	0.102211	0.201812	0.203948	0.199182
1115	0.103855	0.202633	0.202962	0.194251
1116	0.096459	0.198031	0.207893	0.197703
1117	0.011486	0.201483	0.203455	0.197538
1118	0.017074	0.196388	0.205099	0.196388
1119	0.027429	0.200332	0.206414	0.196059
1120	-0.000183	0.197867	0.209208	0.196059
1121	-0.002648	0.199182	0.203126	0.195566
1122	0.008363	0.194416	0.206249	0.194416
1123	0.018225	0.204441	0.204277	0.19458
1124	0.023813	0.202305	0.204113	0.194416
1125	0.034496	0.201483	0.204113	0.197703
1126	0.035318	0.205756	0.203455	0.195402
1127	0.047973	0.200661	0.205263	0.199182
1128	0.053069	0.199511	0.204277	0.197538
1129	0.060465	0.200004	0.204934	0.197703
1130	0.068682	0.199839	0.20362	0.193922
1131	0.072134	0.199839	0.206742	0.196388
1132	0.078215	0.199675	0.204441	0.196881
1133	0.079037	0.199182	0.206085	0.200825
1134	0.086433	0.201154	0.205756	0.197703
1135	0.093829	0.200004	0.2074	0.198196
1136	0.095308	0.201319	0.205263	0.199675
1137	0.098924	0.197538	0.206414	0.200497
1138	0.10139	0.200497	0.209043	0.196388
1139	0.106156	0.200004	0.208386	0.196388
1140	0.111251	0.200168	0.203948	0.196059
1141	0.113881	0.197045	-0.016783	0.197703
1142	0.119962	0.200825	-0.005278	0.19836
1143	0.119633	0.200661	0.002611	0.197538
1144	0.125879	0.197867	0.012965	0.196223
1145	0.132453	0.202305	0.019375	0.196388
1146	0.132782	0.200497	0.029072	0.193594
1147	0.121934	0.201154	0.034003	0.203126
1148	0.128015	0.198031	0.045179	0.197374
1149	0.128508	0.200332	0.050932	0.198196
1150	0.133275	0.197703	0.058985	0.205099
1151	0.134754	0.198853	0.056684	0.199839
1152	0.13952	0.197374	0.059314	0.202469
1153	0.139192	0.198689	0.066546	0.198524
1154	0.141	0.198524	0.071477	0.198031
1155	0.143136	0.195073	0.075421	0.194251
1156	0.144287	0.198524	0.006391	0.198196
1157	0.147574	0.200004	0.011486	0.202305
1158	0.147409	0.199018	0.014773	0.196881
1159	0.151683	0.200497	0.03088	0.199346
1160	0.152505	0.200661	0.00935	0.19721
1161	0.159736	0.197045	0.020855	0.200004
1162	0.162202	0.199182	0.02595	0.199346
1163	0.164831	0.197374	0.036633	0.199839
1164	0.16138	0.200168	0.040249	0.197703
1165	0.164996	0.202633	0.047316	0.199018
1166	0.166146	0.198031	0.053726	0.198031
1167	0.168283	0.192608	0.061944	0.201319
1168	0.169105	0.199675	0.063587	0.199182
1169	0.167954	0.193594	0.070655	0.200661
1170	0.18061	0.197374	0.074271	0.199675
1171	0.169598	0.196388	0.079366	0.19836
1172	0.175021	0.193429	0.088405	0.194416
1173	0.176336	0.196223	0.086597	0.196059
1174	0.174857	0.201154	0.092514	0.199018
1175	0.173378	0.200004	0.095473	0.195402
1176	0.17798	0.197867	0.100239	0.198031
1177	0.177322	0.201483	0.100568	0.198196
1178	0.178637	0.200004	0.110429	0.201319
1179	0.17913	0.195237	0.108786	0.197374
1180	0.179295	0.199675	0.111087	0.19836
1181	0.183239	0.205263	0.116839	0.20099
1182	0.182089	0.200004	0.121441	0.199182
1183	0.183404	0.20099	0.124893	0.198689
1184	0.183568	0.198689	0.126865	0.202469
1185	0.186033	0.199511	0.073942	0.196388
1186	0.184554	0.19721	0.077558	0.198524
1187	0.192115	0.1908	0.081995	0.196717
1188	0.185705	0.193265	0.08216	0.196552
1189	0.18932	0.198524	0.092679	0.200332
1190	0.187348	0.199018	0.093007	0.198853
1191	0.186198	0.200825	0.095473	0.199511
1192	0.189156	0.201319	0.100732	0.198031
1193	0.190307	0.207728	0.106649	0.202305
1194	0.189156	0.201319	0.10895	0.198524
1195	0.189485	0.199511	0.11273	0.196881
1196	0.191786	0.203784	0.117496	0.196881
1197	0.190142	0.200825	0.119962	0.196552
1198	0.193265	0.202633	0.123249	0.19836
1199	0.192279	0.201319	0.126372	0.199675
1200	0.192772	0.20099	0.129823	0.203291
1201	0.192279	0.197703	0.132289	0.200168
1202	0.193265	0.199839	0.132289	0.200332
1203	0.194744	0.196717	0.136398	0.19458
1204	0.19573	0.196388	0.139849	0.202633
1205	0.194087	0.196552	0.138699	0.199675
1206	0.195895	0.198689	0.14478	0.203291
1207	0.196552	0.201154	0.149382	0.204606
1208	0.193429	0.200332	0.145437	0.197703
1209	0.192772	0.201647	0.148724	0.199511
1210	0.196552	0.20362	0.152505	0.200332
1211	0.192279	0.202305	0.152505	0.194251
1212	0.184883	0.199675	0.154641	0.201319
1213	0.186855	0.203291	0.155956	0.19836
1214	0.188334	0.203126	0.161709	0.199018
1215	0.190471	0.189649	0.15875	0.199511
1216	0.189485	0.197045	0.16516	0.199018
1217	0.192936	0.197374	0.164996	0.201483
1218	0.195073	0.19573	0.166639	0.20477
1219	0.196059	0.19721	0.167461	0.198689
1220	0.193594	0.19721	0.166968	0.197867
1221	0.194416	0.199675	0.171241	0.20214
1222	0.194251	0.201154	0.169105	0.19721
1223	0.195402	0.200825	0.175515	0.194909
1224	0.191457	0.201319	0.171899	0.199018
1225	0.199675	0.199018	0.178637	0.200661
1226	0.195237	0.19458	0.174857	0.196223
1227	0.19458	0.198196	0.177815	0.199675
1228	0.195566	0.200825	0.178637	0.200168
1229	0.194416	0.201976	0.179952	0.205099
1230	0.194416	0.202962	0.18061	0.194416
1231	0.193265	0.204113	0.178802	0.198031
1232	0.19836	0.201647	0.181596	0.199346
1233	0.195402	0.20099	0.179623	0.19721
1234	0.195895	0.201647	0.184225	0.197045
1235	0.192936	0.199346	0.184554	0.195237
1236	0.198853	0.202305	0.184061	0.196059
1237	0.196388	0.196388	0.188006	0.199839
1238	0.204606	0.204113	0.185047	0.20099
1239	0.19836	0.202798	0.183404	0.19836
1240	0.19836	0.199018	0.187184	0.208222
1241	0.197538	0.204441	0.183732	0.197045
1242	0.198853	0.200004	0.188334	0.202305
1243	0.19721	0.200004	0.184883	0.200497
1244	0.19573	0.200332	0.187513	0.201483
1245	0.196717	0.203948	0.188663	0.199018
1246	0.196552	0.200825	0.190142	0.200332
1247	0.200497	0.205427	0.188992	0.19836
1248	0.200004	0.200825	0.191293	0.197538
1249	0.198689	0.199839	0.191457	0.201154
1250	0.199182	0.201154	0.189814	0.199511
1251	0.199018	0.198196	0.194909	0.194909
1252	0.19721	0.200661	0.190471	0.200004
1253	0.199675	0.196717	0.19195	0.200332
1254	0.196223	0.199511	0.190307	0.199511
1255	0.200004	0.196223	0.192279	0.201976
1256	0.198196	0.204277	0.189814	0.200497
1257	0.197703	0.19836	0.195237	0.199675
1258	0.197045	0.201647	0.193594	0.197867
1259	0.198524	0.198689	0.193429	0.200661
1260	0.203291	0.197867	0.192443	0.201976
1261	0.199346	0.199511	0.19458	0.199018
1262	0.200168	0.201319	0.197538	0.187841
1263	0.200168	0.201154	0.194744	0.197867
1264	0.200661	0.202305	0.194251	0.198524
1265	0.19721	0.197703	0.192772	0.197867
1266	0.199839	0.196552	0.196717	0.197374
1267	0.199018	0.200332	0.193429	0.197867
1268	0.200168	0.197867	0.200168	0.200497
1269	0.199511	0.200661	0.200497	0.196388
1270	0.19458	0.197045	0.195073	0.200825
1271	0.19721	0.199839	0.193265	0.200825
1272	0.201319	0.199346	0.201647	0.200825
1273	0.197867	0.199346	0.196223	0.191621
1274	0.200004	0.198196	0.199346	0.198853
1275	0.202469	0.199675	0.195895	0.199018
1276	0.196881	0.196223	0.199511	0.198689
1277	0.199839	0.199182	0.196388	0.200168
1278	0.199182	0.196388	0.195566	0.199839
1279	0.201154	0.202305	0.199018	0.200332
1280	0.198524	0.201319	0.195402	0.198031
1281	0.201647	0.199675	0.196717	0.200497
1282	0.200004	0.197538	0.196552	0.198524
1283	0.200497	0.199839	0.19573	0.198853
1284	0.199511	0.201154	0.19836	0.194416
1285	0.19836	0.197703	0.199675	0.19721
1286	0.196881	0.200004	0.196388	0.198853
1287	0.198031	0.199018	0.199018	0.20099
1288	0.200661	0.199839	0.196552	0.196223
1289	0.200004	0.200332	0.198524	0.204277
1290	0.201976	0.199675	0.19836	0.201647
1291	0.201812	0.196552	0.201812	0.199182
1292	0.201483	0.201647	0.198689	0.202469
1293	0.198689	0.199018	0.199839	0.20362
1294	0.200497	0.194251	0.20362	0.206742
1295	0.198689	0.200168	0.201319	0.199675
1296	0.200825	0.199675	0.199839	0.201483
1297	0.199675	0.20362	0.199511	0.201812
1298	0.199839	0.199346	0.199511	0.200004
1299	0.199675	0.204441	0.198853	0.199182
1300	0.201154	0.202469	0.199511	0.199346
1301	0.200661	0.20099	0.201319	0.196717
1302	0.199839	0.200825	0.202633	0.19836
1303	0.200825	0.200004	0.197045	0.199018
1304	0.197374	0.201812	0.196388	0.205099
1305	0.201647	0.19836	0.19721	0.200004
1306	0.200825	0.197045	0.19721	0.19721
1307	0.200004	0.199018	0.198031	0.198031
1308	0.196223	0.196881	0.198689	0.200004
1309	0.201154	0.199839	0.200004	0.200497
1310	0.201976	0.195237	0.197867	0.197703
1311	0.203948	0.19836	0.201812	0.203455
1312	0.202633	0.200004	0.201812	0.200168
1313	0.205427	0.195895	0.202798	0.198853
1314	0.201647	0.200661	0.195402	0.199346
1315	0.201154	0.200661	0.196388	0.199839
1316	0.20099	0.198196	0.197703	0.197538
1317	0.201647	0.196223	0.201319	0.200004
1318	0.199346	0.198524	0.19573	0.199182
1319	0.20099	0.195073	0.199346	0.200661
1320	0.200332	0.195895	0.198031	0.196881
1321	0.201812	0.196717	0.199182	0.199018
1322	0.20362	0.19836	0.198853	0.203784
1323	0.204606	0.197867	0.201154	0.20362
1324	0.204441	0.199182	0.204441	0.202469
1325	0.198689	0.196881	0.201154	0.201319
1326	0.202633	0.199839	0.200332	0.203126
1327	0.200332	0.198689	0.207893	0.199839
1328	0.202305	0.195073	0.201976	0.201812
1329	0.200004	0.196059	0.197703	0.199018
1330	0.202962	0.19573	0.202469	0.199182
1331	0.20099	0.198524	0.200168	0.196223
1332	0.200661	0.191621	0.203291	0.198689
1333	0.200661	0.197374	0.199018	0.196388
1334	0.205099	0.198031	0.199839	0.198524
1335	0.207728	0.198853	0.200497	0.197703
1336	0.200661	0.197045	0.199839	0.205099
1337	0.203126	0.200497	0.20099	0.202305
1338	0.200332	0.198031	0.19836	0.200661
1339	0.202469	0.199675	0.198853	0.202469
1340	0.198196	0.199182	0.199346	0.200332
1341	0.200332	0.197045	0.200825	0.203291
1342	0.200004	0.197538	0.203455	0.200332
1343	0.202305	0.19721	0.201319	0.20099
1344	0.199018	0.19836	0.201154	0.202798
1345	0.204277	0.196717	0.202305	0.202305
1346	0.205592	0.197538	0.200825	0.199018
1347	0.204277	0.196388	0.203126	0.200661
1348	0.20362	0.205427	0.200661	0.199346
1349	0.200825	0.193594	0.201647	0.201976
1350	0.201154	0.190964	0.199675	0.198853
1351	0.200332	0.195895	0.199511	0.202633
1352	0.20099	0.19573	0.197867	0.20099
1353	0.200004	0.197867	0.199675	0.000803
1354	0.200168	0.200661	0.198689	0.010336
1355	0.200168	0.199018	0.199018	0.014938
1356	0.200004	0.201812	0.198853	0.025128
1357	0.204113	0.200332	0.197538	0.033346
1358	0.200825	0.199018	0.200661	0.044358
1359	0.198524	0.202305	0.19836	0.04896
1360	0.204277	0.196717	0.196552	0.053069
1361	0.2074	0.197538	0.20214	0.06293
1362	0.206414	0.19721	0.199839	0.069669
1363	0.202469	0.198689	0.203126	0.068189
1364	0.20099	0.19836	0.201154	0.0769
1365	0.204277	0.200332	0.200332	0.079037
1366	0.201319	0.197045	0.2074	0.085776
1367	0.20362	0.200004	0.199346	0.092514
1368	0.201319	0.197374	0.198196	0.092679
1369	0.180445	0.201812	0.200168	0.101225
1370	0.087255	0.197867	0.199511	0.105005
1371	0.096294	0.197538	0.199346	0.106978
1372	0.099089	0.198689	0.199839	0.109936
1373	0.102704	0.198853	0.200332	0.120126
1374	0.104184	0.200497	0.199839	0.119962
1375	0.108293	0.199511	0.200661	0.128015
1376	0.111908	0.200497	0.199511	0.128508
1377	0.117332	0.198689	0.201319	0.129166
1378	0.119797	0.194251	0.199675	0.132617
1379	0.123906	0.194251	0.199675	0.135083
1380	0.12933	0.197374	0.199511	0.134261
1381	0.131631	0.196388	0.204606	0.138699
1382	0.133439	0.197374	0.198196	0.141328
1383	0.136891	0.196717	0.20362	0.143136
1384	0.138699	0.200004	0.20214	0.146588
1385	0.141328	0.199511	0.199675	0.147245
1386	0.143465	0.199346	0.198853	0.153655
1387	0.146259	0.199018	0.199346	0.155792
1388	0.147409	0.199839	0.199346	0.153655
1389	0.146423	0.202305	0.200168	0.155134
1390	0.146095	0.200661	0.196059	0.158914
1391	0.152011	0.201812	0.199675	0.159243
1392	0.155134	0.199839	0.198689	0.159901
1393	0.156613	0.198689	0.196552	0.160887
1394	0.157764	0.198524	0.200004	0.16516
1395	0.159572	0.199675	0.199675	0.166146
1396	0.164338	0.198196	0.200661	0.166804
1397	0.163352	0.196717	0.201647	0.166968
1398	0.166146	0.196388	0.200497	0.172556
1399	0.167297	0.201319	0.201976	0.173542
1400	0.165817	0.200168	0.201483	0.171077
1401	0.168612	0.202633	0.197374	0.175515
1402	0.169105	0.200168	0.200825	0.176008
1403	0.171406	0.200004	0.200168	0.175515
1404	0.169598	0.199511	0.198689	0.179459
1405	0.171734	0.200661	0.200497	0.178637
1406	0.169762	0.199018	0.198524	0.184554
1407	0.172392	0.201976	0.198031	0.18061
1408	0.172885	0.201483	0.195073	0.178637
1409	0.170091	0.200825	0.199346	0.185212
1410	0.174693	0.200004	0.197538	0.180938
1411	0.179459	0.200004	0.197045	0.182582
1412	0.181267	0.200497	0.194744	0.181431
1413	0.184225	0.197703	0.199018	0.184554
1414	0.181596	0.199018	0.197703	0.184554
1415	0.183075	0.195237	0.196717	0.186198
1416	0.183897	0.199182	0.196717	0.186198
1417	0.181267	0.19458	0.200825	0.189814
1418	0.186362	0.196059	0.199346	0.188499
1419	0.182417	0.196388	0.197045	0.187019
1420	0.183075	0.197867	0.201812	0.189649
1421	0.185047	0.202633	0.198853	0.187513
1422	0.189156	0.199511	0.200332	0.193101
1423	0.180774	0.202469	0.19573	0.187677
1424	0.186526	0.201812	0.202962	0.186526
1425	0.185705	0.199346	0.198031	0.187841
1426	0.184718	0.199511	0.201647	0.191457
1427	0.188992	0.202962	0.199675	0.191786
1428	0.187184	0.199346	0.199182	0.190635
1429	0.18932	0.203291	0.200168	0.191786
1430	0.188663	0.203455	0.199346	0.191293
1431	0.189978	0.199675	0.201154	0.193265
1432	0.187348	0.19836	0.200004	0.195073
1433	0.189649	0.199182	0.199346	0.193594
1434	0.188992	0.197045	0.196881	0.190964
1435	0.194251	0.198853	0.20214	0.197374
1436	0.18817	0.201319	0.19836	0.192772
1437	0.196223	0.197703	0.20214	0.192443
1438	0.192279	0.200661	0.203126	0.192936
1439	0.188827	0.200004	0.198031	0.193758
1440	0.190471	0.199839	0.196223	0.193429
1441	0.191457	0.199018	0.202633	0.192115
1442	0.191293	0.198031	0.199511	0.191293
1443	0.192115	0.198524	0.200332	0.19573
1444	0.19721	0.204113	0.19573	0.192936
1445	0.194251	0.199511	0.191457	0.1908
1446	0.196552	0.20099	0.198524	0.198031
1447	0.194416	0.203126	0.199018	0.196717
1448	0.196552	0.200661	0.198524	0.196717
1449	0.197045	0.200332	0.201647	0.197867
1450	0.194909	0.199511	0.199018	0.19721
1451	0.19573	0.194744	0.200332	0.197538
1452	0.19573	0.195237	0.199675	0.200168
1453	0.195073	0.197045	0.196717	0.198853
1454	0.195402	0.199182	0.202798	0.196223
1455	0.195073	0.201647	0.196388	0.200825
1456	0.193265	0.200825	0.195073	0.197538
1457	0.193758	0.200168	0.198196	0.196552
1458	0.194416	0.199182	0.199839	0.196388
1459	0.196717	0.20099	0.194416	0.196717
1460	0.195073	0.199182	0.199675	0.198031
1461	0.190142	0.199675	0.199182	0.197867
1462	0.194251	0.20099	0.199182	0.196223
1463	0.199018	0.199018	0.201319	0.197045
1464	0.194416	0.202962	0.20099	0.197045
1465	0.19836	0.19458	0.203291	0.199182
1466	0.197703	0.201154	0.205099	0.198031
1467	0.198524	0.202633	0.198853	0.197703
1468	0.196552	0.196223	0.202962	0.20099
1469	0.197867	0.197867	0.20214	0.199839
1470	0.20099	0.200497	0.200332	0.197703
1471	0.20362	0.199182	0.203291	0.19836
1472	0.198031	0.199675	0.200004	0.199346
1473	0.19721	0.198524	0.20214	0.205099
1474	0.195402	0.19836	0.201647	0.200825
1475	0.196717	0.199675	0.200168	0.19573
1476	0.19458	0.200168	0.200168	0.197703
1477	0.197045	0.19836	0.200825	0.200168
1478	0.193922	0.19836	0.198031	0.199182
1479	0.201154	0.200825	0.199839	0.19836
1480	0.199675	0.201154	0.198853	0.200497
1481	0.198524	0.201647	0.198853	0.196223
1482	0.200332	0.201319	0.203784	0.19721
1483	0.195237	0.200332	0.199182	0.199346
1484	0.197538	0.200168	0.20099	0.19721
1485	0.19836	0.19836	0.200332	0.195402
1486	0.199675	0.199675	0.203455	0.200004
1487	0.198853	0.202962	0.200168	0.198853
1488	0.200004	0.198689	0.202469	0.201483
1489	0.199511	0.200497	0.200825	0.19836
1490	0.200497	0.197867	0.202305	0.205921
1491	0.198524	0.199839	0.197867	0.198196
1492	0.200168	0.198524	0.204934	0.197703
1493	0.194416	0.199675	0.202798	0.198524
1494	0.198524	0.201154	0.20214	0.199675
1495	0.200661	0.200661	0.198031	0.198524
1496	0.197045	0.201976	0.201319	0.199018
1497	0.20099	0.201812	0.19836	0.199675
1498	0.196223	0.200661	0.199018	0.196388
1499	0.202469	0.201647	0.202469	0.20099
1500	0.198196	0.198853	0.199839	0.198031
1501	0.199675	0.201812	0.20099	0.201319
1502	0.201154	0.205099	0.200332	0.200497
1503	0.198853	0.198524	0.202798	0.202633
1504	0.187513	0.203126	0.201154	0.19836
1505	0.197374	0.198689	0.198853	0.200661
1506	0.200004	0.200004	0.199346	0.199511
1507	0.197045	0.198853	0.203126	0.199839
1508	0.199346	0.19836	0.199511	0.198524
1509	0.198524	0.201812	0.199511	0.200497
1510	0.203126	0.199839	0.194416	0.200168
1511	0.197703	0.201812	0.202633	0.201154
1512	0.200497	0.201812	0.201647	0.203291
1513	0.197538	0.20099	0.201976	0.197045
1514	0.200332	0.202633	0.201976	0.19836
1515	0.198853	0.200825	0.197703	0.193922
1516	0.197045	0.196717	0.198524	0.203948
1517	0.200497	0.199675	0.194087	0.197538
1518	0.201154	0.201154	0.201976	0.197045
1519	0.204113	0.200497	0.199346	0.200168
1520	0.199675	0.200825	0.201154	0.199839
1521	0.201647	0.200825	0.202469	0.201976
1522	0.199182	0.193101	0.202469	0.199839
1523	0.201483	0.204934	0.201483	0.200825
1524	0.193758	0.201647	0.203784	0.200004
1525	0.20099	0.200332	0.203291	0.201319
1526	0.197538	0.208057	0.199839	0.198689
1527	0.199839	0.197867	0.19721	0.201319
1528	0.202469	0.204113	0.198853	0.19721
1529	0.200332	0.201483	0.201154	0.193429
1530	0.200661	0.196388	0.199346	0.193758
1531	0.202305	0.202305	0.200497	0.195895
1532	0.196388	0.205592	0.199018	0.195895
1533	0.199018	0.20099	0.20214	0.195895
1534	0.200825	0.204934	0.203126	0.200661
1535	0.196388	0.204606	0.200332	0.198853
1536	0.202962	0.201319	0.201319	0.201319
1537	0.202305	0.200497	0.203784	0.201154
1538	0.199839	0.20214	0.199675	0.20214
1539	0.200168	0.201976	0.202305	0.199182
1540	0.202305	0.202633	0.199018	0.199511
1541	0.201154	0.199182	0.198031	0.198524
1542	0.202962	0.202633	0.199511	0.20214
1543	0.200661	0.202798	0.198196	0.199182
1544	0.198524	0.203126	0.198853	0.199839
1545	0.199346	0.203455	0.203455	0.199675
1546	0.200004	0.202469	0.205263	0.201319
1547	0.201976	0.199839	0.199839	0.197374
1548	0.200825	0.199511	0.203948	0.202305
1549	0.200497	0.202633	0.199511	0.199018
1550	0.198524	0.201154	0.201976	0.198853
1551	0.202962	0.203291	0.197703	0.197374
1552	0.200168	0.202469	0.202305	0.199182
1553	0.205427	0.200332	0.200332	0.19836
1554	0.199675	0.201647	0.20099	0.199511
1555	0.19836	0.19721	0.201154	0.197538
1556	0.200825	0.200332	0.201483	0.200004
1557	0.203126	0.202305	0.200661	0.200497
1558	0.199675	0.199346	0.199346	0.20099
1559	0.202469	0.20099	0.199675	0.202633
1560	0.203291	0.20214	0.198031	0.199182
1561	0.204606	0.200825	0.201647	0.201976
1562	0.204277	0.203948	0.199018	0.199018
1563	0.204277	0.200825	0.198524	0.201319
1564	0.202305	0.204606	0.199839	0.199346
1565	0.202305	0.201647	0.202305	0.19836
1566	0.200332	0.204934	0.196717	0.201319
1567	0.204113	0.198689	0.201976	0.198524
1568	0.201812	0.202305	0.204277	0.199018
1569	0.20099	0.200497	0.202798	0.199675
1570	0.203784	0.20099	0.203948	0.199346
1571	0.203291	0.20099	0.204277	0.201319
1572	0.203291	0.20099	0.203126	0.19836
1573	0.201976	0.199018	0.201976	0.197538
1574	0.201976	0.203455	0.20099	0.20099
1575	0.202633	0.199675	0.200825	0.199675
1576	0.206249	0.199182	0.202469	0.200332
1577	0.200497	0.200825	0.200004	0.198031
1578	0.205756	0.199675	0.202962	0.205263
1579	0.204934	0.202305	0.202305	0.202633
1580	0.203291	0.19836	0.202633	0.199182
1581	0.206742	0.199511	0.207893	0.195073
1582	0.203291	0.196552	0.199839	0.199675
1583	0.206578	0.202798	0.200332	0.194909
1584	0.202633	0.200332	0.203455	0.197867
1585	0.203784	0.202962	0.200004	0.198689
1586	0.201154	0.202305	0.203455	0.199839
1587	0.204606	0.202962	0.201647	0.19836
1588	0.199839	0.199675	0.199346	0.198524
1589	0.20362	0.200332	0.202305	0.20362
1590	0.203291	0.201647	0.202305	0.200168
1591	0.203455	0.20099	0.203455	0.199675
1592	0.20099	0.197374	0.206249	0.200661
1593	0.204934	0.199346	0.200004	0.20099
1594	0.203126	0.202962	0.199511	0.198524
1595	0.205263	0.19836	0.199346	0.20099
1596	0.202798	0.200497	0.201976	0.200168
1597	0.202633	0.19573	0.202633	0.201647
1598	0.204113	0.200661	0.200168	0.198853
1599	0.200168	0.200825	0.20099	0.195895
1600	0.201647	0.200168	0.201319	0.196388
1601	0.202305	0.201483	0.199182	0.201483
1602	0.200661	0.197374	0.200332	0.199839
1603	0.199675	0.195895	0.194909	0.19836
1604	0.204277	0.199839	0.196223	0.200168
1605	0.196388	0.199839	0.197045	0.19836
1606	0.198196	0.199675	0.191293	0.200168
1607	0.201976	0.201812	-0.000183	0.19721
1608	0.201154	0.200332	0.015102	0.201154
1609	0.196717	0.201319	0.022827	0.200497
1610	0.200004	0.200497	0.032688	0.201976
1611	0.19573	0.203126	0.036633	0.201976
1612	0.201647	0.199018	0.04633	0.202798
1613	0.201319	0.200661	0.052411	0.199511
1614	0.199018	0.196223	0.050932	0.201154
1615	0.203455	0.196059	0.063916	0.201647
1616	0.19836	0.19836	0.07575	0.19836
1617	0.198524	0.196059	0.0769	0.199346
1618	0.19573	0.196717	0.078544	0.19721
1619	0.197703	0.199839	0.085118	0.198689
1620	0.195895	0.199346	0.091692	0.199675
1621	0.196881	0.199182	0.097609	0.197538
1622	0.196388	0.199839	0.101061	0.198031
1623	0.199018	0.197703	0.109114	0.203784
1624	0.19721	0.201319	0.105663	0.198853
1625	0.20362	0.195566	0.10895	0.199839
1626	0.202469	0.196881	0.117496	0.200497
1627	0.196388	0.195402	0.122427	0.202305
1628	0.197045	0.19721	0.127522	0.19836
1629	0.196881	0.196552	0.130645	0.199182
1630	0.20099	0.198853	0.134425	0.200497
1631	0.197045	0.19721	0.138699	0.201483
1632	0.19721	0.19573	0.141657	0.201647
1633	0.197703	0.195895	0.143794	0.200332
1634	0.197538	0.195566	0.146752	0.199018
1635	0.196552	0.194087	0.14856	0.196881
1636	0.196717	0.196223	0.151683	0.199346
1637	0.195237	0.198031	0.151683	0.197374
1638	0.195895	0.195895	0.155299	0.199511
1639	0.194416	0.203784	0.152833	0.196881
1640	0.194087	0.195566	0.155463	0.202962
1641	0.195566	0.199018	0.159736	0.199839
1642	0.196388	0.197374	0.161215	0.200825
1643	0.197867	0.196881	0.164174	0.198689
1644	0.199182	0.198524	0.168283	0.204606
1645	0.197867	0.198031	0.166311	0.202469
1646	0.197374	0.192936	0.16894	0.20214
1647	0.198196	0.197867	0.17272	0.200168
1648	0.196881	0.193429	0.171734	0.203784
1649	0.199018	0.195566	0.176172	0.198524
1650	0.191786	0.196059	0.177322	0.203784
1651	0.19573	0.19721	0.176665	0.198853
1652	0.197867	0.197703	0.178309	0.198196
1653	0.197374	0.199018	0.101554	0.200497
1654	0.193594	0.201154	0.104184	0.199675
1655	0.196717	0.198689	0.106813	0.202305
1656	0.192443	0.201319	0.112237	0.199675
1657	0.193429	0.196881	0.117496	0.200825
1658	0.197867	0.199018	0.119304	0.200332
1659	0.196881	0.196059	0.124235	0.203455
1660	0.19721	0.197703	0.129988	0.199018
1661	0.192772	0.197538	0.133603	0.200004
1662	0.197045	0.199839	0.134261	0.198853
1663	0.19573	0.196388	0.141493	0.201483
1664	0.196881	0.195895	0.145437	0.198196
1665	0.197703	0.194416	0.14856	0.201483
1666	0.199511	0.194416	0.150039	0.20362
1667	0.195895	0.194909	0.148724	0.186198
1668	0.202469	0.194087	0.151354	0.187184
1669	0.198031	0.196717	0.156449	0.186198
1670	0.199018	0.19721	0.156285	0.190635
1671	0.196059	0.197045	0.158093	0.188006
1672	0.198196	0.196717	0.161544	0.189649
1673	0.19721	0.199839	0.16138	0.187513
1674	0.196881	0.199839	0.166475	0.190471
1675	0.201647	0.200825	0.163681	0.190471
1676	0.199675	0.199675	0.167297	0.191457
1677	0.200497	0.201647	0.170255	0.195073
1678	0.19573	0.199839	0.171406	0.195237
1679	0.195566	0.196717	0.174693	0.191128
1680	0.201319	0.199511	0.082982	0.189814
1681	0.199346	0.19721	0.08857	0.193101
1682	0.197538	0.195402	0.091528	0.192115
1683	0.201647	0.198031	0.100568	0.192279
1684	0.199182	0.198689	0.098924	0.190142
1685	0.199182	0.190142	0.105827	0.194416
1686	0.198853	0.202469	0.109279	0.192772
1687	0.200004	0.197538	0.112401	0.194087
1688	0.19836	0.19721	0.003104	0.194909
1689	0.197538	0.201483	0.010336	0.196059
1690	0.199018	0.198031	0.013952	0.19458
1691	0.200332	0.199346	0.025457	0.195895
1692	0.196552	0.19721	0.032853	0.196388
1693	0.193594	0.198689	0.038276	0.193594
1694	0.197374	0.200004	0.044029	0.194744
1695	0.197538	0.199018	0.050439	0.197045
1696	0.198689	0.192772	0.05537	0.196717
1697	0.199182	0.200332	0.06408	0.197538
1698	0.200661	0.19721	0.068847	0.196881
1699	0.198031	0.19836	0.074271	0.203126
1700	0.20214	0.20099	0.080516	0.19458
1701	0.201154	0.196223	0.08331	0.195237
1702	0.199018	0.192772	0.087255	0.205427
1703	0.201154	0.199182	0.093829	0.20214
1704	0.197703	0.199675	0.093993	0.194744
1705	0.198689	0.196881	0.094651	0.199182
1706	0.19836	0.197538	0.100403	0.197703
1707	0.199511	0.197867	0.104019	0.196552
1708	0.193758	0.196388	0.107799	0.199839
1709	0.198524	0.201483	0.112237	0.199346
1710	0.19573	0.198853	0.115853	0.195566
1711	0.193429	0.205099	0.120455	0.197538
1712	0.199839	0.199182	0.120784	0.19836
1713	0.2074	0.196388	0.127358	0.199182
1714	0.199839	0.19836	0.131467	0.20099
1715	0.199511	0.19573	0.130152	0.195073
1716	0.20099	0.196388	0.13196	0.195566
1717	0.20099	0.197538	0.135083	0.198196
1718	0.200332	0.195237	0.135247	0.194087
1719	0.197703	0.196059	0.146095	0.196881
1720	0.20099	0.198196	0.138041	0.199511
1721	0.199018	0.196223	0.145437	0.200825
1722	0.202798	0.20362	0.142479	0.199018
1723	0.198524	0.190635	0.145273	0.199675
1724	0.198524	0.200168	0.147081	0.198689
1725	0.200168	0.200004	0.151025	0.190471
1726	0.197374	0.200825	0.146423	0.197045
1727	0.197703	0.200497	0.150204	0.196552
1728	0.201154	0.200661	0.151683	0.196881
1729	0.199182	0.200004	0.154148	0.196223
1730	0.199018	0.20099	0.156449	0.193265
1731	0.197374	0.204277	0.155463	0.190307
1732	0.200168	0.197703	0.155792	0.191293
1733	0.199346	0.204606	0.160065	0.196223
1734	0.199675	0.197703	0.159736	0.197374
1735	0.201154	0.198031	0.159408	0.197867
1736	0.198524	0.196881	0.166475	0.186362
1737	0.199182	0.199018	0.161544	0.19721
1738	0.19836	0.198689	0.165489	0.199182
1739	0.200004	0.19836	0.165489	0.198853
1740	0.196223	0.197045	0.16516	0.19836
1741	0.197867	0.198689	0.168776	0.196881
1742	0.198524	0.205263	0.166475	0.200332
1743	0.20099	0.200168	0.166804	0.196552
1744	0.198524	0.205756	0.169105	0.195566
1745	0.20099	0.197374	0.169926	0.198524
1746	0.198524	0.197374	0.166968	0.19573
1747	0.200661	0.198853	0.174857	0.190142
1748	0.196552	0.201483	0.171241	0.193594
1749	0.199182	0.196717	0.172227	0.195566
1750	0.199839	0.199018	0.174857	0.193265
1751	0.200332	0.197867	0.176008	0.201812
1752	0.19573	0.199018	0.174857	0.199182
1753	0.198031	0.19721	0.178802	0.200661
1754	0.201647	0.196717	0.17798	0.197374
1755	0.196552	0.196552	0.179459	0.201319
1756	0.20099	0.197538	0.180116	0.200661
1757	0.196717	0.198524	0.177815	0.19573
1758	0.19721	0.198524	0.180445	0.199018
1759	0.19458	0.200661	0.177651	0.195566
1760	0.19836	0.198853	0.181431	0.199018
1761	0.196881	0.198031	0.185212	0.19836
1762	0.197867	0.199511	0.182582	0.198689
1763	0.19836	0.20099	0.184554	0.195237
1764	0.199675	0.197538	0.185212	0.198196
1765	0.199346	0.199182	0.186033	0.196881
1766	0.199511	0.196223	0.186198	0.19836
1767	0.200661	0.199511	0.183897	0.198196
1768	0.203784	0.198031	0.188334	0.199018
1769	0.197045	0.195895	0.184883	0.198031
1770	0.200661	0.194416	0.184883	0.198689
1771	0.20099	0.197374	0.18554	0.201154
1772	0.198031	0.200497	0.189156	0.20099
1773	0.203948	0.197045	0.188827	0.199182
1774	0.19573	0.199839	0.186526	0.199182
1775	0.20099	0.198524	0.188992	0.200661
1776	0.199675	0.199675	0.19195	0.201647
1777	0.20099	0.193922	0.1908	0.199346
1778	0.19721	0.198031	0.190307	0.19573
1779	0.199018	0.199511	0.191128	0.196717
1780	0.201319	0.199346	0.189156	0.196059
1781	0.197867	0.202305	0.19195	0.200497
1782	0.197703	0.200004	0.187841	0.193594
1783	0.198689	0.19573	0.190964	0.196059
1784	0.199675	0.201483	0.190142	0.199675
1785	0.198853	0.198689	0.189814	0.200004
1786	0.200004	0.19836	0.191786	0.199018
1787	0.200661	0.197538	0.193265	0.20099
1788	0.20099	0.190142	0.190142	0.200497
1789	0.196881	0.19721	0.192443	0.20362
1790	0.201812	0.196388	0.192608	0.202798
1791	0.197703	0.199182	0.191786	0.199839
1792	0.199511	0.196881	0.194416	0.20099
1793	0.199346	0.196059	0.191786	0.19836
1794	0.197538	0.198031	0.192115	0.200661
1795	0.198524	0.197703	0.190964	0.198853
1796	0.200332	0.195073	0.193594	0.198196
1797	0.199182	0.202633	0.188827	0.19836
1798	0.19836	0.199346	0.192936	0.195237
1799	0.198853	0.188663	0.19195	0.196881
1800	0.199346	0.19721	0.191786	0.199018
1801	0.200004	0.196881	0.194251	0.196717
1802	0.200332	0.19836	0.195237	0.195895
1803	0.200168	0.199182	0.197538	0.197867
1804	0.200168	0.196223	0.195402	0.200332
1805	0.199182	0.200168	0.193758	0.196881
1806	0.197867	0.201812	0.19195	0.199839
1807	0.200004	0.200332	0.196717	0.203455
1808	0.197867	0.199346	0.192936	0.198524
1809	0.197867	0.19721	0.196881	0.201812
1810	0.198196	0.18817	0.194251	0.200825
1811	0.200825	0.197867	0.196223	0.199511
1812	0.201976	0.198031	0.200825	0.199839
1813	0.199839	0.196552	0.198689	0.196881
1814	0.200004	0.19721	0.195566	0.198196
1815	0.200332	0.196881	0.19836	0.198031
1816	0.196881	0.199018	0.194251	0.197045
1817	0.200004	0.200497	0.193758	0.198196
1818	0.20477	0.197045	0.197045	0.19836
1819	0.194909	0.20362	0.193265	0.201154
1820	0.192279	0.203291	0.195237	0.20099
1821	0.200825	0.196059	0.199018	0.199839
1822	0.201976	0.20362	0.198524	0.201976
1823	0.200332	0.202962	0.200004	0.200825
1824	0.206578	0.202469	0.200825	0.202305
1825	0.198196	0.202305	0.196388	0.199511
1826	0.197703	0.199182	0.199675	0.205263
1827	0.202962	0.202633	0.197374	0.200332
1828	0.198853	0.199675	0.199511	0.200332
1829	0.197867	0.201812	0.199675	0.199675
1830	0.193922	0.203126	0.197538	0.200332
1831	0.199511	0.206085	0.19458	0.200004
1832	0.200168	0.198689	0.197867	0.202305
1833	0.201812	0.201154	0.196552	0.19721
1834	0.201319	0.200168	0.19836	0.202798
1835	0.202962	0.204441	0.199018	0.200661
1836	0.193594	0.201976	0.196717	0.198689
1837	0.195402	0.201647	0.197867	0.200497
1838	0.19573	0.201976	0.195566	0.199018
1839	0.195895	0.200332	0.198031	0.203126
1840	0.199018	0.201647	0.196223	0.198689
1841	0.199511	0.200497	0.199675	0.203126
1842	0.198689	0.203291	0.19836	0.198689
1843	0.200825	0.199346	0.199511	0.201976
1844	0.200825	0.19836	0.198031	0.200004
1845	0.199018	0.197538	0.199675	0.20099
1846	0.200004	0.196223	0.193922	0.200825
1847	0.19836	0.20362	0.19573	0.194744
1848	0.199346	0.20099	0.196552	0.195895
1849	0.197867	0.200004	0.197867	0.200661
1850	0.203126	0.20099	0.194416	0.20099
1851	0.197374	0.201319	0.198031	0.199839
1852	0.200497	0.203455	0.19836	0.202962
1853	0.198524	0.203784	0.198524	0.201483
1854	0.197045	0.200661	0.199675	0.202305
1855	0.197703	0.204606	0.195895	0.200825
1856	0.199839	0.202633	0.197538	0.201483
1857	0.197045	0.200661	0.197374	0.201154
1858	0.197867	0.19836	0.204934	0.200825
1859	0.199511	0.204277	0.19836	0.198031
1860	0.199839	0.197703	0.199346	0.200332
1861	0.202305	0.200168	0.200168	0.201483
1862	0.19836	0.200661	0.201976	0.20099
1863	0.202469	0.198853	0.200168	0.20099
1864	0.199839	0.197867	0.199839	0.199346
1865	0.201483	0.197374	0.198853	0.200825
1866	0.199018	0.199346	0.200168	0.199346
1867	0.207071	0.199182	0.19836	0.201319
1868	0.203784	0.202633	0.197703	0.205263
1869	0.201154	0.200497	0.199675	0.199182
1870	0.198689	0.200168	0.197374	0.196388
1871	0.199511	0.201483	0.204113	0.201154
1872	0.201976	0.20362	0.203784	0.20099
1873	0.200004	0.201154	0.201154	0.199511
1874	0.199839	0.201812	0.199839	0.199675
1875	0.203291	0.202305	0.20099	0.197374
1876	0.200661	0.200661	0.199018	0.196717
1877	0.203455	0.197538	0.202305	0.201647
1878	0.199018	0.199675	0.197374	0.200497
1879	0.19836	0.199182	0.201319	0.200661
1880	0.201976	0.202633	0.19836	0.193758
1881	0.19458	0.202633	0.198196	0.198031
1882	0.204441	0.200825	0.199346	0.202962
1883	0.199346	0.203126	0.19836	0.199511
1884	0.199182	0.202798	0.200825	0.197703
1885	0.198524	0.204277	0.199182	0.19721
1886	0.199018	0.202798	0.203126	0.198524
1887	0.195566	0.204277	0.200332	0.199675
1888	0.201812	0.199182	0.199018	0.201154
1889	0.204934	0.20099	0.200661	0.199182
1890	0.198524	0.200332	0.19836	0.19721
1891	0.199675	0.204277	0.197867	0.195073
1892	0.200661	0.200332	0.198524	0.20099
1893	0.199018	0.200661	0.199018	0.19836
1894	0.199018	0.20214	0.200332	0.200825
1895	0.202633	0.205592	0.19721	0.201812
1896	0.199675	0.198031	0.192608	0.19836
1897	0.201976	0.197703	0.200825	0.198524
1898	0.201154	0.200004	0.200332	0.204606
1899	0.202633	0.198524	0.199182	0.202469
1900	0.199346	0.201647	0.199511	0.200661
1901	0.199675	0.203455	0.201483	0.203948
1902	0.198853	0.19836	0.198031	0.199839
1903	0.199018	0.199675	0.197703	0.202305
1904	0.196717	0.203291	0.196388	0.195237
1905	0.197045	0.198689	0.199675	0.198853
1906	0.200168	0.202633	0.197867	0.198031
1907	0.196552	0.197538	0.195402	0.196223
1908	0.200004	0.200004	0.198196	0.197045
1909	0.198853	0.199346	0.201319	0.198689
1910	0.200004	0.199346	0.199346	0.20214
1911	0.200661	0.19836	0.203126	0.197538
1912	0.200168	0.201154	0.19836	0.200661
1913	0.199182	0.200168	0.206742	0.198853
1914	0.203291	0.198196	0.199018	0.203291
1915	0.199675	0.19836	0.198853	0.19721
1916	0.199182	0.198524	0.204934	0.200825
1917	0.197045	0.204113	0.19721	0.198689
1918	0.196388	0.198853	0.203948	0.199675
1919	0.201319	0.201647	0.201154	0.200825
1920	0.201154	0.197867	0.20099	0.199018
1921	0.199675	0.199018	0.200825	0.199675
1922	0.200825	0.199839	0.198689	0.199511
1923	0.199346	0.201976	0.197703	0.196552
1924	0.198524	0.197538	0.199346	0.018718
1925	0.201319	0.20099	0.199182	0.008035
1926	0.198196	0.200661	0.198031	0.01576
1927	0.200661	0.197703	0.197703	0.024635
1928	0.197703	0.201647	0.201483	0.032688
1929	0.202633	0.198689	0.199675	0.040577
1930	0.201976	0.200497	0.199675	0.044029
1931	0.202305	0.193922	0.201647	0.050274
1932	0.200332	0.201976	0.199018	0.057342
1933	0.201483	0.196388	0.201647	0.065888
1934	0.198689	0.198524	0.200825	0.06671
1935	0.198853	0.197045	0.200661	0.076243
1936	0.201319	0.197867	0.201976	0.078873
1937	0.203291	0.19573	0.202305	0.083639
1938	0.199018	0.197538	0.19721	0.088734
1939	0.191128	0.196388	0.200332	0.094158
1940	0.202962	0.19721	0.198853	0.097774
1941	0.195895	0.196881	0.201319	0.100896
1942	0.199182	0.198031	0.19573	0.108128
1943	0.200168	0.198689	0.199018	0.110758
1944	0.198524	0.193101	0.199018	0.116346
1945	0.199675	0.197045	0.19721	0.118976
1946	0.202305	0.191128	0.197538	0.123578
1947	0.201154	0.194251	0.197703	0.127358
1948	0.199675	0.194744	0.200497	0.127851
1949	0.19836	0.196059	0.198689	0.135247
1950	0.200661	0.193429	0.201812	0.133768
1951	0.202469	0.19721	0.200661	0.137877
1952	0.200497	0.196552	0.202633	0.138863
1953	0.200825	0.19573	0.201647	0.140013
1954	0.198031	0.199346	0.197374	0.143301
1955	0.199182	0.197867	0.197045	0.144287
1956	0.19836	0.196388	0.198524	0.148231
1957	0.198689	0.192936	0.197703	0.14971
1958	0.196059	0.195566	0.194416	0.152833
1959	0.199346	0.197374	0.197538	0.153162
1960	0.198031	0.198196	0.197867	0.154477
1961	0.197538	0.19836	0.197045	0.159079
1962	0.200004	0.199018	0.199346	0.157928
1963	0.200332	0.198031	0.206578	0.160887
1964	0.198853	0.199018	0.199839	0.162202
1965	0.204113	0.200168	0.202962	0.165489
1966	0.201319	0.196552	0.206907	0.163845
1967	0.203291	0.195895	0.200004	0.169926
1968	0.202633	0.195895	0.193758	0.16894
1969	0.195402	0.194909	0.202798	0.171077
1970	0.199346	0.193922	0.200004	0.170584
1971	0.196717	0.19721	0.201319	0.16894
1972	0.198853	0.19836	0.19721	0.171734
1973	0.199511	0.197703	0.195566	0.172392
1974	0.200825	0.199839	0.200332	0.173707
1975	0.198031	0.199182	0.196388	0.17798
1976	0.20099	0.20099	0.19721	0.17798
1977	0.198196	0.199018	0.197374	0.177322
1978	0.200497	0.199182	0.20214	0.178473
1979	0.200661	0.200497	0.197867	0.178144
1980	0.197538	0.196223	0.198853	0.177487
1981	0.199675	0.197703	0.199018	0.172392
1982	0.200497	0.195402	0.201483	0.177651
1983	0.200168	0.201812	0.196059	0.180281
1984	0.196223	0.196881	0.205592	0.182089
1985	0.205756	0.19836	0.19836	0.183239
1986	0.197374	0.19836	0.199182	0.186362
1987	0.196388	0.19836	0.199346	0.184225
1988	0.197703	0.196881	0.19836	0.182746
1989	0.202633	0.19573	0.201319	0.185047
1990	0.20099	0.198853	0.196881	0.187841
1991	0.201319	0.196223	0.199182	0.185212
1992	0.197538	0.198689	0.197538	0.188827
1993	0.201647	0.196552	0.196388	0.18817
1994	0.196223	0.199182	0.199346	0.185212
1995	0.200825	0.197703	0.198196	0.190142
1996	0.195073	0.199346	0.201483	0.185376
1997	0.198031	0.196223	0.200497	0.192608
1998	0.202305	0.193922	0.198524	0.18817
1999	0.199018	0.195237	0.200497	0.187513
2000	0.202305	0.194251	0.201812	0.191128
2001	0.199346	0.194087	0.201154	0.195073
2002	0.200332	0.193429	0.199675	0.188992
2003	0.197867	0.193758	0.200332	0.188334
2004	0.200332	0.195566	0.199346	0.191786
2005	0.197703	0.195073	0.195073	0.196881
2006	0.197045	0.193101	0.198031	0.189156
2007	0.197538	0.199511	0.19721	0.1908
2008	0.199182	0.196388	0.196717	0.197374
2009	0.195566	0.201154	0.195895	0.193758
2010	0.198031	0.19721	0.19836	0.190635
2011	0.200004	0.199675	0.196388	0.192443
2012	0.196388	0.196223	0.198031	0.194087
2013	0.199018	0.196388	0.197703	0.187677
2014	0.19721	0.196059	0.200497	0.192115
2015	0.196552	0.196717	0.198524	0.192279
2016	0.198689	0.195402	0.20099	0.192608
2017	0.199182	0.199346	0.201812	0.194416
2018	0.198689	0.200825	0.199018	0.194416
2019	0.201812	0.200661	0.199511	0.195566
2020	0.200332	0.198031	0.201154	0.194416
2021	0.200168	0.197703	0.201976	0.195895
2022	0.200825	0.200332	0.201319	0.193758
2023	0.200004	0.196717	0.200168	0.195237
2024	0.197374	0.198031	0.199018	0.192279
2025	0.199018	0.198031	0.198853	0.195073
2026	0.199182	0.197703	0.201812	0.193101
2027	0.200825	0.200332	0.200825	0.196059
2028	0.197867	0.201647	0.197538	0.191786
2029	0.196059	0.200497	0.197703	0.192772
2030	0.20099	0.198524	0.199182	0.193922
2031	0.198031	0.198524	0.199346	0.193594
2032	0.200004	0.200497	0.201976	0.190635
2033	0.199018	0.198853	0.201647	0.194744
2034	0.199346	0.19836	0.200168	0.19573
2035	0.194087	0.200004	0.199182	0.193594
2036	0.195073	0.198853	0.198524	0.19721
2037	0.199182	0.197374	0.199346	0.193265
2038	0.201154	0.201976	0.199182	0.198031
2039	0.200497	0.199839	0.197374	0.196717
2040	0.194744	0.201319	0.200661	0.194744
2041	0.196717	0.199839	0.198031	0.202305
2042	0.196717	0.200497	0.201319	0.197703
2043	0.19836	0.200825	0.199018	0.197045
2044	0.194251	0.201483	0.199839	0.197045
2045	0.198689	0.201319	0.196552	0.197867
2046	0.197045	0.201976	0.202962	0.19836
2047	0.198031	0.204934	0.200168	0.194744
2048	0.197867	0.199018	0.199511	0.191457
2049	0.199018	0.201154	0.201812	0.196059
2050	0.197538	0.199511	0.199511	0.195402
2051	0.199346	0.198689	0.199839	0.193594
2052	0.198689	0.200168	0.201976	0.197867
2053	0.205756	0.200168	0.198524	0.198031
2054	0.195402	0.19836	0.19836	0.201647
2055	0.198853	0.196717	0.200661	0.195402
2056	0.198031	0.201154	0.197374	0.195237
2057	0.198524	0.199511	0.19836	0.200497
2058	0.199675	0.204277	0.199018	0.195073
2059	0.199839	0.201319	0.20099	0.199675
2060	0.199346	0.202305	0.200497	0.19573
2061	0.19836	0.203784	0.200825	0.201812
2062	0.198689	0.201483	0.194251	0.194416
2063	0.201154	0.198524	0.199182	0.198524
2064	0.20362	0.202633	0.200497	0.196388
2065	0.199839	0.20099	0.200825	0.199182
2066	0.198853	0.201647	0.201483	0.195402
2067	0.198689	0.200661	0.199675	0.198196
2068	0.197867	0.198853	0.200661	0.197703
2069	0.20214	0.204934	0.202469	0.197045
2070	0.204606	0.200168	0.200004	0.197374
2071	0.200332	0.204606	0.200332	0.198524
2072	0.200825	0.205099	0.20214	0.199839
2073	0.200004	0.20362	0.199675	0.200661
2074	0.202798	0.202633	0.207893	0.201812
2075	0.201647	0.203291	0.202469	0.200825
2076	0.198524	0.202962	0.205427	0.20214
2077	0.199511	0.203126	0.203455	0.197867
2078	0.197703	0.20477	0.202469	0.199839
2079	0.198196	0.203784	0.198196	0.198524
2080	0.198853	0.202305	0.202962	0.195073
2081	0.199675	0.202962	0.200497	0.196059
2082	0.196717	0.205263	0.201647	0.196552
2083	0.200332	0.205756	0.206085	0.192279
2084	0.197538	0.206742	0.204277	0.193265
2085	0.201319	0.204441	0.206578	0.198524
2086	0.202962	0.206249	0.206578	0.19721
2087	0.195073	0.203455	0.200661	0.198689
2088	0.203291	0.206578	0.203784	0.199018
2089	0.199839	0.205099	0.20214	0.20362
2090	0.202305	0.203784	0.201483	0.199018
2091	0.199675	0.203291	0.206085	0.201812
2092	0.201154	0.20855	0.200661	0.200168
2093	0.199346	0.208057	0.203291	0.199182
2094	0.199182	0.206578	0.203784	0.197703
2095	0.199839	0.206085	0.207235	0.200004
2096	0.20362	0.208222	0.205263	0.197045
2097	0.199182	0.211509	0.204113	0.197538
2098	0.199182	0.208222	0.202962	0.196717
2099	0.199346	0.205756	0.203784	0.194087
2100	0.199839	0.206742	0.201483	0.198853
2101	0.198196	0.2074	0.202305	0.195895
2102	0.199346	0.205099	0.202469	0.201483
2103	0.19721	0.2074	0.197867	0.197045
2104	0.195402	0.210687	0.199346	0.199511
2105	0.196223	0.204277	0.199675	0.197374
2106	0.198031	0.204113	0.196223	0.197867
2107	0.200661	0.20855	0.034496	0.206414
2108	0.198031	0.205921	0.031702	0.200661
2109	0.199675	0.206414	0.038769	0.200004
2110	0.201976	0.200168	0.045837	0.198689
2111	0.202305	0.204277	0.054383	0.201483
2112	0.196881	0.204606	0.055863	0.19721
2113	0.198031	0.202633	0.059807	0.194909
2114	0.196717	0.206578	0.067203	0.190471
2115	0.198524	0.204606	0.073942	0.189156
2116	0.197538	0.206249	0.078544	0.188006
2117	0.199018	0.204441	0.088241	0.191293
2118	0.198524	0.202305	0.087584	0.190964
2119	0.19721	0.202962	0.094158	0.192608
2120	0.200825	0.206578	0.096459	0.189156
2121	0.201483	0.203784	0.101061	0.193101
2122	0.19836	0.207071	0.104019	0.188499
2123	0.199511	0.205263	0.111251	0.196059
2124	0.199018	0.205592	0.114045	0.194416
2125	0.200332	0.204934	0.115195	0.192936
2126	0.199839	0.207235	0.118483	0.193429
2127	0.197867	0.204606	0.124893	0.19195
2128	0.200004	0.204277	0.125221	0.194744
2129	0.199346	0.204277	0.128015	0.194416
2130	0.201483	0.201483	0.131302	0.192936
2131	0.199018	0.204934	0.131631	0.188827
2132	0.201976	0.203948	0.135904	0.19195
2133	0.197867	0.203784	0.140835	0.190964
2134	0.19836	0.202305	0.136891	0.193758
2135	0.20099	0.203948	0.140178	0.192115
2136	0.199346	0.201812	0.142807	0.193429
2137	0.198853	0.204934	0.142807	0.193758
2138	0.199018	0.201647	0.146095	0.19458
2139	0.200825	0.204277	0.151683	0.19836
2140	0.197867	0.201647	0.152176	0.197538
2141	0.201976	0.200332	0.150861	0.197045
2142	0.196388	0.200332	0.155956	0.197867
2143	0.197374	0.197703	0.159079	0.197045
2144	0.199346	0.201154	0.160722	0.196717
2145	0.199346	0.19721	0.160887	0.199511
2146	0.197374	0.196881	0.158914	0.192279
2147	0.20099	0.197703	0.161051	0.193758
2148	0.198196	0.20362	0.161709	0.191457
2149	0.199675	0.198196	0.163516	0.195895
2150	0.199018	0.198524	0.161544	0.198031
2151	0.200825	0.197703	0.165324	0.197045
2152	0.202633	0.200825	0.163188	0.200004
2153	0.198031	0.193265	0.168447	0.196552
2154	0.203126	0.198031	0.166311	0.19458
2155	0.194744	0.199018	0.166804	0.196223
2156	0.19721	0.196059	0.16894	0.197538
2157	0.198196	0.198853	0.168776	0.203784
2158	0.197374	0.196388	0.170584	0.198196
2159	0.197045	0.196717	0.173378	0.19836
2160	0.20099	0.192936	0.174693	0.199182
2161	0.199182	0.191293	0.175515	0.197867
2162	0.201976	0.190635	0.181431	0.200332
2163	0.201319	0.194251	0.176008	0.196552
2164	0.200168	0.188992	0.179295	0.199018
2165	0.207071	0.193922	0.180774	0.196059
2166	0.197045	0.194909	0.177322	0.197538
2167	0.198689	0.187184	0.176994	0.197045
2168	0.202962	0.188992	0.179952	0.19458
2169	0.197703	0.194909	0.177487	0.199346
2170	0.19573	0.195566	0.18176	0.197538
2171	0.19836	0.195402	0.179459	0.19573
2172	0.196388	0.196059	0.183568	0.195402
2173	0.199675	0.194087	0.184061	0.197867
2174	0.198196	0.191621	0.184225	0.197867
2175	0.200332	0.193922	0.182582	0.199018
2176	0.199511	0.192115	0.184554	0.199018
2177	0.199675	0.191293	0.185212	0.200332
2178	0.199018	0.192772	0.185047	0.196223
2179	0.201319	0.193265	0.189649	0.200497
2180	0.199839	0.196223	0.18554	0.193265
2181	0.200332	0.19195	0.185705	0.195237
2182	0.199675	0.193758	0.185047	0.196223
2183	0.199182	0.191293	0.188663	0.195237
2184	0.205099	0.191621	0.188827	0.197538
2185	0.199839	0.193101	0.188334	0.19573
2186	0.19573	0.192279	0.187184	0.197538
2187	0.187677	0.191621	0.188334	0.199018
2188	0.197045	0.1908	0.186691	0.198196
2189	0.194909	0.192936	0.189978	0.19721
2190	0.199839	0.192772	0.189649	0.196717
2191	0.192936	0.196223	0.188334	0.195566
2192	0.195073	0.193922	0.191293	0.196059
2193	0.199675	0.192936	0.192279	0.19458
2194	0.200168	0.194909	0.192115	0.195402
2195	0.202633	0.1908	0.191128	0.191457
2196	0.201319	0.193594	0.192772	0.192772
2197	0.201483	0.191293	0.191786	0.187513
2198	0.191128	0.182089	0.19195	0.186526
2199	0.195895	0.190307	0.190471	0.186691
2200	0.200004	0.189649	0.191293	0.183239
2201	0.200661	0.190307	0.19458	0.180281
2202	0.198689	0.192115	0.191128	0.176008
2203	0.200168	0.195402	0.193101	0.175021
2204	0.197703	0.193758	0.193594	0.169433
2205	0.200004	0.192936	0.190964	0.115031
2206	0.198031	0.194416	0.193594	0.046987
2207	0.200497	0.194251	0.196388	0.016746
2208	0.199675	0.193758	0.18932	0.000803
2209	0.192936	0.189978	0.199346	0.000639
2210	0.198853	0.194087	0.193758	0.001625
2211	0.196717	0.189485	0.19573	0.001132
2212	0.197538	0.196223	0.196223	0.000803
2213	0.202962	0.194251	0.202469	0.002447
2214	0.201812	0.194087	0.196717	-0.001005
2215	0.199511	0.198689	0.197867	0.002447
2216	0.202305	0.197045	0.196059	0.001296
2217	0.200168	0.193265	0.19721	0.002447
2218	0.200497	0.195566	0.20099	0.000146
2219	0.198031	0.197703	0.197867	0.000146
2220	0.200004	0.195073	0.201647	-1.9e-05
2221	0.19458	0.198689	0.194251	0.000146
2222	0.197538	0.198196	0.19573	-0.003799
2223	0.196059	0.200332	0.195566	0.000639
2224	0.199675	0.200661	0.196223	0.00146
2225	0.204441	0.200168	0.192936	0.000967
2226	0.197538	0.200168	0.19573	0.003104
2227	0.197045	0.199511	0.197538	0.00146
2228	0.201319	0.200168	0.197374	0.001789
2229	0.200168	0.201483	0.198524	0.003926
2230	0.201319	0.197538	0.197045	0.005076
2231	0.201483	0.197045	0.20099	0.003597
2232	0.198524	0.199346	0.194251	0.004583
2233	0.20477	0.20099	0.195566	0.008035
2234	0.197703	0.19836	0.196552	0.021019
2235	0.19836	0.202305	0.197538	0.02595
2236	0.196059	0.202305	0.19573	0.030716
2237	0.198853	0.201812	0.196881	0.041728
2238	0.195895	0.202633	0.19573	0.04633
2239	0.199182	0.202469	0.197867	0.051589
2240	0.200332	0.20362	0.197538	0.058985
2241	0.198196	0.200004	0.197538	0.065395
2242	0.198524	0.202962	0.196552	0.069669
2243	0.203455	0.201483	0.198689	0.076407
2244	0.200661	0.203784	0.193594	0.075421
2245	0.199018	0.201976	0.199018	0.082653
2246	0.20099	0.205427	0.196881	0.091364
2247	0.198031	0.20477	0.197867	0.092679
2248	0.200661	0.205263	0.197538	0.095473
2249	0.199018	0.199839	0.19836	0.10139
2250	0.202305	0.201319	0.200497	0.103033
2251	0.200497	0.201154	0.198031	0.109772
2252	0.200825	0.198853	0.199675	0.11651
2253	0.195402	0.200661	0.18817	0.117661
2254	0.196552	0.201647	0.196059	0.122427
2255	0.19573	0.203126	0.194744	0.122592
2256	0.19836	0.199675	0.193922	0.128673
2257	0.19573	0.20362	0.193265	0.130316
2258	0.197867	0.201647	0.200825	0.129495
2259	0.19721	0.204606	0.196223	0.128673
2260	0.197703	0.201154	0.198031	0.138041
2261	0.198031	0.205263	0.198524	0.13196
2262	0.195402	0.20362	0.195566	0.140342
2263	0.200825	0.201483	0.195237	0.146259
2264	0.200332	0.202962	0.183404	0.146588
2265	0.198524	0.200168	0.198524	0.147409
2266	0.199182	0.200825	0.198524	0.150697
2267	0.200661	0.201319	0.199675	0.153984
2268	0.197538	0.203455	0.199346	0.156778
2269	0.201812	0.199675	0.199675	0.158421
2270	0.197703	0.200825	0.19721	0.159736
2271	0.198689	0.20362	0.199182	0.164996
2272	0.199511	0.203455	0.198689	0.159079
2273	0.198524	0.201319	0.198853	0.16516
2274	0.199018	0.201319	0.198196	0.166639
2275	0.201647	0.201154	0.190471	0.165817
2276	0.19836	0.201976	0.196059	0.164174
2277	0.197045	0.203455	0.204441	0.167132
2278	0.199675	0.206742	0.19721	0.167461
2279	0.197867	0.204277	0.200332	0.169762
2280	0.200497	0.207071	0.199182	0.167297
2281	0.199511	0.206249	0.197045	0.169762
2282	0.201812	0.203784	0.198689	0.170255
2283	0.200332	0.204606	0.200332	0.168612
2284	0.192608	0.209208	0.199182	0.176501
2285	0.200661	0.203784	0.197703	0.176501
2286	0.19836	0.205263	0.19836	0.180774
2287	0.199346	0.205099	0.195402	0.181431
2288	0.199675	0.203126	0.199839	0.180774
2289	0.199675	0.205263	0.198524	0.183239
2290	0.199839	0.204113	0.19836	0.180774
2291	0.197867	0.203784	0.197045	0.181267
2292	0.198196	0.204934	0.198196	0.180938
2293	0.199182	0.204934	0.198031	0.17798
2294	0.195402	0.206907	0.201976	0.184225
2295	0.19836	0.209865	0.198689	0.18439
2296	0.196717	0.203126	0.195566	0.183075
2297	0.198689	0.204934	0.198031	0.18817
2298	0.20099	0.201976	0.194087	0.183568
2299	0.199511	0.201976	0.197538	0.186526
2300	0.197045	0.20362	0.199839	0.188006
2301	0.200497	0.20362	0.19721	0.187348
2302	0.198853	0.203784	0.198689	0.186855
2303	0.200825	0.207893	0.198853	0.189978
2304	0.196881	0.205921	0.197538	0.189156
2305	0.199839	0.202798	0.197867	0.191293
2306	0.203291	0.209043	0.19573	0.190964
2307	0.196881	0.199675	0.201647	0.190964
2308	0.200004	0.20362	0.199018	0.190964
2309	0.200825	0.204606	0.199839	0.191457
2310	0.198689	0.202633	0.194416	0.192443
2311	0.198524	0.202962	0.199182	0.191293
2312	0.198524	0.204934	0.197538	0.191786
2313	0.19721	0.203126	0.198524	0.189978
2314	0.200661	0.207564	0.197374	0.191786
2315	0.197374	0.209536	0.196717	0.192608
2316	0.198196	0.20362	0.19721	0.192772
2317	0.198196	0.19721	0.199675	0.192115
2318	0.200825	0.199839	0.199182	0.196552
2319	0.201647	0.204606	0.199675	0.191457
2320	0.206578	0.202962	0.200004	0.199182
2321	0.196059	0.20362	0.197867	0.193594
2322	0.199346	0.200497	0.199511	0.196223
2323	0.201319	0.202469	0.199511	0.194416
2324	0.197867	0.200825	0.200332	0.19573
2325	0.202962	0.203784	0.199018	0.195402
2326	0.197538	0.202469	0.197703	0.193265
2327	0.201483	0.202305	0.201483	0.191457
2328	0.199346	0.191128	0.198689	0.192772
2329	0.199675	0.200332	0.201319	0.195073
2330	0.199675	0.20362	0.197538	0.193429
2331	0.20362	0.202633	0.197867	0.194744
2332	0.199675	0.206249	0.197374	0.193922
2333	0.198689	0.203126	0.200497	0.198031
2334	0.196388	0.207235	0.198689	0.195237
2335	0.196388	0.20362	0.19836	0.196059
2336	0.198689	0.205921	0.198524	0.19721
2337	0.199182	0.205921	0.199346	0.196881
2338	0.200004	0.198524	0.19836	0.196223
2339	0.200332	0.19458	0.200332	0.197703
2340	0.206085	0.201483	0.199511	0.196223
2341	0.197045	0.207071	0.199511	0.197867
2342	0.204441	0.202305	0.198853	0.199839
2343	0.19836	0.202633	0.197867	0.19573
2344	0.198524	0.203948	0.199839	0.195566
2345	0.198524	0.204934	0.198031	0.196059
2346	0.200825	0.199675	0.196717	0.199346
2347	0.197045	0.20477	0.196552	0.199346
2348	0.201812	0.201319	0.199018	0.201154
2349	0.200497	0.204606	0.196717	0.194416
2350	0.198853	0.194744	0.200332	0.198031
2351	0.200332	0.202469	0.196881	0.194909
2352	0.200825	0.200825	0.197867	0.199675
2353	0.199675	0.196552	0.195073	0.19195
2354	0.199511	0.199675	0.197374	0.197703
2355	0.196717	0.201812	0.198031	0.197867
2356	0.199018	0.199346	0.198031	0.196881
2357	0.201154	0.199839	0.199018	0.197045
2358	0.197045	0.200004	0.19573	0.196717
2359	0.198853	0.200497	0.198196	0.200332
2360	0.202962	0.202305	0.198853	0.202305
2361	0.20214	0.193594	0.201483	0.20099
2362	0.201319	0.199675	0.198524	0.198524
2363	0.202305	0.196881	0.197538	0.199182
2364	0.197867	0.197374	0.20099	0.197374
2365	0.199182	0.199346	0.196552	0.197045
2366	0.197045	0.199018	0.197538	0.195402
2367	0.198031	0.196881	0.201154	0.197538
2368	0.200168	0.195566	0.198031	0.194251
2369	0.198196	0.198031	0.199675	0.194251
2370	0.200497	0.199018	0.195895	0.198196
2371	0.198524	0.198853	0.201319	0.196388
2372	0.199839	0.195895	0.201154	0.19458
2373	0.199511	0.198853	0.19836	0.201154
2374	0.201154	0.196388	0.200661	0.199346
2375	0.200661	0.193265	0.20099	0.199018
2376	0.205263	0.195237	0.199182	0.197045
2377	0.198031	0.196881	0.199675	0.194744
2378	0.201976	0.19195	0.195402	0.197374
2379	0.201154	0.198196	0.198689	0.196717
2380	0.200661	0.196717	0.199182	0.196552
2381	0.196717	0.196388	0.19836	0.198524
2382	0.199839	0.199018	0.199839	0.201154
2383	0.200661	0.199018	0.197374	0.196223
2384	0.195237	0.192772	0.198524	0.201483
2385	0.201319	0.20099	0.196388	0.197867
2386	0.197867	0.197045	0.200332	0.198853
2387	0.200661	0.201154	0.197374	0.196552
2388	0.200168	0.193594	0.198196	0.196552
2389	0.200168	0.197703	0.199675	0.198689
2390	0.198196	0.196059	0.198853	0.199675
2391	0.201812	0.197045	0.19836	0.196223
2392	0.200825	0.196717	0.198853	0.199839
2393	0.204934	0.196881	0.199182	0.201812
2394	0.199839	0.200004	0.196388	0.198689
2395	0.206414	0.196059	0.200332	0.20099
2396	0.20099	0.196223	0.19721	0.19836
2397	0.203291	0.192115	0.20099	0.202633
2398	0.199346	0.196552	0.198031	0.199018
2399	0.202469	0.195402	0.198524	0.200332
2400	0.200332	0.196717	0.197374	0.196059
2401	0.197045	0.198689	0.199839	0.200661
2402	0.200332	0.196881	0.197045	0.196388
2403	0.196717	0.190142	0.194744	0.196223
2404	0.200661	0.194744	0.197374	0.193101
2405	0.197374	0.194416	0.199346	0.19721
2406	0.197538	0.193922	0.198196	0.200661
2407	0.196388	0.19573	0.19573	0.195566
2408	0.198031	0.19458	0.200168	0.198853
2409	0.195073	0.197374	0.197703	0.198031
2410	0.201647	0.195402	0.200168	0.201483
2411	0.201319	0.197045	0.198196	0.195895
2412	0.199675	0.192443	0.20099	0.201319
2413	0.202469	0.196552	0.199018	0.198031
2414	0.19573	0.194416	0.198853	0.198524
2415	0.202962	0.194909	0.199675	0.197867
2416	0.197867	0.196388	0.200497	0.198524
2417	0.198853	0.19573	0.197703	0.19836
2418	0.198031	0.19573	0.199018	0.194087
2419	0.199839	0.197703	0.201319	0.20099
2420	0.195237	0.196881	0.197045	0.193594
2421	0.198524	0.197045	0.197045	0.196059
2422	0.196717	0.198524	0.199839	0.197374
2423	0.198689	0.192608	0.198524	0.199182
2424	0.199018	0.19573	0.198689	0.198031
2425	0.199182	0.192443	0.198853	0.199182
2426	0.200661	0.195073	0.199675	0.19836
2427	0.201976	0.196717	0.201812	0.200661
2428	0.199182	0.19573	0.197867	0.198853
2429	0.199839	0.195073	0.205921	0.202633
2430	0.201154	0.196717	0.195895	0.202798
2431	0.199018	0.194416	0.199839	0.196223
2432	0.198031	0.196388	0.20099	0.19573
2433	0.199346	0.195073	0.201812	0.196552
2434	0.196059	0.195566	0.198524	0.196717
2435	0.19573	0.197374	0.197045	0.194416
2436	0.198524	0.193758	0.198031	0.196388
2437	0.196881	0.198689	0.199018	0.197703
2438	0.200497	0.197538	0.196717	0.199018
2439	0.196552	0.196223	0.197374	0.198853
2440	0.197867	0.196881	0.194087	0.202962
2441	0.197045	0.196881	0.195402	0.193758
2442	0.198524	0.194251	0.197538	0.195895
2443	0.19573	0.20099	0.197867	0.198031
2444	0.195895	0.19721	0.202962	0.200332
2445	0.201976	0.196223	0.198196	0.198031
2446	0.198031	0.19836	0.199346	0.202962
2447	0.199675	0.196881	0.195566	0.195402
2448	0.197867	0.194087	0.202469	0.197703
2449	0.201154	0.195073	0.20099	0.200661
2450	0.197703	0.194251	0.200661	0.198853
2451	0.200497	0.191457	0.196717	0.198196
2452	0.196717	0.198853	0.19721	0.186198
2453	0.197867	0.200332	0.196881	0.198689
2454	0.195402	0.202962	0.195237	0.195402
2455	0.202305	0.19836	0.196059	0.200825
2456	0.192608	0.199182	0.196059	0.199675
2457	0.19721	0.199346	0.200497	0.201647
2458	0.193922	0.199511	0.19573	0.197703
2459	0.194087	0.198853	0.200332	0.199018
2460	0.197045	0.199018	0.198689	0.201154
2461	0.198031	0.194909	0.20099	0.200004
2462	0.199182	0.195895	0.199346	0.195895
2463	0.202798	0.19721	0.201647	0.192772
2464	0.198524	0.198031	0.20099	0.197867
2465	0.198031	0.195566	0.199182	0.196552
2466	0.201647	0.194416	0.200168	0.202962
2467	0.199511	0.198031	0.200497	0.19836
2468	0.201154	0.197538	0.19836	0.196223
2469	0.19573	0.199675	0.196388	0.197703
2470	0.196552	0.198196	0.198689	0.198689
2471	0.198031	0.197374	0.199018	0.197538
2472	0.199511	0.199511	0.200332	0.199839
2473	0.19836	0.200168	0.195073	0.19721
2474	0.199839	0.201154	0.201154	0.199182
2475	0.198524	0.204277	0.196552	0.195895
2476	0.19721	0.202633	0.197703	0.199018
2477	0.200168	0.200825	0.20214	0.198524
2478	0.198689	0.200332	0.200825	0.195895
2479	0.200332	0.201154	0.19721	0.197703
2480	0.197374	0.198031	0.199511	0.19721
2481	0.202469	0.19721	0.201319	0.19836
2482	0.19836	0.196717	0.199511	0.197538
2483	0.201647	0.195566	0.199511	0.198689
2484	0.198689	0.19836	0.200004	0.19573
2485	0.199018	0.19573	0.199675	0.202962
2486	0.194744	0.198689	0.197374	0.196223
2487	0.198196	0.19721	0.198689	0.201483
2488	0.195566	0.198524	0.19836	0.197867
2489	0.195895	0.199182	0.203455	0.199018
2490	0.198853	0.197703	0.198524	0.199675
2491	0.198031	0.199346	0.202305	0.199511
2492	0.197867	0.202633	0.201483	0.196717
2493	0.195566	0.200332	0.200332	0.199346
2494	0.200168	0.203126	0.199511	0.199182
2495	0.200825	0.20099	0.200497	0.198689
2496	0.19721	0.201154	0.200661	0.201483
2497	0.19573	0.196388	0.197867	0.199675
2498	0.200661	0.194251	0.197045	0.201154
2499	0.197374	0.196552	0.202305	0.196717
