Ladekurvenmessung
Zeit: 2018_05_03 14.06.28
Info: FVA3, v = 0.382, T = 40, F = 10, h =???
Ladewiderstand[Ohm]: 1012700
Störkapazität[pF]: 0.000000
Entladezeit[ms]: 200
Abtastrate[Hz]: 250000
Anzahl der Messwerte: 2500.000000
Verzögerung[ms]: 3
Ladespannung[V]: 0.200000
	Kurve_1	Kurve_2	Kurve_3	Kurve_4	Kurve_5	Kurve_6	Kurve_7	Kurve_8
0	-0.003142	0.003597	-0.004292	-0.000347	0.000474	0.006391	-0.005443	0.007213
1	-0.000512	0.006227	-0.001334	-0.000841	0.000146	0.008035	-0.001005	0.005734
2	-0.002484	0.006227	-0.002484	0.000639	-0.001334	0.006391	-0.005607	0.004583
3	-0.001334	0.005569	-0.000676	-0.00232	-0.001498	0.007049	0.000803	0.004255
4	-0.00232	0.007542	-0.007744	-0.006264	-0.001334	0.009678	-0.003306	0.004419
5	0.002282	0.004255	-0.005278	-0.001334	-0.000183	0.004583	-0.002648	0.002447
6	-0.004292	0.010171	-0.003963	0.000803	-0.003306	0.005241	0.000639	0.00409
7	-0.005936	0.004748	-0.005114	-0.002813	-0.001827	0.007706	-0.004128	0.004419
8	-0.003306	0.005076	-0.000183	-0.002155	-0.001169	0.003761	0.000146	0.008692
9	-0.003963	0.006062	-0.000676	-0.000841	0.001954	0.006062	-0.005771	0.004583
10	-0.001169	0.008035	0.000146	0.000967	0.000474	0.00672	0.00031	0.001954
11	-0.004949	0.00935	0.000474	0.000967	0.000146	0.009185	-0.004456	0.004748
12	-0.001662	0.0105	-0.000676	-1.9e-05	0.004583	0.000803	-0.004292	0.00409
13	-0.002484	0.006062	0.003104	-0.001498	0.000146	0.006227	-0.00347	0.002282
14	-0.002977	0.008528	0.00146	-0.000512	-0.000676	0.004912	-0.003963	0.001625
15	-0.006757	0.010336	-1.9e-05	-1.9e-05	-0.00347	0.005405	-0.005114	0.005405
16	-0.001991	0.005734	-0.000841	-0.002155	0.002118	0.004583	-0.002977	0.001132
17	-0.006593	0.008857	0.00031	-0.002977	-0.001827	0.000639	-0.002813	0.008692
18	-0.00347	0.011158	-0.002155	-0.00232	-0.004292	0.003104	-0.007086	0.00031
19	-0.005771	0.011158	0.000146	0.000639	-0.002484	0.001625	-0.003963	-0.004292
20	-0.002648	0.007377	-0.002813	-0.005278	-0.000676	0.00146	-0.005771	0.000146
21	-0.003963	0.009185	0.003268	0.000146	-0.004949	-0.001169	-0.003963	0.001954
22	-0.006757	0.006391	0.00031	-0.002977	-0.002155	0.003926	-0.005936	0.000474
23	-0.003142	0.007377	-0.002155	-0.001498	-0.005443	0.004419	-0.004128	0.000639
24	-0.004785	0.003926	0.002447	-0.00232	-0.003306	0.004748	-0.000512	0.001132
25	-0.003799	0.003597	0.000967	-1.9e-05	-0.003306	0.003597	-0.005114	0.000803
26	-0.0061	0.007706	0.002282	-0.000841	-0.002155	0.004912	-0.000676	0.002447
27	-0.002484	0.006391	0.000146	-0.000841	-0.005278	0.005076	-0.003799	0.000803
28	-0.008565	0.007213	0.003104	-0.001334	-0.000841	0.002775	-0.003306	0.005405
29	-0.003142	0.009021	0.001132	0.001132	-0.001498	0.002282	-0.005114	0.00409
30	-0.008072	0.009185	0.001954	-0.00347	-0.001498	0.005569	-0.003799	0.002775
31	-0.005443	0.011158	0.002611	-0.001662	-0.001827	0.002447	-0.004456	0.002282
32	-0.010045	0.00935	0.00031	-0.004292	-0.003799	0.00409	-0.005607	0.005076
33	-0.008565	0.00409	0.00031	-0.004128	-0.003963	0.005241	-0.001827	0.000474
34	-0.006922	0.003597	-0.000676	-0.003306	-0.012346	0.006884	-0.009551	0.003104
35	-0.002977	0.008363	-0.001827	-0.005771	-0.004785	0.00935	-0.007579	0.004583
36	-0.007744	0.004748	0.000474	-0.00232	-0.009058	0.012308	-0.004785	0.007542
37	-0.004292	0.006556	-0.000512	-0.005278	-0.007744	0.00787	-0.005771	0.00672
38	-0.00347	0.003926	-0.000183	-0.004128	-0.005771	0.006062	-0.002813	0.007377
39	-0.010045	0.006062	0.002447	-0.008401	-0.005114	0.007213	-0.001827	0.004912
40	-0.01629	0.008363	-0.000347	-0.00347	-0.004949	0.002118	-0.005936	0.001954
41	-0.010538	0.006227	-0.002155	-0.003963	0.000967	0.008199	-0.007579	0.00294
42	-0.008894	0.00672	0.00031	0.000639	-0.003306	0.00294	-0.004785	0.001625
43	-0.009716	0.008692	0.002447	-0.001991	-0.003142	0.008363	-0.00347	0.003433
44	-0.008401	0.008528	0.000474	-0.002155	-0.004621	0.002118	-0.006593	0.001954
45	-0.007744	0.00787	-0.003799	-0.005114	-0.002484	0.006062	-0.007908	0.005405
46	-0.004128	0.008363	-1.9e-05	-0.005771	-0.004621	0.003104	-0.006264	0.004583
47	-0.010045	0.006391	-0.000183	-1.9e-05	-0.001991	0.003926	-0.005278	0.008857
48	-0.008237	0.009021	-0.001169	-0.004949	-0.004128	0.002282	-0.004456	0.010993
49	-0.010209	0.008528	0.000146	-0.004621	-0.002648	0.003926	-0.004456	0.002118
50	-0.006429	0.008035	0.00146	-0.005771	-0.003963	0.002775	-0.002155	0.005569
51	-0.009551	0.008035	-0.000183	-0.004128	-0.004949	0.00031	-0.004949	0.009185
52	-0.0061	0.007049	0.00031	-0.011031	-0.004785	0.007542	-0.003963	0.00146
53	-0.009716	0.005898	0.00146	-0.00232	-0.002484	0.004748	-0.002648	0.009514
54	-0.006922	0.009021	0.002611	-0.007579	-0.004456	0.005241	-0.005936	0.007377
55	-0.008894	0.008363	-0.003635	-0.004621	-0.004456	0.00294	-0.002813	0.004912
56	-0.010373	0.001296	-0.001827	-0.00347	-0.002648	0.001296	-0.001005	0.004419
57	-0.009387	0.004419	-0.004292	-0.003635	-0.00873	0.003104	-0.001169	0.007706
58	-0.008072	0.003268	-0.002813	-0.002484	-0.00347	0.008035	0.006227	0.006062
59	-0.007415	0.003926	-0.001662	0.00031	-0.004621	0.002282	0.001954	0.005076
60	-0.006264	0.005076	-0.003799	-0.002484	-0.004949	0.002447	-0.004949	0.004912
61	-0.007908	0.006884	0.001954	-0.00232	-0.00347	0.003268	0.003926	0.004748
62	-0.012674	0.006556	0.00294	-0.001662	-0.001662	0.00294	-0.004621	0.006391
63	-0.006757	0.006062	0.00146	-0.003799	-0.002977	-0.002155	-0.001498	0.006227
64	-0.011688	0.007377	0.001625	-0.002155	0.002775	0.003761	-0.002484	0.010664
65	-0.008894	0.008035	0.003268	-0.001827	-0.001991	0.002775	-0.001005	0.004748
66	-0.009058	0.010336	-0.000347	-0.000183	-0.006429	0.001789	-0.004785	0.005898
67	-0.005607	0.002611	0.000803	-0.003963	-0.00347	-0.000676	-0.006757	0.005076
68	-0.005443	0.005734	-0.00347	-0.00347	-0.004621	0.001954	-0.004949	0.010829
69	-0.010702	0.003104	-0.00232	-0.00347	-0.00347	0.00146	-0.002648	0.007049
70	-0.009058	0.006391	0.002282	-0.001334	-0.003799	0.002118	-0.001334	0.004748
71	-0.004456	0.001296	-0.001827	-0.001991	-0.005936	0.002282	-0.001991	0.00787
72	-0.008565	0.003433	-0.001991	-0.001662	-0.005607	-0.001498	-0.001827	0.005405
73	-0.00873	0.00031	0.004912	0.000967	-0.004292	0.002118	-0.004456	0.004912
74	-0.006922	0.002447	0.000146	-1.9e-05	-0.006757	0.000803	-0.001827	0.010664
75	-0.00725	0.003104	0.002282	-0.001169	-0.001991	0.002447	-0.001005	0.007049
76	-0.008237	0.004748	0.003597	0.001132	-0.004949	0.000639	-0.001169	0.00294
77	-0.008565	-0.000347	0.003433	0.002118	-0.002813	0.003104	-0.005936	0.00672
78	-0.004949	0.005734	0.003104	0.004583	-0.003306	0.001789	0.001296	0.005076
79	-0.009058	0.003433	0.002447	0.003597	0.000146	0.001789	-0.002648	0.008035
80	-0.006922	0.006556	0.003268	0.002611	-0.002813	0.003433	-0.000347	0.006062
81	-0.00988	0.006227	0.002611	0.003433	-0.002977	-0.000347	0.002447	0.000803
82	-0.0061	0.005076	0.002282	-0.000183	-0.005114	-0.000512	-0.003963	0.005898
83	-0.010045	0.011322	0.003104	-0.000183	-0.005936	0.001132	0.005734	0.007377
84	-0.011524	0.008363	0.004748	-0.000676	-0.005607	0.003433	-1.9e-05	0.005898
85	-0.004785	0.001789	0.003926	-0.001005	-0.005114	0.00146	-0.003635	0.010664
86	-0.003799	0.002775	0.006884	-0.004785	-0.001662	0.001296	-0.002813	0.008857
87	-0.007908	0.004255	0.002775	-0.001991	-0.00725	0.000474	-0.001169	0.00409
88	-0.00873	0.001625	0.004419	-0.003635	-0.005771	0.002775	-0.001334	0.005405
89	-0.001334	0.000639	0.000803	-0.002155	-0.004292	0.000803	-0.005607	0.006391
90	-0.002155	0.000146	0.00294	-0.00232	-0.000841	0.001789	-1.9e-05	0.005898
91	-0.005278	0.00409	0.000146	0.002118	-0.008401	0.002611	-0.003799	0.005076
92	-0.008072	-1.9e-05	0.001296	-0.000512	-0.002484	0.000146	-0.00347	0.001789
93	-0.004949	0.001789	0.002282	0.004748	-0.004785	-0.000512	-0.000512	0.006884
94	-0.009716	0.002775	0.003597	0.002447	-0.004456	0.00146	-0.014318	0.008035
95	-0.007086	0.003104	0.003597	0.001789	-0.004128	-0.000512	-0.004785	0.005076
96	-0.010538	0.002447	0.001954	0.000967	-0.003799	-0.001169	-0.004292	0.008363
97	-0.008072	0.003597	0.002775	-0.001498	-0.003142	-0.000347	0.000474	0.003268
98	-0.010702	0.000474	0.008363	-0.000841	-0.002813	0.002118	0.000639	0.004748
99	-0.010538	-0.00232	-0.000347	-0.003799	-0.005443	0.004912	-0.004785	0.002611
100	-0.009551	-0.003306	0.003104	-0.005443	-0.00347	-1.9e-05	0.002118	0.004912
101	-0.009058	-0.004949	0.003597	-0.002813	-0.002484	0.003104	-0.000183	0.005898
102	-0.010209	-0.002977	0.002282	-0.002648	-0.006757	0.003597	-0.001005	0.006884
103	-0.003799	-0.004292	0.002775	-0.002977	-0.003799	0.001296	-0.000676	0.006062
104	-0.00873	-0.008072	-0.002813	0.001789	-0.005936	0.001132	-0.001334	0.007049
105	-0.006593	-0.007086	0.004255	-0.000841	-0.003963	0.00146	-0.004292	0.00787
106	-0.008237	-0.000183	0.000474	0.005076	-0.005443	-0.000841	-0.000347	0.005405
107	-0.010045	-0.005114	-1.9e-05	-0.003963	-0.003799	-0.001498	0.002118	0.009678
108	-0.009551	-0.001498	-0.000347	0.007213	-0.004949	0.001625	-0.000183	0.004912
109	-0.00988	-0.004128	0.001132	0.000639	-0.00232	0.005076	-0.003799	0.004255
110	-0.005443	-0.003963	-0.003306	0.001296	-0.006264	0.000474	0.004583	-0.000512
111	-0.009058	-0.004621	-0.001991	0.001625	-0.001662	0.002775	-0.00232	0.002775
112	-0.006593	-0.002648	-0.001498	0.000146	-0.004456	-0.000183	0.005241	0.005569
113	-0.010866	-0.002977	0.002447	0.003268	-0.004128	-0.005771	0.000146	0.004583
114	-0.003963	-1.9e-05	0.003597	0.000639	-0.001169	-0.001334	0.002611	0.003268
115	-0.008072	-0.003142	-0.001827	0.006062	-0.005278	0.003104	-1.9e-05	0.005734
116	-0.010045	0.000967	0.004255	0.001789	-0.000841	-0.000676	-1.9e-05	0.005241
117	-0.008565	-0.003963	-0.000183	0.00294	-0.004128	0.001132	-0.004949	0.005734
118	-0.005936	-0.003142	0.000146	-0.001498	-0.004785	-0.001334	-0.00232	0.006062
119	-0.0061	-0.002155	0.002775	0.001625	-0.006922	-0.000676	-0.001005	0.010171
120	-0.001662	-0.000183	0.010336	-0.002648	-0.002648	0.006556	-0.000512	0.004583
121	-0.004621	-0.002155	-0.002484	0.001789	-0.003963	-0.00232	0.000803	0.00672
122	-0.003142	-0.008894	-0.001498	-0.001498	-0.004785	-0.000183	0.001789	0.005405
123	-0.002813	-0.002813	-0.002648	0.004419	-0.000347	-0.001827	0.004419	0.006227
124	-0.008565	-0.008237	0.000639	0.004255	-0.004949	0.00294	-0.001498	0.008528
125	-0.004785	-0.003963	0.000146	-0.000183	-0.00347	-0.002813	0.000803	0.002775
126	-0.001662	-0.010702	-0.000183	0.003433	-0.00347	0.002282	0.000474	0.005898
127	-0.009716	-0.003963	-1.9e-05	0.00294	0.00031	-1.9e-05	0.001296	0.004255
128	-0.009058	-0.003306	0.00146	-0.003635	-0.005607	0.002611	0.00031	0.006062
129	-0.007086	-0.003799	0.000474	0.00409	-0.0061	0.00146	0.000474	0.003104
130	-0.008237	-0.002648	0.00146	0.002611	-0.002155	0.002447	0.001132	0.003597
131	-0.004621	-0.010702	-0.00873	0.002611	-0.003963	0.000474	0.000474	0.003104
132	-0.008894	-0.006429	0.001789	0.002447	-0.001991	0.00294	0.002775	0.005241
133	-0.004128	-0.007908	-0.001169	0.000474	-0.00232	-0.000183	0.003104	0.002611
134	-0.005443	-0.0061	0.000639	0.003597	-0.005936	0.001296	-0.000183	0.007542
135	-0.005278	-0.002484	0.002447	0.003761	-0.005771	-0.000183	0.00672	0.002611
136	-0.00347	-0.005114	-0.003142	0.001789	-0.006922	-0.00347	0.001954	0.006062
137	-0.005443	-0.008072	0.002118	0.000146	-0.008072	-0.001991	-0.000841	0.004912
138	-0.007908	-0.003142	0.00146	0.00409	-0.005771	-0.003799	0.00409	0.003761
139	-0.002813	-0.002977	0.000146	0.001625	-0.005607	-0.001169	0.000967	0.00146
140	-0.014153	-0.004949	-0.001991	0.002447	-0.002648	-0.00232	-0.000676	0.003597
141	-0.004292	-0.005443	0.000474	0.003926	0.000146	0.003597	-0.003142	0.004912
142	-0.005771	-0.005607	-0.003306	0.003597	-0.001991	-0.003306	-0.000841	-0.001991
143	-0.004949	-0.007744	-0.003306	-0.003306	-0.001005	0.001954	-1.9e-05	-0.000347
144	-0.004949	-0.004949	-0.00232	0.006227	-0.003142	0.001954	0.00031	0.00031
145	-0.005443	-0.001334	-0.000676	0.003433	-0.001334	-0.000183	-0.004785	0.002282
146	-0.004621	-0.002977	0.002118	0.005076	-0.004128	-0.000676	0.003104	-0.001169
147	-0.007744	-0.00347	-0.001169	0.00787	-0.001498	0.000146	0.006062	0.000474
148	-0.009058	-0.001498	0.003104	0.001625	-0.003142	-0.002155	0.005734	0.000639
149	-0.010373	-0.004621	0.003761	0.002775	-0.001662	0.000146	0.001132	0.000474
150	-0.005114	-0.00347	0.002118	-0.001005	-0.001991	-0.00232	0.003761	-0.00232
151	-0.005771	-0.003306	-0.000512	0.003104	-0.00347	-0.000183	0.002611	0.000967
152	-0.005771	-0.004949	0.001132	0.000639	0.00031	0.000639	-1.9e-05	0.00031
153	-0.005771	-0.005278	-0.002484	0.003433	-0.001827	-0.005771	-0.000183	0.00031
154	-0.003963	-0.00347	0.000146	0.000967	-0.000347	-0.000512	-0.001827	0.000146
155	-0.006264	-0.004949	0.001132	0.007377	-0.002977	0.001132	0.000146	0.001625
156	-0.005278	-0.009387	-1.9e-05	0.00672	0.000146	0.00294	-0.004621	0.001296
157	-0.003635	-0.00873	-0.003306	-0.001005	-0.001498	0.001132	0.000967	-0.001334
158	-0.005936	-0.009058	-0.002648	0.003597	-0.002155	0.005898	-1.9e-05	-0.000512
159	-0.007744	-0.00725	-0.00232	0.006062	-0.002648	-0.000347	-0.000512	-0.003306
160	-0.00725	-0.007415	-0.002813	0.003926	-0.000347	0.001789	0.000639	-0.000841
161	-0.0061	-0.007744	-0.003635	0.006062	-0.004949	0.000474	0.002282	0.002775
162	-0.006593	-0.0061	-0.007086	0.003268	-0.004292	0.000474	-0.000347	-0.001334
163	-0.004949	-0.005443	0.001132	0.00409	-0.002813	0.000146	0.000803	-0.001991
164	-0.00873	-0.007415	0.002611	0.005898	-0.001498	-0.001827	-0.000512	0.000146
165	-0.002484	-0.007415	0.000474	0.003597	-0.003963	-1.9e-05	0.001296	-0.005771
166	-0.00725	-0.009716	0.000803	0.006556	-0.007415	0.000967	-0.002484	-0.001827
167	-0.004949	-0.00873	0.000474	0.005898	0.000146	0.001132	0.002447	-0.00347
168	-0.005278	-0.007744	-0.001827	0.001132	-0.000841	-0.001334	0.003104	0.002118
169	-0.010209	-0.008894	-0.000841	0.003926	-0.004785	-1.9e-05	0.001296	-0.004949
170	-0.00988	-0.0061	-0.006264	0.005405	-0.001827	-0.004128	0.003104	0.000146
171	-0.004949	-0.008401	-0.005771	-0.001662	-0.001827	0.00146	-0.000347	-0.001662
172	-0.004292	-0.008072	-0.000512	0.00146	-0.000183	-0.003142	-0.000512	-0.004621
173	-0.002155	-0.009058	0.000803	0.000803	-0.001498	-0.001005	-0.001662	-0.004128
174	-0.002484	-0.011852	-0.001498	-0.000183	0.000146	-0.001005	-0.001334	-0.001827
175	-0.0061	-0.009716	-0.000512	-0.000676	0.001132	0.000146	-0.002977	-0.002977
176	-0.001827	-0.005443	-0.002155	0.004419	-0.003306	0.001954	-0.000183	-0.005771
177	-0.007579	-0.01251	-0.003635	0.00146	-0.001334	0.005734	-0.002155	-0.004949
178	-0.004128	-0.011359	-0.002155	0.002282	-0.001498	0.000474	-0.000676	-0.004292
179	-0.003635	-0.010702	-0.002484	0.000803	-0.002484	0.004419	-0.001498	-0.005278
180	-0.005771	-0.007744	-0.00232	0.001296	-0.002155	0.004583	0.002447	-0.007415
181	-0.007086	-0.00725	-0.003142	0.003597	-0.002648	-0.000183	-1.9e-05	-0.004785
182	-0.003635	-0.006593	-0.002813	0.001296	-0.003635	-0.001169	0.001132	-0.004785
183	-0.005771	-0.005443	0.000146	0.003761	-0.004621	0.003761	0.00409	-0.001662
184	-0.005114	-0.009551	0.000639	0.003597	-0.000183	0.003761	0.00031	-0.000512
185	-0.007086	-0.009058	0.001789	0.002775	0.003597	-0.000183	-0.001991	0.000474
186	-0.005114	-0.010373	-0.001334	0.002282	0.001296	0.003597	0.001625	-0.005607
187	-0.005771	-0.004785	-0.000347	0.002282	0.004419	0.004748	0.002282	-0.004621
188	-0.007086	-0.009058	0.001132	0.000803	0.004583	0.002282	-1.9e-05	-0.007908
189	-0.009058	-0.008072	-0.003963	0.003597	0.001789	0.001296	-0.003963	-0.003142
190	-0.001498	-0.008894	-0.00232	0.001132	0.002611	0.001132	-0.004621	-0.006757
191	-0.003142	-0.007744	-0.004949	0.004583	0.000639	0.001132	0.001625	-0.00873
192	-0.008072	-0.00988	-0.000841	0.002118	0.001296	0.000967	-0.001827	-0.007908
193	-0.002813	-0.007579	-0.004456	0.006227	-0.002484	0.000639	-0.001498	-0.005771
194	-0.009223	-0.007415	-0.001498	-1.9e-05	0.00146	0.002282	0.000146	-0.006757
195	-0.002648	-0.008401	-0.001005	0.004912	-0.004128	-0.004949	-0.001169	-0.006922
196	-0.007086	-0.008072	-0.002484	0.005241	0.000474	0.003926	0.000639	-0.015468
197	-0.004292	-0.008401	-0.003142	0.00294	0.000803	-0.001169	0.00294	-0.009223
198	-0.005771	-0.007086	0.00146	0.005898	0.000639	0.000967	-0.000183	-0.005771
199	-0.008072	-0.007415	-0.002648	0.00409	0.003104	-0.001169	0.002282	-0.008237
200	-0.006429	-0.010866	0.00031	0.002775	0.009021	-0.000512	0.000639	-0.000512
201	-0.004456	-0.009551	0.001296	0.004912	0.00146	-0.001169	0.000474	-0.010373
202	-0.008237	-0.005771	-0.001169	0.005076	0.003597	-0.000841	0.000967	-0.009058
203	-0.005936	-0.005278	0.001296	0.003761	0.005734	-0.001662	0.003597	-0.004128
204	-0.00347	-0.009551	-0.000512	0.004419	0.002447	-0.00347	0.001954	-0.003635
205	-0.006264	-0.008072	0.002611	0.001132	0.006227	-0.003799	-1.9e-05	-0.004785
206	-0.007744	-0.005607	-0.000512	0.007542	0.003926	-0.005443	-0.000676	-0.003799
207	-0.008072	-0.007086	-1.9e-05	-0.000183	0.006884	-0.004292	-0.002977	-0.003635
208	-0.004785	-0.008072	-0.002813	0.002118	0.004419	-0.003963	0.004748	-0.008565
209	-0.006429	-0.008072	-0.002155	0.005569	0.002775	-0.000183	-0.001334	-0.005443
210	-0.005607	-0.006264	-0.009551	0.005241	0.002118	0.000474	0.001625	-0.005114
211	-0.006593	-0.011688	-0.008401	0.006391	-0.005771	0.000967	-0.000347	-0.005114
212	-0.006264	-0.008565	-0.001005	0.003926	0.00031	-0.000512	0.002118	-0.007415
213	-0.0061	-0.00725	-0.005278	0.003597	0.001954	0.000639	0.002775	-0.005278
214	-0.004292	-0.007908	0.001296	0.005734	-0.000512	-0.000183	0.003761	-0.004785
215	-0.008401	-0.009223	0.001954	0.00672	0.002775	0.000639	0.002118	-0.004128
216	-0.004785	-0.006922	0.000803	0.005076	0.000474	-0.001662	0.003597	-0.005443
217	-0.00725	-0.007744	0.001132	0.008528	0.000474	-0.003799	0.002282	-0.010045
218	-0.005771	-0.006593	0.005898	0.005405	0.002775	-0.002484	0.001296	-0.003799
219	-0.003635	-0.005936	-0.001334	0.006556	-0.000841	-0.005936	0.002447	-0.006757
220	-0.005607	-0.007415	0.004583	0.001954	0.005405	-0.004128	0.001132	-0.006757
221	-0.00873	-0.007744	0.000803	0.008363	0.00146	-0.001991	-0.004949	-0.003799
222	-0.009223	-0.009223	0.001296	0.003104	0.002775	-0.000512	0.001132	-0.008237
223	-0.004621	-0.006922	-0.000676	0.005076	0.000967	-0.001005	0.00294	-0.003799
224	-0.00725	-0.008894	-0.001498	0.005405	0.003926	0.001625	-0.001498	-0.007086
225	-0.0061	-0.009058	-0.002484	0.004912	0.000146	-0.001169	0.002775	-0.006922
226	-0.006429	-0.010538	0.002282	0.005241	0.002118	0.002775	0.002118	-0.004949
227	-0.009551	-0.00725	-0.001991	0.004748	-0.000183	0.002611	-0.00232	-0.007908
228	-0.007415	-0.011359	0.002118	0.005898	0.001625	0.000474	0.001296	-0.005443
229	-0.00725	-0.010373	-0.001334	0.005734	0.001625	0.001296	0.002118	-0.008072
230	-0.006264	-0.010209	0.000803	0.004583	0.00031	0.001296	0.002282	-0.0061
231	-0.007415	-0.008072	0.007542	0.005569	0.004748	0.002447	0.004583	-0.009387
232	-0.010209	-0.010866	0.003268	0.005241	-0.000183	0.000803	0.001789	-0.002155
233	-0.007086	-0.009058	0.001132	0.003597	0.003268	-0.000841	0.003268	-0.007579
234	-0.007415	-0.003635	0.001132	0.006391	0.002447	-0.000347	0.003433	-0.007908
235	-0.010209	-0.004456	0.003433	0.004748	0.002447	-0.004785	0.000474	-0.006757
236	-0.005278	-0.005278	0.000639	0.005076	0.00146	-0.004456	-1.9e-05	-0.005114
237	-0.008565	-0.007908	0.001625	0.002447	0.003104	-0.002155	0.000639	-0.007086
238	-0.005936	-0.005278	0.002775	0.006556	-0.005936	-0.001662	0.00409	-0.007908
239	-0.004292	-0.006757	0.000803	0.004583	0.001296	-1.9e-05	-0.000512	-0.003142
240	-0.007086	-0.005607	-0.000676	0.00409	0.002282	-0.000676	0.002611	-0.007908
241	-0.00988	-0.009223	0.00031	0.005076	0.004255	0.001132	-0.001005	-0.003306
242	-0.008072	-0.004128	-0.000512	0.003761	0.001625	-0.000347	-0.001005	-0.007908
243	-0.008565	-0.007744	-0.001991	0.009843	0.005241	0.002447	0.002118	-0.005278
244	-0.006593	-0.005771	-0.001991	0.007049	0.00031	-0.000841	0.000639	-0.006429
245	-0.006264	-0.009058	-0.001169	0.002775	0.004583	0.002282	0.002775	-0.006429
246	-0.005936	-0.008401	-0.003142	0.008528	0.000967	0.00146	0.00409	-0.007579
247	-0.007908	-0.008401	-0.001169	0.006391	0.002611	0.000146	0.004912	-0.006429
248	-0.004621	-0.007744	0.000967	0.005241	0.002447	0.000474	0.006227	-0.002977
249	-0.012181	-0.005936	0.002447	0.00935	0.002447	-0.003799	0.000803	-0.00232
250	-0.004621	-0.006429	0.00146	0.00672	0.003268	-0.001334	0.004255	-0.002648
251	-0.010209	-0.005278	0.001789	0.005734	0.001789	0.000803	0.004255	-0.004128
252	-0.009223	-0.008565	0.003268	0.002447	0.003597	-0.005771	0.001132	-0.00232
253	-0.008565	-0.005936	0.002282	0.004583	0.006391	-0.002977	0.006062	-0.004292
254	-0.004949	-0.00873	0.001789	0.003433	0.006391	-0.001005	0.003761	-0.005607
255	-0.007908	-0.004785	-0.002813	0.005569	0.002775	-0.003142	0.001789	-0.001498
256	-0.007415	-0.008565	-0.000841	0.001625	0.007049	0.002447	0.005076	-0.005936
257	-0.00725	-0.010538	-0.001662	0.004419	0.002447	-0.000512	0.004912	-0.001991
258	-0.005771	-0.00988	0.00146	-0.001662	0.003597	0.005241	0.002447	-0.005936
259	-0.003306	-0.010045	-0.000512	0.005898	0.002282	-0.000512	0.003761	-0.004292
260	-0.005114	-0.011688	0.002447	0.003433	0.003926	0.00031	0.009021	-0.004621
261	-0.002484	-0.005114	-0.003963	0.005734	0.001296	0.001625	0.001296	-0.004785
262	-0.006593	-0.010373	-0.000676	0.005405	0.000474	0.00031	0.005734	-0.002813
263	-0.004785	-0.006429	0.000146	0.001789	0.004255	-0.002484	0.00409	-0.0061
264	-0.004949	-0.006757	0.000146	0.003761	0.003926	0.001789	0.002447	-0.001827
265	-0.005936	-0.008894	-0.000347	0.005569	0.003104	-0.000347	0.004912	-0.008894
266	-0.005278	-0.008565	0.001625	0.005898	0.005898	-1.9e-05	0.002282	-0.004456
267	-0.005114	-0.008072	0.003597	0.003433	0.014773	-0.003799	0.003433	-0.004949
268	-0.009551	-0.007908	0.000803	0.007213	0.002611	-0.001498	0.00294	-0.002813
269	-0.0061	-0.008894	0.003926	0.005569	0.002447	-0.002977	0.004748	-0.004785
270	-0.000841	-0.007908	-0.000676	0.004912	0.005241	-0.004621	0.007706	-0.001334
271	-0.001662	-0.009387	0.000639	0.005569	0.003761	0.001789	-0.006757	0.002775
272	-0.004785	-0.008401	0.001296	0.006391	0.003597	-0.004785	0.004255	-0.007415
273	-0.004456	-0.010702	0.001954	0.001625	0.00409	0.001625	0.005241	-0.005771
274	-0.003635	-0.00725	0.001132	0.003926	0.003104	-0.003306	0.006062	-0.003963
275	-0.003142	-0.009058	0.006556	0.003268	0.003104	0.000803	0.002282	-0.004949
276	-0.004292	-0.009551	-0.002813	0.00409	0.003104	-0.000183	0.008528	-0.004949
277	-0.004128	-0.014318	0.000474	0.005076	0.001296	0.00294	0.006062	-0.004949
278	-0.001991	-0.008072	0.000474	0.004255	0.00294	-0.000676	0.007049	-0.004785
279	-0.004456	-0.011195	-0.001991	0.006227	0.001625	0.006556	0.005241	-0.00347
280	-0.001991	-0.009387	0.008199	0.005734	-0.001169	-0.001334	0.007706	-0.002155
281	-0.00347	-0.00725	0.006556	0.004419	0.003597	-0.000183	0.007377	-0.001827
282	-0.003142	-0.0061	0.004255	0.004419	-0.001169	0.000803	0.009185	-0.003963
283	-0.005114	-0.006757	0.003597	0.007049	-0.001662	0.002611	0.006062	-0.002977
284	-0.002484	-0.009223	0.003268	0.00294	-0.004128	-0.000512	0.008857	-0.005607
285	-0.005278	-0.005278	0.001954	0.004419	0.006884	-0.002648	0.011815	-0.002648
286	-0.003635	-0.006593	0.004255	0.00031	-0.00232	-0.000841	0.005734	-0.004949
287	-0.004785	-0.002977	0.00031	0.002775	-0.005114	-0.005443	0.008363	-0.00347
288	-0.002813	-0.008401	0.003433	0.001132	0.007049	-0.002813	0.010336	-0.005278
289	-0.004456	-0.003142	0.00031	0.00031	0.004255	-0.001498	0.010171	-0.003799
290	-0.004621	-0.010045	0.001132	0.001132	0.003104	-0.007908	0.006556	-0.004785
291	-0.001827	-0.005771	0.001625	0.005405	0.00031	0.002282	0.00935	-0.004292
292	-0.002648	-0.009387	0.000967	-0.001005	0.00294	-0.002484	0.005734	-0.003635
293	-0.001169	-0.004456	0.002611	0.00031	0.000639	0.002611	0.010007	-0.004292
294	-0.005936	-0.010538	0.004912	0.006227	0.001132	0.000639	0.005241	-0.001169
295	-0.001991	-0.006922	0.000146	0.000474	-0.000676	-0.002484	0.007213	-0.0061
296	-0.004456	-0.00988	0.000474	0.001954	0.000639	0.005569	0.005405	0.001132
297	-0.002155	-0.005443	0.008528	0.003597	-1.9e-05	-0.000183	0.00935	-0.005443
298	-0.006429	-0.009716	0.001625	-0.001334	-1.9e-05	0.00146	0.005241	-0.002155
299	-0.004292	-0.009058	-0.000183	0.000967	0.001296	0.002447	0.011158	-0.006593
300	-0.004949	-0.003963	0.002118	0.002118	0.000146	0.000474	0.012472	0.000474
301	-0.004128	-0.0061	0.003433	0.001789	0.001296	-0.001498	0.009021	-0.002155
302	-0.005114	-0.003635	0.00146	0.002447	0.00031	-0.001991	0.011158	0.000146
303	-0.004621	-0.004128	0.001625	-1.9e-05	0.001954	-0.001005	0.012308	-0.002977
304	-0.00873	-0.000841	0.001625	0.00294	0.001954	0.001789	0.014116	-0.003635
305	-0.004128	-0.002977	0.004583	-0.011031	0.003433	0.002118	0.010829	-0.001827
306	-0.005278	-0.004456	0.002118	0.004255	-0.002155	-0.000676	0.010171	-0.003142
307	-0.0061	-0.005607	0.000639	-0.002813	0.00409	0.003761	0.008528	-0.003963
308	-0.004949	0.003104	-0.009716	0.003104	0.001132	0.00146	0.010171	-0.003799
309	-0.003142	-0.0061	-0.000841	0.00294	0.000803	-0.002648	0.008199	-0.001991
310	-0.00347	-0.005443	0.001132	0.00146	0.002447	-0.000347	0.011651	-0.004785
311	-0.005936	-0.007086	0.003597	0.006391	0.001132	0.000639	0.007213	-0.003306
312	0.000146	-0.002813	0.002611	0.003433	-0.003799	-0.000841	0.010336	-0.003306
313	-0.000512	-0.004621	0.001789	0.004419	-0.002484	-0.000183	0.0105	-0.00988
314	0.004255	-0.007579	0.002118	0.003268	-0.004292	-0.000512	0.011815	-0.004949
315	-0.00232	-0.003799	0.003597	0.003761	-0.001334	-0.000183	0.012965	-0.001991
316	-0.000841	-0.003799	0.004583	0.001132	0.00031	0.000146	0.009021	-0.004621
317	-0.000841	-0.003142	0.003104	0.001132	0.00031	-0.001498	0.009021	-0.002977
318	-1.9e-05	-0.00232	0.00409	0.001132	0.003268	-0.004785	0.012308	-0.001827
319	-0.004785	-0.011524	0.000967	0.002447	0.000639	-0.003799	0.010007	-0.00232
320	-0.005607	-0.004128	0.003104	0.001296	0.002775	-0.002484	0.010007	-0.004949
321	-0.002813	-0.001662	0.001132	0.003926	0.001625	-0.002648	0.011815	-0.001005
322	-1.9e-05	-0.004621	0.005076	0.002611	0.004748	-0.002484	0.007049	-0.001991
323	0.000639	-0.002155	0.002447	0.00146	-0.001334	-0.004949	0.010336	-0.004621
324	0.000474	-0.003963	0.004419	-0.001991	0.00146	0.000639	0.009021	-0.005278
325	-0.010209	-0.002155	0.003104	0.005734	0.000803	-0.002813	0.008035	-0.005278
326	-0.001498	-0.003306	0.007377	-0.003142	0.004255	-0.002155	0.006884	0.000146
327	0.000967	-0.003142	0.002118	-0.001005	-0.001662	-0.001827	0.012965	-0.00725
328	-0.002813	-0.003635	0.003597	-1.9e-05	0.001296	0.000146	0.006556	0.000146
329	0.002447	-0.003306	0.001296	0.000639	0.000474	-0.004785	0.008528	-0.004949
330	-0.001169	-0.004785	0.00146	0.000967	0.001296	-0.001498	0.010007	-0.0061
331	0.001296	-0.010045	-0.001991	0.002118	-0.001991	0.000474	0.010171	-0.003306
332	0.000967	-0.003799	-0.004292	0.001296	-0.002648	-0.000841	0.006391	-0.004292
333	0.000474	-0.002977	0.002775	0.001296	-0.004785	0.00031	0.007706	-0.008072
334	0.000146	-0.001827	-0.000347	0.000146	-0.005607	0.000639	0.008692	-0.002484
335	-0.000676	-0.003963	0.001625	-0.000183	0.001296	-0.000347	0.011979	-0.005443
336	-0.000841	-0.002977	0.006227	0.001132	-0.004128	0.000639	0.012965	-0.004949
337	-0.005114	0.000803	0.004255	0.000803	-0.004292	0.00146	0.010664	-0.004292
338	-0.008401	0.000639	0.003268	0.000639	-0.001662	-0.001498	0.011486	-0.005607
339	-0.003635	-0.002155	0.006062	0.002447	-0.000183	-0.001169	0.006227	-0.006593
340	-0.001827	0.00146	0.002282	0.000146	-0.00347	-0.004785	0.008857	-0.002813
341	-0.001498	-0.00347	0.004419	-0.001334	0.004912	-0.002977	0.006391	-0.008565
342	0.00031	-0.000841	0.004419	0.000639	-0.005278	-0.003142	0.008035	-0.008072
343	-0.003142	0.000474	0.003926	-0.00232	0.000803	-1.9e-05	0.005569	-0.006264
344	0.000146	-0.002813	0.001296	-0.001169	0.000803	-0.003799	0.004419	-0.001662
345	-0.000183	-0.000676	0.002447	-0.004292	-0.000347	-0.002977	0.008035	-0.002813
346	0.00146	-0.001334	0.001789	-0.001827	-0.001662	0.002611	0.010171	-0.005443
347	-0.001169	-0.001005	0.000803	0.001296	-0.002813	-0.001662	0.010336	-0.001827
348	0.002118	0.00031	0.000639	-0.000347	-0.000841	-0.00232	0.010664	-0.004128
349	-0.000841	-0.001334	0.002282	-0.001991	-0.002648	-0.000347	0.012637	-0.003142
350	0.001132	-1.9e-05	0.00409	0.000967	-0.00232	-0.002155	0.011651	-0.008072
351	0.000146	0.00146	0.002282	0.000639	-0.000676	-0.001334	0.011158	0.000474
352	-0.001827	0.004912	0.003597	-0.000841	0.000474	-0.00347	0.017403	-0.011031
353	0.000474	0.002118	0.003926	0.000474	-0.000841	-0.001169	0.014116	-0.003635
354	-0.004785	0.000967	0.003926	-0.000841	-0.002484	-0.004128	0.010829	-0.005114
355	-0.001498	0.005241	0.000146	0.001132	-0.00232	-0.001827	0.011815	-0.004292
356	-0.002648	-0.001005	0.007542	-0.001662	-0.000183	-0.003963	0.011979	-1.9e-05
357	-0.00232	0.000639	0.001625	0.000146	-0.003963	-0.000512	0.011486	-0.005771
358	0.00031	-0.002648	0.003433	-0.001827	-0.000183	-1.9e-05	0.010336	-0.004128
359	-0.001827	-0.001991	-0.001498	-0.000183	-0.002484	-0.002484	0.0105	-0.004785
360	-0.000512	0.000146	0.000146	-0.002155	-0.000183	0.00031	0.011322	0.002447
361	0.001789	0.00294	-0.002813	0.001954	-0.00232	-0.001169	0.010336	-0.005443
362	-0.000183	0.001625	0.000803	-0.002977	0.002447	-0.000347	0.007706	0.000803
363	0.004255	0.002282	0.003104	-0.002648	-0.002484	0.000639	0.012308	-0.007579
364	-0.001334	0.001132	0.005734	-0.000347	-0.001498	0.00146	0.008035	-0.001662
365	0.001132	0.001954	0.003926	-0.00232	-0.003963	-0.000676	0.010171	-0.003635
366	0.000639	0.002611	0.001789	-0.001498	-0.002155	0.00146	0.007377	-0.002155
367	-0.004128	0.002611	0.002775	-0.000676	-0.005607	0.000146	0.007213	-0.004621
368	-0.001169	0.005898	0.00294	0.001789	-0.002813	-0.001827	0.010171	-0.005936
369	-0.001827	0.000639	0.003597	-0.003142	-0.002813	-0.00347	0.009514	-0.003306
370	-0.002155	0.002775	0.001954	0.001132	-0.003635	-0.001827	0.011322	-0.004785
371	-0.004128	0.004419	0.006227	-0.000512	-0.00347	-0.001005	0.00787	-0.002484
372	-0.002648	0.007706	0.004255	0.00031	-0.004785	-0.005114	0.012965	-0.004785
373	-0.001169	0.002118	0.007049	-0.003306	0.001132	-0.003799	0.006556	-0.013003
374	-0.001169	-1.9e-05	0.004748	-0.003799	-0.003635	-0.001334	0.010171	-0.003963
375	0.001132	0.003104	0.005898	-0.007744	-1.9e-05	0.000967	0.009185	-0.005771
376	-0.001334	0.003433	0.004583	-0.002484	-0.003963	-0.002484	0.009678	-0.000841
377	0.000146	-0.001334	0.003268	-0.003306	0.002282	-0.001005	0.007706	-0.002648
378	0.005405	0.000803	0.001625	-0.001827	-0.005114	-0.001662	0.011486	-0.002155
379	0.001132	0.002118	-0.000183	0.001954	-0.000347	0.000146	0.008363	-0.004949
380	0.003433	0.007542	0.002775	-0.003799	-0.004621	-0.00232	0.008528	-0.003142
381	0.003597	0.001296	0.003597	-0.003306	-0.003306	0.000474	0.003433	-0.002155
382	0.002282	0.003761	0.008035	-0.002155	-0.006429	-0.001005	0.010829	0.000146
383	-0.001334	0.005076	0.004419	-0.000347	-0.00873	0.000146	0.008363	0.002118
384	-0.001169	0.003761	0.006391	0.003104	0.001132	-0.001498	0.008199	-0.005278
385	-0.001498	0.005241	0.005076	0.002118	-0.003635	-0.002155	0.010171	-0.002813
386	0.002447	0.003597	0.002282	-0.008401	-0.001991	0.003268	0.005076	-0.004949
387	-0.006593	0.003433	0.001954	-0.001334	-0.00232	-0.000512	0.007706	-0.004456
388	-0.002484	0.004583	0.003926	-0.0061	-0.000512	0.004583	0.002447	-0.007415
389	0.000639	0.004748	0.004419	-0.00347	-0.006757	-1.9e-05	0.005076	-0.006593
390	0.00294	0.001954	0.003104	-0.00347	-0.002648	0.003597	0.005405	-0.002484
391	0.003761	0.00672	0.001132	0.001789	0.000474	-0.003635	0.006227	-0.001498
392	0.00146	0.00294	0.003268	-0.006593	0.000474	-0.001334	0.003104	-0.001827
393	0.004748	0.005569	0.004748	-0.00232	-0.003963	-0.002813	0.011651	-0.003142
394	0.006062	0.00409	0.00409	-0.002648	0.000639	-0.002155	0.003433	-0.001498
395	0.006556	0.00409	0.002775	-0.006429	0.003104	-0.004292	0.007049	-0.001827
396	0.001625	0.002447	0.00294	-0.005278	-0.002813	-0.000512	0.005569	-0.001991
397	0.004912	0.006391	0.004419	-0.005771	0.00146	-0.001991	0.005734	-0.002484
398	0.003433	0.002775	0.00294	-0.003306	-0.005278	0.003104	0.005076	-0.001005
399	0.003268	0.00146	0.003268	-0.007415	-0.005278	-0.001662	0.001296	-0.00232
400	0.001954	0.001625	-0.000183	-0.011524	-0.00232	-0.000183	0.003268	-0.003799
401	0.001625	0.00787	0.005076	-0.004621	-0.004949	0.000967	0.007377	-0.002155
402	-0.000512	0.003926	0.001789	-0.004292	-0.00347	-0.004128	0.008692	-0.001662
403	0.002775	0.00146	0.002611	-0.007908	-1.9e-05	-0.001498	0.007377	-0.004785
404	0.000639	0.003761	0.003597	-0.005936	-0.002648	-0.005278	0.008857	-0.00347
405	-0.000183	0.003433	0.003433	-0.005278	-0.000183	-0.004785	0.004583	-0.003306
406	0.003268	0.005076	0.000967	-0.004949	0.000146	-0.004292	0.010171	-0.004128
407	0.00031	0.000967	0.005569	-0.004292	0.000474	-0.002648	0.004583	-0.002484
408	0.006227	0.005569	0.005076	-0.003306	-0.002155	0.000803	0.003104	0.003433
409	0.002282	0.004255	0.003597	-0.007415	0.000639	0.001789	0.004912	-0.000512
410	0.004748	0.004748	0.004583	-0.005771	0.00031	-0.004128	0.00672	0.00031
411	0.005076	0.003761	0.00294	-0.005771	-0.005443	-0.002648	0.008199	-0.000676
412	0.008528	0.003761	0.001296	-0.004785	-0.001169	-0.002155	0.009843	0.000803
413	0.003761	0.008528	0.003433	-0.005114	-0.002484	-0.001498	0.006391	-0.000676
414	0.006884	0.002447	0.000967	-0.005936	-0.002484	-0.001498	0.005405	0.000639
415	0.008035	0.001132	0.003104	-0.00347	-0.002484	-0.000512	0.0105	0.001954
416	0.006227	0.004419	0.004419	-0.003799	-0.004456	-0.003635	0.003926	0.000967
417	0.003268	0.002775	0.000803	-0.006757	-0.006757	-0.00232	0.004419	-0.00347
418	0.004583	0.003597	0.006227	-0.005771	-0.004292	-0.004621	0.007213	-0.000841
419	0.001954	0.003433	0.004583	-0.004621	-0.004785	0.001789	0.004912	-0.001827
420	0.003926	0.005076	0.005076	-0.013825	-0.00232	-0.002484	0.006391	-0.00347
421	0.001625	0.002447	0.003104	-0.004621	-0.003799	-0.001005	0.005076	-0.000841
422	0.00031	0.003268	0.007542	-0.011195	-0.003306	-0.000841	0.004255	-0.001827
423	0.004912	0.007213	0.004583	-0.003963	-0.002977	0.002118	0.004583	-0.001827
424	-0.000841	0.000639	0.006391	-0.008072	-0.001991	-0.001169	0.003268	-0.001334
425	0.006884	0.006062	0.002118	-0.004456	-0.004456	-0.003799	0.004912	0.000146
426	0.00409	0.003597	0.006227	-0.0061	-0.001169	0.000474	0.003761	0.000967
427	0.005569	0.003597	0.003761	-0.005114	-0.002977	-0.002484	0.004912	0.00031
428	0.005405	0.00409	0.005734	-0.008401	-0.002484	-0.001991	-0.001169	0.002447
429	0.006556	0.002118	0.004583	-0.00725	-0.001169	-0.002813	0.002282	0.000146
430	0.005569	0.007049	0.009514	-0.005936	-0.001827	0.000474	0.000146	0.00146
431	0.005405	0.005241	0.005734	-0.009223	-0.00347	0.005241	0.002118	-0.000841
432	0.004419	0.00294	-1.9e-05	-0.006264	-0.005607	0.001954	-0.000841	0.002611
433	0.00935	0.003104	0.001296	-0.008237	-0.002155	0.000146	0.003597	0.000803
434	0.006884	0.004255	0.002611	-0.004456	-0.005936	0.001625	0.001954	-0.002648
435	0.004748	0.004912	0.00409	-0.005278	-0.00232	0.000639	0.002775	-0.002813
436	0.006062	0.005734	0.001132	-0.008401	-0.004456	-0.003142	0.001954	-0.002813
437	0.001789	0.001625	0.005898	-0.009551	-0.000347	-0.002484	0.008035	-0.004621
438	0.005076	0.003597	0.003104	-0.006429	-0.005114	0.003433	0.002775	-0.001827
439	0.005734	0.002118	0.005569	-0.010045	-0.0061	0.003761	-0.006264	-0.000841
440	0.006062	0.003926	0.003104	-0.007744	0.003104	-0.002977	-0.000512	-0.001005
441	0.007706	0.003104	0.005734	-0.008237	0.003268	0.001789	-0.004128	-0.002484
442	0.005569	0.005241	0.004419	-0.007908	-0.001827	-0.001334	-0.002155	-0.000183
443	0.008363	0.003104	0.005898	-0.009058	0.002118	0.00146	0.000146	-0.001334
444	0.010993	0.003597	0.000146	-0.011031	0.001296	-0.00347	-0.000347	-0.000841
445	0.005569	0.003104	0.008363	-0.008565	-1.9e-05	0.000803	-0.001662	0.001625
446	0.007213	0.003761	0.002775	-0.008072	-0.000841	-0.002155	-0.000183	-0.002155
447	0.006062	-1.9e-05	0.002282	-0.00873	-0.002484	-1.9e-05	-0.003306	0.001954
448	0.006227	0.003926	0.003433	-0.005278	0.00146	0.00031	-0.011359	0.000474
449	0.004583	0.001954	0.002775	-0.003963	-0.001662	-0.000183	-0.003635	-1.9e-05
450	0.00935	0.005076	0.004419	-0.012346	-0.004456	0.002282	-0.000183	0.000967
451	0.00787	0.000639	0.003104	-0.011688	-0.001498	-0.00232	-0.000183	0.002447
452	0.00409	0.001132	0.00935	-0.009716	-0.006922	-0.000512	-0.003306	-0.003799
453	0.005076	0.001132	-0.001662	-0.012017	-0.001662	-0.003963	-1.9e-05	-0.002155
454	0.008857	-0.001169	0.004419	-0.01251	-0.000347	-0.001991	-0.004292	-0.003963
455	0.006391	0.001954	0.00294	-0.011688	-0.001005	-0.001498	0.000474	-0.000841
456	0.005076	-0.000676	0.007213	-0.007744	-0.002648	0.000803	-0.001991	-0.002648
457	0.006556	0.000639	0.003268	-0.005443	-0.001991	-0.002977	-1.9e-05	-0.001498
458	0.00787	0.00031	0.001625	-0.008237	0.002447	-0.001334	-0.003142	-0.001498
459	0.009514	0.008035	0.000639	-0.008072	-0.002648	-0.005936	-1.9e-05	-0.001991
460	0.008857	0.002282	0.004419	-0.007086	0.000803	-0.00347	-0.004621	-1.9e-05
461	0.008363	0.002447	0.005405	-0.008072	-0.005278	-0.003142	-0.007908	-0.001498
462	0.008199	-0.000512	0.009843	-0.010373	0.00146	-0.00347	-0.004456	0.001296
463	0.007542	-0.000841	0.002118	-0.009223	-1.9e-05	-0.000347	-0.006264	-0.00232
464	0.003268	-0.001005	0.003926	-0.009387	0.000146	0.000474	-0.006922	0.005241
465	0.0105	0.002282	0.002282	-0.009058	-0.001334	0.000967	-0.002648	-0.003963
466	0.007213	-0.000347	0.003433	-0.008565	-0.001169	-0.002648	-0.002648	-0.003142
467	0.01313	-0.000347	0.003433	-0.00725	-0.007744	0.003104	-0.002648	-0.002484
468	0.008035	0.000803	0.00409	-0.009551	-0.005607	-0.00232	-0.000183	-0.003142
469	0.010664	-0.005114	0.003104	-0.010702	-0.003799	-0.000347	-0.00232	-0.006429
470	0.005405	-0.002484	0.004748	-0.012346	-0.005278	-0.002813	-0.003635	-0.002648
471	0.009185	0.001789	0.005569	-0.004621	-0.001498	-0.000183	-0.004785	-0.003306
472	0.005405	-0.001498	0.003433	-0.006922	-0.002155	-0.002648	-0.00347	-0.002648
473	0.005898	-0.003142	0.006884	-0.008894	0.000146	0.000474	-0.004292	-0.000841
474	0.006391	0.001132	0.008857	-0.00725	-0.002155	-0.000512	-0.002155	-0.000512
475	0.003761	-0.006757	0.005569	-0.004949	-0.000841	-0.000347	-0.003306	-0.001662
476	0.009678	0.000146	0.002775	-0.007415	-0.001005	-0.002484	0.001789	-0.003306
477	0.007377	-0.002977	0.005405	-0.01366	0.001296	0.000146	-0.001991	-0.000676
478	0.009843	-0.001169	0.009021	-0.004621	0.000639	-0.013825	-0.002977	0.000474
479	0.006391	-0.001662	0.004583	-0.009387	-1.9e-05	-0.002813	-0.003799	-0.005278
480	0.010336	-0.000347	0.002118	-0.010373	-0.000183	-0.003142	-0.003142	-0.000183
481	0.004419	0.000474	0.005569	-0.008565	-0.003306	-0.002484	-0.004621	-0.002484
482	0.00672	-0.000183	0.004255	-0.021714	-0.005771	-0.000676	-0.004292	-0.002648
483	0.005405	-0.000676	0.006391	-0.008894	-0.002484	0.003926	-0.004292	-0.002977
484	0.007213	-0.001498	0.010007	-0.010538	-0.000347	0.001296	-0.004785	-0.002648
485	0.006884	0.004912	-0.007744	-0.010538	-0.002813	0.00294	-0.002155	-0.002648
486	0.003433	-0.002813	0.004912	-0.004785	-0.001498	0.000639	-0.003963	-0.006429
487	0.004748	0.00146	0.00409	-0.007744	-0.003799	-0.002813	-0.001827	-0.004456
488	0.009021	-0.002155	0.003433	-0.00873	-0.001498	0.00409	-0.004621	-0.003142
489	0.004748	-1.9e-05	0.002611	-0.002648	-0.010209	0.000967	-0.002813	-0.005607
490	0.005076	-0.001498	0.003433	-0.009387	-0.001334	-0.002648	-0.008072	-0.004456
491	0.011322	-0.001662	0.003433	-0.005936	0.000639	-0.000676	-0.002648	-0.001662
492	0.002447	0.00146	0.006556	-0.008894	-0.003963	-0.004621	-0.007579	-0.000512
493	0.005405	0.004419	0.006391	-0.010866	-0.00232	-0.001662	-0.002648	0.001132
494	0.003597	-0.000841	0.004912	-0.010373	-0.003963	0.002118	-0.005771	-0.001334
495	0.00031	0.001132	0.004419	-0.008401	-1.9e-05	-0.004456	-0.005443	0.002282
496	0.003597	0.002775	0.003268	-0.009716	-0.000183	-0.002155	-0.005936	0.001296
497	0.001954	-0.000841	0.002447	-0.009716	-1.9e-05	-0.001005	-0.004292	-0.003799
498	0.001625	-1.9e-05	0.003104	-0.009716	-0.00232	0.000474	-0.005936	0.000639
499	0.006556	0.000967	0.005569	-0.00988	-0.001662	0.001625	-0.006757	-0.004128
500	0.003761	-0.000676	0.003268	-0.004785	-0.00347	0.000474	-0.001662	-0.001991
501	0.005569	-0.004785	0.004419	-0.006922	-0.00347	-0.001169	-0.005607	-0.002977
502	-0.004456	-0.003306	0.003433	-0.007086	-0.003799	-0.001334	-0.00232	0.002775
503	0.002775	-0.000183	0.00672	-0.008401	-0.001991	0.001954	-0.004456	0.001296
504	0.00146	0.006227	0.004419	-0.009716	-0.001991	-0.005278	0.000474	-0.000183
505	0.002775	-0.000676	0.00294	-0.009551	-0.002155	0.002611	-0.002648	-0.002648
506	0.00146	0.001625	0.002775	-0.006429	-0.002813	-0.001827	-0.001827	-0.001662
507	0.000146	-0.006264	0.007213	-0.007744	-0.002155	-0.000347	-0.006757	-0.002484
508	0.004255	0.001296	0.003433	-0.006264	-0.003635	0.002447	-0.003142	-0.001662
509	0.005734	-0.004128	0.003268	-0.007744	0.003597	-0.000841	-0.005114	-0.001827
510	0.006227	-0.001005	0.001625	-0.006593	0.000803	-0.001498	-0.011031	-0.000183
511	-0.001662	-0.003142	0.003761	-0.007415	0.000474	0.006227	-0.003963	-0.001991
512	0.002118	-0.001169	0.005734	-0.006429	-0.001662	-0.000183	0.000639	-0.00347
513	-0.000183	0.000639	0.008199	-0.006429	0.003104	-0.000512	0.000146	0.000639
514	-0.000512	0.000639	0.007049	-0.007086	-0.006593	0.001132	-0.004456	-0.001991
515	-0.000841	-0.001005	0.004583	-0.004785	-0.002648	-0.001662	-0.004128	-0.001169
516	0.00409	-0.000512	0.005734	-0.008401	-0.002484	0.000146	-0.00232	-0.004292
517	0.002447	-0.001827	0.002611	-0.007908	-0.005607	-0.001662	-0.002813	-0.001991
518	0.003926	-0.001827	0.005241	-0.00873	-0.005443	-0.002813	-0.00347	-0.002813
519	0.005569	-0.001334	0.000146	-0.00725	-0.005114	0.000639	-0.001991	-0.002648
520	0.003926	-0.00347	0.007377	-0.003635	-0.00347	0.000474	-0.004456	-0.005936
521	0.008035	-0.003142	0.002447	-0.006757	-0.001827	-0.003635	-0.002484	-0.004949
522	0.003268	-0.005771	0.004419	-0.013989	-0.001991	-0.001169	-0.00347	-0.004128
523	0.001132	-0.004128	0.001789	-0.005278	-0.003306	0.002447	-0.001662	-0.004785
524	0.000967	0.000474	0.006062	-0.008401	-0.00347	-0.000183	-0.005443	-0.002813
525	0.000474	-0.00347	0.002611	-0.0061	-0.001334	-0.001169	-0.001991	-0.004949
526	-0.001498	-0.003799	0.00935	-0.006264	-0.000512	-1.9e-05	-0.006429	-0.001827
527	0.002447	0.004912	0.006062	-0.004456	-0.004292	-0.002813	-0.002813	-0.00232
528	0.001296	0.000639	0.003433	-0.007415	0.001296	-0.000347	-0.0061	0.00031
529	-0.001334	-0.000183	0.002611	-0.006922	-0.001662	-0.003963	-0.005771	-0.005607
530	0.002611	0.00031	0.004912	-0.005607	-0.001169	0.002118	-0.005443	-0.003963
531	0.002775	-0.001005	0.004255	-0.00988	-0.002484	-0.002484	-0.004456	-0.002155
532	0.001954	-0.000512	0.00409	-0.007908	-0.007415	-0.000512	-0.006922	-0.004128
533	0.003104	-0.001991	0.003761	-0.010209	-0.002155	-0.002155	-0.005771	-0.001991
534	0.000803	-0.002155	0.001625	-0.006264	-1.9e-05	0.00409	-0.004949	-0.002155
535	0.002611	-1.9e-05	0.001789	-0.009716	-0.003306	-0.000183	-0.005443	-0.005114
536	-0.002977	0.000474	0.00146	-0.009387	-0.006922	0.001132	-0.005278	-0.000841
537	-0.001005	-0.001169	0.004583	-0.006593	-0.001991	-0.001169	-0.002813	-0.005443
538	0.001625	0.001296	0.00409	-0.003142	-0.006757	-0.001005	-0.002977	-0.001827
539	0.001296	-0.001662	0.005569	-0.005607	-0.001334	0.001954	-0.003799	-0.001827
540	-0.00232	-0.000676	0.002447	-0.004456	-0.002648	-0.00232	-0.001662	-0.007086
541	-0.001991	-1.9e-05	0.006884	-0.005607	-0.003799	0.00146	-0.002648	-0.005278
542	-0.00347	-1.9e-05	0.002775	-0.003963	-0.007415	-0.001005	-0.000676	-0.010209
543	-0.001662	-0.000183	0.004912	-0.005278	0.001132	0.00031	-0.005936	-0.005443
544	-0.001662	0.000639	0.002775	-0.007579	-0.002155	0.00031	-0.003306	-0.005771
545	-0.00232	-0.000347	0.005076	-0.007579	-0.000841	0.00146	-0.004128	-0.007086
546	0.000967	0.001625	0.00409	-0.006429	-0.005771	-0.000183	-0.005278	-0.001991
547	0.00031	-0.001334	0.002282	-0.005114	-0.001005	-0.004128	-0.002155	-0.000841
548	-0.001991	0.002775	0.005898	-0.008401	-0.002648	0.001132	-0.00347	-0.00347
549	-0.003142	-0.001169	0.004748	-0.010045	-0.005278	0.001132	-0.000676	0.000146
550	-0.001169	-0.002155	0.002775	-0.010538	-0.001827	-0.000512	-0.004128	-0.007908
551	-0.003799	-0.001827	0.003104	-0.008565	-0.001169	0.00146	-0.004128	-0.003306
552	-0.003799	-0.00347	0.004255	-0.007744	-0.004128	0.000803	-0.004785	-0.002155
553	-0.007086	0.000803	0.000967	-0.009223	-0.003142	0.000639	-0.001169	-0.002648
554	-0.007579	-0.000676	0.000474	-0.007086	-0.001991	0.00294	-0.002648	-0.004949
555	-0.004292	0.002447	0.001625	-0.004456	-0.005443	-0.000347	-0.001169	-0.00347
556	-0.005443	-0.001334	-0.002484	-0.004456	-0.002648	0.003104	-0.004456	-0.012017
557	-0.00873	-0.000347	-0.004621	-0.003306	-0.005936	0.004255	-0.001005	-0.003963
558	-0.00347	-0.001334	0.004419	-0.005114	-0.004128	0.003104	-0.004621	0.000146
559	-0.007908	-0.003963	0.002447	-0.002977	-0.005114	-0.000841	0.001296	-0.001827
560	-0.003963	-0.004621	0.003104	-0.005278	-0.00232	0.000967	-0.001827	0.002118
561	-0.00725	0.003761	-1.9e-05	-0.004128	-0.00232	0.002282	-0.001169	-0.001991
562	-0.007415	0.000474	-0.001827	-0.007908	0.005405	-0.002155	-0.003142	-0.001662
563	-0.003306	0.004583	0.003104	-0.004292	-0.005771	-0.001169	-0.000347	-0.001991
564	-0.008072	0.00031	0.001789	-0.005936	-0.002648	-1.9e-05	-0.014153	-0.000512
565	-0.004949	-0.001498	0.003926	-0.007744	0.001625	0.000146	-0.006757	-0.00347
566	-0.005936	-0.002155	0.003104	-0.008401	-0.004128	0.000639	-0.003306	-0.000512
567	-0.007086	-0.001334	0.002282	-0.00873	-0.007415	0.003104	-0.005278	-0.003963
568	-0.006922	-0.003635	0.002118	-0.001005	-0.007908	-0.001498	-0.00232	0.003104
569	-0.003306	-0.001991	0.004748	-0.007415	-0.006264	-0.002648	-0.004785	0.000146
570	-0.005443	-0.000183	0.00146	-0.007908	-0.005936	-0.000676	-0.003306	-0.000676
571	-0.003799	-0.004621	0.003761	-0.005114	0.00031	0.00031	-0.005114	-0.002155
572	-0.003142	0.000146	0.00146	-0.000183	-0.005936	-0.002977	-0.006922	-0.003799
573	-0.008237	-0.001991	0.005076	-0.006264	-0.000512	0.001132	-0.006757	-0.00347
574	-0.007908	0.000474	0.004583	-0.002977	-0.005771	0.000146	-0.004128	-0.003306
575	-0.010209	-0.002977	0.001789	-0.002155	-0.001827	0.000967	-0.005771	-0.00347
576	-0.008401	-0.001991	0.003597	-0.001827	-0.014647	0.00146	-0.004456	-0.001005
577	-0.010373	-0.003306	0.00031	-0.004621	-0.003963	0.000639	-0.007908	0.00409
578	-0.004128	0.003433	-0.000183	-0.003306	-0.00725	-0.000512	-0.005114	0.00146
579	-0.007579	0.000967	0.002611	-0.003963	-0.004456	0.002611	-0.005114	0.001789
580	-0.006757	0.000474	0.006884	-0.004128	-0.005114	0.003104	-0.004621	-0.001991
581	-0.010373	0.003597	-0.000183	-0.006593	-0.006264	0.000146	-0.004785	0.000474
582	-0.0061	-0.000841	0.006227	-0.006757	-0.002813	0.000803	-0.009058	-0.008401
583	-0.007086	0.003433	0.000474	-0.005443	-0.001662	0.001625	-0.006757	-0.001498
584	-0.00725	-1.9e-05	0.002447	-0.00725	-0.002813	-0.001334	-0.007415	-0.006429
585	-0.00725	-0.003635	0.005076	-0.004621	-0.001662	-0.001662	-0.005936	-0.005443
586	-0.011195	0.001132	0.003761	-0.001662	-0.002484	0.003926	-0.007415	-0.006922
587	-0.005607	0.002447	0.001954	-0.007086	-0.002648	-0.004128	-0.008565	-0.004785
588	-0.004785	0.000146	0.005734	-0.005443	-0.004785	0.000639	-0.00725	-0.006429
589	-0.008237	0.001132	0.000803	-0.003306	-0.006429	0.001132	-0.007744	-0.007086
590	-0.008401	-0.002484	0.001954	-0.003799	-0.00232	-1.9e-05	-0.012674	-0.009551
591	-0.008072	-0.001334	0.00146	-0.001498	-0.007086	-0.001169	-0.010045	-0.007744
592	-0.011031	0.001132	0.002447	-0.004621	-0.004128	0.000639	-0.009716	-0.009716
593	-0.00725	0.001954	0.003104	-0.001334	0.000146	-0.001005	-0.005607	-0.007415
594	-0.011359	0.000967	0.00409	-0.003963	-0.002155	0.00146	-0.006429	-0.003142
595	-0.007744	0.002447	0.004419	-0.004785	-0.004621	-0.002813	-0.005607	-0.00347
596	-0.006922	0.002775	0.004255	-0.005278	-0.001991	0.001954	-0.005771	-0.004949
597	-0.007415	-0.000676	0.00294	-0.007086	-0.002977	-0.00232	-0.004292	-0.004949
598	-0.008894	0.00146	0.002118	-0.00725	-0.003142	0.000639	-0.008894	-0.003635
599	-0.007086	-0.000841	0.002611	-0.00725	-0.005607	0.000146	-0.004785	-0.005114
600	-0.008072	-0.000347	0.001789	-0.008072	-0.003963	-0.000183	-0.007415	0.000639
601	-0.00873	-0.003306	0.003268	-0.003635	-0.002484	-0.003142	-0.0061	-0.004949
602	-0.010866	-0.001991	0.000474	-0.005936	-0.005607	0.001132	-0.0061	-1.9e-05
603	-0.008072	0.002775	0.004583	-0.006429	-0.004949	-0.00347	-0.003142	-0.001169
604	-0.009058	0.002118	0.001296	-0.006264	-0.005771	0.001954	-0.005936	0.000639
605	-0.011359	-0.000512	0.003268	-0.008401	-0.006593	0.000803	-0.004785	-0.001005
606	-0.00873	0.002611	-0.000347	-0.000841	-0.005607	-0.001991	-0.004785	-0.000183
607	-0.008894	-0.001169	0.000639	-0.004292	-0.005278	0.00146	-0.006429	-0.001991
608	-0.011031	-0.000183	-0.004949	-0.003142	-0.006757	0.000639	-0.004456	-0.00232
609	-0.008565	-0.000347	0.002447	-0.00347	-0.005607	0.000803	-0.011195	-0.002977
610	-0.008401	0.002447	0.000474	-0.004128	-0.004128	-0.002484	0.003268	-0.00347
611	-0.011852	0.006556	0.003926	-0.001827	-0.005607	0.00146	-0.006593	-0.000841
612	-0.005114	0.002775	0.004583	-0.005443	-0.004292	-0.009058	-0.003799	-0.003142
613	-0.00725	0.001625	0.002118	-0.004621	-0.002813	-0.001005	-0.007415	0.002118
614	-0.008237	-0.001827	0.002447	-0.004621	-0.003635	-0.00347	-0.000183	-0.000183
615	-0.007908	0.004583	-0.000676	-0.003142	-0.003799	-0.004292	-0.006922	0.001625
616	-0.011031	-0.001005	0.003597	-0.005278	-0.001991	-0.000676	-0.004621	-0.000841
617	-0.009716	0.002118	-1.9e-05	-0.007086	-0.011852	-0.003799	-0.005771	0.003597
618	-0.00873	0.002775	0.001132	-0.008401	-0.003306	-0.002648	-0.005114	0.000967
619	-0.010045	-0.000347	-1.9e-05	-0.004621	-0.008237	-0.000676	-0.004949	0.001789
620	-0.005278	-0.000183	0.00031	-0.005443	-0.004292	-0.001991	-0.009058	0.000967
621	-0.005443	0.001132	0.000803	-0.000841	-0.002813	-0.000183	-0.00232	0.000803
622	-0.007086	-0.001662	0.000146	-0.004621	-0.004456	0.003104	-0.013003	-0.000841
623	-0.010045	0.002611	-0.003963	-0.007086	-0.005607	-0.001662	-0.003142	-0.000347
624	-0.010702	-0.002484	-0.001169	-0.003799	-0.004292	0.00294	-0.003963	0.001296
625	-0.010209	0.003104	0.000639	-0.004456	-0.004949	-0.001005	-0.007908	-0.00347
626	-0.011359	0.00146	-0.000841	-0.003142	-0.005278	0.001625	-0.008565	-0.001005
627	-0.013825	-0.003306	-0.001169	-0.002813	-0.008565	0.001132	-0.004128	-0.00347
628	-0.011688	0.000967	0.003104	-0.002813	0.001625	-0.002484	-0.006593	-0.000347
629	-0.00725	0.004419	0.003926	-0.003963	-0.005114	0.001954	-0.004621	0.001789
630	-0.011852	0.00294	-1.9e-05	-0.002648	-0.0061	0.002611	-0.005114	-0.001662
631	-0.007086	0.00409	0.002611	-0.003635	-0.0061	0.00031	-0.007086	0.000639
632	-0.00988	0.003597	0.001954	-0.006757	-0.004621	0.001789	-0.002155	0.002611
633	-0.005771	0.00146	0.000639	-0.002813	-0.002648	0.001954	-0.004785	0.00031
634	-0.009058	0.001789	0.003268	-0.003142	-0.003799	-0.000676	-0.0061	0.003268
635	-0.002155	0.003268	0.003926	-0.005936	-0.002484	0.00031	-0.006429	0.001132
636	-0.013825	0.005898	0.000474	-0.003142	-0.003799	0.000967	-0.009223	-0.000347
637	-0.009058	0.003597	0.000639	-0.001169	-0.001334	-0.004456	-0.013003	0.000967
638	-0.006593	0.00294	0.000146	-0.003635	-0.004292	0.002447	-0.005443	0.000146
639	-0.012181	0.001954	-0.001498	-0.003963	-0.004292	-0.000841	-0.006593	-0.002977
640	-0.00988	0.002282	-0.002155	-0.002813	-0.00347	0.003433	-0.008894	-0.002813
641	-0.012346	0.002282	-0.002977	0.001132	-0.00232	0.005734	-0.007086	-0.001498
642	-0.007908	0.005076	-0.002155	-0.001991	-0.004456	0.003104	-0.007086	-0.002813
643	-0.010866	0.001132	-0.000676	-0.003635	-0.00232	0.001132	-0.007086	-0.001498
644	-0.006922	0.003433	-0.000183	-0.003306	-0.006593	0.008363	-0.005114	-0.000347
645	-0.007579	0.005076	-0.001005	-0.002155	-0.003635	-0.001334	-0.006593	0.001296
646	-0.00988	-1.9e-05	0.000803	-0.001334	-0.004621	0.000146	-0.005443	-0.001991
647	-0.014811	0.004583	0.001132	-0.001005	-0.003963	0.00146	-0.006757	0.000967
648	-0.009551	0.003761	0.002611	-0.000183	-0.005114	0.00031	-0.006922	-0.00347
649	-0.011524	0.005405	0.000803	-0.0061	-0.003306	-0.000183	-0.0061	0.002447
650	-0.008401	0.003761	0.002447	-0.005771	-0.001662	0.001132	-0.006757	0.001132
651	-0.011031	0.004419	0.001789	-0.002155	-0.004621	0.000967	-0.007415	0.000967
652	-0.008401	-0.001827	-0.000512	-0.00725	-0.003963	0.001132	-0.009551	0.000146
653	-0.008565	0.003433	-0.000347	-0.004456	-0.00347	0.000803	-0.004292	0.000967
654	-0.006429	0.00294	-0.002155	-0.0061	-0.004292	0.002118	-0.006264	-1.9e-05
655	-0.009058	0.003268	-0.004128	-0.002484	-0.005771	-0.007415	-0.007086	-0.001662
656	-0.011195	0.001625	0.000146	-0.002648	-0.00347	0.002447	-0.008237	-0.001498
657	-0.00725	0.001132	-0.005278	-0.001334	-0.004621	-0.002155	-0.007908	-0.000183
658	-0.00873	0.001132	-0.002484	-0.00347	-0.002813	0.005241	-0.007086	-0.000512
659	-0.007415	0.004748	-0.001827	-0.003963	-0.007086	-0.002648	-0.009058	-0.002484
660	-0.008072	0.002118	-1.9e-05	-0.005607	-0.005278	0.00031	-0.013825	-0.002813
661	-0.009387	0.005898	0.002118	-0.003306	-0.006429	0.002775	-0.001827	-0.001005
662	-0.011852	0.000803	-0.002813	-0.001334	-0.004785	0.005569	-0.010373	-0.000512
663	-0.0061	0.004583	-0.003799	-0.004292	-0.003142	-0.001005	-0.003635	-0.003142
664	-0.00873	0.00031	0.001132	-0.001991	-0.002484	0.001954	-0.005278	-0.001498
665	-0.005936	0.001954	0.002447	-0.002648	-0.001334	-0.001991	-0.012346	0.00031
666	-0.007086	0.004419	-0.001005	-0.001334	-0.002813	-0.004292	-0.006429	0.000146
667	-0.007579	0.003433	0.000803	-0.002155	-0.006757	-0.004621	-0.006922	-0.001827
668	-0.001991	0.00294	-0.000183	-0.001498	-0.007744	-0.002484	-0.008894	0.003104
669	-0.008237	0.003433	0.001296	0.001625	-0.003799	-0.001827	-0.010373	0.001954
670	-0.006922	0.004255	0.000474	-0.003635	-0.004621	-0.003963	-0.007415	0.000803
671	-0.005114	0.000803	0.001132	-0.00725	-0.006429	-0.001169	-0.011031	-1.9e-05
672	-0.005443	0.000474	-0.003635	-0.001991	-0.005278	0.002118	-0.009223	0.002611
673	-0.006429	0.005734	0.000474	0.00031	0.002118	0.001132	-0.009551	-0.002484
674	-0.008894	0.002775	-0.002977	-0.001005	-0.00873	-0.000841	-0.011031	-0.001334
675	-0.005607	-0.003142	-0.001334	-0.003306	-0.003799	0.004255	-0.008237	-0.001169
676	-0.006429	0.004912	0.002611	0.002775	-0.006429	-0.002155	-0.009551	0.000803
677	-0.007086	0.001132	-0.004949	-0.001334	-0.005443	0.000803	-0.011195	-1.9e-05
678	-0.00347	0.002611	0.003761	-0.001827	-0.004292	-0.003142	-0.010045	0.00031
679	-0.015633	0.004912	0.00146	-0.001827	-0.004128	-0.001334	-0.007415	0.003761
680	-0.005278	0.008199	0.000967	-0.001498	-0.003799	-0.00347	-0.005936	-0.000183
681	-0.007086	0.007049	0.002611	-0.004292	-0.005607	-0.001498	-0.004128	0.002282
682	-0.0061	0.005734	-0.001334	-0.005443	-0.005771	-0.004128	-0.011195	0.00146
683	-0.004621	0.004748	-0.001662	-0.004128	-0.005607	-0.001991	-0.009716	0.003433
684	-0.005607	-0.004785	0.001625	-0.004949	-0.002813	-0.003635	-0.011359	-0.000183
685	-0.006757	0.007377	-0.004621	-0.003635	-0.004949	-0.003963	-0.010866	0.003268
686	-0.002977	0.006227	-0.005771	-0.004621	-0.001498	0.000803	-0.011688	-0.003799
687	-0.006922	0.00409	-0.004949	-0.003963	-0.000841	-0.002648	-0.015797	0.000967
688	-0.001827	0.005076	-0.005936	-0.005114	-0.001827	0.002611	-0.01629	0.001954
689	-0.003306	0.006556	-0.005114	-0.001991	-0.005771	0.000803	-0.010702	-0.001498
690	-0.006429	0.004912	-0.001662	-0.002977	-0.00232	-0.000841	-0.01251	0.000146
691	-0.004128	0.009021	-0.000347	-0.000347	-0.00347	-0.001498	-0.013496	-0.001334
692	-0.003635	0.005734	-0.004128	-0.004949	-0.005114	0.00146	-0.009223	0.000967
693	-0.005114	0.006884	-0.00232	-0.001169	-0.006922	-0.001005	-0.009223	0.004748
694	-0.002813	0.005076	-0.00232	-0.003142	-0.00873	-0.001169	-0.011524	0.00294
695	-0.00873	0.005898	-0.002484	0.000146	-0.005114	0.000474	-0.010045	-0.000183
696	-0.004785	0.005569	0.000967	-0.005443	-0.003142	0.003597	-0.00873	0.001296
697	-0.002813	0.005898	-0.002813	-0.006264	-0.003799	-0.004456	-0.009387	-0.001005
698	-0.004621	0.009185	-0.002155	-0.003306	-0.001498	0.002282	-0.011359	0.002282
699	-0.002813	0.007377	-0.001169	-0.005771	-0.004785	-0.002484	-0.009716	-0.000676
700	-0.002813	0.009678	-0.00232	-0.000841	-0.003142	0.001132	-0.013167	0.002611
701	0.000639	0.008363	0.001132	-0.007908	-0.002155	-0.001498	-0.012181	0.001625
702	-0.003142	0.008692	-0.004128	-0.000347	-0.004128	-0.001827	-0.013167	0.004255
703	-0.005114	0.00935	-0.002813	-0.00232	-1.9e-05	0.000803	-0.012181	0.002447
704	-0.006593	0.00787	-0.007579	0.001625	-0.004292	-0.000676	-0.012181	0.005898
705	-0.002813	0.007213	-0.003635	-0.001005	0.000474	0.003104	-0.014811	0.006391
706	-0.005443	0.008692	-0.004128	-0.000512	-0.002977	0.000639	-0.011031	-0.001334
707	-0.004292	0.006556	-0.00232	-0.001334	-0.000347	0.007049	-0.013167	-0.003142
708	0.000146	0.006391	-0.005771	-0.001498	-0.004292	0.00146	-0.012181	-0.002813
709	-0.001005	0.004583	-0.010373	-0.000347	-0.002648	0.004912	-0.017605	-0.000512
710	-0.000512	0.006062	-0.004949	-0.003142	-0.004456	0.00294	-0.010702	-0.001827
711	-0.002813	0.007213	-0.001169	0.002447	-0.005114	0.007377	-0.011195	0.000474
712	-0.002813	0.006556	-0.001005	-0.000512	-0.004456	0.003268	-0.010866	0.000967
713	-0.004456	0.004419	-0.004128	0.00146	-0.002155	0.004583	-0.011524	0.001296
714	-0.001498	0.008528	-0.002155	0.001132	-0.002977	0.000474	-0.011688	-0.001169
715	-0.00347	0.008528	-0.000512	0.003104	-0.003306	0.000803	-0.016126	0.001789
716	-0.001662	0.009678	-0.000183	-0.001662	-0.001662	0.000474	-0.016619	-0.001662
717	-0.002155	0.0105	-0.005278	-0.001662	-0.003799	-0.002813	-0.010373	0.001625
718	0.002775	0.009678	0.003597	0.00146	-0.002155	0.000967	-0.013167	0.000474
719	-0.00347	0.00935	-0.004621	-0.002813	-0.00347	0.002775	-0.015961	0.007049
720	-0.001827	0.008857	-0.003799	-0.001662	0.001296	0.001789	-0.017112	0.001296
721	0.000803	0.006556	-0.002813	-0.000676	-0.00347	-0.000512	-0.010866	-0.000183
722	-0.000512	0.004419	-0.003306	-0.000512	-0.002813	0.003761	-0.015797	-0.001334
723	-0.000183	0.008035	-0.005607	-0.002155	-0.003635	0.002447	-0.006922	0.000639
724	-0.000676	0.005076	-0.005443	-0.005114	-0.003963	0.005405	-0.013332	0.000639
725	-0.001334	0.010336	-0.005607	-0.002648	-0.005443	0.003268	-0.01251	0.00031
726	-0.000512	0.006884	0.000146	-0.000676	-0.005114	0.007706	-0.014975	0.002775
727	0.00146	0.009678	-0.003799	0.000474	-0.002155	0.006884	-0.010702	-0.002977
728	-0.002155	0.008692	-0.002648	-0.001991	-0.003963	0.003926	-0.014811	-0.003306
729	0.000803	0.010171	-0.001991	-0.000512	-0.002813	0.003926	-0.013332	-0.002813
730	-0.002155	0.011486	-0.005771	0.000967	-0.000841	0.004748	-0.010045	0.00146
731	0.002775	0.010171	-0.00347	0.00031	-0.004128	0.001789	-0.011031	-0.002155
732	-0.001827	0.009021	-0.004621	-0.000347	-0.003142	0.003433	-0.011195	-0.000347
733	0.002775	0.011158	-0.004292	0.000146	-0.005771	0.001789	-0.012674	-0.001498
734	0.000803	0.009514	-0.001005	-0.000347	-0.002648	0.001954	-0.013496	0.003104
735	0.003926	0.004255	-0.00873	-0.001662	-0.000347	0.002611	-0.012017	-0.000347
736	-0.001827	0.010007	-0.009387	-0.000676	-0.003306	0.001132	-0.012346	0.003761
737	-0.003635	0.006391	-0.000676	-0.003635	-0.003635	0.004912	-0.013003	-0.002813
738	-0.000512	0.011486	-0.006429	0.001625	-0.004456	0.006556	-0.013496	0.000803
739	-0.000841	0.008528	-0.006429	-0.00347	-0.00873	0.005076	-0.01629	-1.9e-05
740	-0.000841	0.013952	-0.005278	-0.002977	-0.001827	0.002611	-0.013167	-0.000676
741	-0.001991	0.008035	-0.005936	-0.001991	-0.001334	0.00787	-0.014482	-0.001334
742	0.001296	0.008035	-0.009387	-0.002484	-0.002648	0.002447	-0.01514	-0.00232
743	0.000146	0.009021	-0.006264	-0.001498	-0.000841	0.006556	-0.009551	-0.00232
744	0.00031	0.007377	-0.007744	0.00031	-0.007086	0.003104	-0.00988	0.001789
745	-0.000347	0.009514	-0.009551	0.000474	-0.003306	0.00294	-0.010702	0.001789
746	0.003926	0.007542	-0.0061	0.000639	-0.001827	0.001954	-0.008894	-0.000183
747	-0.002484	0.0105	-0.005114	-0.000676	-0.000676	0.004255	-0.011524	0.002447
748	0.004912	0.010829	-0.004785	-0.001827	-0.000512	0.002118	-0.010866	-0.005114
749	0.000146	0.011486	-0.005443	-0.001169	-0.000347	0.002611	-0.011031	0.00409
750	0.00294	0.009514	-0.005278	-0.002484	-0.001005	0.001296	-0.013332	-0.000512
751	0.005076	0.020526	-0.001991	-0.001169	0.003597	0.005241	-0.0061	0.006391
752	0.008528	0.018554	0.005734	0.004419	0.01313	0.011815	-0.003142	0.011651
753	0.020197	0.028251	0.013459	0.016088	0.006227	0.019704	0.008035	0.021676
754	0.025128	0.035975	0.021512	0.020362	0.023813	0.029401	0.014609	0.026443
755	0.037948	0.044522	0.026443	0.031702	0.028086	0.035318	0.024306	0.037455
756	0.042714	0.048795	0.031867	0.038441	0.035975	0.045179	0.026771	0.045344
757	0.051096	0.055205	0.035482	0.047645	0.042878	0.049288	0.036469	0.046166
758	0.050603	0.060465	0.047973	0.051096	0.052411	0.058657	0.040577	0.053069
759	0.061779	0.067203	0.050603	0.059972	0.058492	0.061451	0.04633	0.057835
760	0.068847	0.073778	0.056027	0.063916	0.067203	0.069176	0.056356	0.064245
761	0.074599	0.080681	0.063094	0.071641	0.068847	0.07197	0.062273	0.072134
762	0.076407	0.083475	0.072134	0.0769	0.072134	0.080352	0.063587	0.069669
763	0.082488	0.090542	0.076243	0.081995	0.079366	0.086104	0.072298	0.079366
764	0.085611	0.096294	0.080352	0.087748	0.083639	0.087255	0.070983	0.08857
765	0.092186	0.102869	0.085283	0.088734	0.088734	0.087912	0.079201	0.087255
766	0.09498	0.105663	0.089885	0.094322	0.090871	0.098595	0.085283	0.096294
767	0.098102	0.109772	0.09613	0.09876	0.095144	0.100239	0.087748	0.099253
768	0.103526	0.115031	0.092186	0.102704	0.101225	0.10254	0.092514	0.104841
769	0.104512	0.117332	0.10254	0.101883	0.107964	0.107471	0.093993	0.106485
770	0.113059	0.121277	0.105334	0.114702	0.1101	0.111908	0.098267	0.110758
771	0.118318	0.124235	0.110265	0.111251	0.116017	0.116017	0.100403	0.114374
772	0.115031	0.127358	0.110758	0.117496	0.115853	0.117168	0.104348	0.118318
773	0.121441	0.127687	0.113716	0.119304	0.120619	0.125057	0.111415	0.118976
774	0.125386	0.130809	0.119962	0.12292	0.121605	0.127358	0.114045	0.121112
775	0.128015	0.134097	0.119962	0.129659	0.1267	0.131467	0.109443	0.128015
776	0.133768	0.140013	0.125057	0.129495	0.124071	0.134918	0.120126	0.127194
777	0.132289	0.136726	0.129001	0.134754	0.131138	0.139849	0.120948	0.132782
778	0.13837	0.144451	0.13311	0.139685	0.13196	0.137712	0.126536	0.132782
779	0.139192	0.145108	0.130645	0.139192	0.134754	0.14215	0.127358	0.140342
780	0.141328	0.14971	0.13574	0.143136	0.135576	0.144122	0.134097	0.138205
781	0.143629	0.153491	0.140835	0.145273	0.137055	0.145437	0.13196	0.144287
782	0.146259	0.152505	0.139685	0.144615	0.142972	0.146259	0.134754	0.142643
783	0.14856	0.1576	0.142314	0.148067	0.143794	0.148231	0.139192	0.147738
784	0.148067	0.159408	0.147081	0.149382	0.143958	0.150697	0.136891	0.147081
785	0.149217	0.159243	0.147574	0.150532	0.152669	0.15234	0.140506	0.149053
786	0.153984	0.160394	0.151847	0.152998	0.151683	0.155463	0.141986	0.150861
787	0.154148	0.163845	0.15234	0.155299	0.153162	0.158093	0.148724	0.153491
788	0.153819	0.16401	0.153819	0.155463	0.1576	0.161709	0.14856	0.155956
789	0.156942	0.16516	0.15119	0.160887	0.153984	0.160722	0.148724	0.157271
790	0.162859	0.165653	0.153326	0.159901	0.159901	0.16138	0.14593	0.158914
791	0.16138	0.169433	0.156942	0.16253	0.160722	0.081995	0.152505	0.1576
792	0.16253	0.16779	0.158421	0.165324	0.162037	0.067039	0.149382	0.161215
793	0.166311	0.17157	0.159736	0.165489	0.159408	0.070983	0.152998	0.163516
794	0.16516	0.172063	0.160558	0.167625	0.165817	0.078873	0.155463	0.163845
795	0.167297	0.173871	0.161873	0.171077	0.164338	0.082488	0.161544	0.162037
796	0.16779	0.174528	0.16253	0.173378	0.169926	0.087584	0.160558	0.166968
797	0.171734	0.176008	0.165817	0.1742	0.169762	0.091528	0.160558	0.165653
798	0.170419	0.177158	0.166804	0.167625	0.172556	0.096623	0.16516	0.171406
799	0.177158	0.180938	0.167954	0.16894	0.170584	0.100075	0.164996	0.168283
800	0.166968	0.178309	0.168118	0.173378	0.17272	0.101718	0.167625	0.169433
801	0.170913	0.180938	0.169105	0.172885	0.1742	0.106485	0.166804	0.173707
802	0.170255	0.186362	0.170419	0.173707	0.171077	0.111415	0.174528	0.173378
803	0.174035	0.181431	0.177158	0.170913	0.175843	0.114374	0.167625	0.174528
804	0.169762	0.183075	0.171734	0.173049	0.174035	0.114045	0.170091	0.179788
805	0.176829	0.181267	0.17157	0.173707	0.17535	0.120784	0.170255	0.171406
806	0.178144	0.182089	0.176994	0.180116	0.173049	0.124235	0.174035	0.179788
807	0.176994	0.182582	0.172556	0.175679	0.17798	0.130481	0.168776	0.181431
808	0.182417	0.183568	0.170748	0.178802	0.177815	0.130152	0.173378	0.182746
809	0.182911	0.183075	0.17535	0.178637	0.183404	0.135576	0.177322	0.179952
810	0.186033	0.185705	0.174364	0.181431	0.178144	0.139192	0.178966	0.179952
811	0.181596	0.185705	0.179459	0.180938	0.181596	0.140835	0.178637	0.18061
812	0.185705	0.184554	0.17913	0.18439	0.180116	0.141657	0.179952	0.182253
813	0.184225	0.189814	0.179623	0.181596	0.180938	0.14593	0.16894	0.185705
814	0.184225	0.193265	0.179952	0.184718	0.181596	0.146588	0.17798	0.182746
815	0.179459	0.190142	0.180281	0.183897	0.181431	0.144615	0.181267	0.185376
816	0.184061	0.189156	0.181267	0.183404	0.185212	0.146916	0.186691	0.183897
817	0.181103	0.186855	0.183897	0.181431	0.183897	0.15234	0.182089	0.180116
818	0.181924	0.193758	0.182746	0.181431	0.186526	0.15497	0.182089	0.184883
819	0.18439	0.1908	0.181267	0.187348	0.187184	0.154148	0.185376	0.186198
820	0.185705	0.189156	0.184554	0.183075	0.18932	0.156942	0.185376	0.182253
821	0.185212	0.191786	0.180938	0.1908	0.184883	0.164996	0.18554	0.186691
822	0.186033	0.188992	0.18554	0.18439	0.187019	0.162037	0.184883	0.187019
823	0.188334	0.191457	0.185212	0.185047	0.188006	0.161544	0.187513	0.187841
824	0.185212	0.18554	0.185869	0.190635	0.188992	0.16516	0.185705	0.190471
825	0.188663	0.190635	0.185212	0.190964	0.189978	0.163188	0.187019	0.187841
826	0.187019	0.190142	0.189649	0.185212	0.188663	0.164503	0.186691	0.18554
827	0.188663	0.18932	0.186691	0.18932	0.189814	0.163681	0.189156	0.188827
828	0.188006	0.1908	0.191128	0.187677	0.192115	0.149875	0.187348	0.189485
829	0.18817	0.19195	0.187841	0.189485	0.189485	0.151025	0.189485	0.190471
830	0.18932	0.193101	0.187184	0.190471	0.188663	0.151354	0.196059	0.187841
831	0.18817	0.190471	0.185869	0.189649	0.188992	0.153984	0.193922	0.187019
832	0.185705	0.195402	0.186033	0.195402	0.189156	0.147574	0.191457	0.191128
833	0.189156	0.194416	0.189814	0.190142	0.191128	0.153491	0.194416	0.187348
834	0.18932	0.193101	0.188334	0.193265	0.187513	0.071805	0.19458	0.189156
835	0.187513	0.196717	0.192279	0.190307	0.187513	0.047316	0.193758	0.189814
836	0.18554	0.198196	0.19458	0.186526	0.192772	0.054219	0.190142	0.18932
837	0.189978	0.193758	0.188663	0.188992	0.19458	0.061615	0.189814	0.188663
838	0.187677	0.19573	0.190635	0.191457	0.193101	0.066381	0.193594	0.192279
839	0.190471	0.195073	0.183404	0.189978	0.197374	0.004912	0.192115	0.188827
840	0.188499	0.19573	0.18817	0.192443	0.198031	0.009843	0.192772	0.1908
841	0.191128	0.194744	0.191457	0.190635	0.196388	0.004748	0.194744	0.194251
842	0.193594	0.193101	0.186691	0.193101	0.196059	0.000474	0.194087	0.190635
843	0.191621	0.192279	0.195073	0.192608	0.192608	0.002775	0.194416	0.194087
844	0.193101	0.194416	0.190635	0.193265	0.194416	0.007706	0.197538	0.19195
845	0.193594	0.191128	0.18932	0.1908	0.199675	0.021841	0.198196	0.193429
846	0.192772	0.195073	0.190635	0.195895	0.196717	0.024635	0.200168	0.192443
847	0.189485	0.195073	0.19573	0.192772	0.194909	0.034496	0.198853	0.194087
848	0.192443	0.195566	0.192936	0.192608	0.196223	0.040084	0.201319	0.192279
849	0.187184	0.195237	0.193265	0.196059	0.197703	0.049781	0.198689	0.196552
850	0.190964	0.200825	0.195895	0.193594	0.197867	0.053233	0.20099	0.1908
851	0.183897	0.195402	0.192608	0.197703	0.193594	0.058328	0.201647	0.193101
852	0.19195	0.19458	0.192115	0.192115	0.198524	0.060958	0.199018	0.191621
853	0.1908	0.200004	0.193101	0.193758	0.197045	0.067696	0.204441	0.193594
854	0.188663	0.193594	0.194416	0.191621	0.200004	0.07049	0.200332	0.197538
855	0.192443	0.19573	0.191786	0.19573	0.193101	0.071312	0.20214	0.19458
856	0.190635	0.190635	0.196388	0.19195	0.198853	0.081009	0.202962	0.196717
857	0.191457	0.194909	0.196717	0.196552	0.193594	0.083639	0.201483	0.196388
858	0.191786	0.192279	0.193758	0.192936	0.197538	0.091528	0.204934	0.194251
859	0.190964	0.193922	0.19195	0.200332	0.197867	0.093336	0.203948	0.200497
860	0.19195	0.19195	0.196552	0.192443	0.199839	0.098924	0.203126	0.197374
861	0.193594	0.187513	0.196223	0.196059	0.195073	0.102704	0.202962	0.195073
862	0.188992	0.191457	0.195237	0.193758	0.198524	0.109443	0.202798	0.196717
863	0.194744	0.192443	0.192772	0.196388	0.196059	0.108786	0.203784	0.193922
864	0.191621	0.192279	0.19195	0.196059	0.19721	0.117003	0.20099	0.195895
865	0.194416	0.190142	0.194909	0.196059	0.197538	0.116675	0.207564	0.192608
866	0.18554	0.193265	0.194744	0.197867	0.19721	0.128508	0.206249	0.195073
867	0.18817	0.194744	0.196552	0.196552	0.200497	0.119633	0.201976	0.192443
868	0.18817	0.196552	0.200168	0.196717	0.197045	0.126865	0.2074	0.196059
869	0.189978	0.188499	0.200004	0.196388	0.197538	0.128015	0.208386	0.19573
870	0.190307	0.193594	0.194909	0.196388	0.198853	0.128837	0.206578	0.195402
871	0.188499	0.192608	0.198853	0.195566	0.201154	0.135247	0.206578	0.197045
872	0.189814	0.185869	0.194744	0.196552	0.196881	0.133439	0.207893	0.195402
873	0.192608	0.191293	0.199675	0.191786	0.198031	0.139356	0.20855	0.198031
874	0.193265	0.18554	0.196059	0.193922	0.199346	0.137877	0.206907	0.192115
875	0.193101	0.192279	0.19573	0.192115	0.201812	0.141	0.205263	0.195566
876	0.193758	0.191293	0.196717	0.192279	0.196552	0.146752	0.208057	0.19721
877	0.190307	0.191128	0.196388	0.196223	0.201154	0.147409	0.205263	0.196059
878	0.193101	0.195402	0.199675	0.197867	0.197045	0.14856	0.207728	0.196223
879	0.188334	0.193758	0.199182	0.19721	0.198196	0.154477	0.206578	0.198196
880	0.190635	0.193758	0.194909	0.198689	0.196717	0.151518	0.210687	0.194416
881	0.189978	0.193758	0.19721	0.199839	0.194416	0.155792	0.208386	0.202305
882	0.191293	0.193758	0.193101	0.195237	0.19721	0.160229	0.20855	0.198853
883	0.1908	0.195402	0.194909	0.19836	0.199346	0.156778	0.210194	0.19573
884	0.193101	0.193101	0.199675	0.193429	0.199346	0.159243	0.213152	0.195237
885	0.190964	0.196059	0.194744	0.196223	0.195073	0.158914	0.207564	0.194416
886	0.189814	0.195402	0.199346	0.19573	0.197703	0.162037	0.209208	0.193758
887	0.192772	0.19573	0.192279	0.193594	0.198196	0.162859	0.211837	0.194744
888	0.19573	0.194909	0.197045	0.198196	0.201319	0.16516	0.206742	0.195073
889	0.188663	0.196552	0.196059	0.198524	0.198689	0.16138	0.207893	0.197867
890	0.191786	0.192772	0.195402	0.194744	0.196717	0.164831	0.208386	0.195895
891	0.193265	0.192443	0.197045	0.199182	0.199839	0.164503	0.210523	0.197538
892	0.189649	0.195073	0.197045	0.19836	0.202962	0.166639	0.202798	0.199675
893	0.192279	0.196059	0.194744	0.197374	0.200661	0.168118	0.206907	0.195073
894	0.192279	0.192608	0.196388	0.199346	0.201319	0.170255	0.208386	0.19836
895	0.193758	0.194251	0.195402	0.196388	0.200825	0.171406	0.209865	0.19573
896	0.187348	0.191621	0.194416	0.198853	0.200332	0.174857	0.211016	0.199346
897	0.190307	0.193758	0.195073	0.198196	0.200004	0.173214	0.209208	0.197703
898	0.190964	0.194087	0.195237	0.196717	0.193922	0.175021	0.213317	0.196059
899	0.192936	0.193922	0.197374	0.200332	0.196717	0.176994	0.213481	0.19458
900	0.188663	0.195237	0.195073	0.194416	0.198196	0.173542	0.21233	0.198524
901	0.191293	0.192115	0.193594	0.19836	0.199018	0.173049	0.212002	0.195402
902	0.186855	0.193922	0.195237	0.201647	0.200332	0.176172	0.213481	0.196223
903	0.191457	0.196059	0.198853	0.199839	0.20099	0.176336	0.207235	0.193265
904	0.191293	0.198853	0.192115	0.199182	0.204934	0.176994	0.212988	0.191457
905	0.19195	0.194087	0.197538	0.199839	0.203455	0.173707	0.209043	0.194251
906	0.193101	0.198524	0.198689	0.199675	0.201154	0.174528	0.21118	0.197374
907	0.191457	0.192772	0.194744	0.196717	0.201812	0.179952	0.209536	0.198031
908	0.189485	0.194251	0.196223	0.20362	0.20214	0.178144	0.210851	0.196717
909	0.192608	0.193922	0.194416	0.196059	0.201976	0.182089	0.21118	0.201483
910	0.196388	0.194251	0.195073	0.196223	0.200497	0.178966	0.211673	0.196717
911	0.190307	0.192115	0.194744	0.199018	0.201483	0.18061	0.210358	0.201154
912	0.196223	0.190635	0.190142	0.201154	0.197703	0.181924	0.208715	0.195566
913	0.191786	0.195073	0.194744	0.203126	0.201483	0.183239	0.209536	0.201319
914	0.19458	0.193758	0.194909	0.200004	0.192936	0.181431	0.210029	0.195073
915	0.193101	0.191293	0.193429	0.200825	0.198853	0.183732	0.21233	0.200497
916	0.194251	0.1908	0.197374	0.201647	0.201319	0.186855	0.210523	0.193758
917	0.191786	0.197703	0.197045	0.20099	0.200332	0.180445	0.211509	0.197374
918	0.192443	0.192279	0.196881	0.201976	0.199346	0.182089	0.215453	0.195566
919	0.192115	0.193429	0.195402	0.201976	0.205099	0.185376	0.211837	0.19836
920	0.195402	0.194251	0.199675	0.198853	0.199675	0.181267	0.211509	0.197045
921	0.193101	0.19573	0.193922	0.202469	0.199839	0.182089	0.21233	0.196881
922	0.197045	0.192443	0.197374	0.200004	0.201483	0.18439	0.210523	0.198689
923	0.201154	0.19458	0.195402	0.201812	0.198689	0.185047	0.210194	0.198689
924	0.191786	0.192115	0.197867	0.198196	0.201483	0.192608	0.209536	0.197867
925	0.19458	0.19458	0.197703	0.203455	0.197867	0.185047	0.209208	0.200168
926	0.19721	0.192772	0.196717	0.197538	0.203291	0.18817	0.205756	0.202798
927	0.195073	0.195566	0.194744	0.20214	0.201647	0.186855	0.209372	0.196717
928	0.193594	0.194251	0.197867	0.199182	0.20099	0.188827	0.206249	0.200497
929	0.193594	0.195402	0.194909	0.201319	0.197045	0.18817	0.207564	0.198196
930	0.194909	0.193429	0.194744	0.200497	0.18817	0.191457	0.207564	0.203126
931	0.195566	0.193594	0.19721	0.200332	0.192608	0.189814	0.209865	0.201154
932	0.194416	0.192772	0.19458	0.19721	0.194744	0.19195	0.209372	0.198689
933	0.196717	0.195073	0.195237	0.200497	0.195895	0.191457	0.210523	0.197867
934	0.194087	0.192279	0.196223	0.199346	0.199675	0.190471	0.209043	0.199511
935	0.19573	0.197045	0.19458	0.200497	0.200825	0.190635	0.212824	0.199018
936	0.193922	0.194251	0.196059	0.200004	0.200004	0.187184	0.211673	0.197538
937	0.194251	0.193594	0.196388	0.19836	0.200661	0.185047	0.20855	0.194416
938	0.197045	0.197703	0.194744	0.200004	0.200004	0.18932	0.208386	0.197538
939	0.197538	0.191293	0.200661	0.199182	0.201154	0.189649	0.208057	0.200004
940	0.194744	0.19721	0.195402	0.20099	0.200168	0.189156	0.207728	0.196552
941	0.19721	0.195073	0.195895	0.199675	0.20099	0.192936	0.206249	0.198524
942	0.196059	0.197374	0.194251	0.199675	0.196223	0.189156	0.205921	0.199182
943	0.194251	0.197374	0.195073	0.199182	0.199839	0.193758	0.203291	0.202469
944	0.196552	0.194251	0.190964	0.20362	0.199675	0.191621	0.208386	0.201976
945	0.19458	0.195073	0.192443	0.200661	0.198853	0.194909	0.207235	0.20099
946	0.19836	0.196388	0.193758	0.201319	0.195402	0.19195	0.210194	0.200332
947	0.196388	0.192279	0.19195	0.203126	0.196881	0.19458	0.207728	0.200168
948	0.19458	0.195237	0.193758	0.196388	0.196552	0.193429	0.208879	0.200004
949	0.194909	0.194251	0.195073	0.197703	0.196223	0.193922	0.207893	0.203291
950	0.192772	0.195073	0.196059	0.199018	0.199675	0.196881	0.208386	0.198853
951	0.196059	0.196223	0.191621	0.204113	0.196881	0.191786	0.207564	0.203126
952	0.201976	0.189978	0.192279	0.201976	0.198524	0.193594	0.208715	0.200168
953	0.194087	0.197867	0.193265	0.201976	0.195237	0.191457	0.209701	0.199675
954	0.194087	0.192443	0.19458	0.20099	0.198853	0.194087	0.206085	0.201319
955	0.196717	0.197374	0.192772	0.202469	0.199675	0.195402	0.209372	0.199182
956	0.19458	0.194744	0.195566	0.202633	0.199839	0.194744	0.204934	0.202305
957	0.196552	0.197374	0.193429	0.202305	0.199675	0.190142	0.207728	0.202798
958	0.19836	0.196388	0.193429	0.199675	0.202798	0.191786	0.207235	0.199839
959	0.195895	0.19721	0.191128	0.203455	0.199182	0.193101	0.210358	0.201812
960	0.195566	0.197374	0.1908	0.199346	0.201319	0.190471	0.201647	0.205263
961	0.196717	0.198524	0.193101	0.199346	0.200004	0.19458	0.207071	0.201483
962	0.196059	0.194087	0.183732	0.202798	0.19721	0.193922	0.203948	0.200168
963	0.200004	0.195073	0.189156	0.200497	0.197538	0.194251	0.203455	0.200497
964	0.196881	0.195073	0.189814	0.201976	0.200168	0.195237	0.205592	0.203948
965	0.198196	0.19195	0.189485	0.205427	0.195895	0.195073	0.207728	0.202469
966	0.199511	0.192608	0.193594	0.205263	0.195402	0.194744	0.206414	0.202305
967	0.198524	0.196881	0.18932	0.201976	0.196059	0.190142	0.206907	0.202633
968	0.196059	0.198689	0.194909	0.209701	0.195073	0.187513	0.213481	0.200004
969	0.198689	0.195237	0.194087	0.204606	0.197703	0.189814	0.205592	0.201319
970	0.197538	0.195237	0.192608	0.204113	0.195566	0.190471	0.206249	0.201154
971	0.201319	0.199018	0.194744	0.203291	0.201154	0.190471	0.203455	0.203784
972	0.197867	0.199511	0.193101	0.202962	0.196223	0.187841	0.205099	0.201812
973	0.198196	0.192443	0.194744	0.203126	0.202633	0.194087	0.201812	0.20214
974	0.199346	0.197538	0.192115	0.201154	0.195566	0.19573	0.201976	0.202962
975	0.198524	0.195895	0.195073	0.200332	0.202633	0.194909	0.20362	0.205263
976	0.193758	0.195073	0.191128	0.206414	0.198196	0.193265	0.202798	0.205921
977	0.198196	0.194087	0.18932	0.203291	0.199346	0.193594	0.201812	0.202305
978	0.199018	0.196059	0.188663	0.202469	0.19836	0.192279	0.204606	0.202962
979	0.193758	0.19721	0.192772	0.203291	0.195237	0.193429	0.205427	0.20362
980	0.199511	0.198524	0.192772	0.201812	0.19458	0.191457	0.200661	0.202633
981	0.195402	0.191457	0.192279	0.201154	0.192772	0.195237	0.203126	0.201976
982	0.197867	0.194251	0.192115	0.202305	0.196388	0.190964	0.201154	0.199675
983	0.198524	0.194416	0.195402	0.201319	0.195073	0.192279	0.201319	0.20099
984	0.198853	0.192279	0.193758	0.202469	0.194087	0.192608	0.203126	0.199346
985	0.195566	0.192772	0.190142	0.201647	0.19573	0.191786	0.200004	0.202633
986	0.197045	0.19573	0.195237	0.201154	0.20099	0.187513	0.200825	0.199839
987	0.195237	0.196223	0.190142	0.207728	0.193594	0.192443	0.201483	0.201647
988	0.193265	0.19573	0.195073	0.201812	0.200004	0.189485	0.201483	0.199182
989	0.199839	0.192608	0.191128	0.205921	0.197703	0.18932	0.200004	0.202962
990	0.196223	0.197703	0.199839	0.20099	0.198196	0.189649	0.197703	0.203291
991	0.196388	0.200332	0.193758	0.202633	0.196223	0.190307	0.200825	0.199346
992	0.195566	0.194744	0.19195	0.197374	0.19836	0.1908	0.198196	0.203455
993	0.196223	0.197703	0.192608	0.198196	0.19836	0.185376	0.198031	0.206414
994	0.195566	0.198689	0.196552	0.199182	0.196881	0.193758	0.203291	0.202469
995	0.196717	0.195073	0.189649	0.201154	0.196059	0.190471	0.200497	0.201976
996	0.196059	0.195237	0.194087	0.199346	0.199675	0.183897	0.198196	0.205427
997	0.196059	0.194744	0.189978	0.200004	0.195895	0.186855	0.199839	0.201976
998	0.19573	0.193922	0.192115	0.201976	0.194909	0.187513	0.203948	0.205263
999	0.197045	0.193265	0.192936	0.202305	0.200168	0.184718	0.201319	0.204441
1000	0.193265	0.196223	0.191786	0.202305	0.196552	0.18554	0.201319	0.203948
1001	0.193594	0.195237	0.197867	0.203126	0.194251	0.18439	0.197538	0.203948
1002	0.196388	0.197867	0.191786	0.208879	0.192443	0.182089	0.198689	0.205921
1003	0.196552	0.199182	0.193922	0.199346	0.194909	0.185047	0.200825	0.204441
1004	0.190307	0.195073	0.190635	0.20362	0.194251	0.182417	0.200332	0.20477
1005	0.193101	0.195237	0.189485	0.199675	0.196223	0.18554	0.199675	0.201976
1006	0.195073	0.197374	0.190964	0.200004	0.195895	0.189156	0.201976	0.204934
1007	0.198853	0.193758	0.191786	0.198524	0.19836	0.185212	0.200661	0.203784
1008	0.196059	0.198031	0.189485	0.200661	0.19721	0.182911	0.20477	0.203455
1009	0.196881	0.196881	0.192115	0.202798	0.199511	0.183897	0.202633	0.201154
1010	0.194416	0.197538	0.192608	0.199675	0.19573	0.180116	0.202305	0.202469
1011	0.196717	0.196059	0.1908	0.202798	0.196552	0.182253	0.199182	0.206085
1012	0.193265	0.198031	0.078708	0.200004	0.195895	0.183075	0.20099	0.203948
1013	0.19458	0.196223	0.081995	0.191128	0.195895	0.182582	0.197867	0.205592
1014	0.196059	0.19573	0.082982	0.200168	0.194087	0.180938	0.198196	0.204606
1015	0.195237	0.195073	0.092021	0.200497	0.195566	0.181924	0.19721	0.207564
1016	0.19573	0.196059	0.091528	0.202633	0.193429	0.183239	0.20099	0.203784
1017	0.193758	0.200497	0.096623	0.203291	0.193758	0.178802	0.201483	0.205263
1018	0.196059	0.195566	0.108786	0.205592	0.194416	0.178637	0.20099	0.203126
1019	0.193758	0.199182	0.103855	0.204934	0.196881	0.181596	0.19836	0.205921
1020	0.199346	0.193922	0.112566	0.205427	0.196059	0.176336	0.196059	0.202305
1021	0.190142	0.19836	0.115031	0.206085	0.196059	0.180281	0.199182	0.202305
1022	0.195237	0.195237	0.116839	0.203291	0.19721	0.182089	0.195895	0.201976
1023	0.19195	0.19836	0.121112	0.204606	0.196717	0.182417	0.200825	0.206085
1024	0.191786	0.195402	0.12555	0.201319	0.197703	0.140178	0.196059	0.208879
1025	0.19458	0.197374	0.127029	0.201812	0.195237	0.094487	0.199346	0.209043
1026	0.196552	0.192608	0.129988	0.20099	0.198196	0.106978	0.199839	0.208879
1027	0.197045	0.200332	0.13311	0.203126	0.195566	0.105498	0.196717	0.203291
1028	0.194087	0.194744	0.13311	0.19458	0.199839	0.113552	0.197703	0.207235
1029	0.199018	0.19458	0.131631	0.200497	0.193922	0.112566	0.201483	0.203455
1030	0.195895	0.194744	0.139849	0.202305	0.193101	0.117661	0.194416	0.206578
1031	0.199346	0.19573	0.141164	0.203126	0.192772	0.120291	0.199511	0.202469
1032	0.199182	0.19458	0.141328	0.202469	0.192772	0.123578	0.199018	0.201483
1033	0.201483	0.191786	0.148067	0.201483	0.191786	0.124728	0.19721	0.207564
1034	0.194251	0.19573	0.147903	0.202305	0.193758	0.126536	0.197703	0.207071
1035	0.194909	0.195895	0.15234	0.201812	0.19721	0.133768	0.19836	0.203948
1036	0.194087	0.19836	0.154641	0.20214	0.189156	0.134754	0.197374	0.206414
1037	0.195237	0.190964	0.155627	0.200332	0.197045	0.138699	0.195402	0.203784
1038	0.193758	0.194087	0.156449	0.203948	0.19458	0.137877	0.198689	0.201976
1039	0.186198	0.194416	0.157764	0.202633	0.19836	0.011979	0.194251	0.20099
1040	0.195073	0.195237	0.15612	0.20362	0.197045	0.013623	0.196223	0.203455
1041	0.192279	0.195895	0.160229	0.204606	0.19836	0.02069	0.193101	0.201319
1042	0.196223	0.197374	0.158257	0.203948	0.191293	0.025292	0.197045	0.20214
1043	0.195237	0.196223	0.161544	0.199675	0.196059	-0.011195	0.196223	0.202962
1044	0.186033	0.19573	0.166968	0.20099	0.193101	0.002118	0.19836	0.205592
1045	0.19458	0.196717	0.167132	0.198689	0.195895	0.008035	0.19721	0.207071
1046	0.197538	0.193101	0.166311	0.198524	0.196059	0.014116	0.202962	0.204441
1047	0.19458	0.193429	0.169762	0.201976	0.192772	0.008363	0.19721	0.207564
1048	0.196552	0.19721	0.16894	0.198031	0.193265	0.00409	0.199018	0.209043
1049	0.194744	0.190142	0.17157	0.199346	0.198689	0.009514	0.199018	0.20477
1050	0.196388	0.193101	0.172556	0.197703	0.19836	0.010171	0.197538	0.205592
1051	0.196388	0.194909	0.171241	0.205263	0.191128	0.017732	0.20099	0.202305
1052	0.193758	0.193265	0.175515	0.202305	0.191293	0.015924	0.19573	0.203455
1053	0.19836	0.199511	0.173049	0.199511	0.187184	0.008363	0.197538	0.205756
1054	0.1908	0.199346	0.17272	0.19573	0.192443	0.016088	0.120126	0.203291
1055	0.190964	0.202305	0.173871	0.202962	0.191128	0.017074	0.010336	0.204606
1056	0.193101	0.196881	0.177815	0.200661	0.191786	0.02973	0.001132	0.207235
1057	0.195402	0.199675	0.174035	0.20362	0.191786	0.03614	0.004748	0.201154
1058	0.198689	0.196552	0.178637	0.203455	0.190307	0.040742	0.009514	0.206085
1059	0.193429	0.202469	0.178966	0.199346	0.194251	0.049288	0.021183	0.201483
1060	0.197045	0.196717	0.183732	0.198031	0.192936	0.05274	0.027922	0.203455
1061	0.197867	0.197867	0.187513	0.199839	0.195895	0.065067	0.034003	0.204934
1062	0.19721	0.196388	0.183075	0.198689	0.193758	0.067696	0.038605	0.205427
1063	0.197703	0.197045	0.182253	0.199346	0.193922	0.068847	0.046987	0.204934
1064	0.193101	0.197374	0.182746	0.199182	0.191128	0.077558	0.050932	0.204277
1065	0.196717	0.197538	0.182253	0.199346	0.193594	0.080352	0.057177	0.202633
1066	0.193265	0.201812	0.184061	0.201483	0.194416	0.082653	0.06408	0.207728
1067	0.192772	0.198689	0.18439	0.200661	0.191457	0.087419	0.069176	0.207071
1068	0.192936	0.206085	0.181924	0.202305	0.191621	0.092679	0.076736	0.206414
1069	0.189156	0.200332	0.186198	0.205921	0.191128	0.100896	0.075585	0.204606
1070	0.190307	0.200332	0.181596	0.202469	0.193594	0.099417	0.084954	0.209208
1071	0.192608	0.197867	0.186691	0.202305	0.194744	0.106485	0.089885	0.20362
1072	0.192443	0.196059	0.18554	0.201647	0.192936	0.105827	0.09498	0.203291
1073	0.192608	0.198196	0.188006	0.199675	0.194744	0.11158	0.094815	0.203784
1074	0.192279	0.199182	0.18554	0.202962	0.193758	0.113059	0.105005	0.205921
1075	0.192443	0.19836	0.190142	0.196388	0.114374	0.116839	0.106813	0.206742
1076	0.193758	0.201976	0.187184	0.199018	0.00787	0.119469	0.111415	0.205099
1077	0.19195	0.200661	0.186526	0.200004	0.017567	0.122427	0.113881	0.207893
1078	0.197045	0.200004	0.191786	0.19836	0.023977	0.122263	0.118154	0.20362
1079	0.193429	0.201812	0.188827	0.198853	0.03088	0.127358	0.118811	0.208715
1080	0.194744	0.201319	0.187184	0.203126	0.035318	0.130152	0.124235	0.204277
1081	0.192772	0.200825	0.188992	0.197703	0.041728	0.13196	0.125221	0.199511
1082	0.196388	0.201154	0.188499	0.19836	0.05011	0.133275	0.12555	0.205263
1083	0.19458	0.204441	0.188499	0.199675	0.055205	0.144451	0.136562	0.21118
1084	0.193101	0.201483	0.188827	0.199182	0.060136	0.138863	0.132453	0.208222
1085	0.19458	0.20099	0.18932	0.197703	0.063423	0.139356	0.135904	0.203126
1086	0.195073	0.200168	0.186198	0.199511	0.069669	0.143958	0.13952	0.200825
1087	0.191786	0.202798	0.188334	0.201647	0.076572	0.144122	0.140178	0.202633
1088	0.194251	0.200332	0.189814	0.199675	0.082324	0.147245	0.142972	0.204606
1089	0.195237	0.198196	0.186033	0.202962	0.088734	0.145273	0.145602	0.203126
1090	0.19458	0.201483	0.190307	0.202305	0.094487	0.149053	0.147574	0.203126
1091	0.191457	0.203455	0.187184	0.204441	0.092021	0.150204	0.150039	0.20362
1092	0.193594	0.203455	0.192115	0.198689	0.103691	0.151354	0.147574	0.205592
1093	0.19721	0.202962	0.186526	0.198196	0.105827	0.150368	0.153491	0.203948
1094	0.195073	0.202798	0.193265	0.197867	0.106649	0.15612	0.156449	0.204441
1095	0.192279	0.201647	0.190471	0.19836	0.110429	0.15497	0.157435	0.203126
1096	0.194744	0.202469	0.193594	0.19836	0.120784	0.155627	0.159079	0.207564
1097	0.198196	0.199675	0.190635	0.195073	0.113552	0.157928	0.162037	0.203948
1098	0.195073	0.203455	0.187184	0.195895	0.120455	0.158914	0.162859	0.207071
1099	0.19573	0.201154	0.19195	0.198031	0.120455	0.154477	0.163023	0.205756
1100	0.19836	0.196881	0.1908	0.199511	0.125714	0.16516	0.164831	0.20855
1101	0.197045	0.198853	0.192279	0.19836	0.130974	0.160722	0.165982	0.204441
1102	0.192115	0.201812	0.194909	0.202633	0.1267	0.163023	0.167132	0.205099
1103	0.195402	0.199346	0.193101	0.196223	0.137548	0.163516	0.167625	0.202305
1104	0.19195	0.197703	0.191293	0.201319	0.136726	0.162366	0.169433	0.004912
1105	0.189814	0.205099	0.18932	0.197538	0.141328	0.170584	0.172227	0.009843
1106	0.188663	0.199182	0.1908	0.200332	0.137877	0.166146	0.173214	0.018882
1107	0.195073	0.199018	0.192443	0.199346	0.131796	0.167461	0.172063	0.026936
1108	0.197045	0.201812	0.191293	0.199839	0.143629	0.168283	0.178473	0.033346
1109	0.193758	0.196881	0.192443	0.202962	0.149875	0.168447	0.178637	0.040413
1110	0.194744	0.199346	0.19195	0.199346	0.148396	0.164503	0.180774	0.051261
1111	0.201976	0.199346	0.194087	0.199675	0.149053	0.165817	0.178966	0.057177
1112	0.194909	0.19836	0.194416	0.197538	0.149217	0.167297	0.181431	0.063423
1113	0.196223	0.202305	0.194909	0.198689	0.156942	0.169105	0.177158	0.072627
1114	0.197538	0.199839	0.19458	0.194087	0.155299	0.169105	0.179295	0.076736
1115	0.194416	0.20099	0.193429	0.200332	0.154477	0.170091	0.177487	0.080681
1116	0.197374	0.199675	0.196552	0.197045	0.157271	0.170748	0.179952	0.084132
1117	0.195073	0.200825	0.193101	0.193922	0.154148	0.170748	0.179623	0.091857
1118	0.199182	0.196552	0.195566	0.195402	0.157107	0.17272	0.179952	0.094651
1119	0.197045	0.195402	0.191786	0.197867	0.158093	0.176994	0.185047	0.097938
1120	0.197867	0.201319	0.19458	0.197045	0.161544	0.179952	0.185705	0.101225
1121	0.193758	0.199839	0.192608	0.199182	0.159736	0.174693	0.18817	0.104677
1122	0.192608	0.196388	0.192115	0.196059	0.162859	0.17535	0.184883	0.108786
1123	0.191128	0.203784	0.194251	0.199182	0.162366	0.178144	0.192936	0.11273
1124	0.192936	0.200004	0.197045	0.194416	0.166968	0.17535	0.18439	0.121934
1125	0.194087	0.199346	0.195073	0.195237	0.168118	0.177487	0.187677	0.120948
1126	0.193594	0.197374	0.196388	0.195237	0.169926	0.176008	0.186855	0.12555
1127	0.195402	0.202962	0.195895	0.196717	0.170091	0.17798	0.18817	0.126372
1128	0.196223	0.198031	0.198031	0.194087	0.173049	0.180116	0.188992	0.133603
1129	0.191786	0.201976	0.197538	0.201976	0.170748	0.17913	0.187513	0.134425
1130	0.199346	0.206414	0.197045	0.194087	0.172556	0.181924	0.188334	0.138534
1131	0.199675	0.20099	0.196223	0.195237	0.172885	0.181267	0.190307	0.142479
1132	0.19573	0.201154	0.194744	0.194744	0.173378	0.178802	0.184883	0.143794
1133	0.200661	0.20214	0.199675	0.192443	0.176665	0.183897	0.190635	0.140671
1134	0.19458	0.200168	0.193758	0.195073	0.175186	0.177651	0.190142	0.145273
1135	0.194416	0.200004	0.195237	0.193101	0.177815	0.180116	0.188827	0.145108
1136	0.190964	0.201647	0.195073	0.191786	0.178802	0.179459	0.192279	0.144944
1137	0.195895	0.200332	0.19458	0.190964	0.181267	0.181924	0.190307	0.15119
1138	0.194909	0.202962	0.192772	0.193594	0.179295	0.180774	0.189978	0.152176
1139	0.195237	0.198853	0.193429	0.189485	0.178144	0.182417	0.188827	0.152011
1140	0.195895	0.200168	0.192772	0.193922	0.178144	0.181267	0.19458	0.153491
1141	0.196223	0.199511	0.19458	0.191457	0.182417	0.183239	0.190307	0.15612
1142	0.195073	0.201483	0.193101	0.192279	0.179788	0.18439	0.19195	0.160394
1143	0.19573	0.20099	0.195566	0.189814	0.181924	0.182582	0.191786	0.163188
1144	0.198853	0.199182	0.197045	0.191457	0.180116	0.183568	0.196717	0.164503
1145	0.196881	0.201647	0.198689	0.18932	0.184061	0.181103	0.198524	0.165653
1146	0.198031	0.202305	0.198689	0.190142	0.186691	0.181431	0.193758	0.167954
1147	0.196881	0.200004	0.195237	0.186526	0.185705	0.181431	0.192772	0.171406
1148	0.198524	0.199182	0.195566	0.186033	0.184554	0.180774	0.192608	0.169926
1149	0.19836	0.202962	0.196388	0.187348	0.187677	0.184061	0.193429	0.176008
1150	0.197703	0.201154	0.194251	0.187841	0.187841	0.182582	0.192772	0.174364
1151	0.196717	0.198524	0.193758	0.18932	0.187841	0.182417	0.190307	0.176665
1152	0.197538	0.199675	0.19458	0.182253	0.190471	0.183239	0.192936	0.176336
1153	0.191128	0.204441	0.193101	0.189156	0.18554	0.180938	0.195895	0.1742
1154	0.199346	0.198031	0.197045	0.19195	0.187348	0.183239	0.193429	0.173049
1155	0.196388	0.199675	0.192115	0.194251	0.186691	0.182417	0.19573	0.178637
1156	0.193594	0.199346	0.194744	0.189978	0.191621	0.181103	0.194909	0.178473
1157	0.196388	0.194909	0.193101	0.19458	0.187513	0.181924	0.195237	0.177487
1158	0.198196	0.198031	0.193594	0.189978	0.188827	0.178966	0.194909	0.180774
1159	0.198031	0.20099	0.19195	0.190635	0.193758	0.176829	0.195402	0.175515
1160	0.196059	0.199675	0.196552	0.192115	0.198031	0.176829	0.198524	0.181103
1161	0.200168	0.197045	0.195237	0.192772	0.19573	0.171241	0.199018	0.182582
1162	0.199346	0.19836	0.196881	0.191457	0.195895	0.173214	0.195237	0.183568
1163	0.20099	0.201154	0.19836	0.191621	0.196552	0.173542	0.199346	0.184883
1164	0.199511	0.19836	0.196388	0.192279	0.193922	0.176665	0.196223	0.186526
1165	0.201154	0.200004	0.198031	0.194251	0.193594	0.175186	0.196881	0.182746
1166	0.202962	0.198689	0.19573	0.193429	0.192115	0.175679	0.193922	0.191128
1167	0.199018	0.009514	0.19721	0.190471	0.195073	0.172885	0.202633	0.187184
1168	0.198031	0.020362	0.195895	0.193758	0.192115	0.176994	0.194087	0.191457
1169	0.198196	0.026278	0.196717	0.1908	0.190964	0.178144	0.193429	0.187513
1170	0.198196	0.033346	0.19458	0.195566	0.193101	0.174364	0.198853	0.188827
1171	0.196881	0.043207	0.203126	0.194416	0.194087	0.176665	0.197538	0.186691
1172	0.198689	0.043865	0.194909	0.19458	0.193265	0.174364	0.194251	0.186691
1173	0.199018	0.050274	0.198524	0.191293	0.194744	0.179459	0.197374	0.188006
1174	0.198689	0.057013	0.197703	0.195073	0.193429	0.1742	0.19836	0.191786
1175	0.198031	0.062437	0.197374	0.195895	0.193265	0.178637	0.196388	0.192279
1176	0.199346	0.068847	0.198196	0.195566	0.192936	0.169598	0.200497	0.188992
1177	0.196717	0.070655	0.197538	0.196059	0.195402	0.164338	0.196881	0.192279
1178	0.200168	0.083146	0.196223	0.194087	0.19458	0.142643	0.187019	0.191128
1179	0.197374	0.083475	0.196717	0.205921	0.192279	0.109936	0.196388	0.190635
1180	0.199511	0.086762	0.197703	0.196059	0.184718	0.067861	0.197045	0.194251
1181	0.198853	0.096294	0.198689	0.195402	0.188499	0.01954	0.193429	0.193594
1182	0.201154	0.09613	0.191621	0.193758	0.187184	0.015431	0.195073	0.192443
1183	0.19721	0.10254	0.19721	0.194416	0.185376	0.008035	0.196388	0.192772
1184	0.201812	0.105663	0.19573	0.193101	0.188827	0.004419	0.19836	0.191786
1185	0.197703	0.110429	0.195402	0.194416	0.190964	0.002611	0.199182	0.195566
1186	0.197538	0.112894	0.19836	0.200004	0.187348	-1.9e-05	0.195237	0.192443
1187	0.197045	0.118647	0.194251	0.193922	0.184718	0.003268	0.19573	0.193265
1188	0.200661	0.120784	0.198524	0.194909	0.189156	-0.000841	0.197703	0.193922
1189	0.194251	0.124728	0.196059	0.196223	0.191457	0.004255	0.194416	0.195402
1190	0.194744	0.124728	0.199346	0.184225	0.196059	0.002447	0.19458	0.189649
1191	0.196388	0.130316	0.196717	0.196717	0.18932	0.001789	0.200168	0.192115
1192	0.194087	0.131138	0.197374	0.194251	0.191786	0.002447	0.198524	0.19836
1193	0.196881	0.13837	0.196552	0.196717	0.192936	0.00409	0.204277	0.192115
1194	0.191293	0.136069	0.198853	0.196717	0.19195	0.006391	0.199675	0.19836
1195	0.200825	0.140671	0.197538	0.200004	0.188992	0.001789	0.201319	0.196388
1196	0.194744	0.142643	0.203291	0.194087	0.19721	0.004583	0.20099	0.198689
1197	0.196388	0.148067	0.201812	0.197538	0.191293	0.003926	0.196059	0.196552
1198	0.197045	0.149053	0.196388	0.196717	0.191293	0.003761	0.197538	0.196717
1199	0.196388	0.146916	0.196552	0.194909	0.191293	0.010171	0.19721	0.197703
1200	0.193594	0.152176	0.197374	0.198031	0.196552	0.008692	0.196223	0.199675
1201	0.197045	0.153162	0.198031	0.19458	0.192279	0.012965	0.195566	0.198524
1202	0.196223	0.154641	0.196388	0.197374	0.189649	0.015266	0.196717	0.199182
1203	0.196388	0.157764	0.198853	0.196552	0.193594	0.022991	0.195895	0.198196
1204	0.195895	0.159572	0.196388	0.198196	0.188992	0.030387	0.199182	0.198031
1205	0.195237	0.156449	0.197867	0.197538	0.192936	0.035647	0.195895	0.196552
1206	0.197867	0.162695	0.195073	0.200497	0.190635	0.04255	0.19721	0.200332
1207	0.198689	0.156778	0.195073	0.198524	0.194744	0.050603	0.19458	0.196059
1208	0.200332	0.160887	0.195237	0.203455	0.193265	0.043371	0.201812	0.195402
1209	0.199839	0.162859	0.197374	0.199511	0.194744	0.055041	0.193101	0.193429
1210	0.20214	0.162037	0.199018	0.201647	0.189156	0.064245	0.197374	0.196717
1211	0.195895	0.166475	0.202798	0.20362	0.189814	0.06934	0.198689	0.200332
1212	0.200825	0.169598	0.199346	0.197867	0.189649	0.069669	0.192772	0.199346
1213	0.197703	0.169433	0.199018	0.200497	0.193265	0.078708	0.196881	0.199182
1214	0.195895	0.170584	0.201154	0.200004	0.193594	0.078873	0.19721	0.201319
1215	0.196717	0.176994	0.196059	0.199346	0.195566	0.084461	0.195073	0.196552
1216	0.197045	0.171899	0.196717	0.201976	0.196881	0.08857	0.194416	0.199182
1217	0.198689	0.173542	0.196059	0.200825	0.192608	0.091692	0.193594	0.200168
1218	0.201812	0.178637	0.198031	0.200661	0.196223	0.096294	0.192772	0.19573
1219	0.200332	0.17272	0.196388	0.203291	0.191457	0.098102	0.195566	0.200168
1220	0.199182	0.177815	0.198524	0.198689	0.193594	0.105005	0.192115	0.194251
1221	0.190142	0.1742	0.193265	0.201647	0.193429	0.106978	0.196717	0.201483
1222	0.199346	0.173871	0.200004	0.20099	0.192608	0.113552	0.189814	0.196552
1223	0.198689	0.17798	0.193758	0.202962	0.192772	0.111251	0.194909	0.198031
1224	0.199346	0.175679	0.196717	0.200497	0.194744	0.120619	0.192443	0.199839
1225	0.199018	0.17535	0.196552	0.202962	0.194416	0.118647	0.19573	0.198689
1226	0.198853	0.168283	0.19836	0.202305	0.19573	0.122756	0.195566	0.197374
1227	0.198031	0.176008	0.197703	0.203291	0.19458	0.124728	0.19573	0.195073
1228	0.201976	0.178473	0.19836	0.200661	0.194251	0.127194	0.194087	0.198031
1229	0.202633	0.178802	0.201976	0.207893	0.194416	0.12933	0.195566	0.196388
1230	0.201647	0.18554	0.197374	0.197703	0.194416	0.132782	0.196881	0.198031
1231	0.200004	0.186855	0.19836	0.199182	0.194251	0.137712	0.192115	0.194416
1232	0.199675	0.184883	0.196881	0.199511	0.194251	0.132124	0.192608	0.20099
1233	0.20214	0.186362	0.197867	0.201154	0.195895	0.137712	0.193265	0.195237
1234	0.197867	0.186033	0.197374	0.202962	0.192608	0.13952	0.195566	0.201319
1235	0.201812	0.183897	0.198853	0.201647	0.19458	0.140342	0.192772	0.200332
1236	0.201483	0.186691	0.197045	0.202305	0.195073	0.147903	0.191786	0.199839
1237	0.203291	0.184061	0.199675	0.200661	0.195237	0.144287	0.188663	0.196881
1238	0.200661	0.186198	0.19836	0.201976	0.194416	0.149875	0.19458	0.196388
1239	0.206249	0.183568	0.197703	0.198689	0.193101	0.150697	0.191293	0.19458
1240	0.201319	0.186362	0.197703	0.202305	0.194416	0.14971	0.192608	0.197374
1241	0.20099	0.185047	0.197867	0.199018	0.194744	0.154312	0.193429	0.197703
1242	0.20099	0.187841	0.196717	0.201976	0.190307	0.157271	0.200332	0.194087
1243	0.20362	0.1908	0.20214	0.206907	0.194416	0.154641	0.193758	0.200004
1244	0.203948	0.189649	0.201647	0.205427	0.193101	0.15875	0.196881	0.197703
1245	0.20214	0.189156	0.200825	0.20477	0.196552	0.156942	0.194416	0.199839
1246	0.200497	0.191786	0.198853	0.207235	0.194416	0.155134	0.195237	0.198689
1247	0.200004	0.190471	0.197045	0.201483	0.199018	0.159901	0.192443	0.197703
1248	0.195402	0.190471	0.19721	0.202962	0.197045	0.156449	0.194087	0.195895
1249	0.20099	0.190471	0.197867	0.201812	0.198031	0.160065	0.19458	0.197538
1250	0.199182	0.191128	0.200825	0.202469	0.197538	0.160887	0.193922	0.196388
1251	0.199018	0.190964	0.195895	0.206578	0.196717	0.166311	0.192279	0.199839
1252	0.201483	0.189649	0.199511	0.194909	0.19721	0.164831	0.191786	0.197703
1253	0.199346	0.193594	0.198196	0.201976	0.192772	0.168447	0.195566	0.199839
1254	0.199675	0.191621	0.198853	0.202962	0.194251	0.166311	0.194744	0.199346
1255	0.201483	0.191128	0.194251	0.200004	0.19573	0.168118	0.193758	0.199182
1256	0.199839	0.189485	0.199675	0.200825	0.195566	0.172063	0.194416	0.199346
1257	0.200825	0.192772	0.195237	0.204441	0.194087	0.166968	0.192608	0.198524
1258	0.199839	0.197538	0.196059	0.202305	0.202305	0.172063	0.192772	0.19836
1259	0.199511	0.192608	0.196717	0.207728	0.198689	0.171734	0.193101	0.195237
1260	0.200825	0.194251	0.197867	0.203126	0.196552	0.1742	0.187841	0.198524
1261	0.199018	0.192772	0.19836	0.204606	0.196552	0.170913	0.193594	0.195402
1262	0.200825	0.192936	0.199346	0.20477	0.202798	0.177158	0.190964	0.200825
1263	0.200661	0.195402	0.198196	0.20099	0.196388	0.172556	0.194087	0.19836
1264	0.197045	0.195402	0.19836	0.204606	0.195895	0.175021	0.193429	0.199346
1265	0.205427	0.195073	0.200497	0.203455	0.19836	0.170748	0.196059	0.199675
1266	0.205099	0.193922	0.198196	0.204606	0.195895	0.172063	0.195566	0.201154
1267	0.200497	0.196717	0.20099	0.201812	0.193758	0.174528	0.192772	0.196717
1268	0.197538	0.197045	0.200825	0.202962	0.194416	0.173871	0.194416	0.20099
1269	0.201319	0.196388	0.200661	0.205099	0.198689	0.177487	0.190471	0.192115
1270	0.199511	0.195237	0.200332	0.203455	0.19721	0.172392	0.192608	0.195566
1271	0.20099	0.195402	0.200497	0.199839	0.197703	0.182089	0.191457	0.19836
1272	0.198524	0.193922	0.197703	0.201483	0.197867	0.178309	0.191293	0.195073
1273	0.20099	0.193429	0.201647	0.199346	0.202469	0.179295	0.187348	0.197045
1274	0.199839	0.194087	0.19836	0.203784	0.193265	0.178637	0.194087	0.199675
1275	0.197703	0.192115	0.199511	0.203126	0.19721	0.178637	0.190635	0.201647
1276	0.199182	0.195073	0.200168	0.203126	0.196059	0.175021	0.195237	0.199511
1277	0.200661	0.192608	0.199346	0.203126	0.196059	0.175843	0.190635	0.198689
1278	0.198689	0.200497	0.200661	0.202798	0.197703	0.17272	0.193922	0.194744
1279	0.194251	0.200825	0.201647	0.206085	0.194416	0.178473	0.193429	0.200661
1280	0.197703	0.198689	0.200168	0.201812	0.197703	0.180116	0.193758	0.19721
1281	0.196223	0.195402	0.203455	0.199018	0.197374	0.179295	0.193758	0.196881
1282	0.197374	0.196059	0.203455	0.200825	0.195895	0.181924	0.191621	0.194744
1283	0.193758	0.202469	0.200004	0.199839	0.197538	0.180774	0.193101	0.195895
1284	0.202962	0.192608	0.202962	0.20099	0.186855	0.181103	0.190307	0.195566
1285	0.200004	0.198524	0.19721	0.200332	0.19573	0.178637	0.193594	0.197045
1286	0.200497	0.197045	0.201976	0.199675	0.198853	0.182582	0.193429	0.197703
1287	0.199675	0.198196	0.198689	0.205099	0.196223	0.182417	0.193265	0.200004
1288	0.202469	0.199511	0.200004	0.202633	0.201154	0.179623	0.191128	0.194087
1289	0.200004	0.200004	0.19836	0.201154	0.198689	0.180774	0.194909	0.191621
1290	0.200004	0.198524	0.201483	0.199511	0.197867	0.182746	0.189156	0.193594
1291	0.20099	0.200825	0.201647	0.202305	0.203948	0.179788	0.190964	0.194909
1292	0.199675	0.199511	0.199839	0.200825	0.202305	0.183732	0.189814	0.191128
1293	0.197045	0.200825	0.201483	0.202798	0.197867	0.184061	0.187513	0.194251
1294	0.199511	0.199511	0.203455	0.20214	0.199346	0.184883	0.187513	0.196717
1295	0.202305	0.200497	0.20214	0.202962	0.198196	0.184061	0.189485	0.190635
1296	0.200332	0.200825	0.2074	0.200825	0.196881	0.186526	0.192936	0.202633
1297	0.204277	0.199675	0.204441	0.202633	0.19721	0.186033	0.196717	0.196223
1298	0.200825	0.202469	0.203455	0.199182	0.199182	0.184061	0.194744	0.195073
1299	0.202469	0.199511	0.202962	0.199839	0.197867	0.181431	0.193758	0.194251
1300	0.201154	0.204441	0.201319	0.197374	0.19458	0.186526	0.19573	0.195566
1301	0.200004	0.198689	0.203291	0.20099	0.201154	0.186526	0.191457	0.193265
1302	0.201647	0.200661	0.201319	0.19573	0.199839	0.18439	0.193265	0.197045
1303	0.203291	0.200825	0.202962	0.198031	0.198853	0.187348	0.192279	0.195566
1304	0.199346	0.201976	0.200168	0.200332	0.197703	0.186855	0.195073	0.197538
1305	0.201812	0.198853	0.203126	0.197867	0.199839	0.189485	0.192608	0.195237
1306	0.202469	0.200168	0.209536	0.201812	0.197703	0.189156	0.193758	0.194416
1307	0.204277	0.196223	0.20362	0.20099	0.195566	0.190471	0.193429	0.196388
1308	0.205263	0.198031	0.199018	0.204113	0.197045	0.186855	0.194087	0.192936
1309	0.203291	0.19721	0.202633	0.198031	0.198689	0.188499	0.19458	0.195566
1310	0.204277	0.202798	0.201319	0.203455	0.193265	0.186855	0.197538	0.194416
1311	0.20099	0.203948	0.202798	0.201319	0.196388	0.185705	0.196881	0.194087
1312	0.200497	0.200661	0.201976	0.202305	0.19721	0.179623	0.196059	0.193265
1313	0.205099	0.203784	0.203455	0.202633	0.195237	0.180938	0.192936	0.195895
1314	0.201976	0.202469	0.202962	0.201812	0.19573	0.178966	0.195566	0.195237
1315	0.19836	0.203455	0.204606	0.197867	0.196552	0.184554	0.19573	0.192443
1316	0.199675	0.202962	0.206742	0.196552	0.195237	0.175515	0.195566	0.193101
1317	0.202305	0.203784	0.203291	0.199511	0.19836	0.180774	0.193265	0.193429
1318	0.205263	0.199018	0.205263	0.195402	0.200004	0.180774	0.194251	0.195402
1319	0.204113	0.204277	0.202798	0.198031	0.195402	0.182582	0.193922	0.196717
1320	0.208222	0.200168	0.20362	0.199511	0.200497	0.178966	0.192443	0.193429
1321	0.203455	0.201976	0.20214	0.199346	0.196717	0.181924	0.194909	0.196881
1322	0.204113	0.202305	0.203455	0.197045	0.196552	0.184225	0.190471	0.196223
1323	0.206085	0.204441	0.205592	0.196552	0.19836	0.183404	0.195402	0.195237
1324	0.206742	0.202798	0.204277	0.193594	0.195895	0.186033	0.193922	0.197374
1325	0.201976	0.204606	0.196881	0.196223	0.195237	0.183239	0.194416	0.200004
1326	0.204934	0.203455	0.203126	0.196552	0.196881	0.188499	0.193265	0.197703
1327	0.201647	0.205592	0.201812	0.197374	0.194416	0.185376	0.195566	0.192279
1328	0.205263	0.207564	0.201647	0.196059	0.197374	0.186855	0.195237	0.199018
1329	0.203126	0.203455	0.204277	0.198031	0.198853	0.18932	0.202469	0.192279
1330	0.200825	0.20477	0.202798	0.197045	0.193265	0.188006	0.195073	0.194416
1331	0.205263	0.207728	0.205099	0.197374	0.192936	0.185212	0.197045	0.190142
1332	0.203784	0.212824	0.202469	0.197374	0.19573	0.18817	0.196223	0.194251
1333	0.202798	0.209372	0.21118	0.196552	0.195402	0.182253	0.195895	0.194416
1334	0.200661	0.206578	0.199839	0.197703	0.195073	0.186691	0.19573	0.19573
1335	0.20362	0.206414	0.201812	0.193429	0.193429	0.188663	0.194416	0.191128
1336	0.202962	0.211016	0.203784	0.197867	0.195237	0.187513	0.196223	0.195402
1337	0.204113	0.204934	0.206414	0.194744	0.196388	0.192608	0.190142	0.190471
1338	0.201483	0.208222	0.200661	0.196552	0.192443	0.188006	0.189978	0.192608
1339	0.206414	0.21118	0.205263	0.196881	0.197374	0.1908	0.188827	0.192608
1340	0.206085	0.204934	0.20214	0.194416	0.199839	0.190307	0.195566	0.186362
1341	0.204277	0.206414	0.206085	0.194416	0.194744	0.194416	0.188827	0.200168
1342	0.207564	0.206742	0.203126	0.197703	0.195895	0.189485	0.189156	0.190964
1343	0.204934	0.203784	0.204277	0.194744	0.19836	0.192936	0.193265	0.193265
1344	0.205099	0.206085	0.204606	0.198031	0.194744	0.192443	0.19836	0.196881
1345	0.198524	0.205756	0.204441	0.196717	0.196881	0.192772	0.192772	0.192772
1346	0.199675	0.2074	0.207235	0.195566	0.193101	0.192443	0.196388	0.191786
1347	0.200168	0.208715	0.207893	0.194087	0.195566	0.190142	0.19573	0.198689
1348	0.205263	0.209208	0.20855	0.189978	0.196059	0.193265	0.196388	0.190471
1349	0.202305	0.205756	0.203455	0.193265	0.196223	0.190964	0.196223	0.192443
1350	0.206578	0.207071	0.208715	0.18932	0.197867	0.193429	0.196881	0.190635
1351	0.20477	0.207564	0.205921	0.188334	0.19836	0.190635	0.200004	0.194909
1352	0.204277	0.20477	0.207564	0.192279	0.197538	0.196059	0.193429	0.190471
1353	0.205756	0.207071	0.208057	0.192772	0.197703	0.188006	0.197045	0.193594
1354	0.205921	0.205921	0.205756	0.164338	0.196881	0.193265	0.19573	0.194087
1355	0.201812	0.2074	0.20477	0.164503	0.196223	0.192443	0.192443	0.194416
1356	0.203455	0.205921	0.203784	0.171899	0.196223	0.193429	0.191786	0.195895
1357	0.205921	0.20855	0.205921	0.169269	0.194416	0.194251	0.19458	0.193101
1358	0.204934	0.204277	0.209536	0.164831	0.19573	0.194909	0.193265	0.193922
1359	0.204113	0.20362	0.211016	0.172227	0.19195	0.194416	0.190964	0.195566
1360	0.206085	0.201154	0.205263	0.168118	0.192115	0.195402	0.193594	0.193758
1361	0.204441	0.204606	0.205427	0.174528	0.189156	0.195895	0.200825	0.191786
1362	0.203455	0.203948	0.210851	0.170419	0.187348	0.192115	0.200661	0.192608
1363	0.203126	0.206249	0.207893	0.174364	0.190964	0.185376	0.19721	0.189978
1364	0.200497	0.206578	0.208715	0.17272	0.189649	0.192936	0.19836	0.193265
1365	0.208386	0.20477	0.209701	0.174035	0.192443	0.193429	0.199018	0.1908
1366	0.203291	0.205099	0.211837	0.172392	0.188827	0.192772	0.19573	0.192608
1367	0.207728	0.205263	0.211837	0.167625	0.189485	0.19195	0.193922	0.19195
1368	0.205921	0.207893	0.209701	0.174528	0.190307	0.194251	0.201154	0.193265
1369	0.206578	0.202305	0.212495	0.17272	0.189814	0.19573	0.194416	0.192772
1370	0.205427	0.210523	0.200661	0.177815	0.191293	0.190471	0.197374	0.193265
1371	0.206742	0.205921	0.209701	0.176994	0.191293	0.194909	0.195895	0.193594
1372	0.205263	0.203126	0.208879	0.177487	0.190307	0.194744	0.201647	0.19195
1373	0.206578	0.202962	0.210358	0.176665	0.193922	0.196059	0.197867	0.194251
1374	0.206742	0.205263	0.207728	0.180938	0.186691	0.195073	0.20099	0.193594
1375	0.204113	0.20099	0.209372	0.179295	0.1908	0.195237	0.19573	0.189649
1376	0.204934	0.201319	0.204441	0.181267	0.189978	0.195566	0.197703	0.194744
1377	0.202305	0.204606	0.208222	0.181431	0.190471	0.197374	0.196717	0.192443
1378	0.206249	0.201154	0.208879	0.181596	0.186362	0.194909	0.196059	0.19458
1379	0.202798	0.205099	0.210194	0.181431	0.185047	0.198853	0.198689	0.19195
1380	0.205756	0.205427	0.209043	0.181431	0.187677	0.193594	0.198524	0.193758
1381	0.203455	0.206085	0.211016	0.183404	0.189814	0.199675	0.199182	0.193265
1382	0.206249	0.204277	0.207564	0.181103	0.189156	0.193594	0.200004	0.189814
1383	0.203784	0.202305	0.208386	0.187841	0.191128	0.194909	0.199675	0.191457
1384	0.205592	0.202962	0.208057	0.182582	0.019704	0.200004	0.196059	0.193594
1385	0.204441	0.208222	0.207235	0.183404	0.027429	0.192936	0.199018	0.192608
1386	0.205756	0.201976	0.205099	0.183897	0.04107	0.196552	0.19836	0.189649
1387	0.21118	0.205592	0.207728	0.187019	0.040906	0.196388	0.199346	0.191621
1388	0.203784	0.206249	0.210358	0.182582	0.050603	0.196552	0.194416	0.194909
1389	0.206578	0.209865	0.208057	0.185047	0.053397	0.196223	0.196717	0.193922
1390	0.20477	0.207235	0.209208	0.181431	0.060629	0.197045	0.195237	0.192608
1391	0.203455	0.205921	0.206414	0.184061	0.065395	0.198853	0.200168	0.192772
1392	0.200004	0.207564	0.208222	0.182746	0.067532	0.202305	0.198853	0.194251
1393	0.20214	0.20477	0.204441	0.189649	0.07575	0.196717	0.200332	0.193265
1394	0.206249	0.205263	0.206578	0.184554	0.080516	0.201647	0.198196	0.1908
1395	0.202633	0.204441	0.209208	0.187348	0.084132	0.197374	0.196223	0.191621
1396	0.204277	0.207071	0.209043	0.186691	0.089391	0.199018	0.199675	0.190142
1397	0.203291	0.205263	0.211673	0.185705	0.093993	0.198524	0.20099	0.193429
1398	0.190964	0.204934	0.209865	0.185376	0.097445	0.19721	0.20099	0.194909
1399	0.201483	0.207235	0.212166	0.183075	0.102211	0.196552	0.201647	0.195402
1400	0.201976	0.207071	0.209865	0.186198	0.108621	0.195566	0.202305	0.196388
1401	0.203948	0.205099	0.212988	0.187513	0.109607	0.195073	0.198853	0.192772
1402	0.203291	0.207235	0.208879	0.184061	0.114374	0.196881	0.199346	0.19721
1403	0.205427	0.195895	0.210523	0.184061	0.120291	0.195402	0.198524	0.193922
1404	0.199018	0.204934	0.209865	0.186033	0.120784	0.195895	0.198031	0.195895
1405	0.209208	0.201812	0.213317	0.183732	0.124728	0.200168	0.197703	0.194909
1406	0.207071	0.204934	0.208386	0.188992	0.128673	0.195073	0.19721	0.196552
1407	0.206085	0.203948	0.210029	0.184883	0.128673	0.198689	0.195566	0.198524
1408	0.206742	0.203948	0.207235	0.18554	0.135411	0.19836	0.201154	0.197703
1409	0.204113	0.204277	0.210687	0.187348	0.138699	0.202798	0.197538	0.200497
1410	0.203455	0.20477	0.208057	0.187677	0.136562	0.198196	0.196717	0.191621
1411	0.204113	0.200168	0.211509	0.186362	0.140342	0.201812	0.197703	0.19458
1412	0.207235	0.201154	0.210523	0.188827	0.137548	0.205427	0.195073	0.190964
1413	0.201483	0.203455	0.20855	0.187348	0.140342	0.200168	0.200332	0.19573
1414	0.207893	0.201319	0.212659	0.184718	0.131302	0.194416	0.197867	0.193265
1415	0.206249	0.204113	0.208879	0.18932	0.120619	0.197703	0.20099	0.194416
1416	0.213645	0.203455	0.213974	0.184225	0.112401	0.19458	0.200497	0.193265
1417	0.20362	0.203291	0.209865	0.189156	0.100568	0.194416	0.200168	0.192115
1418	0.205099	0.20362	0.211344	0.185047	0.0935	0.194416	0.200168	0.196059
1419	0.206085	0.203948	0.211016	0.191621	0.090213	0.197867	0.202633	0.195073
1420	0.207728	0.204606	0.216439	0.184061	0.090871	0.196223	0.195402	0.195566
1421	0.202633	0.20855	0.208715	0.185212	0.084789	0.196552	0.199018	0.197374
1422	0.209701	0.200004	0.212988	0.185869	0.089885	0.197538	0.198031	0.195895
1423	0.207893	0.202305	0.209865	0.188006	0.084789	0.196388	0.198196	0.196717
1424	0.20477	0.202798	0.210358	0.182746	0.075914	0.197045	0.198031	0.196881
1425	0.207564	0.201812	0.20855	0.185047	0.068025	0.196388	0.201319	0.192279
1426	0.205427	0.196717	0.213317	0.18061	0.062766	0.199182	0.193594	0.195073
1427	0.208386	0.19573	0.207728	0.186855	0.054548	0.198853	0.196223	0.192936
1428	0.209043	0.201483	0.209865	0.180445	-0.003306	0.201483	0.19573	0.194416
1429	0.207728	0.200004	0.210194	0.179459	-0.000676	0.196059	0.202633	0.195073
1430	0.207564	0.201483	0.209865	0.183075	0.002447	0.203126	0.195402	0.189485
1431	0.209208	0.202469	0.210194	0.183404	-0.000512	0.201647	0.200825	0.190471
1432	0.2074	0.201483	0.208222	0.182746	0.008035	0.197703	0.201647	0.192279
1433	0.213152	0.205099	0.21496	0.184225	0.022005	0.199182	0.201647	0.190471
1434	0.208222	0.204277	0.208222	0.183568	0.025457	0.200004	0.201319	0.186033
1435	0.207071	0.202469	0.216768	0.181267	0.034825	0.195895	0.200332	0.196223
1436	0.205592	0.204606	0.209208	0.178802	0.039591	0.193101	0.19721	0.18932
1437	0.211344	0.202469	0.208222	0.17913	0.050768	0.200004	0.196881	0.191621
1438	0.207893	0.20214	0.206742	0.177651	0.053233	0.196717	0.197703	0.196717
1439	0.206742	0.201154	0.207728	0.18061	0.063094	0.199346	0.196717	0.190471
1440	0.210851	0.201483	0.20477	0.178144	0.061615	0.196059	0.200004	0.193101
1441	0.209208	0.203784	0.206742	0.179952	0.067203	0.200168	0.199675	0.191457
1442	0.207071	0.197867	0.205427	0.180445	0.073942	0.196388	0.199839	0.193429
1443	0.207893	0.19836	0.205756	0.179459	0.076079	0.201483	0.198853	0.195566
1444	0.210523	0.202305	0.207893	0.182746	0.081009	0.200497	0.200168	0.193101
1445	0.211673	0.201812	0.205921	0.181267	0.084625	0.200825	0.199182	0.192772
1446	0.209208	0.197867	0.206414	0.181596	0.091035	0.19836	0.200661	0.190471
1447	0.203784	0.200332	0.205427	0.180281	0.093336	0.199182	0.201483	0.193594
1448	0.210358	0.204113	0.209865	0.17798	0.099417	0.199346	0.201483	0.193922
1449	0.2074	0.196223	0.206578	0.183404	0.102047	0.199839	0.201154	0.19836
1450	0.206742	0.202633	0.206085	0.178144	0.112566	0.197538	0.202798	0.194416
1451	0.207071	0.195237	0.206085	0.179623	0.109772	0.196388	0.205756	0.194909
1452	0.206907	0.203291	0.206742	0.179788	0.113059	0.200004	0.199182	0.194251
1453	0.207564	0.201483	0.20362	0.179623	0.116675	0.197045	0.200497	0.199182
1454	0.210687	0.196552	0.204113	0.180281	0.119304	0.198524	0.200168	0.198689
1455	0.207893	0.204441	0.203291	0.183732	0.121934	0.19721	0.201319	0.198689
1456	0.210851	0.198524	0.19836	0.183568	0.12555	0.201483	0.198689	0.19836
1457	0.2074	0.200332	0.197374	0.184718	0.127687	0.197374	0.200168	0.1908
1458	0.210194	0.20099	0.203455	0.180938	0.135083	0.195895	0.198689	0.194744
1459	0.209865	0.200825	0.20099	0.183404	0.135576	0.200332	0.200497	0.193101
1460	0.209372	0.200168	0.202962	0.180938	0.139356	0.200825	0.19836	0.195237
1461	0.210523	0.197703	0.203126	0.184225	0.129001	0.200825	0.198689	0.195073
1462	0.209865	0.195237	0.203126	0.18176	0.137877	0.200168	0.200497	0.144451
1463	0.215289	0.196881	0.201647	0.188992	0.136398	0.20362	0.201319	0.013294
1464	0.211016	0.196059	0.204113	0.184718	0.137548	0.200332	0.200497	0.022991
1465	0.212824	0.196223	0.203455	0.185212	0.141164	0.196388	0.203948	0.020362
1466	0.210358	0.200661	0.204441	0.187513	0.142479	0.198196	0.19721	0.031209
1467	0.212659	0.19836	0.202798	0.18439	0.138205	0.198031	0.198853	0.033181
1468	0.207235	0.19836	0.203126	0.187348	0.141493	0.197703	0.198853	0.027429
1469	0.209701	0.198524	0.204113	0.181267	0.137384	0.198689	0.19573	0.035482
1470	0.210851	0.199018	0.204277	0.186691	0.136891	0.198524	0.200004	0.041399
1471	0.208222	0.195073	0.202633	0.187513	0.136562	0.201154	0.201154	0.050603
1472	0.209865	0.197374	0.199018	0.186198	0.133603	0.197703	0.200497	0.058985
1473	0.211344	0.193758	0.202469	0.184061	0.137219	0.201647	0.197703	0.059478
1474	0.207728	0.196223	0.200497	0.188334	0.135247	0.201483	0.20099	0.07197
1475	0.209865	0.194087	0.203291	0.185212	0.140178	0.198196	0.196717	0.074599
1476	0.211837	0.19721	0.198853	0.186362	0.139027	0.201319	0.198524	0.073613
1477	0.205427	0.193922	0.197867	0.185869	0.140013	0.201319	0.198031	0.081995
1478	0.210851	0.199018	0.201483	0.187513	0.128344	0.199346	0.198689	0.086926
1479	0.209372	0.198031	0.197703	0.186362	0.128673	0.205099	0.198689	0.092843
1480	0.209536	0.194416	0.201976	0.189156	0.120291	0.201812	0.198524	0.094487
1481	0.20855	0.196881	0.201483	0.18817	0.112073	0.202305	0.201154	0.100239
1482	0.210194	0.199675	0.199839	0.187184	0.107635	0.203126	0.199346	0.102376
1483	0.211673	0.196717	0.19836	0.188992	0.101061	0.201154	0.194416	0.108293
1484	0.206414	0.195895	0.20099	0.184554	0.099253	0.197374	0.199511	0.108128
1485	0.205921	0.196552	0.202305	0.188499	0.09613	0.199675	0.198689	0.112566
1486	0.210194	0.196223	0.202798	0.19195	0.096459	0.199346	0.194251	0.102211
1487	0.207893	0.195895	0.198689	0.191293	0.098595	0.198524	0.19458	0.064409
1488	0.207728	0.195237	0.201812	0.190142	0.105663	0.199182	0.199675	0.074106
1489	0.204113	0.198689	0.197867	0.192279	0.108786	0.19836	0.19836	0.080681
1490	0.21233	0.195895	0.200661	0.185047	0.114867	0.200825	0.197374	0.081502
1491	0.209536	0.196717	0.200004	0.190635	0.113223	0.197045	0.198031	0.08972
1492	0.211837	0.196388	0.196552	0.185869	0.118647	0.199839	0.195895	0.092843
1493	0.210029	0.196059	0.194909	0.185869	0.120784	0.200497	0.201154	0.097281
1494	0.209208	0.192115	0.194909	0.187019	0.119962	0.20214	0.196059	0.102704
1495	0.212495	0.193594	0.19721	0.188499	0.123413	0.199346	0.198853	0.102047
1496	0.208715	0.193758	0.198031	0.186526	0.1267	0.202962	0.201319	0.109279
1497	0.21118	0.194909	0.198031	0.190142	0.128837	0.198853	0.19836	0.109443
1498	0.20855	0.195402	0.19573	0.188663	0.130316	0.199182	0.202962	0.115853
1499	0.207893	0.19458	0.197703	0.189485	0.131302	0.199346	0.199018	0.119797
1500	0.205427	0.194909	0.197374	0.190142	0.139356	0.19573	0.198853	0.123906
1501	0.211344	0.193265	0.197867	0.187841	0.141821	0.200497	0.198196	0.122263
1502	0.203126	0.194744	0.195402	0.189156	0.141986	0.199182	0.198031	0.128344
1503	0.20477	0.200004	0.19458	0.183404	0.14593	0.198853	0.19721	0.127522
1504	0.203455	0.194416	0.192772	0.188334	0.146752	0.199675	0.201154	0.13311
1505	0.204934	0.19458	0.195073	0.186526	0.150368	0.200168	0.195566	0.13196
1506	0.205592	0.200661	0.19573	0.191293	0.152669	0.199018	0.201812	0.13952
1507	0.204441	0.193758	0.198031	0.189156	0.153984	0.209208	0.199182	0.139192
1508	0.20477	0.199511	0.195237	0.189978	0.158093	0.197045	0.200168	0.137384
1509	0.208386	0.193594	0.193265	0.188334	0.155299	0.201483	0.197867	0.147574
1510	0.206249	0.196223	0.192936	0.186691	0.156449	0.19836	0.204277	0.147738
1511	0.204606	0.200168	0.196388	0.191293	0.160229	0.199018	0.196717	0.14856
1512	0.208222	0.196388	0.192115	0.187513	0.158914	0.197374	0.196552	0.148067
1513	0.21118	0.194251	0.193265	0.189156	0.161709	0.200168	0.198689	0.154148
1514	0.205921	0.192936	0.192936	0.191457	0.16401	0.200661	0.197374	0.151354
1515	0.205263	0.196717	0.1908	0.188663	0.169762	0.200661	0.201319	0.153819
1516	0.207071	0.193758	0.195073	0.1908	0.168776	0.198689	0.199182	0.153162
1517	0.202962	0.196388	0.192772	0.191293	0.168447	0.198524	0.199839	0.155792
1518	0.208386	0.19573	0.194087	0.188992	0.170913	0.198689	0.199675	0.150039
1519	0.200332	0.196717	0.190964	0.19195	0.170584	0.198196	0.200497	0.147903
1520	0.204934	0.192608	0.19195	0.188499	0.171734	0.192936	0.197374	0.151354
1521	0.201812	0.196552	0.189649	0.189978	0.171406	0.198853	0.198689	0.022663
1522	0.200661	0.196223	0.194416	0.192936	0.174364	0.199675	0.198031	0.032195
1523	0.202305	0.197867	0.192115	0.188499	0.170255	0.198524	0.198031	0.041728
1524	0.204441	0.196717	0.19195	0.189156	0.17798	0.200332	0.199018	0.04633
1525	0.205263	0.19836	0.192608	0.188334	0.174528	0.201483	0.198524	0.052575
1526	0.201647	0.194416	0.191457	0.190471	0.179952	0.200661	0.195073	0.063094
1527	0.20477	0.199839	0.188827	0.188663	0.178309	0.199346	0.193101	0.059972
1528	0.204934	0.200168	0.1908	0.187513	0.181596	0.20477	0.201154	0.061615
1529	0.20477	0.198853	0.190307	0.19195	0.178144	0.2074	0.196223	0.061615
1530	0.20214	0.19836	0.188992	0.192608	0.178144	0.201319	0.198853	0.068847
1531	0.202962	0.197867	0.189978	0.195073	0.177487	0.200168	0.197374	0.068189
1532	0.204441	0.199346	0.192608	0.191457	0.180774	0.201154	0.200497	0.07049
1533	0.199346	0.198196	0.194416	0.19721	0.182582	0.200004	0.196388	0.070983
1534	0.198853	0.19573	0.187184	0.194251	0.182417	0.201976	0.197045	0.075092
1535	0.198689	0.198524	0.188499	0.192115	0.183732	0.202962	0.193265	0.072956
1536	0.19573	0.199018	0.188663	0.19458	0.185705	0.207235	0.200332	0.077722
1537	0.19721	0.196059	0.190635	0.194087	0.186033	0.200004	0.196059	0.076407
1538	0.199511	0.201647	0.187019	0.195237	0.186033	0.204277	0.201483	0.070819
1539	0.197045	0.199839	0.188499	0.193429	0.188006	0.199839	0.194087	0.072627
1540	0.198853	0.20214	0.188992	0.19458	0.185212	0.1908	0.197703	0.068189
1541	0.201319	0.200332	0.186526	0.193429	0.18817	0.200168	0.197045	0.062437
1542	0.203291	0.199346	0.18817	0.192115	0.189156	0.198853	0.196059	0.065395
1543	0.201319	0.202633	0.18932	0.194744	0.192936	0.201319	0.186033	0.066217
1544	0.20099	0.20099	0.191786	0.183568	0.189156	0.200661	0.193594	0.064574
1545	0.196223	0.200661	0.189156	0.187184	0.189814	0.201647	0.191457	0.058657
1546	0.203455	0.202633	0.188992	0.188006	0.191621	0.199182	0.197538	0.052082
1547	0.20362	0.202469	0.19458	0.191621	0.190307	0.202962	0.19721	0.041564
1548	0.199839	0.199018	0.187841	0.193922	0.188334	0.201647	0.194909	0.037783
1549	0.199018	0.20099	0.191786	0.194909	0.189978	0.202469	0.198196	0.029894
1550	0.201483	0.200168	0.188827	0.190964	0.191128	0.20099	0.198524	0.031045
1551	0.195566	0.202633	0.184225	0.197045	0.188499	0.200497	0.198196	0.033181
1552	0.198853	0.199182	0.185869	0.195073	0.192772	0.200004	0.196717	0.025128
1553	0.196881	0.20214	0.189156	0.197703	0.192936	0.198853	0.202633	0.016088
1554	0.195073	0.200168	0.195895	0.196059	0.191293	0.200497	0.197703	0.015266
1555	0.196717	0.202962	0.185869	0.19836	0.190964	0.198524	0.199346	0.016746
1556	0.197867	0.201812	0.188663	0.195402	0.193101	0.198853	0.196388	0.017239
1557	0.196059	0.203455	0.187019	0.19458	0.194087	0.199511	0.198853	0.017239
1558	0.203455	0.202305	0.173707	0.192772	0.194087	0.204277	0.197867	0.01428
1559	0.196059	0.202469	0.184225	0.197867	0.18932	0.200825	0.197374	0.013623
1560	0.198196	0.203784	0.186691	0.194744	0.193594	0.202798	0.196717	0.012965
1561	0.199346	0.206578	0.187348	0.199018	0.195895	0.20099	0.196717	0.010993
1562	0.201483	0.205921	0.187841	0.201483	0.192279	0.199346	0.19721	0.011979
1563	0.199511	0.197538	0.186033	0.197045	0.1908	0.196223	0.19573	0.010664
1564	0.201976	0.205592	0.187513	0.200332	0.195566	0.202305	0.19836	0.014609
1565	0.195402	0.204441	0.188827	0.199018	0.192279	0.199346	0.198853	0.012308
1566	0.195073	0.204277	0.187677	0.197867	0.189649	0.199675	0.195566	0.01313
1567	0.194744	0.204934	0.187513	0.196552	0.191786	0.199511	0.198524	0.00672
1568	0.192608	0.208222	0.185869	0.196881	0.194087	0.20099	0.199675	0.013952
1569	0.192115	0.208386	0.187677	0.197703	0.195237	0.203455	0.196717	0.01428
1570	0.18932	0.202305	0.184718	0.19836	0.194909	0.199675	0.199511	0.014116
1571	0.19573	0.205592	0.188499	0.197374	0.195237	0.202633	0.197374	0.016581
1572	0.193265	0.205427	0.186526	0.197703	0.195566	0.199182	0.196059	0.013459
1573	0.197045	0.202633	0.186691	0.19836	0.197045	0.204606	0.198524	0.014116
1574	0.196059	0.202633	0.186855	0.195566	0.194416	0.199839	0.199182	0.015595
1575	0.186691	0.20099	0.189156	0.191786	0.196388	0.201483	0.197703	0.016746
1576	0.193922	0.207071	0.18817	0.197045	0.195402	0.200661	0.200004	0.021019
1577	0.194251	0.209865	0.184718	0.195895	0.194909	0.199675	0.198689	0.028251
1578	0.197538	0.212166	0.185869	0.197045	0.195073	0.200661	0.198524	0.029401
1579	0.194909	0.205921	0.189978	0.197374	0.193429	0.206578	0.19836	0.040084
1580	0.196388	0.19573	0.186362	0.196223	0.194416	0.197867	0.195237	0.036633
1581	0.1908	0.207564	0.184225	0.199182	0.193594	0.202962	0.195895	0.04107
1582	0.199675	0.205427	0.184554	0.201483	0.192936	0.200661	0.199675	0.043043
1583	0.192772	0.207071	0.186033	0.198853	0.197045	0.201319	0.197867	0.045672
1584	0.195566	0.201976	0.186198	0.199182	0.192608	0.203784	0.197045	0.046823
1585	0.190964	0.208879	0.18554	0.201319	0.194251	0.202798	0.199182	0.049946
1586	0.191128	0.206414	0.189649	0.199346	0.19721	0.199182	0.198524	0.048467
1587	0.188827	0.211837	0.184554	0.202633	0.196717	0.200168	0.196223	0.051096
1588	0.195402	0.207071	0.185705	0.199511	0.197703	0.201154	0.199675	0.056027
1589	0.194251	0.209865	0.185047	0.202962	0.194416	0.200332	0.200332	0.05652
1590	0.193429	0.2074	0.186855	0.199018	0.200661	0.203784	0.19721	0.056849
1591	0.194416	0.210194	0.185869	0.201319	0.199018	0.202962	0.199018	0.062108
1592	0.19458	0.205921	0.186526	0.198853	0.20099	0.20362	0.198524	0.066217
1593	0.196059	0.210687	0.182417	0.201483	0.200825	0.200497	0.197703	0.066217
1594	0.198031	0.210851	0.183897	0.205099	0.199675	0.202305	0.197374	0.073942
1595	0.194251	0.205263	0.190307	0.206907	0.198689	0.200332	0.198853	0.073778
1596	0.193429	0.206742	0.18439	0.204934	0.201483	0.205592	0.194909	0.077393
1597	0.196388	0.207564	0.186691	0.200497	0.195402	0.20099	0.198196	0.080681
1598	0.194416	0.212495	0.183239	0.201647	0.198524	0.202962	0.20099	0.083146
1599	0.191457	0.205592	0.187513	0.204113	0.196059	0.201812	0.199511	0.081667
1600	0.188499	0.208386	0.182911	0.204277	0.195895	0.202305	0.196388	0.080845
1601	0.189156	0.206907	0.184718	0.20362	0.200825	0.204441	0.199675	0.080681
1602	0.189485	0.209701	0.181596	0.202633	0.19573	0.201812	0.199675	0.077886
1603	0.193594	0.211509	0.180116	0.202469	0.197867	0.201812	0.197045	0.079859
1604	0.191293	0.2074	0.170255	0.206249	0.19836	0.203455	0.200661	0.081009
1605	0.195073	0.205921	0.176336	0.203455	0.20099	0.204934	0.200332	0.082817
1606	0.193265	0.208879	0.174035	0.204113	0.199675	0.201154	0.201154	0.081338
1607	0.195237	0.207564	0.168118	0.20477	0.197374	0.204934	0.198196	0.081174
1608	0.194744	0.212988	0.178802	0.20477	0.197703	0.20099	0.200497	0.084789
1609	0.19458	0.209536	0.178966	0.204606	0.198196	0.201647	0.199182	0.084625
1610	0.197045	0.21118	0.178473	0.20477	0.200004	0.200332	0.199839	0.088077
1611	0.191621	0.209536	0.177651	0.206085	0.200497	0.203455	0.19721	0.094651
1612	0.197374	0.210851	0.176994	0.202469	0.199511	0.197703	0.196717	0.091199
1613	0.190635	0.210358	0.176829	0.206907	0.201319	0.196717	0.196388	0.097281
1614	0.19721	0.21118	0.177158	0.204113	0.197703	0.197703	0.194744	0.096623
1615	0.189649	0.208386	0.173378	0.205427	0.198853	0.20362	0.199511	0.103691
1616	0.194909	0.207728	0.17535	0.206578	0.200497	0.202798	0.196552	0.108621
1617	0.193429	0.206414	0.1742	0.204277	0.198689	0.202798	0.196223	0.108786
1618	0.192608	0.208222	0.176501	0.207728	0.199018	0.204113	0.197703	0.105663
1619	0.194087	0.213974	0.176665	0.208879	0.196717	0.20214	0.198853	0.11536
1620	0.198853	0.205592	0.174364	0.204441	0.201319	0.203948	0.197538	0.118976
1621	0.192772	0.211673	0.178144	0.207564	0.199018	0.203291	0.199182	0.119304
1622	0.192936	0.205099	0.178144	0.205756	0.198524	0.20362	0.197374	0.122592
1623	0.194909	0.2074	0.177158	0.207564	0.200661	0.203948	0.200497	0.130316
1624	0.191621	0.210523	0.17913	0.20855	0.201812	0.203948	0.196552	0.130152
1625	0.192443	0.210194	0.179788	0.210851	0.199675	0.201812	0.198689	0.128015
1626	0.191457	0.209043	0.181103	0.205756	0.201319	0.205756	0.200004	0.13311
1627	0.192443	0.210851	0.176665	0.209536	0.198853	0.202305	0.198524	0.139356
1628	0.193429	0.214138	0.178637	0.205099	0.200332	0.204113	0.198524	0.143629
1629	0.19458	0.209043	0.178473	0.208057	0.197538	0.199675	0.198524	0.144122
1630	0.192279	0.210851	0.178802	0.206907	0.197045	0.204441	0.19721	0.148396
1631	0.197374	0.206414	0.172063	0.208222	0.199675	0.205592	0.19721	0.14593
1632	0.190142	0.209043	0.1742	0.206249	0.198196	0.204606	0.199346	0.148231
1633	0.193594	0.209701	0.174693	0.20855	0.19458	0.205592	0.196552	0.147574
1634	0.188663	0.210851	0.17535	0.206414	0.198689	0.206578	0.199346	0.137219
1635	0.191128	0.214303	0.181103	0.206249	0.197538	0.208879	0.19721	0.148724
1636	0.188827	0.215618	0.179952	0.206249	0.19721	0.202305	0.193101	0.153984
1637	0.191128	0.207564	0.182089	0.208386	0.199839	0.207071	0.197374	0.151683
1638	0.190635	0.210358	0.175679	0.207235	0.194909	0.204277	0.200168	0.153984
1639	0.194087	0.209536	0.180774	0.205099	0.198853	0.208222	0.193101	0.157764
1640	0.193265	0.209372	0.178309	0.208879	0.198689	0.206085	0.200004	0.163023
1641	0.192115	0.209372	0.180281	0.205921	0.20214	0.206414	0.198689	0.165653
1642	0.192772	0.209865	0.177651	0.207564	0.198524	0.202469	0.200168	0.165653
1643	0.195895	0.208386	0.18061	0.207728	0.205592	0.205756	0.197703	0.165817
1644	0.192443	0.21118	0.180774	0.210851	0.197703	0.203784	0.198689	0.163516
1645	0.192772	0.21118	0.182582	0.202798	0.203948	0.20362	0.196223	0.167132
1646	0.192608	0.210029	0.177487	0.202469	0.202469	0.202305	0.196388	0.165817
1647	0.190964	0.212002	0.181924	0.205263	0.202469	0.207728	0.196223	0.169433
1648	0.193101	0.209865	0.176829	0.20362	0.199018	0.206742	0.197703	0.169762
1649	0.191621	0.209372	0.176829	0.205592	0.201976	0.20855	0.196552	0.171734
1650	0.19195	0.208386	0.178802	0.207235	0.198031	0.206085	0.195237	0.171077
1651	0.190471	0.213152	0.179295	0.208386	0.195073	0.209208	0.19836	0.170584
1652	0.191786	0.209043	0.18176	0.205099	0.200825	0.206578	0.196223	0.167461
1653	0.190471	0.214138	0.173214	0.207071	0.198031	0.206578	0.196552	0.176501
1654	0.192115	0.209372	0.17798	0.2074	0.200168	0.20855	0.198689	0.175021
1655	0.1908	0.209372	0.182089	0.210687	0.198689	0.208222	0.195895	0.173542
1656	0.192608	0.210523	0.181103	0.20855	0.202798	0.208879	0.199346	0.176336
1657	0.192608	0.210687	0.181267	0.21118	0.199346	0.205099	0.196881	0.173871
1658	0.196717	0.210687	0.185376	0.205592	0.201154	0.207235	0.194087	0.176994
1659	0.192443	0.209043	0.184225	0.207728	0.200825	0.206578	0.200004	0.177487
1660	0.19573	0.208715	0.184061	0.205592	0.205099	0.208222	0.192608	0.178309
1661	0.195073	0.214467	0.186362	0.207728	0.20099	0.20477	0.195237	0.176501
1662	0.192115	0.212495	0.186198	0.207564	0.203126	0.211016	0.193101	0.179459
1663	0.190964	0.210194	0.182746	0.207728	0.201976	0.204113	0.19573	0.178637
1664	0.191457	0.210194	0.185212	0.209701	0.201154	0.202798	0.193101	0.183897
1665	0.190964	0.210194	0.185869	0.208386	0.199839	0.20362	0.191621	0.180938
1666	0.189485	0.208879	0.188827	0.21118	0.204441	0.207893	0.191128	0.183239
1667	0.194416	0.209865	0.187184	0.209536	0.203126	0.203291	0.194251	0.180445
1668	0.195237	0.21118	0.188006	0.207071	0.200497	0.206414	0.191128	0.181924
1669	0.195237	0.208879	0.189156	0.209372	0.201319	0.208879	0.191293	0.178966
1670	0.195237	0.208057	0.187184	0.208222	0.200168	0.205099	0.191128	0.179952
1671	0.197703	0.208057	0.188992	0.2074	0.203291	0.2074	0.189649	0.17798
1672	0.19195	0.209372	0.190471	0.209043	0.198524	0.207564	0.196388	0.180938
1673	0.19458	0.209536	0.192279	0.207564	0.202633	0.206249	0.192443	0.182746
1674	0.195237	0.209536	0.191128	0.206742	0.197538	0.204113	0.194251	0.180116
1675	0.19458	0.206085	0.193594	0.207728	0.197045	0.205427	0.192279	0.185047
1676	0.193758	0.215453	0.193758	0.211344	0.188334	0.20362	0.192279	0.18439
1677	0.19458	0.212824	0.193265	0.210194	0.185869	0.206414	0.190964	0.184554
1678	0.196388	0.216932	0.195073	0.210029	0.181596	0.202798	0.191128	0.184718
1679	0.194909	0.211837	0.193265	0.207728	0.180281	0.199346	0.189814	0.191457
1680	0.19721	0.207893	0.195895	0.208222	0.176829	0.205592	0.190142	0.185047
1681	0.195566	0.210851	0.19573	0.207235	0.179459	0.206907	0.189814	0.189978
1682	0.196223	0.208057	0.193101	0.206742	0.180774	0.205921	0.18554	0.186033
1683	0.19721	0.211673	0.193758	0.207728	0.182911	0.205099	0.191621	0.185212
1684	0.197045	0.210687	0.196881	0.207728	0.17913	0.20855	0.189156	0.186691
1685	0.196881	0.209208	0.195402	0.203948	0.182089	0.205921	0.188499	0.17913
1686	0.196881	0.203948	0.196881	0.209043	0.186691	0.209372	0.185376	0.184718
1687	0.193265	0.210194	0.200004	0.2074	0.182911	0.210851	0.187348	0.180774
1688	0.193758	0.206249	0.197867	0.2074	0.191293	0.20855	0.184225	0.181596
1689	0.192443	0.209536	0.195073	0.207071	0.184225	0.204441	0.186855	0.186691
1690	0.195895	0.210358	0.201647	0.206578	0.189649	0.204934	0.186526	0.188827
1691	0.195566	0.212659	0.198524	0.209043	0.185376	0.20362	0.190635	0.184225
1692	0.196223	0.206907	0.198689	0.208222	0.187513	0.205921	0.187019	0.187841
1693	0.197538	0.21118	0.197703	0.207728	0.190964	0.200661	0.189156	0.186033
1694	0.197703	0.210851	0.200332	0.201483	0.194251	0.209043	0.189485	0.187513
1695	0.194416	0.210358	0.198524	0.205099	0.1908	0.204606	0.187841	0.185047
1696	0.192443	0.211837	0.196717	0.203784	0.193429	0.204606	0.189156	0.189156
1697	0.201319	0.209536	0.196388	0.206578	0.194251	0.203948	0.187348	0.186033
1698	0.194087	0.210851	0.198524	0.207564	0.189485	0.204934	0.186198	0.188992
1699	0.195402	0.211344	0.199182	0.205921	0.189485	0.207893	0.184883	0.187348
1700	0.196552	0.211344	0.199675	0.20362	0.192115	0.204934	0.187184	0.187019
1701	0.196223	0.207564	0.200004	0.20477	0.193101	0.203455	0.185047	0.188006
1702	0.195237	0.206742	0.200825	0.205427	0.191786	0.207235	0.189156	0.1908
1703	0.196881	0.205427	0.195402	0.206085	0.193429	0.205263	0.186855	0.191457
1704	0.194909	0.208222	0.194744	0.207893	0.193101	0.201976	0.184718	0.189814
1705	0.195895	0.206085	0.201154	0.204441	0.198031	0.20477	0.188334	0.189814
1706	0.196223	0.211509	0.200825	0.209536	0.194416	0.201647	0.189485	0.188663
1707	0.197374	0.208879	0.200497	0.206414	0.192936	0.202633	0.186691	0.187513
1708	0.198689	0.209043	0.197867	0.207728	0.194909	0.20362	0.188499	0.188334
1709	0.196388	0.209865	0.201483	0.2074	0.199018	0.203126	0.19195	0.190307
1710	0.198031	0.210687	0.198196	0.212166	0.195402	0.201483	0.188006	0.18932
1711	0.197045	0.210194	0.201647	0.204113	0.19836	0.203784	0.185705	0.189978
1712	0.195895	0.212824	0.200825	0.206742	0.199182	0.20362	0.185376	0.190307
1713	0.194909	0.211837	0.200497	0.205921	0.198689	0.206249	0.184554	0.188827
1714	0.198031	0.208715	0.201812	0.207728	0.197045	0.202633	0.187348	0.187019
1715	0.196223	0.210029	0.20099	0.205592	0.196881	0.199675	0.187677	0.189978
1716	0.201319	0.209208	0.203126	0.203291	0.196881	0.202633	0.186691	0.188992
1717	0.199839	0.207564	0.202633	0.207564	0.195073	0.199675	0.192443	0.188827
1718	0.201154	0.207071	0.205263	0.206742	0.192443	0.199018	0.186362	0.188006
1719	0.203455	0.205263	0.199675	0.207728	0.197045	0.200332	0.188334	0.188006
1720	0.197374	0.205263	0.205263	0.206578	0.19721	0.201647	0.17535	0.190964
1721	0.19573	0.20855	0.203784	0.19721	0.196223	0.199182	0.184718	0.190307
1722	0.19836	0.206085	0.205099	0.204277	0.196388	0.203126	0.183568	0.189156
1723	0.198853	0.202305	0.20477	0.211837	0.201483	0.19836	0.187841	0.188827
1724	0.19836	0.202962	0.211509	0.206249	0.199018	0.201319	0.184061	0.189156
1725	0.196881	0.204113	0.203455	0.206578	0.200168	0.200332	0.187184	0.188334
1726	0.203455	0.205099	0.202962	0.204934	0.200825	0.201647	0.188992	0.189649
1727	0.199511	0.207893	0.203291	0.201976	0.201154	0.198524	0.188334	0.190471
1728	0.194744	0.209208	0.204441	0.207071	0.201483	0.200168	0.187841	0.192443
1729	0.202633	0.205099	0.202633	0.208715	0.200004	0.190964	0.185705	0.188992
1730	0.20099	0.201319	0.20099	0.205099	0.19836	0.200497	0.18554	0.189814
1731	0.20099	0.208386	0.205756	0.207564	0.197703	0.200004	0.183897	0.19195
1732	0.200497	0.206742	0.204606	0.203948	0.198524	0.199675	0.183075	0.192608
1733	0.206085	0.205427	0.203455	0.20362	0.201483	0.201976	0.184225	0.192443
1734	0.201483	0.202633	0.205592	0.206907	0.200168	0.200825	0.184225	0.192936
1735	0.20214	0.203784	0.197867	0.205427	0.198196	0.201647	0.180774	0.191293
1736	0.200332	0.203784	0.205099	0.206414	0.201976	0.201647	0.188663	0.190635
1737	0.203291	0.201319	0.202469	0.204441	0.199346	0.200004	0.183404	0.189156
1738	0.200332	0.207071	0.205756	0.205921	0.198853	0.194416	0.185047	0.188992
1739	0.201812	0.202798	0.205263	0.204113	0.202798	0.198196	0.188827	0.188663
1740	0.199675	0.203784	0.204934	0.20855	0.197867	0.197703	0.186198	0.185047
1741	0.206742	0.202962	0.209865	0.204934	0.200497	0.199839	0.183239	0.192279
1742	0.201319	0.207071	0.205263	0.2074	0.198853	0.198853	0.18554	0.191786
1743	0.201647	0.206085	0.207564	0.204113	0.20477	0.199675	0.18554	0.192279
1744	0.203126	0.206578	0.208057	0.206907	0.202469	0.195895	0.18817	0.192279
1745	0.201812	0.204113	0.207728	0.203784	0.200661	0.197538	0.188992	0.191786
1746	0.198853	0.212002	0.202633	0.204606	0.201319	0.202633	0.188006	0.191786
1747	0.197538	0.204606	0.205099	0.204113	0.200661	0.199675	0.188334	0.193265
1748	0.205756	0.204606	0.206249	0.195895	0.200168	0.197538	0.190635	0.194251
1749	0.202798	0.207071	0.204934	0.201319	0.199675	0.199346	0.183239	0.193594
1750	0.206085	0.202305	0.204934	0.202305	0.197045	0.197374	0.18932	0.193265
1751	0.20362	0.206085	0.204441	0.203455	0.198031	0.200497	0.190471	0.195402
1752	0.195895	0.19836	0.204113	0.204441	0.199839	0.197374	0.189978	0.193758
1753	0.200661	0.206907	0.201154	0.201976	0.198853	0.199675	0.192608	0.192443
1754	0.201483	0.203948	0.206414	0.204277	0.199018	0.197045	0.192115	0.190964
1755	0.200332	0.204277	0.201319	0.208222	0.194744	0.196223	0.188663	0.192772
1756	0.202798	0.201647	0.20477	0.205427	0.20099	0.201812	0.189814	0.191293
1757	0.200332	0.19458	0.202305	0.2074	0.196059	0.196881	0.193429	0.192279
1758	0.197538	0.202798	0.201483	0.202962	0.199182	0.197045	0.190964	0.194087
1759	0.201319	0.203455	0.197538	0.206578	0.200332	0.199182	0.194744	0.191457
1760	0.202305	0.204113	0.204277	0.204277	0.202305	0.198689	0.18932	0.194416
1761	0.204606	0.2074	0.20477	0.20477	0.197045	0.196059	0.194087	0.193101
1762	0.199346	0.204441	0.204113	0.204934	0.198853	0.201812	0.192772	0.193594
1763	0.200004	0.206742	0.20477	0.206249	0.197045	0.201319	0.192443	0.19573
1764	0.202305	0.209536	0.20362	0.20214	0.197538	0.195073	0.1908	0.196388
1765	0.204441	0.206249	0.202469	0.202305	0.198689	0.197374	0.197703	0.194909
1766	0.201812	0.205099	0.200004	0.204606	0.195566	0.194744	0.191621	0.198196
1767	0.205099	0.202633	0.201154	0.20214	0.193922	0.19836	0.190471	0.197867
1768	0.204113	0.205921	0.19721	0.203948	0.195566	0.195566	0.198853	0.196717
1769	0.206249	0.202962	0.200004	0.201154	0.197867	0.195237	0.194251	0.196223
1770	0.205756	0.203948	0.195402	0.203291	0.198524	0.194744	0.196059	0.197045
1771	0.206742	0.200497	0.197374	0.208222	0.199675	0.197045	0.194087	0.195402
1772	0.200332	0.201319	0.192443	0.199346	0.195073	0.196388	0.195237	0.195566
1773	0.209208	0.202798	0.196223	0.201483	0.199018	0.199346	0.19195	0.192443
1774	0.205427	0.20362	0.195895	0.206578	0.196717	0.195895	0.199018	0.200168
1775	0.203291	0.204606	0.189814	0.203948	0.195566	0.196881	0.195073	0.196223
1776	0.204277	0.205263	0.193101	0.205263	0.197045	0.196717	0.200661	0.196059
1777	0.201319	0.208222	0.192115	0.204606	0.197867	0.19836	0.200004	0.198524
1778	0.205756	0.210851	0.192608	0.201647	0.194416	0.193922	0.198196	0.196388
1779	0.204441	0.208222	0.191457	0.20099	0.197045	0.192279	0.199346	0.19721
1780	0.205921	0.2074	0.190635	0.201154	0.194416	0.196717	0.195073	0.194744
1781	0.2074	0.207728	0.188334	0.200497	0.193265	0.196717	0.19836	0.196388
1782	0.208715	0.20477	0.191621	0.201154	0.192936	0.196717	0.196717	0.193594
1783	0.206414	0.206085	0.191621	0.199511	0.194251	0.197374	0.200168	0.197045
1784	0.207728	0.204606	0.191293	0.20214	0.197045	0.197538	0.200004	0.19573
1785	0.206907	0.209536	0.193101	0.202633	0.19721	0.196552	0.202962	0.201319
1786	0.208222	0.209208	0.187841	0.202962	0.19573	0.194416	0.199182	0.200497
1787	0.208057	0.207235	0.18932	0.204113	0.19573	0.194744	0.201483	0.20099
1788	0.205756	0.206742	0.194087	0.203784	0.19836	0.194744	0.194744	0.197703
1789	0.20362	0.207564	0.191457	0.202798	0.196881	0.196059	0.193265	0.200004
1790	0.206742	0.206249	0.192443	0.203455	0.199839	0.196388	0.194087	0.199018
1791	0.204934	0.206907	0.194909	0.206578	0.194909	0.194416	0.195895	0.198853
1792	0.202469	0.203126	0.190307	0.202633	0.200497	0.198524	0.195073	0.198524
1793	0.205592	0.204934	0.194744	0.207564	0.205427	0.196059	0.200661	0.196717
1794	0.205263	0.207564	0.195073	0.205756	0.196881	0.194251	0.20099	0.201319
1795	0.206742	0.206742	0.192443	0.203948	0.195073	0.193758	0.202469	0.199018
1796	0.204606	0.210851	0.194909	0.202469	0.200661	0.196223	0.202633	0.200168
1797	0.208879	0.204277	0.189978	0.198853	0.196059	0.193594	0.200004	0.197703
1798	0.206578	0.208715	0.196388	0.203126	0.197374	0.194416	0.203948	0.205099
1799	0.20477	0.210194	0.194416	0.205592	0.197045	0.192443	0.201319	0.203948
1800	0.206249	0.208222	0.194251	0.200004	0.19836	0.191293	0.20362	0.206742
1801	0.20855	0.211837	0.194909	0.199018	0.196881	0.190142	0.201483	0.197045
1802	0.206085	0.209536	0.193594	0.203291	0.197538	0.193429	0.20214	0.200168
1803	0.206085	0.204934	0.188334	0.200497	0.195895	0.195073	0.200168	0.205099
1804	0.207564	0.205592	0.193429	0.203455	0.187841	0.193101	0.202798	0.206249
1805	0.208057	0.201647	0.193101	0.201812	0.18439	0.19721	0.200661	0.20362
1806	0.207893	0.206414	0.190307	0.205592	0.177158	0.193429	0.202469	0.202305
1807	0.206907	0.205263	0.191293	0.202633	0.165653	0.19458	0.201812	0.204277
1808	0.210194	0.204441	0.191293	0.204277	0.15612	0.191786	0.206249	0.203291
1809	0.205427	0.205592	0.196881	0.202469	0.139356	0.193101	0.205427	0.203126
1810	0.2074	0.208222	0.197045	0.204441	0.122263	0.192936	0.20477	0.201976
1811	0.206742	0.21118	0.199839	0.201976	0.119962	0.191621	0.202633	0.205592
1812	0.207235	0.209701	0.193758	0.200825	0.114867	0.193101	0.205921	0.201154
1813	0.204606	0.209372	0.197374	0.201812	0.106978	0.19721	0.206907	0.20362
1814	0.205427	0.2074	0.197703	0.202469	0.08331	0.190142	0.204934	0.202305
1815	0.206907	0.206414	0.195073	0.19836	0.059807	0.191293	0.204934	0.204934
1816	0.209536	0.204934	0.196388	0.200661	0.041892	0.192443	0.205099	0.20477
1817	0.206742	0.206578	0.194416	0.20099	0.025457	0.192115	0.201647	0.207564
1818	0.21118	0.20855	0.195402	0.20214	0.012308	0.190471	0.20099	0.205427
1819	0.209865	0.205099	0.194251	0.205427	-0.00347	0.191786	0.201976	0.206742
1820	0.208386	0.206085	0.19573	0.201976	-0.010373	0.193101	0.199839	0.205921
1821	0.206414	0.206907	0.194416	0.204606	-0.020235	0.192936	0.203948	0.205756
1822	0.209043	0.204441	0.196552	0.197538	-0.018755	0.195566	0.199675	0.197867
1823	0.210029	0.209701	0.192608	0.170913	-0.025001	0.191786	0.203126	0.201319
1824	0.205756	0.207564	0.191786	0.170584	-0.024672	0.196881	0.200004	0.203784
1825	0.203291	0.204277	0.188827	0.169598	-0.030918	0.193922	0.204113	0.202469
1826	0.204606	0.202798	0.193265	0.176829	-0.028124	0.195237	0.202469	0.205756
1827	0.204934	0.209372	0.189978	0.176172	-0.030754	0.193758	0.205592	0.202305
1828	0.206249	0.214303	0.194087	0.178309	-0.028288	0.194909	0.204113	0.208222
1829	0.208057	0.210029	0.194909	0.176829	-0.028453	0.189978	0.20362	0.201647
1830	0.205756	0.206578	0.191786	0.17535	-0.023029	0.192936	0.206578	0.202962
1831	0.207728	0.211837	0.189814	0.178966	-0.019084	0.191293	0.205592	0.210523
1832	0.205592	0.210358	0.186855	0.178802	-0.021056	0.195073	0.201976	0.209043
1833	0.207564	0.210851	0.188006	0.176994	-0.014811	0.193594	0.205756	0.205099
1834	0.204441	0.211344	0.18554	0.179788	-0.010702	0.190635	0.205592	0.203291
1835	0.206249	0.209701	0.186691	0.179459	-0.007415	0.193594	0.199182	0.203126
1836	0.205099	0.209536	0.182089	0.183897	-0.005607	0.196223	0.199675	0.205921
1837	0.20855	0.210523	0.178637	0.182089	-0.001662	0.195073	0.197374	0.205756
1838	0.206249	0.213317	0.180938	0.180774	0.003104	0.193758	0.202798	0.205099
1839	0.203291	0.206742	0.183239	0.183568	0.004912	0.201319	0.200661	0.207564
1840	0.205099	0.210523	0.180281	0.185705	0.000803	0.196552	0.204606	0.205263
1841	0.206907	0.207728	0.182582	0.186526	0.000639	0.195895	0.203948	0.206907
1842	0.201647	0.210687	0.181924	0.189485	-0.001827	0.194087	0.206414	0.205263
1843	0.205756	0.210194	0.182746	0.18817	-0.000841	0.197045	0.20477	0.206085
1844	0.201976	0.21118	0.184061	0.185705	-0.005278	0.192772	0.206085	0.204606
1845	0.205427	0.211016	0.186033	0.185869	-0.005114	0.192608	0.203291	0.206578
1846	0.203948	0.213481	0.187348	0.18554	-0.00873	0.194744	0.204934	0.205427
1847	0.206085	0.209208	0.184718	0.185047	-0.001662	0.194087	0.204606	0.206742
1848	0.207071	0.212002	0.186033	0.183897	0.00031	0.193758	0.20362	0.205921
1849	0.20477	0.212495	0.181431	0.18439	0.004255	0.189485	0.204441	0.20855
1850	0.207564	0.2074	0.184883	0.185047	0.008857	0.194251	0.204606	0.206414
1851	0.201812	0.214138	0.18554	0.185212	0.011651	0.191621	0.204934	0.20855
1852	0.205592	0.210194	0.182089	0.18439	0.019868	0.189814	0.204606	0.207235
1853	0.200661	0.214138	0.178637	0.188334	0.022663	0.195402	0.202469	0.208057
1854	0.205263	0.211344	0.182417	0.192115	0.032524	0.195073	0.201647	0.20855
1855	0.202798	0.211673	0.181267	0.190635	0.035811	0.194416	0.20362	0.205921
1856	0.201812	0.209865	0.181103	0.1908	0.04255	0.196223	0.199839	0.210029
1857	0.20214	0.210523	0.179623	0.193265	0.04633	0.193922	0.201976	0.202798
1858	0.20362	0.208879	0.183897	0.191786	0.052904	0.198031	0.203784	0.204934
1859	0.203948	0.211509	0.184718	0.19458	0.051589	0.192936	0.200661	0.204934
1860	0.20477	0.212166	0.187019	0.19195	0.066053	0.195237	0.201154	0.205263
1861	0.207728	0.217261	0.183404	0.195237	0.062108	0.196717	0.206414	0.204113
1862	0.204113	0.210358	0.183404	0.193594	0.06671	0.196059	0.200004	0.203784
1863	0.205427	0.210851	0.184225	0.193758	0.065231	0.192772	0.204441	0.207071
1864	0.205099	0.212495	0.189978	0.19195	0.061944	0.191621	0.208715	0.206249
1865	0.202469	0.212166	0.18817	0.194909	0.067861	0.188827	0.201812	0.205592
1866	0.205427	0.213317	0.189485	0.192443	0.069833	0.19458	0.204277	0.209043
1867	0.20477	0.208222	0.1908	0.192936	0.076243	0.188006	0.203291	0.209372
1868	0.204934	0.211016	0.189156	0.194087	0.079859	0.1908	0.199839	0.206907
1869	0.206085	0.206578	0.190635	0.190635	0.090542	0.194909	0.199346	0.205921
1870	0.205427	0.210029	0.18817	0.194251	0.089227	0.194744	0.199675	0.206742
1871	0.205756	0.211344	0.189649	0.190471	0.093665	0.195402	0.20099	0.206414
1872	0.207564	0.207071	0.187513	0.19721	0.096623	0.199675	0.202305	0.204934
1873	0.203455	0.208057	0.190471	0.194909	0.10254	0.195402	0.201483	0.207235
1874	0.201976	0.208386	0.187513	0.198196	0.103197	0.193594	0.19836	0.205592
1875	0.202962	0.212002	0.190964	0.194087	0.109936	0.195566	0.202469	0.204441
1876	0.204441	0.211016	0.192443	0.198689	0.104348	0.193922	0.20214	0.204277
1877	0.202305	0.208222	0.191786	0.198853	0.106485	0.19836	0.201483	0.205756
1878	0.203291	0.213974	0.193101	0.196881	0.11651	0.192443	0.205756	0.205756
1879	0.203784	0.213645	0.200661	0.197045	0.116839	0.193922	0.201483	0.203948
1880	0.20362	0.210194	0.193429	0.196223	0.12177	0.193429	0.204441	0.202633
1881	0.2074	0.211673	0.193594	0.195895	0.120948	0.19458	0.202798	0.204606
1882	0.206249	0.211344	0.194909	0.194416	0.069833	0.19458	0.20362	0.203948
1883	0.202962	0.210851	0.192608	0.196552	0.059972	0.184225	0.204441	0.208715
1884	0.205099	0.210194	0.193429	0.196059	0.061122	0.19458	0.198196	0.204113
1885	0.200004	0.211509	0.189978	0.195237	0.067039	0.194416	0.198524	0.205756
1886	0.206085	0.211509	0.190471	0.19573	0.074599	0.197374	0.204441	0.204277
1887	0.202633	0.21118	0.19195	0.197703	0.078708	0.196059	0.197703	0.19836
1888	0.204277	0.211016	0.194087	0.192936	0.081009	0.196059	0.20099	0.203126
1889	0.203455	0.207893	0.191293	0.19573	0.086597	0.197703	0.201647	0.204277
1890	0.202962	0.20855	0.194251	0.19458	0.084296	0.199346	0.19721	0.202469
1891	0.203126	0.213152	0.189485	0.197538	0.075421	0.197538	0.196388	0.203455
1892	0.203291	0.209043	0.198031	0.194909	0.077886	0.19721	0.198031	0.203455
1893	0.203291	0.206742	0.192608	0.196059	0.078873	0.199346	0.204277	0.202469
1894	0.202962	0.210358	0.195237	0.191621	0.082324	0.195073	0.202305	0.203126
1895	0.203948	0.211344	0.19458	0.194909	0.088898	0.197374	0.203291	0.200497
1896	0.206249	0.211016	0.194744	0.192608	0.094322	0.199511	0.203291	0.20477
1897	0.205427	0.212988	0.197867	0.193101	0.098431	0.195402	0.192279	0.202305
1898	0.204277	0.214467	0.197045	0.192115	0.104184	0.196717	0.202633	0.202469
1899	0.202798	0.211509	0.196552	0.189649	0.103526	0.194416	0.201647	0.197703
1900	0.205099	0.212824	0.192279	0.191128	0.113881	0.195566	0.202305	0.022005
1901	0.200825	0.215289	0.199839	0.195566	0.116017	0.191621	0.200168	0.030387
1902	0.201647	0.213481	0.192608	0.195895	0.117168	0.195237	0.20099	0.036633
1903	0.205592	0.210851	0.189814	0.193429	0.124071	0.199839	0.203455	0.042714
1904	0.199839	0.212824	0.191293	0.196881	0.124893	0.197867	0.203455	0.048302
1905	0.20099	0.210523	0.1908	0.195237	0.127358	0.200825	0.200004	0.053726
1906	0.203455	0.213152	0.1908	0.195566	0.130316	0.197045	0.202469	0.061286
1907	0.204113	0.21118	0.190964	0.194251	0.134261	0.200825	0.199675	0.067039
1908	0.201976	0.212495	0.192115	0.196717	0.133768	0.195566	0.201319	0.069504
1909	0.202469	0.210358	0.197045	0.189978	0.13574	0.201483	0.200497	0.076572
1910	0.201319	0.212659	0.197045	0.193594	0.136069	0.198031	0.204113	0.081502
1911	0.201154	0.212824	0.196388	0.19458	0.144615	0.198196	0.198031	0.088241
1912	0.206578	0.21233	0.19573	0.197703	0.145437	0.202305	0.203784	0.086926
1913	0.201647	0.212659	0.199346	0.19573	0.150697	0.196223	0.199018	0.099253
1914	0.204441	0.21233	0.199675	0.194087	0.151683	0.19721	0.205921	0.097938
1915	0.202798	0.211509	0.197703	0.194744	0.157271	0.196552	0.205263	0.103362
1916	0.205427	0.213481	0.198196	0.195895	0.153491	0.194416	0.199839	0.107306
1917	0.201483	0.210194	0.196552	0.193101	0.1576	0.198031	0.204441	0.112073
1918	0.210194	0.210194	0.195566	0.194087	0.159572	0.195402	0.20099	0.114209
1919	0.199182	0.213317	0.19721	0.19573	0.16138	0.195237	0.199018	0.120291
1920	0.202469	0.208879	0.19721	0.190142	0.160229	0.198524	0.197374	0.122756
1921	0.200168	0.212824	0.197374	0.192936	0.161051	0.198853	0.200004	0.126536
1922	0.20362	0.211509	0.19721	0.192443	0.164174	0.200332	0.196717	0.128344
1923	0.201812	0.216932	0.18817	0.194744	0.164996	0.200332	0.20214	0.128837
1924	0.197703	0.203126	0.199018	0.195402	0.167297	0.201647	0.198524	0.132617
1925	0.203455	0.209208	0.191293	0.194087	0.168283	0.19836	0.200497	0.13459
1926	0.203948	0.209701	0.195895	0.195566	0.173871	0.201154	0.198853	0.137219
1927	0.204113	0.207235	0.193429	0.198524	0.168283	0.198853	0.202798	0.139192
1928	0.203291	0.209536	0.196717	0.199018	0.173707	0.201976	0.201483	0.143629
1929	0.193265	0.209865	0.197867	0.198031	0.175186	0.199018	0.202305	0.149546
1930	0.201647	0.213152	0.200168	0.196881	0.174693	0.196717	0.203291	0.149875
1931	0.206742	0.210358	0.199346	0.196552	0.176501	0.196552	0.203291	0.14856
1932	0.202633	0.210358	0.198524	0.192608	0.177815	0.199839	0.20099	0.14971
1933	0.205921	0.210358	0.199182	0.194416	0.179459	0.196388	0.197374	0.151354
1934	0.204113	0.20099	0.197703	0.193429	0.17798	0.199346	0.200332	0.15612
1935	0.20214	0.205921	0.19836	0.192115	0.18061	0.197703	0.199018	0.153819
1936	0.200825	0.210194	0.198853	0.196059	0.181924	0.197867	0.199182	0.1576
1937	0.203784	0.206907	0.198031	0.192443	0.183732	0.200497	0.194744	0.157435
1938	0.200332	0.209208	0.195566	0.196223	0.178802	0.199346	0.200661	0.15875
1939	0.205756	0.205921	0.199182	0.195895	0.17913	0.201976	0.199675	0.157435
1940	0.204934	0.209865	0.199675	0.193429	0.176172	0.19836	0.199839	0.160887
1941	0.202305	0.208879	0.198031	0.194416	0.177487	0.197374	0.197538	0.165489
1942	0.202469	0.207893	0.198853	0.194909	0.170913	0.200168	0.204113	0.165324
1943	0.204113	0.206414	0.196388	0.196223	0.166968	0.201976	0.20099	0.166475
1944	0.203455	0.207893	0.199675	0.193594	0.156942	0.200004	0.202305	0.167625
1945	0.203948	0.205263	0.200332	0.191128	0.149053	0.201647	0.206742	0.168612
1946	0.205427	0.205263	0.199675	0.192608	0.133603	0.20214	0.204606	0.168283
1947	0.203126	0.206907	0.202962	0.193101	0.108786	0.202798	0.202305	0.172063
1948	0.205427	0.208715	0.198031	0.195895	0.092514	0.19721	0.200332	0.170255
1949	0.202633	0.208057	0.198031	0.192608	0.067039	0.203455	0.203948	0.175021
1950	0.205263	0.204934	0.201319	0.195073	0.048795	0.20099	0.201154	0.1742
1951	0.199675	0.209865	0.198031	0.19721	0.035975	0.201319	0.205592	0.17272
1952	0.201483	0.206249	0.19836	0.193429	0.035811	0.200497	0.20214	0.172885
1953	0.199182	0.207564	0.199675	0.19573	0.031209	0.201483	0.206249	0.176501
1954	0.201154	0.206085	0.198689	0.195402	0.032031	0.202798	0.202469	0.17913
1955	0.200168	0.205921	0.197045	0.195566	0.029401	0.205592	0.201812	0.179952
1956	0.202798	0.206085	0.201483	0.193101	0.028908	0.20099	0.201647	0.180281
1957	0.205427	0.201154	0.199675	0.194744	0.028744	0.201812	0.204277	0.17535
1958	0.206249	0.202633	0.196717	0.191457	0.029894	0.202798	0.201483	0.178637
1959	0.200661	0.205099	0.199018	0.195566	0.026771	0.20477	0.201483	0.178637
1960	0.202633	0.202469	0.193429	0.193594	0.024964	0.208386	0.20477	0.180774
1961	0.202469	0.201154	0.200168	0.196717	0.022005	0.197867	0.210194	0.177487
1962	0.202798	0.204606	0.200332	0.192443	0.024306	0.199182	0.203784	0.183075
1963	0.208057	0.206578	0.200661	0.195402	0.028579	0.199839	0.203784	0.179952
1964	0.200004	0.205921	0.203784	0.19573	0.035154	0.201976	0.204113	0.182582
1965	0.201812	0.202305	0.201319	0.195895	0.03729	0.199839	0.203291	0.179952
1966	0.200168	0.205263	0.201647	0.193594	0.0437	0.200497	0.202633	0.18554
1967	0.19836	0.202633	0.201319	0.191786	0.046659	0.198524	0.203291	0.181924
1968	0.199182	0.205921	0.201319	0.191457	0.05011	0.201319	0.205263	0.184061
1969	0.200004	0.202633	0.201154	0.19573	0.05537	0.19836	0.203784	0.179788
1970	0.199511	0.201812	0.197374	0.193429	0.002611	0.200004	0.203126	0.183239
1971	0.202305	0.201319	0.201154	0.190964	0.006884	0.202962	0.203784	0.18554
1972	0.200332	0.20362	0.199675	0.193922	0.016581	0.202633	0.204934	0.183568
1973	0.199182	0.203455	0.201647	0.194251	0.026771	0.202633	0.200168	0.186362
1974	0.202633	0.197045	0.195566	0.192279	0.030552	0.202798	0.205263	0.184883
1975	0.197867	0.199675	0.200825	0.193429	0.042221	0.204277	0.202305	0.186855
1976	0.201812	0.202305	0.200497	0.196059	0.043536	0.201319	0.202962	0.185869
1977	0.200497	0.199182	0.197538	0.189978	0.054548	0.203784	0.200825	0.184718
1978	0.200661	0.197045	0.200004	0.197374	0.051589	0.200497	0.204606	0.182417
1979	0.200004	0.201976	0.201976	0.191457	0.063587	0.207235	0.204113	0.185376
1980	0.200497	0.19836	0.199018	0.195566	0.06934	0.205756	0.20214	0.183897
1981	0.200825	0.200825	0.199346	0.192936	0.06934	0.204277	0.201483	0.187348
1982	0.203455	0.197538	0.199839	0.192443	0.077722	0.201812	0.202469	0.18554
1983	0.199182	0.199839	0.199675	0.193594	0.085447	0.203784	0.203784	0.181924
1984	0.200168	0.199839	0.20099	0.194087	0.089227	0.199182	0.19573	0.18554
1985	0.200168	0.200661	0.197374	0.191128	0.093993	0.199675	0.203784	0.184554
1986	0.200004	0.200332	0.20099	0.193101	0.097609	0.202469	0.203455	0.183404
1987	0.198689	0.201483	0.202962	0.196717	0.099417	0.196223	0.201647	0.186691
1988	0.202305	0.196717	0.202469	0.190471	0.109279	0.201319	0.20099	0.193101
1989	0.199018	0.199511	0.197538	0.193758	0.105827	0.199182	0.199839	0.183568
1990	0.202469	0.200825	0.204113	0.191293	0.114538	0.201483	0.201647	0.187019
1991	0.200497	0.201647	0.198031	0.193265	0.114209	0.19836	0.203784	0.187677
1992	0.20099	0.195073	0.197867	0.196881	0.116839	0.204934	0.206085	0.187348
1993	0.200168	0.197045	0.197045	0.190142	0.122427	0.200332	0.203784	0.185212
1994	0.199018	0.194087	0.202962	0.193101	0.127851	0.202633	0.204606	0.18817
1995	0.196717	0.193758	0.19836	0.194087	0.128673	0.198524	0.202469	0.188992
1996	0.197538	0.193922	0.199839	0.193429	0.132782	0.199018	0.203291	0.189814
1997	0.195402	0.195402	0.20214	0.195895	0.134097	0.20214	0.203126	0.186855
1998	0.193922	0.200168	0.202469	0.19721	0.136069	0.199018	0.20362	0.18932
1999	0.195073	0.195402	0.196552	0.191128	0.14215	0.198689	0.20099	0.175843
2000	0.191457	0.194416	0.200332	0.189156	0.144944	0.196223	0.202962	0.181267
2001	0.190964	0.197538	0.200497	0.194744	0.147738	0.202633	0.20099	0.184883
2002	0.185212	0.195073	0.200004	0.189814	0.147409	0.200497	0.20362	0.187019
2003	0.188827	0.193429	0.202305	0.190964	0.152011	0.199839	0.203291	0.185869
2004	0.190964	0.192772	0.194416	0.190142	0.147738	0.197374	0.201483	0.187513
2005	0.192936	0.192936	0.200332	0.190471	0.151518	0.200004	0.203126	0.188663
2006	0.189485	0.19195	0.196552	0.195073	0.153655	0.200497	0.202633	0.186198
2007	0.190635	0.188827	0.196059	0.193429	0.158914	0.199346	0.201483	0.188663
2008	0.193922	0.1908	0.198524	0.19458	0.155792	0.19836	0.205427	0.188663
2009	0.190964	0.193265	0.200004	0.195566	0.161215	0.201154	0.200004	0.188334
2010	0.193922	0.18932	0.199839	0.19458	0.166968	0.197538	0.197703	0.188499
2011	0.192772	0.188499	0.199839	0.193758	0.162202	0.199182	0.200168	0.188827
2012	0.193101	0.187019	0.201319	0.197867	0.163516	0.197374	0.200661	0.188663
2013	0.1908	0.188334	0.198031	0.196717	0.164831	0.20099	0.203126	0.189485
2014	0.196388	0.190635	0.202469	0.196059	0.166311	0.196552	0.201647	0.185376
2015	0.189156	0.191457	0.196881	0.19458	0.164996	0.194251	0.203291	0.189485
2016	0.196881	0.190471	0.200332	0.195073	0.169926	0.201154	0.202305	0.189649
2017	0.192608	0.189649	0.19458	0.19458	0.17157	0.194744	0.202305	0.186033
2018	0.195073	0.189156	0.197374	0.194087	0.17157	0.196223	0.203126	0.18817
2019	0.191457	0.191621	0.203455	0.200004	0.171077	0.198031	0.209536	0.189485
2020	0.193594	0.188992	0.201812	0.196388	0.1742	0.19721	0.19573	0.185705
2021	0.192279	0.189649	0.20214	0.194744	0.179295	0.198689	0.203291	0.191621
2022	0.194251	0.184225	0.201812	0.193758	0.176336	0.198524	0.197867	0.188006
2023	0.193265	0.189156	0.200661	0.196881	0.17798	0.200004	0.201319	0.189649
2024	0.193594	0.184883	0.200168	0.194744	0.17913	0.201812	0.198524	0.193758
2025	0.19721	0.185869	0.198196	0.195073	0.178637	0.19721	0.198031	0.188334
2026	0.194909	0.187841	0.20477	0.192936	0.181596	0.200004	0.202469	0.18932
2027	0.193758	0.188992	0.19836	0.193594	0.175186	0.201154	0.198853	0.193429
2028	0.194416	0.188663	0.199839	0.196388	0.174364	0.202469	0.199346	0.187513
2029	0.193594	0.187019	0.197374	0.198031	0.176501	0.193758	0.198524	0.188663
2030	0.191621	0.190307	0.199839	0.195566	0.178473	0.200004	0.197867	0.1908
2031	0.194416	0.187677	0.200168	0.199018	0.17798	0.201319	0.19836	0.188006
2032	0.192772	0.187348	0.200332	0.195237	0.18176	0.199839	0.197045	0.191457
2033	0.196059	0.187184	0.200004	0.194251	0.184718	0.19836	0.197867	0.192772
2034	0.192443	0.187513	0.199675	0.19836	0.183897	0.200661	0.201483	0.188334
2035	0.193101	0.186855	0.201647	0.198031	0.18439	0.198031	0.200168	0.187513
2036	0.194909	0.186526	0.19836	0.194416	0.18554	0.198689	0.199675	0.18817
2037	0.193429	0.184554	0.201647	0.194909	0.188992	0.200004	0.197867	0.187513
2038	0.196717	0.187513	0.197867	0.197374	0.18439	0.196881	0.198196	0.189978
2039	0.197538	0.184883	0.201319	0.195566	0.187019	0.199511	0.195895	0.185212
2040	0.198853	0.188334	0.198524	0.199018	0.185705	0.196881	0.199182	0.188499
2041	0.196059	0.189156	0.200661	0.195566	0.190635	0.19721	0.197538	0.192936
2042	0.196881	0.185047	0.200168	0.197374	0.187841	0.198853	0.193594	0.190471
2043	0.197045	0.183239	0.199346	0.190142	0.190964	0.203126	0.192115	0.191786
2044	0.197374	0.184883	0.200497	0.194744	0.187184	0.197867	0.194909	0.192772
2045	0.194251	0.184225	0.199675	0.197045	0.185376	0.200825	0.19458	0.191128
2046	0.197538	0.007377	0.200004	0.19836	0.187348	0.197867	0.19573	0.189814
2047	0.194744	0.015595	0.197703	0.196388	0.188992	0.198031	0.19573	0.190635
2048	0.199675	0.025292	0.197867	0.193758	0.189978	0.19573	0.199839	0.192608
2049	0.193429	0.033674	0.199346	0.198853	0.188827	0.196717	0.195402	0.187513
2050	0.199018	0.037455	0.197867	0.198196	0.189485	0.196059	0.197703	0.184225
2051	0.197374	0.045837	0.203455	0.196223	0.18932	0.193429	0.200168	0.191128
2052	0.193101	0.048631	0.202305	0.191621	0.188827	0.195895	0.19721	0.191293
2053	0.197045	0.056684	0.200661	0.195073	0.191128	0.195895	0.197703	0.190471
2054	0.199018	0.057671	0.203784	0.196059	0.189649	0.19836	0.196059	0.191621
2055	0.199675	0.066053	0.199511	0.198524	0.188992	0.195073	0.198689	0.193265
2056	0.204113	0.070819	0.199675	0.197045	0.1908	0.198853	0.197867	0.192772
2057	0.199839	0.074271	0.195237	0.197867	0.190471	0.194416	0.19573	0.193594
2058	0.202962	0.077229	0.202633	0.19836	0.190635	0.196881	0.197867	0.192608
2059	0.201647	0.081174	0.195895	0.196059	0.184554	0.196059	0.197538	0.190964
2060	0.20214	0.085611	0.203291	0.198031	0.18932	0.195895	0.196223	0.192443
2061	0.199675	0.092186	0.197374	0.200332	0.186855	0.200497	0.19721	0.18932
2062	0.202962	0.091035	0.198689	0.199675	0.189649	0.198853	0.195895	0.1908
2063	0.196223	0.097938	0.201319	0.199839	0.189649	0.194909	0.202469	0.192772
2064	0.197374	0.101061	0.197867	0.199346	0.190635	0.195566	0.197045	0.192608
2065	0.200168	0.100896	0.195073	0.19836	0.184883	0.193594	0.200168	0.189156
2066	0.199018	0.108457	0.198853	0.199839	0.193594	0.193429	0.200004	0.191621
2067	0.201976	0.107635	0.204606	0.197703	0.186855	0.19458	0.193922	0.188663
2068	0.007213	0.110922	0.195895	0.195895	0.192443	0.19195	0.201976	0.186855
2069	0.015102	0.112237	0.200661	0.199675	0.193594	0.194744	0.199511	0.189485
2070	0.024142	0.115853	0.199675	0.196717	0.193594	0.196223	0.199675	0.190471
2071	0.032853	0.117332	0.201812	0.20099	0.190471	0.198689	0.19836	0.192115
2072	0.037126	0.120948	0.201483	0.197703	0.190635	0.190471	0.201319	0.191293
2073	0.048631	0.121112	0.201483	0.198031	0.046166	0.195895	0.19458	0.191786
2074	0.053726	0.128015	0.201483	0.200661	0.00294	0.195566	0.190964	0.19195
2075	0.059643	0.128837	0.201483	0.202633	0.006391	0.191621	0.194744	0.196059
2076	0.06934	0.128673	0.200825	0.197045	0.012472	0.191457	0.197867	0.192608
2077	0.069176	0.127687	0.202305	0.19721	0.022991	0.190471	0.197045	0.192772
2078	0.077229	0.138205	0.200825	0.200332	0.026114	0.189156	0.196717	0.195402
2079	0.050932	0.139849	0.196388	0.199346	0.020362	0.191786	0.199675	0.19458
2080	0.05652	0.136069	0.199182	0.200497	0.022663	0.183239	0.200168	0.193429
2081	0.061779	0.139849	0.197538	0.196552	0.015924	0.187348	0.202633	0.194251
2082	0.072791	0.141493	0.200332	0.201647	0.010171	0.179788	0.198031	0.19458
2083	0.073613	0.143629	0.201647	0.199018	0.015431	0.174364	0.202798	0.194087
2084	0.08331	0.142807	0.200497	0.199018	0.021019	0.156449	0.203948	0.192443
2085	0.084461	0.145766	0.201812	0.199839	0.024306	0.14856	0.201154	0.194909
2086	0.090871	0.143958	0.204277	0.193101	0.030059	0.141493	0.197703	0.195237
2087	0.09498	0.149053	0.197703	0.197703	0.03351	0.138534	0.202305	0.194416
2088	0.101225	0.148724	0.200497	0.19836	0.041399	0.135576	0.199675	0.198196
2089	0.104677	0.152176	0.206249	0.202305	0.040413	0.121605	0.198689	0.196059
2090	0.109772	0.151025	0.198853	0.196717	0.047809	0.098267	0.199511	0.197867
2091	0.114702	0.154312	0.197703	0.198524	0.04107	0.087255	0.203784	0.198196
2092	0.118811	0.147903	0.200661	0.196552	0.043043	0.087912	0.199346	0.198853
2093	0.122756	0.152669	0.19836	0.197045	0.043371	0.083475	0.198853	0.19721
2094	0.125386	0.154806	0.200168	0.197045	0.049781	0.076243	0.20099	0.198524
2095	0.134097	0.150861	0.195073	0.196881	0.050603	0.067532	0.201647	0.198031
2096	0.131631	0.155463	0.199346	0.196388	0.055863	0.061286	0.200332	0.201154
2097	0.135904	0.156778	0.201483	0.195237	0.056356	0.061779	0.199675	0.197703
2098	0.138699	0.160229	0.200332	0.197538	0.059972	0.063916	0.201154	0.197867
2099	0.140013	0.155956	0.203126	0.198689	0.058985	0.064574	0.199018	0.196388
2100	0.137055	0.167132	0.189156	0.197703	0.059807	0.058328	0.200497	0.201154
2101	0.144615	0.160394	0.19836	0.196388	0.064245	0.055863	0.200661	0.198196
2102	0.146916	0.161051	0.198689	0.198524	0.071641	0.050768	0.202798	0.196881
2103	0.149382	0.16138	0.201154	0.201154	0.065724	0.0437	0.199675	0.200661
2104	0.151354	0.16253	0.199675	0.199675	0.067203	0.041892	0.203784	0.200661
2105	0.155627	0.161215	0.200497	0.199511	0.073613	0.047152	0.200168	0.19836
2106	0.153491	0.163845	0.20099	0.201483	0.076079	0.045344	0.20477	0.20477
2107	0.160558	0.162859	0.200661	0.199839	0.084132	0.043371	0.199182	0.200661
2108	0.163845	0.166639	0.199511	0.196059	0.084954	0.029401	0.205427	0.195566
2109	0.165817	0.168776	0.20099	0.196552	0.092843	0.009843	0.201812	0.202469
2110	0.167461	0.167625	0.199675	0.196552	0.093829	0.003926	0.202305	0.202633
2111	0.165982	0.15497	0.202305	0.19836	0.093829	0.004583	0.200661	0.201976
2112	0.167297	0.164338	0.195895	0.199675	0.093993	-0.001498	0.199018	0.200332
2113	0.17535	0.164174	0.196552	0.198524	0.099746	0.005076	0.20099	0.20099
2114	0.173707	0.166968	0.200825	0.204441	0.097938	0.005241	0.19836	0.199675
2115	0.174528	0.168283	0.199018	0.199675	0.106649	0.006391	0.200497	0.200661
2116	0.173707	0.166475	0.20214	0.199839	0.109114	0.013294	0.200661	0.197374
2117	0.171406	0.166475	0.199018	0.202798	0.110922	0.020526	0.201154	0.201812
2118	0.177158	0.167132	0.205099	0.196059	0.11651	0.021019	0.205592	0.198031
2119	0.175021	0.168118	0.200661	0.199839	0.116017	0.023649	0.205263	0.199675
2120	0.181431	0.167461	0.203455	0.196388	0.123906	0.026114	0.199018	0.200004
2121	0.18061	0.170748	0.201647	0.198524	0.124564	0.02069	0.20362	0.202305
2122	0.183732	0.167461	0.20362	0.19721	0.130481	0.013623	0.20099	0.19573
2123	0.184225	0.169433	0.194744	0.198853	0.129659	0.010336	0.203126	0.202633
2124	0.187348	0.168776	0.200168	0.196223	0.136398	0.010336	0.199018	0.201976
2125	0.187019	0.172885	0.200497	0.202469	0.134918	0.007049	0.199346	0.201647
2126	0.1908	0.17272	0.202305	0.194416	0.138041	0.010664	0.200168	0.20099
2127	0.188334	0.170419	0.200004	0.199018	0.142643	0.013623	0.200332	0.196552
2128	0.185047	0.16894	0.202798	0.205756	0.141657	0.012144	0.199018	0.203784
2129	0.189814	0.171241	0.199346	0.199511	0.142314	0.014116	0.202305	0.199346
2130	0.185212	0.173542	0.195073	0.202305	0.141821	0.01691	0.201483	0.200332
2131	0.187184	0.173378	0.203291	0.201647	0.142479	0.014609	0.198689	0.199346
2132	0.188827	0.173542	0.200168	0.196552	0.146588	0.017732	0.201647	0.201483
2133	0.190964	0.172392	0.202305	0.198689	0.152176	0.01576	0.201483	0.199346
2134	0.190635	0.17535	0.201976	0.199675	0.14856	0.018882	0.204113	0.203126
2135	0.193429	0.173378	0.20099	0.197045	0.153326	0.018225	0.204441	0.198031
2136	0.193101	0.171734	0.197374	0.200825	0.154641	0.017074	0.203948	0.201976
2137	0.193265	0.173707	0.199675	0.198524	0.150368	0.01954	0.197867	0.200168
2138	0.194251	0.177322	0.198031	0.19836	0.153326	0.019047	0.205263	0.199839
2139	0.19573	0.176008	0.201647	0.201647	0.153326	0.031045	0.199511	0.20099
2140	0.193265	0.181103	0.199839	0.199346	0.150368	0.035154	0.200004	0.20477
2141	0.197374	0.175186	0.203126	0.19836	0.153162	0.043207	0.199839	0.203784
2142	0.195895	0.178473	0.200661	0.202798	0.153162	0.049288	0.199675	0.202469
2143	0.196223	0.172556	0.200661	0.197867	0.156778	0.056191	0.201154	0.205921
2144	0.196388	0.176665	0.200497	0.193922	0.155299	0.060629	0.207235	0.199511
2145	0.195073	0.177815	0.202469	0.196388	0.15497	0.06556	0.199182	0.202305
2146	0.195566	0.174857	0.198524	0.196552	0.149382	0.071312	0.202469	0.201647
2147	0.195566	0.177651	0.201319	0.195073	0.097116	0.081174	0.200497	0.202469
2148	0.197538	0.176829	0.20099	0.196223	-0.000183	0.075585	0.20214	0.201812
2149	0.19573	0.17913	0.199182	0.199018	0.000639	0.08709	0.202633	0.204934
2150	0.198031	0.177158	0.20099	0.198524	0.002447	0.087748	0.203784	0.206414
2151	0.193101	0.185869	0.196717	0.199182	0.004583	0.095144	0.203784	0.205921
2152	0.196388	0.179952	0.203784	0.201319	0.011322	0.098102	0.201483	0.202798
2153	0.195073	0.183239	0.19836	0.20477	0.017896	0.103691	0.203126	0.204113
2154	0.194416	0.181596	0.198689	0.194087	0.027265	0.105992	0.20099	0.204441
2155	0.193758	0.184225	0.196717	0.195237	0.030059	0.110265	0.203784	0.201976
2156	0.201483	0.184883	0.207564	0.191457	0.034989	0.114045	0.201154	0.204277
2157	0.19836	0.184554	0.19721	0.192443	0.041564	0.117332	0.195895	0.200825
2158	0.200497	0.185705	0.200168	0.189485	0.041399	0.123085	0.200825	0.203784
2159	0.199346	0.184225	0.200661	0.190635	0.050768	0.123578	0.20477	0.206085
2160	0.197703	0.183897	0.199511	0.191457	0.061122	0.128673	0.199182	0.203126
2161	0.200332	0.187019	0.200332	0.190142	0.059478	0.126865	0.20214	0.205099
2162	0.200497	0.185376	0.198853	0.194087	0.06293	0.135576	0.200497	0.205263
2163	0.200332	0.187184	0.203291	0.188827	0.065724	0.134754	0.201812	0.199018
2164	0.196717	0.186855	0.20099	0.193101	0.067039	0.140835	0.200661	0.205263
2165	0.200825	0.186526	0.196388	0.190307	0.071805	0.141493	0.199182	0.20855
2166	0.198031	0.188992	0.205756	0.192115	0.076572	0.143958	0.202305	0.202305
2167	0.202633	0.188499	0.205427	0.196881	0.075585	0.147738	0.196059	0.201154
2168	0.196223	0.189649	0.205756	0.193265	0.075914	0.147574	0.201976	0.203126
2169	0.200497	0.189156	0.202305	0.192115	0.078873	0.149382	0.200004	0.202305
2170	0.198689	0.18817	0.202633	0.189156	0.075421	0.149382	0.20362	0.201812
2171	0.198524	0.189485	0.204441	0.195073	0.084132	0.152011	0.198524	0.203291
2172	0.201154	0.190635	0.201812	0.18932	0.079366	0.159079	0.202305	0.205099
2173	0.199511	0.188827	0.201319	0.187019	0.084954	0.158914	0.197045	0.203455
2174	0.20099	0.194087	0.197374	0.193429	0.081502	0.156778	0.200168	0.20477
2175	0.196059	0.18817	0.201483	0.188663	0.092021	0.163681	0.196552	0.207071
2176	0.199346	0.197867	0.200661	0.19458	0.094815	0.163023	0.199182	0.205263
2177	0.197703	0.194416	0.201647	0.190964	0.093007	0.166311	0.196717	0.202962
2178	0.197703	0.192279	0.200661	0.197867	0.095308	0.166968	0.197045	0.204277
2179	0.19721	0.193265	0.203948	0.189156	0.094815	0.170913	0.19836	0.203291
2180	0.200497	0.19573	0.200661	0.191293	0.096294	0.166475	0.195073	0.201319
2181	0.200004	0.194744	0.198853	0.191621	0.096459	0.173378	0.199346	0.202798
2182	0.201319	0.196717	0.20362	0.192279	0.097445	0.173871	0.195895	0.204113
2183	0.200497	0.197703	0.20099	0.192608	0.101883	0.175515	0.200168	0.204113
2184	0.201319	0.192772	0.205427	0.19195	0.103033	0.176172	0.19458	0.199839
2185	0.195073	0.19721	0.199839	0.192443	0.101554	0.176336	0.201154	0.202633
2186	0.20099	0.196059	0.201976	0.188663	0.104512	0.175679	0.198196	0.199839
2187	0.196552	0.197867	0.201319	0.193101	0.108621	0.176501	0.198031	0.199018
2188	0.197045	0.198031	0.206414	0.19195	0.109772	0.175843	0.198853	0.195402
2189	0.198031	0.200332	0.20362	0.193101	0.107635	0.177651	0.201319	0.198689
2190	0.197867	0.197867	0.204113	0.191786	0.116017	0.182582	0.199018	0.201647
2191	0.19836	0.202469	0.202962	0.193429	0.113223	0.17913	0.201483	0.202469
2192	0.198853	0.196717	0.201647	0.195073	0.117168	0.184225	0.201154	0.202305
2193	0.19836	0.197538	0.202962	0.196717	0.117332	0.183568	0.201647	0.202798
2194	0.196059	0.198031	0.20214	0.197703	0.118318	0.184225	0.20362	0.202962
2195	0.201976	0.197703	0.20362	0.194744	0.120291	0.184225	0.201647	0.201154
2196	0.195566	0.199511	0.203455	0.194416	0.123906	0.186526	0.20099	0.202305
2197	0.197867	0.199018	0.203948	0.196223	0.124399	0.187184	0.198689	0.199346
2198	0.193265	0.203126	0.202633	0.193922	0.12933	0.187841	0.199346	0.205756
2199	0.194909	0.204113	0.203784	0.196881	0.129001	0.186855	0.198853	0.204277
2200	0.196059	0.20362	0.202305	0.194416	0.130974	0.188499	0.201483	0.202305
2201	0.194744	0.201647	0.203126	0.195895	0.134754	0.189156	0.198853	0.204113
2202	0.194251	0.203784	0.203291	0.195402	0.13311	0.188334	0.201154	0.202305
2203	0.196881	0.206414	0.200497	0.196881	0.138041	0.188992	0.199346	0.200497
2204	0.194744	0.203455	0.200004	0.199182	0.138699	0.191457	0.202798	0.199346
2205	0.196388	0.20099	0.200332	0.199346	0.141	0.190635	0.200661	0.199182
2206	0.199839	0.202469	0.198524	0.198196	0.140835	0.187184	0.203126	0.201647
2207	0.195073	0.202305	0.202469	0.199346	0.143629	0.191293	0.196717	0.201319
2208	0.19721	0.207564	0.201976	0.199346	0.143958	0.189978	0.201154	0.201483
2209	0.195566	0.206578	0.200661	0.197867	0.145108	0.192772	0.201483	0.204113
2210	0.196552	-0.001498	0.20214	0.203291	0.14215	0.191293	0.200497	0.201647
2211	0.196717	0.009021	0.209865	0.19721	0.143465	0.198853	0.200661	0.204277
2212	0.197374	0.015924	0.200661	0.200332	0.141821	0.194251	0.200661	0.200168
2213	0.19721	0.026443	0.203126	0.198853	0.136891	0.198031	0.200004	0.20214
2214	0.204441	0.032524	0.199839	0.199839	0.12933	0.19195	0.202798	0.200661
2215	0.197703	0.041399	0.201812	0.202305	0.130974	0.198196	0.201154	0.20362
2216	0.196717	0.04748	0.204113	0.201154	0.123578	0.192772	0.202962	0.194909
2217	0.197867	0.055205	0.201154	0.204441	0.11536	0.193594	0.203948	0.200332
2218	0.197374	0.063752	0.202962	0.201647	0.113388	0.193758	0.205263	0.19836
2219	0.191457	0.074435	0.200661	0.207564	0.105334	0.196223	0.199182	0.203455
2220	0.19573	0.072791	0.202469	0.201976	0.101718	0.192936	0.197703	0.197703
2221	0.194087	0.079201	0.199675	0.204277	0.097609	0.188499	0.200825	0.202798
2222	0.193758	0.085447	0.204934	0.202305	0.099089	0.193922	0.198031	0.200332
2223	0.194251	0.091857	0.200825	0.204113	0.099582	0.192443	0.206085	0.199346
2224	0.194744	0.094158	0.203455	0.202798	0.10254	0.194744	0.197703	0.20099
2225	0.194909	0.102376	0.196717	0.202962	0.09991	0.189978	0.203291	0.199511
2226	0.19573	0.104184	0.203291	0.207564	0.101883	0.18932	0.204113	0.202633
2227	0.198031	0.113716	0.203126	0.210851	0.096459	0.18554	0.204113	0.198524
2228	0.19195	0.118647	0.199675	0.199018	0.095473	0.187513	0.200825	0.199511
2229	0.191621	0.120455	0.201976	0.205099	0.090049	0.182417	0.201319	0.200332
2230	0.1908	0.124564	0.200661	0.202962	0.074106	0.185705	0.197867	0.201154
2231	0.194087	0.129001	0.202469	0.203784	0.063916	0.178802	0.201483	0.199675
2232	0.194087	0.132782	0.20099	0.205592	0.048631	0.175186	0.20099	0.20362
2233	0.193922	0.134918	0.203291	0.205263	0.038605	0.176665	0.194087	0.194087
2234	0.192443	0.133275	0.201154	0.201976	0.022169	0.174857	0.201154	0.196059
2235	0.195237	0.138041	0.202798	0.205592	0.018389	0.172227	0.197703	0.198031
2236	0.19195	0.147409	0.204113	0.204113	0.014116	0.164996	0.198031	0.198031
2237	0.195402	0.145766	0.202633	0.204441	0.01954	0.161051	0.199182	0.195237
2238	0.193265	0.150697	0.203126	0.206907	0.018225	0.1576	0.201976	0.197045
2239	0.18932	0.154148	0.202633	0.204606	0.020033	0.152011	0.197703	0.200168
2240	0.192936	0.158586	0.20099	0.204606	0.018554	0.148067	0.207728	0.201483
2241	0.197867	0.160394	0.205099	0.206907	0.02447	0.148889	0.200332	0.200004
2242	0.195566	0.164174	0.200332	0.210523	0.028086	0.146916	0.199346	0.197703
2243	0.196388	0.165489	0.203291	0.205756	0.032688	0.146588	0.200332	0.197703
2244	0.194251	0.167625	0.20855	0.207564	0.035482	0.149546	0.202633	0.197703
2245	0.196059	0.169105	0.19721	0.20477	0.042221	0.14856	0.196881	0.198524
2246	0.195237	0.170255	0.204113	0.206414	0.046987	0.145602	0.195073	0.196223
2247	0.193758	0.173542	0.201154	0.203948	0.056027	0.142972	0.197045	0.199346
2248	0.196717	0.175186	0.202469	0.206414	0.056849	0.137384	0.202633	0.199018
2249	0.197045	0.175515	0.202633	0.210029	0.068847	0.12818	0.199839	0.202798
2250	0.195237	0.174035	0.202962	0.201154	0.068847	0.111251	0.199346	0.199675
2251	0.189485	0.182582	0.202798	0.20477	0.075257	0.09876	0.192443	0.198853
2252	0.191786	0.179295	0.201647	0.208222	0.080352	0.079859	0.196223	0.196223
2253	0.191293	0.182746	0.202633	0.204113	0.083968	0.06934	0.200168	0.196388
2254	0.19195	0.180445	0.206249	0.197867	0.091364	0.061779	0.199511	0.197538
2255	0.188663	0.178802	0.201483	0.202962	0.09498	0.058164	0.202962	0.196388
2256	0.192936	0.184225	0.20099	0.202798	0.099582	0.05389	0.201647	0.196717
2257	0.195073	0.185047	0.201647	0.207564	0.099582	0.053069	0.20099	0.193101
2258	0.193429	0.186198	0.204934	0.206742	0.108128	0.049781	0.201483	0.197538
2259	0.195895	0.192443	0.199018	0.208386	0.108786	0.04107	0.202962	0.201647
2260	0.194416	0.191457	0.20362	0.204277	0.114209	0.031702	0.200661	0.191457
2261	0.197538	0.192115	0.20362	0.205592	0.115853	0.007049	0.200825	0.193101
2262	0.193922	0.194909	0.204934	0.204441	0.120291	0.008528	0.199018	0.195237
2263	0.196223	0.195566	0.205756	0.211509	0.122756	0.007213	0.199511	0.19458
2264	0.194416	0.197045	0.204934	0.204277	0.12555	0.011322	0.200168	0.197045
2265	0.196552	0.199511	0.203291	0.202962	0.128837	0.013294	0.198031	0.197538
2266	0.195073	0.200168	0.210194	0.200825	0.129166	0.021676	0.202469	0.195895
2267	0.192443	0.197045	0.201647	0.208879	0.130974	0.022827	0.196881	0.196717
2268	0.19721	0.200004	0.198853	0.206249	0.135083	0.021841	0.200332	0.19721
2269	0.192115	0.188663	0.204277	0.207893	0.130481	0.027922	0.199675	0.194744
2270	0.189156	0.197374	0.203291	0.207728	0.131631	0.021512	0.201647	0.194416
2271	0.192279	0.194087	0.202798	0.205592	0.137055	0.020855	0.199346	0.194251
2272	0.191457	0.194416	0.203784	0.205427	0.135083	0.011979	0.200004	0.194251
2273	0.192115	0.196223	0.206085	0.200168	0.13459	0.011979	0.199346	0.192608
2274	0.194087	0.20099	0.203948	0.201483	0.141328	0.008857	0.202798	0.191786
2275	0.19195	0.197538	0.205263	0.203455	0.141986	0.005898	0.200168	0.190964
2276	0.194744	0.204934	0.208879	0.206249	0.142643	0.006556	0.201154	0.196717
2277	0.193101	0.202469	0.194416	0.204934	0.137548	0.018718	0.199182	0.194251
2278	0.192115	0.195895	0.203291	0.205263	0.135247	0.024964	0.196552	0.194087
2279	0.195237	0.197538	0.203455	0.203784	0.136562	0.030716	0.203948	0.197538
2280	0.197374	0.193429	0.201483	0.205263	0.139849	0.038769	0.198689	0.19458
2281	0.194416	0.19836	0.20362	0.206907	0.143136	0.046166	0.20099	0.197703
2282	0.196552	0.197703	0.201812	0.200004	0.140671	0.052411	0.199839	0.194087
2283	0.193922	0.201319	0.200661	0.206414	0.144122	0.061122	0.201319	0.196223
2284	0.193758	0.201319	0.205427	0.204441	0.140342	0.059972	0.195895	0.196717
2285	0.191786	0.200497	0.202305	0.206907	0.146752	0.066875	0.198689	0.198853
2286	0.194416	0.196552	0.200825	0.202798	0.150697	0.077065	0.196881	0.194909
2287	0.191457	0.206578	0.199018	0.209536	0.15612	0.080845	0.194416	0.196223
2288	0.195895	0.066381	0.200825	0.202305	0.159408	0.087419	0.197867	0.195237
2289	0.1908	0.080516	0.199018	0.202305	0.152505	0.092843	0.201154	0.194251
2290	0.197867	0.088077	0.201976	0.206742	0.159572	0.096623	0.197867	0.194744
2291	0.196223	0.094815	0.20099	0.206742	0.023813	0.099089	0.197045	0.195402
2292	0.193594	0.09876	0.204277	0.202305	0.035647	0.107799	0.196717	0.196881
2293	0.194251	0.105498	0.200332	0.204606	0.03992	0.108621	0.199182	0.197703
2294	0.181924	0.108621	0.206742	0.204934	0.04896	0.11273	0.199346	0.19836
2295	0.195566	0.11651	0.204934	0.204113	0.053726	0.114702	0.19721	0.198524
2296	0.192443	0.120291	0.204606	0.200332	0.058985	0.11914	0.201319	0.200332
2297	0.194744	0.121441	0.201976	0.201647	0.066875	0.122263	0.198196	0.196059
2298	0.192443	0.127522	0.201483	0.196717	0.067039	0.126207	0.19836	0.19836
2299	0.193429	0.130645	0.204606	0.200497	0.070162	0.131467	0.197538	0.19573
2300	0.191621	0.132946	0.200661	0.202633	0.073778	0.130809	0.199675	0.202962
2301	0.192443	0.135904	0.202633	0.204277	0.077393	0.136891	0.196388	0.200825
2302	0.193594	0.140506	0.200661	0.205099	0.07953	0.13837	0.196881	0.198853
2303	0.18932	0.141164	0.199511	0.200004	0.084625	0.139849	0.195895	0.197703
2304	0.187184	0.147245	0.197867	0.204277	0.087748	0.143958	0.199511	0.197867
2305	0.190964	0.149053	0.205921	0.200825	0.090378	0.147738	0.199839	0.194251
2306	0.189649	0.15875	0.201483	0.211016	0.093993	0.152998	0.203126	0.197374
2307	0.192443	0.155299	0.201812	0.203784	0.100896	0.150532	0.199182	0.195566
2308	0.195073	0.1576	0.203948	0.201483	0.101061	0.155299	0.200661	0.194744
2309	0.192608	0.162859	0.202798	0.200661	0.10895	0.155463	0.197045	0.199511
2310	0.194909	0.163188	0.203455	0.203291	0.108786	0.155956	0.199346	0.190635
2311	0.195237	0.163188	0.204113	0.200497	0.113881	0.160558	0.198689	0.192443
2312	0.195566	0.163516	0.203784	0.203455	0.112894	0.160558	0.196881	0.192443
2313	0.195237	0.170584	0.201976	0.199839	0.118811	0.16253	0.195895	0.199511
2314	0.196388	0.171241	0.204606	0.196552	0.115195	0.164174	0.20214	0.192608
2315	0.193758	0.174364	0.202633	0.199018	0.119469	0.162366	0.200332	0.199839
2316	0.196881	0.173214	0.204441	0.198524	0.120948	0.163188	0.196717	0.198853
2317	0.192608	0.176336	0.200825	0.201647	0.11799	0.170255	0.19458	0.198031
2318	0.197045	0.176336	0.201319	0.200168	0.117661	0.16894	0.196552	0.197867
2319	0.193429	0.174857	0.199018	0.202469	0.116182	0.171077	0.197538	0.196223
2320	0.198031	0.178144	0.199839	0.199018	0.117825	0.173542	0.195402	0.195895
2321	0.192936	0.181267	0.201154	0.199839	0.114538	0.176008	0.198031	0.196223
2322	0.194909	0.179623	0.207071	0.202305	0.118318	0.175679	0.196552	0.195895
2323	0.193101	0.180445	0.202962	0.200332	0.118811	0.175515	0.199018	0.195237
2324	0.193265	0.183404	0.203948	0.197867	0.120455	0.181103	0.195237	0.194087
2325	0.194416	0.185705	0.202962	0.199346	0.121112	0.180281	0.200004	0.193594
2326	0.193758	0.187513	0.206414	0.199675	0.123578	0.177651	0.200168	0.196223
2327	0.195566	0.18932	0.203126	0.201319	0.122098	0.179788	0.201812	0.196552
2328	0.196881	0.18932	0.201483	0.194909	0.11914	0.182417	0.200332	0.198853
2329	0.194087	0.191457	0.204934	0.200004	0.119797	0.181431	0.196388	0.19721
2330	0.198196	0.192279	0.201647	0.196059	0.120455	0.182911	0.196223	0.19836
2331	0.197374	0.188334	0.204934	0.197374	0.121277	0.184554	0.196223	0.198853
2332	0.193265	0.191457	0.203948	0.198524	0.120291	0.184718	0.19458	0.197867
2333	0.199675	0.193758	0.205756	0.197045	0.112237	0.18554	0.199182	0.198524
2334	0.193101	0.195895	0.20099	0.196223	0.112894	0.192279	0.201647	0.197538
2335	0.196388	0.196552	0.198524	0.196552	0.112401	0.18817	0.192772	0.197867
2336	0.195895	0.198196	0.198853	0.195073	0.120455	0.185212	0.19721	0.19721
2337	0.196059	0.194087	0.202469	0.195895	0.11914	0.188663	0.194416	0.19195
2338	0.199675	0.200497	0.200825	0.201647	0.120948	0.185376	0.197703	0.196388
2339	0.190142	0.19573	0.200168	0.196059	0.129988	0.188827	0.196223	0.194744
2340	0.19458	0.19721	0.202633	0.198689	0.128015	0.18817	0.198853	0.196552
2341	0.187184	0.199018	0.204606	0.199675	0.128673	0.192772	0.195566	0.199182
2342	0.191621	0.193265	0.202469	0.193429	0.134754	0.183732	0.199018	0.199511
2343	0.196881	0.201483	0.201976	0.192608	0.13311	0.190471	0.199182	0.197538
2344	0.196223	0.199346	0.204113	0.19721	0.130152	0.184061	0.201319	0.197867
2345	0.194416	0.199511	0.199346	0.188827	0.136562	0.188499	0.20099	0.198031
2346	0.198524	0.200661	0.202469	0.189649	0.132617	0.183568	0.196552	0.198853
2347	0.195402	0.200497	0.201319	0.194087	0.130645	0.184554	0.201812	0.201154
2348	0.198524	0.199182	0.201154	0.193429	0.133275	0.178144	0.20362	0.196552
2349	0.196223	0.201976	0.202798	0.19573	0.134097	0.182911	0.198524	0.200661
2350	0.201483	0.19721	0.199018	0.193265	0.132946	0.180281	0.197867	0.20099
2351	0.191128	0.202305	0.202305	0.197045	0.134261	0.181267	0.200168	0.203784
2352	0.197374	0.199839	0.203291	0.195073	0.138534	0.176336	0.19573	0.200661
2353	0.193265	0.204277	0.198853	0.194416	0.13574	0.175679	0.198689	0.203948
2354	0.194416	0.20362	0.200661	0.198853	0.14215	0.177651	0.19573	0.198689
2355	0.194087	0.205427	0.198524	0.195402	0.142314	0.176008	0.199346	0.198524
2356	0.195566	0.196552	0.204113	0.19573	0.148067	0.179623	0.19836	0.198196
2357	0.196881	0.198196	0.200332	0.197867	0.148231	0.175843	0.196388	0.197045
2358	0.194087	0.199182	0.201812	0.192443	0.150697	0.177651	0.198524	0.198031
2359	0.197374	0.200661	0.197703	0.197374	0.152998	0.176665	0.19836	0.200332
2360	0.196881	0.199839	0.203291	0.195237	0.152998	0.181267	0.198031	0.19573
2361	0.200168	0.200825	0.202798	0.195237	0.15875	0.175186	0.196223	0.199511
2362	0.199839	0.203291	0.203291	0.191457	0.158914	0.180774	0.200004	0.200661
2363	0.197045	0.201154	0.204277	0.195895	0.159901	0.178309	0.195073	0.196881
2364	0.199346	0.202962	0.203455	0.192936	0.162037	0.175515	0.195402	0.192608
2365	0.198031	0.206907	0.203948	0.191457	0.164174	0.176829	0.195566	0.197374
2366	0.196881	0.202305	0.203784	0.193265	0.163845	0.178309	0.197867	0.200168
2367	0.197045	0.19836	0.201483	0.193101	0.168118	0.178309	0.198031	0.200004
2368	0.196717	0.204934	0.200661	0.195237	0.170584	0.178637	0.19836	0.200332
2369	0.19573	0.197867	0.20362	0.191786	0.166475	0.178966	0.197538	0.198524
2370	0.195566	0.198031	0.200168	0.196881	0.168776	0.179623	0.199018	0.199511
2371	0.200497	0.198031	0.203784	0.193101	0.170584	0.18061	0.196552	0.196223
2372	0.199346	0.198689	0.201647	0.196059	0.169762	0.184061	0.196388	0.199182
2373	0.198689	0.193922	0.20214	0.193101	0.174693	0.183568	0.197867	0.203784
2374	0.197045	0.200661	0.204113	0.196388	0.173871	0.183404	0.198196	0.195895
2375	0.198524	0.196223	0.20099	0.1908	0.177815	0.185705	0.194744	0.199511
2376	0.198689	0.19836	0.201483	0.191457	0.17535	0.185869	0.200004	0.196388
2377	0.196881	0.201483	0.205099	0.193922	0.178637	0.185212	0.196388	0.198689
2378	0.199839	0.199018	0.202633	0.192115	0.177815	0.18554	0.195895	0.198031
2379	0.199675	0.19836	0.201976	0.191621	0.178144	0.188006	0.198689	0.199511
2380	0.202305	0.197045	0.206578	0.192115	0.180281	0.181431	0.196388	0.199018
2381	0.199511	0.198524	0.204606	0.193758	0.179623	0.186526	0.198524	0.199018
2382	0.201483	0.194744	0.20477	0.188499	0.178966	0.186855	0.196059	0.197703
2383	0.199346	0.191293	0.20362	0.193101	0.184554	0.18439	0.196881	0.200332
2384	0.199511	0.189649	0.205427	0.194087	0.187841	0.18817	0.195073	0.20362
2385	0.197703	0.189649	0.201483	0.193265	0.184718	0.190471	0.200168	0.199346
2386	0.200332	0.191621	0.202798	0.191293	0.186362	0.189814	0.194744	0.198031
2387	0.199182	0.188827	0.202469	0.192608	0.185376	0.187348	0.196223	0.19836
2388	0.19573	0.187841	0.205427	0.191621	0.190142	0.193429	0.194909	0.194744
2389	0.199511	0.189156	0.201154	0.192608	0.187019	0.191621	0.194087	0.196223
2390	0.199839	0.183075	0.202633	0.190635	0.18932	0.190635	0.199018	0.196552
2391	0.200661	0.184718	0.202469	0.193265	0.187348	0.190307	0.198853	0.197703
2392	0.202305	0.182746	0.204441	0.192443	0.186526	0.192115	0.195566	0.197867
2393	0.199511	0.182911	0.202798	0.19195	0.191293	0.190635	0.197703	0.193429
2394	0.203126	0.18176	0.204113	0.188663	0.191457	0.192608	0.197867	0.200825
2395	0.199346	0.181267	0.205756	0.189978	0.186855	0.191293	0.200497	0.198524
2396	0.200661	0.179459	0.206742	0.187184	0.193101	0.191621	0.19721	0.199018
2397	0.199346	0.178802	0.205263	0.188992	0.192115	0.192608	0.197867	0.199346
2398	0.197867	0.180774	0.202962	0.187184	0.1908	0.1908	0.201483	0.201647
2399	0.198524	0.174035	0.2074	0.187841	0.194416	0.194416	0.196223	0.195237
2400	0.197867	0.172227	0.201976	0.183404	0.192608	0.194087	0.196223	0.194087
2401	0.203455	0.171077	0.202305	0.183239	0.192608	0.193101	0.19458	0.197045
2402	0.196059	0.175021	0.199839	0.185869	0.1908	0.195073	0.198196	0.199346
2403	0.202469	0.170419	0.201154	0.187513	0.192115	0.193265	0.193758	0.198689
2404	0.201647	0.167625	0.199839	0.190635	0.191457	0.19836	0.196717	0.197867
2405	0.204606	0.164174	0.203784	0.186855	0.193922	0.193101	0.194416	0.198196
2406	0.200168	0.169762	0.200332	0.19195	0.192443	0.192608	0.195402	0.199018
2407	0.203784	0.168612	0.20477	0.193758	0.194744	0.194909	0.195402	0.198853
2408	0.200332	0.169598	0.200825	0.187019	0.192115	0.1908	0.196717	0.19721
2409	0.19836	0.171406	0.207235	0.185869	0.196717	0.195073	0.196059	0.200497
2410	0.201647	0.173542	0.205592	0.187184	0.198031	0.194416	0.197538	0.199182
2411	0.200825	0.170748	0.206578	0.187348	0.196059	0.196223	0.196881	0.203291
2412	0.203455	0.169269	0.203784	0.188334	0.193922	0.189649	0.19573	0.201647
2413	0.203291	0.170419	0.20477	0.188663	0.197538	0.195073	0.199346	0.200168
2414	0.204441	0.171734	0.207071	0.190307	0.196881	0.193101	0.19721	0.200332
2415	0.20099	0.171241	0.201647	0.187184	0.198524	0.195566	0.195566	0.20214
2416	0.203455	0.16894	0.202633	0.188499	0.195402	0.193101	0.197867	0.201154
2417	0.201976	0.172392	0.202962	0.18932	0.192608	0.193101	0.200497	0.200168
2418	0.197867	0.168612	0.202962	0.186362	0.197374	0.195566	0.191457	0.200004
2419	0.20362	0.171406	0.202962	0.189485	0.194909	0.19721	0.192936	0.198196
2420	0.201319	0.168612	0.203126	0.186526	0.197374	0.202798	0.191786	0.200168
2421	0.197374	0.169105	0.201976	0.188992	0.197703	0.198689	0.194909	0.196717
2422	0.199346	0.169762	0.203948	0.187677	0.197374	0.199839	0.192279	0.196059
2423	0.201483	0.166804	0.201154	0.18932	0.19721	0.197538	0.191621	0.200004
2424	0.202798	0.166804	0.203126	0.185705	0.200004	0.199675	0.196552	0.198524
2425	0.20099	0.164996	0.201154	0.191621	0.199346	0.19721	0.194416	0.198196
2426	0.201976	0.172885	0.204441	0.189156	0.19836	0.197867	0.197045	0.199839
2427	0.204277	0.168776	0.202798	0.190964	0.196552	0.198853	0.197045	0.199182
2428	0.201647	0.172885	0.201483	0.187348	0.200332	0.196223	0.186362	0.199675
2429	0.203126	0.170419	0.200168	0.189814	0.199182	0.196881	0.191621	0.202305
2430	0.204441	0.175186	0.201647	0.186198	0.199675	0.200332	0.19573	0.198524
2431	0.201154	0.170255	0.201812	0.188827	0.201154	0.197045	0.193429	0.200332
2432	0.20099	0.177651	0.199346	0.187677	0.202305	0.198196	0.194909	0.200004
2433	0.202633	0.171077	0.202469	0.186855	0.20099	0.199511	0.195566	0.199182
2434	0.202798	0.168776	0.200168	0.187348	0.200825	0.203291	0.18817	0.198689
2435	0.205592	0.161873	0.203291	0.185869	0.201154	0.197045	0.190142	0.195566
2436	0.203291	0.164338	0.200497	0.190635	0.200332	0.206578	0.193101	0.196552
2437	0.20477	0.161051	0.199018	0.187019	0.200497	0.204113	0.190142	0.197703
2438	0.205921	0.159736	0.197703	0.191128	0.203455	0.200661	0.193101	0.19836
2439	0.205592	0.159572	0.204113	0.18817	0.199346	0.200168	0.191621	0.199511
2440	0.202469	0.156942	0.198196	0.195237	0.196717	0.201154	0.195402	0.198524
2441	0.204277	0.151025	0.201154	0.186033	0.202305	0.20099	0.191786	0.199839
2442	0.201154	0.14971	0.200332	0.190307	0.20099	0.200497	0.194416	0.199018
2443	0.200004	0.153162	0.203126	0.192115	0.202962	0.201647	0.19573	0.202633
2444	0.204606	0.148396	0.199346	0.190307	0.201812	0.196223	0.195566	0.197867
2445	0.202633	0.149546	0.200332	0.188663	0.202305	0.202798	0.195895	0.199839
2446	0.205263	0.148396	0.20099	0.183897	0.202798	0.196388	0.200004	0.199839
2447	0.203126	0.145602	0.200661	0.187019	0.203126	0.200497	0.196717	0.200332
2448	0.205921	0.143794	0.201154	0.185869	0.202962	0.19721	0.195402	0.198031
2449	0.200004	0.139192	0.196388	0.18554	0.202633	0.198853	0.195073	0.199346
2450	0.203291	0.136398	0.201812	0.185212	0.200332	0.197538	0.190635	0.199675
2451	0.202633	0.134754	0.198031	0.180938	0.201976	0.198853	0.193758	0.199839
2452	0.204441	0.124399	0.202633	0.183732	0.199839	0.203455	0.191128	0.198031
2453	0.20099	0.119797	0.199018	0.188663	0.205099	0.199346	0.1908	0.201483
2454	0.205099	0.119633	0.193101	0.187677	0.202633	0.20362	0.191457	0.200168
2455	0.204113	0.113223	0.196717	0.186855	0.200497	0.19836	0.194416	0.199839
2456	0.205756	0.115031	0.19573	0.187677	0.201154	0.205263	0.192608	0.199346
2457	0.20362	0.114538	0.199018	0.189485	0.203126	0.202962	0.192772	0.198853
2458	0.204934	0.111415	0.199675	0.183568	0.204113	0.202305	0.195237	0.200004
2459	0.203291	0.109443	0.193265	0.189649	0.202469	0.204113	0.195566	0.198524
2460	0.202962	0.108293	0.195073	0.182253	0.199346	0.198853	0.196223	0.201483
2461	0.203948	0.106813	0.201812	0.187019	0.203126	0.20099	0.193758	0.202633
2462	0.20362	0.104348	0.202469	0.179788	0.202633	0.200497	0.19836	0.20477
2463	0.208057	0.103033	0.200332	0.183732	0.19836	0.195073	0.196717	0.198524
2464	0.201976	0.098431	0.202962	0.184883	0.204441	0.19836	0.197374	0.202305
2465	0.204934	0.085447	0.198196	0.184718	0.197538	0.198524	0.195566	0.196552
2466	0.202633	0.092843	0.19721	0.184061	0.198524	0.200004	0.192608	0.199511
2467	0.208879	0.090049	0.200004	0.185705	0.201812	0.199182	0.194087	0.200497
2468	0.204606	0.090049	0.197703	0.186033	0.195402	0.203948	0.19458	0.200497
2469	0.206907	0.084954	0.203126	0.186033	0.196552	0.204606	0.194744	0.201483
2470	0.20855	0.086104	0.194744	0.184718	0.194087	0.201483	0.19721	0.199182
2471	0.20855	0.083475	0.201154	0.183568	0.192772	0.202469	0.192936	0.195895
2472	0.203948	0.085611	0.196223	0.185705	0.194251	0.202962	0.195566	0.199182
2473	0.201976	0.083803	0.199182	0.183239	0.19573	0.198853	0.192443	0.20099
2474	0.20477	0.085283	0.19573	0.18176	0.1908	0.201976	0.195402	0.199346
2475	0.203948	0.080681	0.195895	0.182582	0.195895	0.206907	0.193922	0.200661
2476	0.20477	0.081502	0.19721	0.186855	0.193265	0.197703	0.19573	0.199675
2477	0.201976	0.075257	0.199018	0.182911	0.194744	0.203948	0.195237	0.200825
2478	0.206414	0.0769	0.194909	0.182911	0.193594	0.202305	0.19573	0.199675
2479	0.20362	0.072791	0.194251	0.186033	0.197374	0.204113	0.195237	0.201976
2480	0.207071	0.068682	0.195566	0.179295	0.194909	0.199018	0.19573	0.199346
2481	0.204277	0.068682	0.203455	0.181267	0.192608	0.202305	0.198524	0.198689
2482	0.19573	0.069176	0.20214	0.182746	0.193265	0.199018	0.192443	0.199018
2483	0.202305	0.074106	0.199675	0.179623	0.193429	0.198689	0.19721	0.197045
2484	0.204934	0.072791	0.201647	0.180774	0.192443	0.204606	0.196388	0.198524
2485	0.202633	0.067696	0.195073	0.18061	0.193594	0.201483	0.196223	0.198196
2486	0.206414	0.06556	0.196552	0.181103	0.198196	0.200004	0.191621	0.197703
2487	0.204934	0.063587	0.197045	0.183568	0.195402	0.199675	0.193265	0.199675
2488	0.209208	0.064574	0.195402	0.180938	0.193265	0.203126	0.193922	0.199018
2489	0.205099	0.067532	0.193922	0.181431	0.199018	0.201483	0.192772	0.200661
2490	0.206085	0.067368	0.19836	0.181431	0.198524	0.203784	0.192115	0.200497
2491	0.203291	0.071477	0.194416	0.18061	0.194909	0.203784	0.196223	0.200825
2492	0.202798	0.070819	0.195402	0.180774	0.198524	0.202305	0.197045	0.200661
2493	0.208715	0.074435	0.199182	0.181267	0.198524	0.202469	0.196223	0.200004
2494	0.203948	0.079201	0.195237	0.181596	0.196881	0.203126	0.197538	0.202305
2495	0.201812	0.079037	0.196388	0.183732	0.199346	0.202962	0.199182	0.199839
2496	0.202962	0.083639	0.197867	0.185705	0.199675	0.204277	0.197867	0.203784
2497	0.205099	0.084789	0.197045	0.180774	0.197867	0.19836	0.197045	0.197538
2498	0.205099	0.093172	0.196059	0.178144	0.200825	0.202469	0.195895	0.198196
2499	0.206742	0.094158	0.199675	0.18176	0.200661	0.200168	0.193265	0.203126
