Ladekurvenmessung
Zeit: 2018_05_04 09.04.44
Info: FVA3, v = 1.05, T = 23, F = 20, h = 518.2
Ladewiderstand[Ohm]: 1012700
Störkapazität[pF]: 0.000000
Entladezeit[ms]: 200
Abtastrate[Hz]: 250000
Anzahl der Messwerte: 2500.000000
Verzögerung[ms]: 3
Ladespannung[V]: 0.200000
	Kurve_1	Kurve_2	Kurve_3	Kurve_4
0	-0.001662	-0.00347	-0.001498	0.000146
1	0.000803	-0.001334	0.000146	-0.002813
2	0.000146	-0.002484	0.00031	0.00146
3	0.005076	-0.003799	-0.000183	0.000803
4	0.003268	0.002775	0.000146	-0.002977
5	0.001954	-0.003306	-0.001498	-0.001662
6	0.001625	-0.000512	0.002118	-0.000512
7	0.00294	-0.002813	-0.002648	-0.002155
8	-0.000676	-0.001662	-1.9e-05	0.000146
9	-0.000183	-0.005771	-0.001991	-0.002155
10	0.001625	0.001132	0.004748	-0.001991
11	0.001132	-0.003142	-0.001334	-0.001169
12	0.001789	-0.001827	-0.001334	-0.00232
13	-0.000676	-0.000347	-0.001662	-0.002484
14	-0.002155	0.000474	0.002447	-0.001827
15	0.002611	0.001954	0.001954	-0.003963
16	0.002118	0.000967	0.003433	-0.001169
17	0.001132	0.000474	0.000474	-0.00232
18	0.005569	-1.9e-05	0.000639	-0.003306
19	-1.9e-05	0.000639	0.001789	-0.001498
20	0.002611	-0.003306	-0.001169	-0.001662
21	-0.001334	-0.000183	0.002775	-0.004949
22	0.002447	-0.002648	-0.000676	-0.003142
23	0.00146	-0.000347	0.003761	-0.005114
24	0.001132	-0.002484	0.001296	-0.0061
25	0.000803	-0.002155	0.002775	-0.004949
26	-0.001005	-0.002484	-0.004949	-0.004128
27	-1.9e-05	-0.001827	0.004255	-0.004785
28	0.000146	-0.00347	0.001789	-0.003963
29	0.001132	-0.004949	0.001132	-0.00347
30	0.000967	-0.003306	-0.000841	-0.001334
31	0.001296	-0.002977	-0.001334	-0.003635
32	-0.000841	-0.002648	0.00294	-0.001662
33	0.004912	-0.002813	0.004583	-0.000183
34	-0.00347	-0.001334	0.00031	-0.001662
35	-0.001827	-0.002155	-0.000347	-0.00347
36	-0.000183	-0.002155	0.002447	-0.00232
37	0.001132	-0.002813	-0.001169	-0.005114
38	-0.000183	0.001296	0.003926	-0.005114
39	0.002447	-0.004456	0.000639	-0.003306
40	0.000146	-0.004128	-0.000841	-0.004128
41	-0.000347	-0.000841	0.000803	-0.003142
42	0.000803	-0.002648	-0.000512	-0.003306
43	-0.001169	-0.004949	-0.001662	-0.003963
44	0.000639	-0.00232	-0.002648	-0.001334
45	0.00146	-0.005278	-0.001991	-0.000512
46	0.000146	-0.003799	0.000803	-0.003306
47	-0.002648	-0.003142	-0.001662	0.000146
48	-0.001334	-0.001991	-0.002648	-0.005936
49	-0.000183	-0.006429	0.000967	-0.004456
50	0.000146	-0.003799	0.00031	-0.00347
51	-0.001005	-0.002813	0.000967	-0.001005
52	0.002447	-0.001991	-0.000183	-0.004128
53	0.002775	-0.0061	0.002282	-0.002648
54	0.001789	-0.005278	0.000967	-0.004949
55	0.00294	-0.004128	0.000146	-0.002813
56	0.001954	-0.002155	-0.001169	-0.00347
57	0.000967	-0.002648	-0.000347	-0.003306
58	0.001296	-0.003306	-0.001169	-0.00347
59	0.000146	-0.000183	-0.000841	-0.005443
60	-0.000183	-0.002977	-0.002977	-0.002484
61	0.001789	-0.00232	-0.001334	-0.002155
62	0.005241	-0.004621	-0.001498	-0.000512
63	0.006556	-0.004785	-0.001334	-0.001498
64	-0.005114	-0.001827	-0.003799	0.000474
65	-0.001498	-0.004292	-0.004785	-0.005278
66	0.001132	-0.000841	-0.000347	-0.000347
67	0.002282	-0.001991	-0.003963	-0.002484
68	-1.9e-05	-0.002813	-0.002484	-0.000841
69	0.003104	-0.003306	-0.002648	-0.001827
70	0.001132	-0.000841	-0.001991	-0.001169
71	0.002282	-0.002484	-0.003142	-0.001334
72	0.002447	-0.001334	0.00031	0.001296
73	0.001132	-0.002813	-0.004949	-0.003142
74	0.002447	-0.002484	-0.001334	-0.005114
75	-0.000347	-0.00347	-0.000347	0.002775
76	-0.000183	-0.002648	0.000146	0.002118
77	0.003268	-0.002484	-0.00347	0.002282
78	0.003433	-0.003306	-0.001991	0.003268
79	-0.002813	-0.0061	-0.005771	0.004748
80	0.002611	-0.006429	-0.0061	0.004419
81	0.000803	-0.002813	-0.003799	0.004255
82	-0.001169	-0.003306	-0.010866	0.006227
83	-0.005278	-0.001662	0.001625	0.005076
84	0.00146	-0.003799	-0.003306	0.003761
85	0.003268	-0.002484	-0.003799	0.003433
86	0.003761	-0.004128	-0.002155	0.00146
87	0.000146	-0.002648	-0.000676	0.000474
88	0.004255	-0.002977	-0.003306	0.00294
89	0.002118	-0.001827	-0.002484	0.004255
90	0.001296	-0.003306	-0.004456	0.003597
91	0.002775	-0.001005	-0.002155	0.002118
92	-1.9e-05	-0.000841	-0.004456	0.003104
93	0.00146	-0.002484	-0.007415	0.002118
94	0.000639	-0.000512	-0.005278	0.004583
95	0.004748	-0.004456	-0.007415	0.000967
96	-0.000841	-0.001498	-0.005114	0.002775
97	0.001625	-0.005936	-0.008237	0.000639
98	-0.002813	-0.001662	-0.004292	-0.000676
99	0.000639	0.000146	-0.00988	-0.002813
100	0.00031	0.001132	-0.004456	0.001789
101	0.001132	-0.002977	-0.004621	0.001954
102	0.000639	-0.001991	-0.004128	0.001296
103	0.001132	-0.001498	-0.00347	-0.0061
104	0.001789	-0.002155	-0.005278	-0.005443
105	0.00146	-0.002484	-0.002813	-0.000347
106	0.00294	0.000639	-0.000841	-0.000512
107	0.00031	-0.001498	-0.004128	-0.001662
108	0.002447	-0.001334	-0.002648	-0.004621
109	-0.000347	-0.001334	-0.000183	-0.000183
110	0.002447	-0.003142	-0.005114	-0.003799
111	-0.000841	0.000146	-0.004456	0.000146
112	0.001132	-0.001334	-0.004621	-0.000676
113	0.00031	-0.004292	-0.004128	-0.000183
114	0.004255	-0.001005	-0.005443	-0.000841
115	-0.000347	0.000146	-0.007579	-0.001169
116	0.000803	-0.001827	-0.006757	-0.000841
117	0.00031	-0.003142	-0.003306	-0.000347
118	0.002118	0.000474	-0.00725	-0.000676
119	-0.003142	-0.003963	-0.004456	-0.001991
120	0.002118	-0.002648	0.001132	-0.002155
121	0.002282	-0.000676	-0.004128	-0.001498
122	0.001132	-0.00232	-0.004128	0.003597
123	0.002447	-0.000512	-0.001662	0.001296
124	-0.000347	-0.001005	-0.004128	-0.001334
125	0.001132	0.000146	-0.00347	-0.005607
126	0.00031	-1.9e-05	-0.003635	-0.003306
127	0.000639	0.00031	-0.002813	-0.002155
128	0.000639	0.002282	-0.002484	-0.00347
129	0.000639	-0.001662	-0.006429	-0.005771
130	-0.001662	0.000967	-0.008401	-0.001991
131	-0.001662	-0.003635	-0.003799	-0.001498
132	-0.004128	-0.001498	-0.006264	-0.000841
133	0.001132	-0.004785	-0.005771	-0.003635
134	-0.000512	-0.001498	-0.002977	-0.001498
135	-0.003306	-0.003963	-0.004292	0.000474
136	-0.003635	-0.001991	-0.004292	-0.004785
137	-0.003142	-0.002813	-0.008237	-0.000347
138	-0.001334	-0.002648	0.001296	-0.001991
139	-0.003142	-0.000676	-0.003142	-0.001991
140	-0.000841	0.001132	-0.001991	-0.002813
141	-0.001498	-0.000183	-0.002977	-0.001498
142	-0.000676	-0.001334	-0.000347	-0.004621
143	-0.001498	-0.000347	-0.002155	-0.001991
144	-0.000841	-0.000841	-0.009058	-0.00347
145	-0.000347	0.001132	-0.0061	-0.002813
146	-0.001169	-0.002155	-0.005936	-0.00232
147	-0.002977	0.000803	-0.004621	-0.003799
148	-0.001005	-0.000512	-0.007579	-0.00347
149	-0.003799	-0.001662	-0.00232	-0.001991
150	-0.001005	-0.009387	-0.003963	-0.005443
151	-0.004128	-0.0061	-0.00232	-0.003635
152	-0.004949	-0.005114	-0.003799	-0.001498
153	-0.001991	-0.004949	0.00294	-0.005607
154	-0.002813	-0.002813	-0.005114	-0.002648
155	-0.004785	-0.00232	-0.000841	-0.000347
156	-0.005114	0.000803	-0.00347	-0.001169
157	-0.001169	-0.000347	-0.003963	-0.001498
158	-0.001827	0.001954	-0.002648	-0.005114
159	-0.000183	0.002447	-0.003799	-0.000347
160	-0.002155	0.003597	-0.000183	0.001625
161	-0.000183	0.000474	-0.002484	-0.004621
162	-0.003142	0.006391	-0.001169	-0.001169
163	-0.001169	0.00146	-0.00232	-0.00347
164	-0.00347	0.004419	0.00146	-0.004128
165	0.001789	-0.000347	-0.002813	-0.001662
166	-0.000841	0.001132	-0.003142	-0.00232
167	-0.001827	-1.9e-05	-0.003963	0.003268
168	-0.001827	0.001789	-0.001662	-0.001662
169	-0.005443	-0.000183	-0.007908	0.001789
170	-0.000841	-0.000347	-0.003963	-1.9e-05
171	-0.003306	0.00146	-1.9e-05	0.00031
172	-0.003306	-0.003142	-0.003635	0.001954
173	-0.001662	0.003433	-0.000183	0.00146
174	-0.001498	0.00294	-0.003306	0.000474
175	-0.002155	-0.001005	-0.000512	0.000474
176	-0.000183	0.001954	-0.002977	-0.001498
177	-0.002155	0.000967	-0.002813	-0.001005
178	-0.001827	0.001625	-0.002484	-0.003306
179	-0.001498	0.003433	-0.001827	-0.002484
180	-0.001827	0.002447	-0.003963	-0.001662
181	-0.003635	0.004419	-0.002648	-0.001334
182	-0.002648	0.001132	-0.001827	-0.002155
183	-0.000841	-0.000183	-0.001498	-0.003635
184	-0.003799	0.000146	-0.00232	-1.9e-05
185	-0.003142	-0.003142	-0.00232	0.000474
186	-0.004128	-0.00347	-0.001005	0.002118
187	-0.000676	-0.004128	-0.004128	0.001625
188	-0.00347	-0.001991	-0.002484	0.002118
189	-0.002977	-0.003306	-0.005936	0.000146
190	-0.003142	-0.001169	-0.003142	0.000639
191	-0.003306	-0.001662	-0.006429	0.000146
192	-0.001827	-0.001005	-0.005607	-0.000347
193	-0.002155	-0.003142	-0.003635	-0.001498
194	-0.004456	-0.001169	-0.004292	0.000146
195	-0.002484	-0.002484	-0.004128	-0.001169
196	-0.003799	-0.000841	-1.9e-05	-0.002484
197	-0.006593	-0.005114	-0.00232	-0.001334
198	-0.005936	-0.00347	-0.002484	-0.000347
199	-0.005607	-0.005771	-0.000512	0.00294
200	-0.006593	-0.005607	-0.003799	0.000474
201	-0.006429	-0.003963	-0.001334	-1.9e-05
202	-0.002484	-0.003963	-0.002813	-0.000183
203	-0.006429	-0.003799	-0.00347	0.000967
204	-0.003142	-0.003799	-0.002155	0.000803
205	-0.005278	-0.007086	-0.00232	0.003926
206	-0.004785	-0.003799	-0.002155	0.00146
207	-0.006429	-0.002648	-0.000841	0.003761
208	-0.002813	-0.003306	-0.001005	0.00294
209	-0.004128	-0.004785	-0.002648	0.000474
210	-0.002648	-0.004949	-0.000183	-0.003306
211	-0.00232	-0.001662	-0.001169	0.001789
212	-0.000676	-0.002648	-0.004128	-0.001498
213	-0.001662	-0.001005	0.001132	-0.001334
214	-0.005114	-0.00347	-0.002155	0.001625
215	-0.004949	-0.002155	0.000474	-0.000676
216	-0.003963	-0.00232	0.00031	0.001954
217	-0.004292	-0.001991	-0.001169	0.001296
218	-0.005936	-0.004456	-0.00232	0.001625
219	-0.005278	-0.003963	0.00146	0.003761
220	-0.005114	-0.005278	-0.001991	0.00146
221	-0.002813	-0.001498	-0.002813	-0.002155
222	-0.005278	-0.00232	-0.002155	0.001132
223	-0.004128	-0.006922	-0.004128	-0.000183
224	-0.005114	-0.000512	-0.001169	0.002775
225	-0.00347	-0.003142	-0.003635	-0.002977
226	-0.001991	-0.001827	-0.001005	-0.005114
227	-0.002813	-0.005607	-0.003142	-0.001334
228	-0.004456	0.001296	-0.001498	-0.001662
229	-0.003142	-0.00232	-0.002484	0.001132
230	-0.00232	-0.00347	0.003104	0.001132
231	-0.001662	-0.004128	-0.00232	-0.000841
232	-0.000347	-0.000841	-0.002155	-0.002813
233	-0.005278	-0.002813	-1.9e-05	0.001625
234	-0.004456	-0.003635	-0.002813	-0.000512
235	-0.005278	-0.001991	-0.001498	-0.001334
236	-0.004949	-0.003799	-0.003142	-0.001169
237	-0.005443	-0.00347	-0.001991	0.001296
238	-0.005114	-0.004456	-0.00232	-0.001005
239	-0.005771	-0.000512	-0.004621	-0.000347
240	-0.004621	-0.004621	-0.002648	0.001625
241	-0.005114	-0.001662	0.000803	0.000639
242	-0.002648	-0.005443	-0.004621	0.001625
243	-0.001662	-0.002813	-0.005114	-0.004785
244	-0.003142	-0.002813	-0.005278	0.00031
245	-0.001991	-0.002648	-0.00347	-0.000676
246	-0.001827	-0.002155	-0.004621	-0.003142
247	-0.004456	-0.001169	-0.003799	-0.001662
248	-0.007579	-0.001498	-0.002813	-0.002484
249	-0.001827	-0.000183	-0.001334	-0.000512
250	-0.004785	0.000967	0.003433	0.000803
251	-0.005443	-0.00347	-0.002648	-0.000512
252	-0.003635	-0.0061	0.00031	0.001954
253	-0.001169	-0.007579	-0.004128	-0.001005
254	-0.003306	-0.002484	-0.00347	-0.001005
255	-0.001827	-0.004621	-0.004456	-1.9e-05
256	-0.00347	-0.002484	-0.002155	0.000639
257	-0.002648	-0.004621	-0.004785	-0.002977
258	-0.001169	-0.001498	-0.002648	-0.002813
259	-0.002484	-0.000676	-0.003799	0.00031
260	-0.003142	-0.002484	-0.003635	-0.002813
261	-0.001991	-0.000347	-0.001662	-0.003306
262	-0.000676	-0.005607	-0.003306	-0.005936
263	-0.002484	-0.004292	-0.000347	-0.000676
264	-0.001334	-0.002648	-0.002155	-0.00347
265	-0.003799	-0.005771	-0.00232	-0.002484
266	-0.002484	-0.002813	-0.00347	-0.004949
267	-0.003306	-0.002484	-0.002977	0.001954
268	0.003268	-0.003142	-0.002813	-0.003963
269	-0.00232	-0.001662	-0.003963	-0.000841
270	-0.001498	-0.00347	-0.002155	-0.005443
271	-0.001991	-0.002155	-0.000347	-0.003306
272	-0.000512	-0.002155	-0.002484	-0.001662
273	-0.001827	-0.00347	-0.00232	-0.002813
274	-0.002484	-0.004785	-0.001991	-0.002155
275	0.000967	-0.002813	-0.004128	-0.000512
276	0.001625	-0.004621	-0.003963	-0.004292
277	0.000967	-0.001169	-0.004456	-0.004785
278	-1.9e-05	-0.001334	-0.004292	0.002447
279	0.001625	-0.003799	-0.003635	-0.004621
280	-0.000676	-0.001498	-0.003635	-0.00232
281	-0.000183	-0.006593	-0.002155	-0.000841
282	-0.002648	-0.004456	-0.002648	0.003761
283	-0.000512	-0.00347	-0.002648	-0.003142
284	-0.001498	-0.001991	-0.001991	-1.9e-05
285	-0.001334	-0.004621	-0.000183	-0.000676
286	0.00146	-0.003142	-0.000512	-0.001991
287	-0.000512	-0.001169	-0.002977	-0.001005
288	-0.001005	-0.002155	-0.001991	-0.002155
289	0.002118	-0.004128	-0.003142	0.000146
290	0.001625	-0.001498	0.000474	-0.001991
291	0.000146	-0.003306	-0.006757	-0.001662
292	0.000639	-0.00232	-0.000676	-0.001498
293	-0.000183	-0.004128	-0.003635	-0.001169
294	0.002611	-0.001827	-0.003799	-0.004292
295	0.000803	-0.003963	-0.00347	0.001789
296	0.000967	-0.004456	-0.001334	-1.9e-05
297	-0.000512	-1.9e-05	-0.005114	-0.001334
298	-1.9e-05	-0.000676	-0.004785	-0.001169
299	-0.002155	-0.003142	-0.002648	-0.001334
300	0.002118	-0.007415	-0.003799	-1.9e-05
301	0.000146	-0.000841	-0.000183	-0.003306
302	-0.000676	-0.003799	-0.003963	-0.003142
303	-0.000512	-0.000183	-0.000676	-0.00232
304	0.003104	-0.004128	-0.002977	-0.002155
305	0.001625	-0.000347	-0.000183	-0.002977
306	-0.001169	-0.000841	-0.002484	-0.000183
307	0.00031	-0.001662	-0.001334	-0.000347
308	0.002611	-0.004621	-0.002813	-0.003142
309	0.001954	-0.002813	-0.002813	-0.002813
310	0.002447	-0.004128	-0.004128	-0.001827
311	0.002282	-0.004128	-0.005114	-0.004292
312	-0.000183	-0.002813	-0.002484	-0.000512
313	-1.9e-05	-0.003799	-0.003635	-0.000841
314	0.000803	-0.006593	-0.001169	0.000639
315	0.000474	-0.000347	-0.002484	-0.001662
316	-0.00232	-0.004128	-0.000676	-0.001005
317	0.001625	-0.001169	-0.003635	-0.000347
318	0.001296	-0.001498	-0.000183	-0.000347
319	0.001132	-0.003142	-0.001662	0.001296
320	0.00146	0.000146	-0.003142	-0.003142
321	0.000146	-0.004456	-0.002648	-0.001169
322	-1.9e-05	-0.001498	-0.000183	-0.004621
323	0.000639	-0.001334	-0.002813	-0.001662
324	-0.001498	-0.000676	-0.004456	-0.005771
325	-0.001662	-0.004128	0.002611	-0.004128
326	0.001296	-0.003799	-0.002155	-0.003963
327	-0.002813	-0.004621	-0.005278	-0.002648
328	-0.000183	-0.003142	-0.003635	-0.003142
329	-0.004785	-0.003963	-0.001498	-1.9e-05
330	-0.001005	-0.003635	-0.004785	-0.001827
331	-0.003799	0.00146	-0.002813	0.000639
332	-0.007086	-0.004621	-0.003799	-0.000676
333	-0.003142	-0.002813	-0.003799	-0.001498
334	-1.9e-05	-0.001827	-0.003142	-0.00347
335	-0.003306	-0.002977	-0.003306	-0.001169
336	-0.002648	-0.00232	-0.002648	-0.00347
337	-0.001169	-0.000841	-0.000676	-0.00347
338	-0.000676	-0.002977	-0.001005	-0.002648
339	0.002282	-0.001169	-0.001662	-0.004949
340	-0.004785	-0.002155	0.000146	-1.9e-05
341	0.000803	-0.001334	-0.005114	-0.002648
342	-0.004621	-0.001827	-0.004949	-0.00232
343	-0.001498	-0.003799	-0.006593	-0.002813
344	-0.003142	-0.004949	-0.004785	-0.002155
345	0.000146	-0.001169	-0.006264	-0.00347
346	-0.004456	-0.001334	-0.00347	-0.001005
347	-0.004785	-0.005607	-0.004456	-0.001991
348	-0.004785	-0.003799	-0.002977	-0.001169
349	-0.005936	-0.006593	-0.0061	-0.002648
350	-0.003635	-0.004785	-0.002813	-0.006429
351	-0.003799	-0.006593	-0.000512	0.000146
352	-0.005278	-0.000512	-0.002813	-0.002648
353	-0.004621	-0.004128	-0.003142	-0.004456
354	-0.002648	-0.003963	-0.001169	-0.002977
355	-0.003142	-0.005443	-0.001827	-0.002648
356	-1.9e-05	0.000967	-0.00232	-0.005443
357	-0.003306	-0.001169	-0.001169	-0.001827
358	-0.004292	-0.002484	-0.000183	-0.005278
359	-0.005771	-0.000676	-0.002155	-0.003142
360	-0.001334	-0.002813	-0.001662	-0.003963
361	-0.00725	-0.002813	-0.001827	-0.000183
362	-0.00347	-0.003635	-0.001662	0.000639
363	-0.003799	-0.001005	0.000639	0.000146
364	-0.004621	-0.002813	-0.002648	0.000803
365	-0.001991	-0.003306	-0.002813	-0.001662
366	-0.003142	-0.002813	-0.00347	-1.9e-05
367	-0.002813	-0.001991	-0.002484	-0.002977
368	-0.003799	-0.003635	-0.003306	-0.004621
369	-0.005278	0.001625	-0.004456	-0.001498
370	-0.004949	-0.000183	-0.002813	-0.003306
371	-0.000841	-0.002484	-0.003306	-0.003963
372	-0.0061	-0.00232	-0.003306	-0.001991
373	-0.002813	-0.002484	0.000803	-0.002813
374	-0.006264	0.001296	0.000474	-0.00347
375	-0.003142	-0.001498	-0.002484	-0.005936
376	-0.002977	-0.001498	-0.001005	-0.004621
377	-0.004128	-0.003799	-0.003799	-0.002977
378	-0.004292	0.001296	-0.001991	-0.006593
379	-0.005771	-0.003799	-0.003799	-0.005114
380	-0.0061	0.000639	-0.003142	-0.001662
381	-0.008565	-0.002155	-0.00347	-0.003963
382	-0.006757	-0.001827	-0.002648	-0.00347
383	-0.005607	-0.005114	-0.001498	-0.001005
384	-0.004785	-0.001827	-0.001169	-0.001662
385	-0.003799	-0.003963	-0.001827	-0.00232
386	-0.003799	-0.003635	-0.002813	-0.003635
387	-0.004292	-0.000347	-0.003142	-0.002648
388	-0.001827	-0.001991	-0.004785	-0.001498
389	-0.002977	-0.000841	-0.00232	-0.002977
390	-0.005443	-0.005443	-0.004292	-0.005771
391	-0.004292	-0.001169	-1.9e-05	-0.002484
392	-0.003635	-0.002813	-0.007086	-0.003799
393	-0.00347	-0.002155	-0.000347	-0.00347
394	-0.004785	-0.004292	-0.001991	-0.001827
395	-0.008237	-0.003306	-0.001498	-0.001169
396	-0.001169	-0.003142	-0.005443	-0.001334
397	-0.0061	-0.005771	-0.004128	-0.00347
398	-0.004949	-0.008237	-0.003306	-0.000512
399	-0.003635	-0.004785	-0.001991	0.000146
400	-0.005936	-0.005443	-0.001991	-0.000183
401	-0.004292	-0.006264	-0.003799	-0.006264
402	-0.004949	-0.005443	0.000639	-0.000676
403	-0.004785	-0.006264	-0.001827	-0.001498
404	-0.004621	-0.005443	-0.001334	-0.001169
405	-0.001005	-0.002813	-0.001169	-0.001827
406	-0.003635	-0.001991	0.001789	-0.001334
407	0.000803	-0.001827	-0.001498	-0.006264
408	-0.003306	-0.001662	-0.000512	-0.002155
409	-0.003799	-0.002977	-0.002484	-0.00347
410	-0.003142	-0.002155	-0.000512	-0.00232
411	-0.001498	-0.00232	-0.001498	-0.003799
412	-0.005771	-0.001334	-0.002977	-0.002648
413	-0.003142	-0.002484	-0.000676	-0.00232
414	-0.003799	-0.004456	-0.000183	0.000803
415	-0.003799	-0.003306	-0.004621	-0.002813
416	0.001296	-0.002813	-0.002813	-0.003142
417	-0.003306	-0.002813	-0.000347	-0.001498
418	-0.000183	-0.001169	-0.000676	-0.003799
419	-0.001498	-0.001498	-0.00232	-0.001169
420	-0.00232	-0.003799	0.000639	-0.003142
421	-0.006264	-0.002484	0.001789	-0.001334
422	-0.000841	-0.002484	-0.00232	-0.005443
423	-0.003635	-0.00347	-0.00232	-0.005443
424	-0.002648	-0.002155	0.000967	-0.005443
425	-0.005936	-0.005771	-1.9e-05	-0.004128
426	-0.000183	-0.004292	-0.001334	-0.005278
427	-0.004785	-0.003142	-0.000676	-0.001334
428	-0.004949	-0.001005	0.00031	-0.001169
429	-0.003799	-0.001334	-0.002648	-0.001662
430	-0.002977	-0.002648	-0.002813	-0.002813
431	-0.007744	0.000474	-0.002484	-0.003142
432	-0.004128	-0.000841	-0.003306	0.000639
433	-0.000512	0.000474	-0.001991	-0.002648
434	-0.007086	-0.002648	-0.004128	-0.001827
435	-0.002648	-0.004128	-0.002648	-0.002813
436	-0.004456	-0.010373	-0.001827	0.001625
437	-0.004128	-0.0061	-0.002484	-0.00232
438	-0.005443	-0.002155	-0.000183	0.00031
439	-0.005443	-0.00347	-0.000676	-0.001498
440	-0.001827	-0.002648	-0.00232	-0.001169
441	-0.001169	-0.003635	-0.000676	-0.002155
442	-0.004128	-1.9e-05	0.00031	-0.00232
443	-0.001827	-0.004621	-0.001498	-0.000841
444	-0.000841	-0.001334	-0.002155	-0.003799
445	-0.004128	-0.002977	-0.004949	-0.001827
446	-0.004785	-0.00232	-0.001827	-0.002813
447	-0.006593	-0.01366	-0.00232	-0.001169
448	-0.003142	-0.005936	-0.002648	-0.002977
449	-0.005278	-0.001827	-0.005114	-0.003142
450	-0.005278	-0.003142	-1.9e-05	0.000639
451	-0.004292	-0.005607	-0.002977	0.001625
452	-0.001991	-0.004128	-0.003635	-0.000841
453	-0.004128	-0.002977	-0.002813	-0.002977
454	-0.00347	-0.003635	-0.001498	-0.000183
455	-0.001498	0.000639	-0.001827	-0.000676
456	-0.001169	-0.002155	-0.002977	-0.003799
457	-0.001334	-0.000841	-0.000841	-0.002813
458	0.002775	-0.00988	-0.001169	-0.003306
459	-0.000512	-0.005936	-0.000183	-0.003635
460	-0.000347	-0.002484	-0.003142	-1.9e-05
461	0.000474	-1.9e-05	0.003433	-0.002648
462	-0.001005	-0.002155	-0.001827	-0.000676
463	-0.000183	-0.000676	0.00031	-0.001005
464	-0.001827	-0.000512	-0.00232	-0.002813
465	-0.001662	-0.002484	-0.00232	-0.003142
466	0.003104	0.00031	-0.002648	-0.001169
467	-0.000512	-0.002155	-0.006429	-0.001827
468	-0.000183	-0.000512	-0.002155	-0.002155
469	0.000146	-0.009551	-0.001827	-0.002155
470	-0.002813	-0.002977	-0.002648	-0.001169
471	0.00031	-0.002977	-0.001498	-0.000841
472	-0.002813	-0.001169	0.004419	-0.002155
473	-1.9e-05	-0.004785	-0.001662	-0.00232
474	-0.002648	-0.004785	-0.000841	-0.001498
475	0.001625	-0.00347	-0.001662	-0.004128
476	-1.9e-05	-0.001827	-0.000183	-0.003799
477	-0.000676	-0.00232	-0.00347	-0.003306
478	0.000639	-0.001827	-0.001169	-0.002977
479	-0.002155	-0.000183	-0.001827	-0.001169
480	-0.000676	-0.00725	-0.001991	-0.002648
481	0.000146	0.000474	-1.9e-05	0.000803
482	0.000639	-0.000347	-0.002977	-1.9e-05
483	0.001296	0.000967	0.00146	-0.001005
484	-0.001827	-0.002648	-0.003142	-0.002813
485	0.000803	-0.001169	-0.002484	-0.000841
486	-0.000183	-0.002977	-0.002155	-0.001498
487	-0.004456	-0.002648	-0.000183	0.000967
488	0.001132	-0.003799	-0.001005	-0.002813
489	-0.000183	0.00031	0.002118	-0.001334
490	-1.9e-05	-0.005936	-0.002155	-0.001005
491	0.003433	-0.007086	-0.001005	-0.002977
492	-0.000183	-0.005278	-0.004456	-0.001498
493	0.001789	-0.002813	-0.004785	-0.000676
494	-0.000841	-0.001169	-0.002155	-0.000183
495	0.001789	-0.001498	-0.002155	-0.001827
496	0.00031	-0.003635	-0.004292	-0.001005
497	0.000803	-0.003799	-0.007086	-0.00232
498	-0.001827	0.000146	-0.000676	-0.003963
499	-0.000183	-0.002813	-0.002155	-0.004621
500	-0.000347	-0.003142	-0.003799	-0.002813
501	-0.001498	-0.003142	0.000474	-0.003635
502	-0.004621	-0.007744	0.00031	-0.001498
503	0.003268	-0.004785	-0.002813	-0.002484
504	-0.000676	-0.000347	-1.9e-05	-0.001991
505	-0.001827	-0.004621	-0.001334	-0.002484
506	-0.000512	-0.001662	-0.000183	-0.001169
507	-0.001169	-0.002977	-0.003799	-1.9e-05
508	0.00294	-0.00347	-0.002155	-0.002648
509	0.002282	-0.004785	-0.00232	-0.000841
510	-0.000512	-0.001991	-0.001991	-0.002484
511	0.000146	-0.001334	-0.000676	-0.001005
512	0.003433	-0.002484	-0.001662	-0.0061
513	-0.000183	-0.002977	-0.000183	-0.002813
514	0.003268	-0.000676	-0.001991	-0.001498
515	0.000474	-1.9e-05	0.000474	-1.9e-05
516	0.003433	-0.004456	0.002118	-0.00232
517	0.004912	0.00031	0.001954	-0.003799
518	0.002775	-0.001827	-0.002484	-0.002155
519	0.001132	-1.9e-05	-0.000512	-0.001005
520	0.001789	-0.002484	-0.001662	-0.002977
521	-0.002155	-0.000841	-0.003306	-0.001334
522	-0.000183	-0.001827	-0.002813	-0.00232
523	0.000146	0.000967	0.000967	-0.004949
524	0.000967	-1.9e-05	-0.000183	-0.001005
525	0.003268	-0.0061	-0.002484	-0.005607
526	0.001625	-0.00232	-0.001498	0.005405
527	0.001132	-0.004949	-0.001498	-0.003142
528	0.002118	-0.003306	-0.002484	-0.001827
529	0.003761	-0.003306	-0.003142	-0.001334
530	0.001625	-0.002648	-0.002155	-0.001827
531	0.003268	-0.001827	-0.001991	-0.004785
532	0.003268	0.003761	-0.001169	-0.002155
533	0.003597	-0.004785	-0.003799	-0.003142
534	0.001789	-0.001498	-0.001169	-0.001662
535	0.005241	-0.001827	-0.001334	-0.001991
536	0.00146	-0.004785	-0.001169	-0.003963
537	-0.000512	-0.004949	-0.001498	0.000967
538	0.000967	-0.006429	0.003433	-0.000512
539	-0.000347	-0.003963	-0.004621	-0.001005
540	0.000639	-0.004456	-0.00347	-0.000841
541	-0.001169	-0.005936	-0.003142	-0.000183
542	0.000146	-0.005771	-0.003799	-0.001169
543	-0.000841	-0.003306	-0.002977	-0.001005
544	-0.000183	-0.003963	-0.001005	-0.002484
545	-1.9e-05	-0.003142	-0.001827	-0.001169
546	0.003433	-0.000676	-0.002813	-0.000183
547	0.000967	-0.007415	-0.003635	-0.000841
548	0.001789	-0.002813	-0.004456	-0.001827
549	-0.001991	-0.001498	0.000803	0.00031
550	0.001954	-0.006593	-0.002484	-0.003142
551	0.002775	-0.004621	0.001296	-0.002484
552	-0.000183	-0.006429	-0.00232	-0.000347
553	-0.000676	-0.005114	0.001625	-0.003635
554	-0.001005	-0.007579	-0.003799	-0.001991
555	0.002447	-0.0061	-0.000512	-0.002977
556	-0.000512	-0.006757	-0.001991	-0.007086
557	-0.001991	0.001625	-0.004128	-0.006264
558	0.000474	-0.0061	-0.001169	-0.001498
559	0.001296	-0.003799	-0.003963	-0.001005
560	-0.000841	-0.001827	0.000474	0.000474
561	0.002118	-0.005607	-0.003306	-0.002648
562	0.001789	-0.002648	-0.001991	-0.000676
563	0.002447	-0.002155	-0.000347	-0.002484
564	0.001954	-0.004292	-0.002155	-0.000676
565	0.003104	-0.004128	-0.004456	-0.002648
566	0.004912	-0.002813	0.000967	-0.002484
567	0.005241	-0.002813	0.000639	0.000639
568	0.003761	0.002775	-1.9e-05	-0.004785
569	0.001296	-0.005607	-0.001334	-0.001827
570	0.002447	-0.002813	-0.000676	-0.001334
571	-0.000183	-0.002648	-0.001334	0.002118
572	0.002118	-0.005278	-0.005114	-0.002155
573	0.001954	-0.003306	-0.003142	-0.002484
574	0.001789	-0.003963	-0.001662	-0.000512
575	-0.000676	-0.004456	-0.003963	-0.00347
576	0.001789	-0.003963	-0.002648	-0.007579
577	-1.9e-05	-0.002648	-0.002977	-0.004785
578	0.00146	-0.004785	-0.003142	-0.004456
579	-0.000183	0.003433	-0.001498	-0.004456
580	0.001954	-0.006922	-0.005278	-0.001334
581	0.000639	-0.002648	-0.001991	-0.000183
582	0.003433	-0.002977	-0.000676	-0.000183
583	0.003268	-0.002484	-0.001991	-0.002484
584	0.000967	-0.005278	-0.001827	-0.001662
585	0.002282	-0.001991	-0.000841	-0.002155
586	0.000639	-0.004949	-0.001005	-0.000676
587	0.000474	-0.003799	-0.000676	-0.00347
588	-1.9e-05	-0.004621	-0.003142	-0.000841
589	0.001625	-0.004456	-0.005771	-0.00347
590	-0.000183	0.000639	-0.001827	-0.001005
591	-0.001169	-0.005114	-0.002648	-0.001662
592	-0.00347	-0.003142	-0.005771	0.000474
593	0.00146	-0.004621	-0.001169	-0.000512
594	0.000146	-0.004949	-0.004292	0.000474
595	0.000146	-0.00725	-0.00873	-0.001498
596	-0.000841	-0.003142	-0.004785	-0.001334
597	0.002447	-0.007579	-0.005114	-0.000676
598	-0.001334	-0.00347	-0.002155	-0.002813
599	0.000146	-0.005443	-0.003799	-0.001991
600	-0.000841	-0.004292	-0.000347	-0.003799
601	-0.001827	-0.001005	-0.001827	-0.001991
602	0.001954	-0.006757	-1.9e-05	-0.002813
603	0.000639	-0.005607	-0.001005	0.000967
604	0.001625	-0.00347	0.001132	-0.003963
605	0.003433	-0.002155	-0.001827	0.004748
606	0.003433	-0.005443	-0.001334	-0.001498
607	0.00031	-1.9e-05	-0.001169	0.000146
608	-0.000183	-0.003142	-0.00232	-0.003142
609	-0.002155	-0.003306	-0.004292	-0.000676
610	0.000474	-0.003306	-0.001498	-0.002977
611	-0.000183	-0.003635	-0.001169	-0.002813
612	-0.000512	-0.001334	-0.000841	-0.002155
613	0.000146	-0.004621	-0.004949	-0.001334
614	0.000967	-0.005936	-0.003306	0.002118
615	-1.9e-05	-0.005114	-0.000183	-0.001005
616	0.006227	-0.002648	-0.004949	-0.000676
617	0.002611	-0.00232	-0.001827	-0.003306
618	0.00146	-0.00347	-0.002484	-0.000183
619	-0.000512	-0.002648	-0.002484	-0.002155
620	-0.002648	-0.003142	-0.001827	-0.001005
621	0.000474	-0.002155	-0.002648	-0.004785
622	-0.001169	-0.005114	-0.002155	-0.003635
623	0.002611	0.000146	-0.003306	-0.005771
624	-0.000183	-0.003635	-0.001005	-0.003306
625	0.000474	-0.003799	-0.003142	-0.0061
626	-0.000183	-0.001498	-0.001169	0.003761
627	0.001789	-0.002977	-0.003142	0.003433
628	0.000146	-0.001498	-0.002155	-0.00232
629	0.000146	-0.001827	-0.004292	0.000967
630	-0.003306	-0.003142	-0.00347	-0.001005
631	-0.003963	-0.003142	-0.002648	-0.001005
632	0.001954	-0.000347	-0.004621	-0.001005
633	0.002447	-0.001334	-0.001498	-0.002155
634	-0.000347	0.000639	-0.001991	0.001132
635	-0.001334	-0.001827	-0.000841	0.00031
636	0.001296	-0.001662	-0.000841	-0.001498
637	-0.000512	-0.002813	-0.001334	0.000967
638	0.002611	-0.002813	-0.003963	-0.002155
639	-0.000676	-0.000676	-0.00347	-0.000183
640	0.001789	-0.001662	-0.001827	-0.003142
641	-0.007908	0.002118	-0.00347	-0.003306
642	0.002611	-0.001334	-0.005936	-0.001827
643	0.001625	-0.002813	-0.005278	-0.001334
644	-0.000183	-0.006429	-0.002813	-0.002155
645	-0.001991	-0.000841	-0.007086	-0.001169
646	0.002775	-0.008072	-0.00347	-0.002484
647	0.001625	-0.0061	-0.001827	0.000639
648	0.000474	-0.001169	-0.001334	0.000146
649	0.001132	-0.000183	-0.002484	-0.001169
650	-0.00232	0.000967	-0.000183	-1.9e-05
651	-0.001498	-0.000841	-0.001498	0.000146
652	-0.009058	0.00031	-0.002155	-1.9e-05
653	-0.003635	0.001296	-0.001005	-0.00232
654	-0.001991	-0.000347	-0.002484	-0.001827
655	0.003104	-0.000347	-0.001827	-0.005278
656	0.002118	-0.000347	0.000803	-0.003142
657	0.001296	-0.001662	-0.001827	-0.00347
658	0.001625	-1.9e-05	-0.000347	-0.001498
659	-0.000676	-1.9e-05	-0.000841	-1.9e-05
660	0.000967	-1.9e-05	-0.001498	-0.001498
661	0.000639	-0.001498	-0.002648	-0.00232
662	0.00031	0.000639	-0.001827	-1.9e-05
663	-0.009387	-1.9e-05	-0.003635	-0.000347
664	-0.001334	-0.000183	-0.000676	-0.001662
665	-0.001662	-0.000512	-0.00232	-1.9e-05
666	0.003268	-0.000676	-0.002648	-0.001991
667	0.001296	-0.000676	-0.001498	0.001789
668	0.000803	0.000146	-0.002484	-0.001991
669	0.000474	-0.000183	-0.001991	0.00146
670	0.00031	-0.001662	-0.005936	0.000639
671	0.000639	0.00031	-0.002155	-0.000676
672	0.00146	0.00031	-0.004292	-0.003142
673	0.000146	-0.000676	-0.004621	-0.003963
674	-0.008072	-0.00232	-0.001991	-0.001662
675	-1.9e-05	-1.9e-05	-0.001498	-1.9e-05
676	0.000967	-0.001169	-0.004949	-0.006593
677	-0.000183	0.002118	-0.000512	-0.004292
678	0.000146	-0.001169	-0.000676	-0.000841
679	-0.000512	-0.000512	-0.003306	-0.001827
680	-0.000183	-0.001991	-0.003142	-0.000183
681	-0.003635	0.000803	-0.001991	0.000803
682	-0.002648	-0.001662	-0.003635	0.004912
683	0.001789	0.001789	-0.003142	-0.001169
684	-0.001169	0.00031	-0.002648	0.001625
685	-0.008072	-0.005443	-0.003799	0.00146
686	-0.000676	-0.000676	-0.001005	-0.000183
687	-0.000676	-0.00232	-0.007086	0.001296
688	-0.000512	-0.00347	-0.002648	-0.000183
689	0.002282	0.002447	-0.002813	-0.000183
690	0.000967	-0.023851	-0.001334	-0.004621
691	0.001789	-0.0227	-0.004128	0.000803
692	0.002447	-0.001498	-0.001991	0.000474
693	0.003104	-1.9e-05	-0.003799	-0.000512
694	0.002118	0.000967	-0.003142	-0.001334
695	-0.000347	0.000146	-0.00232	0.000474
696	-0.008565	0.00146	0.002775	-0.000183
697	-0.00232	-0.001169	-0.000841	-0.000676
698	-0.002977	0.000474	-0.004292	-0.000347
699	-0.003799	-0.002155	-0.000347	0.000803
700	-0.000512	-1.9e-05	-0.001334	-0.000347
701	-0.002977	-0.001169	-0.001827	0.002611
702	-0.002484	-0.000183	-0.001827	0.000803
703	-0.001334	0.002611	-0.001498	0.002118
704	-0.002648	-0.000841	-0.002813	0.002118
705	0.001296	0.001625	-0.001169	-0.000183
706	0.00294	0.000639	-0.000676	-0.001827
707	-0.009223	-0.003142	-0.001005	-0.005114
708	-0.001005	-0.003799	-0.000512	-0.002977
709	0.001954	0.00146	-0.000347	-0.004128
710	0.001132	-0.000676	-0.000183	-0.003799
711	-0.000347	-0.004292	0.000474	-0.003142
712	0.000146	-0.001827	-0.000676	-0.000676
713	0.000967	0.002611	-0.002155	-0.002813
714	-0.000512	-0.001991	-0.000512	0.001132
715	0.003104	-0.000841	-0.001662	-0.002155
716	0.002118	-0.001169	-0.001005	0.001954
717	0.001132	-0.001005	-0.001662	-0.001662
718	-0.009551	-0.004621	-0.001662	0.000639
719	-0.001662	-0.001005	-0.002813	-0.001827
720	-1.9e-05	0.000146	-0.001991	0.000474
721	0.001132	-0.001005	-0.00232	-1.9e-05
722	0.000803	-0.001498	-0.004456	-0.002813
723	0.002118	-0.001005	-0.003142	-0.00347
724	0.001296	-0.002648	-0.002155	-0.00347
725	0.001954	0.00031	-0.002813	-0.00232
726	0.00409	0.00031	-0.000676	-0.003635
727	-0.000183	-0.000512	-0.000347	-0.003799
728	0.003433	0.000803	-0.000841	-0.000841
729	-0.009387	-0.000841	-0.001334	0.000639
730	-0.000676	0.000639	-0.002648	-0.002648
731	0.000474	0.001132	-0.001827	-0.001169
732	-0.004456	-0.000676	-0.002977	-0.002155
733	-0.004292	-0.001827	-0.002484	-0.001169
734	-0.002813	0.000146	-0.00232	-0.001662
735	-0.001334	0.00031	-0.002484	0.000146
736	-0.002977	-0.003142	-0.003963	-0.000347
737	-0.000347	-0.000183	-0.004621	0.000146
738	0.000474	-0.002155	-0.005771	-0.001991
739	0.000803	-0.000676	-0.002977	-0.001498
740	-0.007579	-0.001827	-0.001991	0.001625
741	-0.001498	-0.000347	-0.002648	-0.002648
742	0.000803	-0.001169	-0.00347	-0.001334
743	0.002282	-1.9e-05	-0.001005	-0.001334
744	-0.001169	0.000146	-0.003142	-0.000841
745	0.000803	-0.001662	-0.001005	-0.00232
746	-0.00232	-0.002155	-0.000183	-0.006264
747	-1.9e-05	-0.00232	-0.007908	-0.001005
748	-0.001662	0.000474	-0.005114	-0.001334
749	-0.000512	-0.000512	-0.003963	-0.001991
750	-0.002484	-0.000676	-0.001991	-0.000183
751	-0.006757	0.000474	0.001954	0.005569
752	0.008199	0.007706	0.009514	0.011158
753	0.01576	0.005898	0.016581	0.014445
754	0.026114	0.008363	0.027758	0.02595
755	0.033839	0.006391	0.031373	0.034332
756	0.042878	0.012472	0.040577	0.03729
757	0.048631	0.010664	0.044358	0.046987
758	0.055041	0.012965	0.053069	0.051096
759	0.064245	0.015595	0.060465	0.059643
760	0.066217	0.019375	0.06408	0.063259
761	0.070983	0.021348	0.074435	0.069504
762	0.070983	0.022498	0.074435	0.075585
763	0.08216	0.028744	0.081174	0.081502
764	0.086597	0.029072	0.082488	0.083968
765	0.093829	0.031373	0.091364	0.091364
766	0.094815	0.031702	0.094487	0.094487
767	0.098431	0.032688	0.098431	0.098102
768	0.104348	0.032031	0.099089	0.102376
769	0.104677	0.033017	0.106485	0.107964
770	0.112566	0.034661	0.108128	0.113881
771	0.116017	0.037948	0.11536	0.11273
772	0.119962	0.03614	0.113552	0.118811
773	0.116346	0.039263	0.119962	0.117496
774	0.124893	0.042057	0.124564	0.121441
775	0.129823	0.041399	0.124728	0.125057
776	0.133768	0.045672	0.131631	0.130481
777	0.134918	0.050439	0.133932	0.131631
778	0.13837	0.053562	0.136233	0.132124
779	0.141821	0.056684	0.131631	0.13311
780	0.141493	0.065067	0.140506	0.141493
781	0.144615	0.06556	0.140342	0.141821
782	0.149217	0.069504	0.145602	0.145273
783	0.148396	0.072134	0.148231	0.146916
784	0.141821	0.077558	0.152505	0.152011
785	0.151354	0.081502	0.152505	0.153162
786	0.153655	0.08594	0.152011	0.15234
787	0.15612	0.089556	0.152011	0.1576
788	0.159736	0.096788	0.155627	0.157928
789	0.157271	0.096294	0.157435	0.160394
790	0.16516	0.103197	0.151847	0.15875
791	0.16401	0.109279	0.1576	0.165489
792	0.166146	0.110429	0.160065	0.164503
793	0.166968	0.115031	0.16516	0.164996
794	0.167297	0.11914	0.165489	0.168118
795	0.156778	0.12177	0.166475	0.169762
796	0.167132	0.124564	0.166804	0.16779
797	0.171077	0.128344	0.167625	0.170091
798	0.173707	0.125879	0.170913	0.171077
799	0.173378	0.135247	0.174693	0.17272
800	0.173707	0.13459	0.17272	0.175186
801	0.175021	0.138863	0.170419	0.173214
802	0.179952	0.143794	0.175021	0.178966
803	0.180116	0.140835	0.176008	0.180938
804	0.179952	0.147574	0.176665	0.178802
805	0.181267	0.149382	0.17798	0.179459
806	0.175021	0.150532	0.177487	0.184225
807	0.179459	0.152998	0.179459	0.181431
808	0.183897	0.155299	0.180938	0.182911
809	0.184225	0.158257	0.182253	0.181431
810	0.182911	0.161873	0.183404	0.183404
811	0.186526	0.160229	0.185869	0.183404
812	0.184554	0.164174	0.181596	0.184554
813	0.187184	0.159901	0.183568	0.186198
814	0.186362	0.16779	0.184718	0.188006
815	0.184883	0.165653	0.18439	0.187019
816	0.187348	0.170584	0.185869	0.184554
817	0.181596	0.167461	0.186198	0.187841
818	0.189156	0.171077	0.187184	0.186033
819	0.188334	0.169433	0.187019	0.188334
820	0.18932	0.172556	0.187841	0.187513
821	0.192115	0.174364	0.187841	0.183404
822	0.191457	0.17272	0.184225	0.187184
823	0.190471	0.174528	0.191293	0.18817
824	0.192115	0.175186	0.187019	0.186033
825	0.189814	0.179788	0.186691	0.192936
826	0.191293	0.178144	0.188006	0.192936
827	0.193101	0.181267	0.19195	0.194251
828	0.186033	0.178637	0.188334	0.194251
829	0.192608	0.181103	0.1908	0.193101
830	0.193265	0.182582	0.187677	0.194087
831	0.192115	0.18439	0.194416	0.194909
832	0.195402	0.180774	0.1908	0.196552
833	0.198031	0.183239	0.194909	0.170419
834	0.193922	0.183239	0.19721	0.172227
835	0.195237	0.183897	0.191457	0.17157
836	0.196388	0.186198	0.193429	0.173378
837	0.197045	0.186033	0.189814	0.173871
838	0.193922	0.186198	0.191457	0.174693
839	0.187513	0.187019	0.190471	0.176008
840	0.194087	0.187841	0.194416	0.177487
841	0.196223	0.187841	0.189156	0.177651
842	0.194416	0.18932	0.191128	0.180938
843	0.193101	0.187184	0.193758	0.180116
844	0.195073	0.188499	0.192279	0.180116
845	0.194909	0.190964	0.196717	0.182582
846	0.19458	0.191786	0.190142	0.182089
847	0.195402	0.188006	0.193758	0.183732
848	0.196717	0.187019	0.200004	0.183568
849	0.198196	0.189649	0.196552	0.184718
850	0.18817	0.190964	0.196223	0.185212
851	0.192115	0.189814	0.196388	0.183404
852	0.200497	0.190964	0.196717	0.183568
853	0.198853	0.193922	0.197045	0.186198
854	0.198031	0.192608	0.194909	0.187513
855	0.197867	0.191128	0.196388	0.186855
856	0.198689	0.192443	0.199839	0.184883
857	0.194744	0.193429	0.194744	0.19573
858	0.19836	0.193594	0.196059	0.190307
859	0.19721	0.197374	0.196552	0.190964
860	0.197045	0.200332	0.192772	0.193594
861	0.18932	0.192772	0.197703	0.192936
862	0.195402	0.194416	0.197538	0.193429
863	0.198853	0.195237	0.196223	0.191128
864	0.19836	0.194909	0.196388	0.197045
865	0.198853	0.195237	0.196552	0.191128
866	0.200168	0.196059	0.19721	0.193429
867	0.200825	0.195895	0.200661	0.192115
868	0.196552	0.197538	0.196223	0.195566
869	0.200332	0.192772	0.196059	0.193922
870	0.199675	0.196552	0.199675	0.19573
871	0.197867	0.199839	0.194909	0.191457
872	0.190635	0.195073	0.192772	0.193265
873	0.197045	0.19573	0.198524	0.193758
874	0.19458	0.197045	0.197374	0.199018
875	0.197045	0.194909	0.195895	0.197374
876	0.198524	0.195237	0.197374	0.194416
877	0.199346	0.195895	0.195566	0.200497
878	0.199675	0.196552	0.198031	0.198689
879	0.196881	0.196388	0.195237	0.202305
880	0.198853	0.196881	0.195566	0.197703
881	0.198689	0.193101	0.196059	0.199346
882	0.196059	0.19836	0.197538	0.197374
883	0.187019	0.197538	0.197538	0.198689
884	0.198853	0.198524	0.197867	0.199182
885	0.197867	0.197374	0.196059	0.200332
886	0.20099	0.198031	0.197045	0.196388
887	0.197867	0.198196	0.199018	0.199018
888	0.20099	0.19573	0.196552	0.199182
889	0.198689	0.199182	0.198524	0.197045
890	0.199182	0.196223	0.195895	0.20099
891	0.198196	0.197045	0.19836	0.200004
892	0.199018	0.196552	0.194744	0.201154
893	0.198031	0.198853	0.196552	0.201483
894	0.188334	0.195237	0.194744	0.20099
895	0.197867	0.197538	0.196717	0.200497
896	0.201483	0.197538	0.192279	0.198689
897	0.20214	0.201976	0.194744	0.197867
898	0.200168	0.195895	0.198689	0.197538
899	0.200497	0.194416	0.19573	0.197374
900	0.199018	0.200497	0.200497	0.197374
901	0.197703	0.19836	0.197374	0.198031
902	0.200661	0.198031	0.198196	0.196717
903	0.201154	0.19573	0.199346	0.196388
904	0.197703	0.197867	0.199182	0.197045
905	0.189156	0.198031	0.197867	0.196881
906	0.197867	0.200168	0.199675	0.196223
907	0.198031	0.198031	0.196717	0.195895
908	0.199839	0.199182	0.200332	0.197867
909	0.199182	0.199018	0.198031	0.19836
910	0.19836	0.197045	0.19573	0.201319
911	0.199182	0.195237	0.193429	0.197538
912	0.197703	0.197045	0.196717	0.198031
913	0.199346	0.197374	0.196881	0.197867
914	0.203126	0.19721	0.196552	0.196059
915	0.201812	0.200004	0.196881	0.19836
916	0.191457	0.199182	0.197045	0.19721
917	0.197374	0.203455	0.198031	0.197703
918	0.200825	0.200004	0.195566	0.197867
919	0.199018	0.197374	0.199018	0.196223
920	0.200661	0.199018	0.197703	0.195073
921	0.196881	0.199018	0.197374	0.197045
922	0.201319	0.198689	0.195566	0.192443
923	0.197867	0.200004	0.198853	0.197374
924	0.199346	0.197538	0.195566	0.199018
925	0.197538	0.200332	0.198524	0.193265
926	0.200661	0.201319	0.200497	0.194251
927	0.191621	0.19573	0.197045	0.194087
928	0.197045	0.198689	0.19573	0.19458
929	0.197045	0.198031	0.196881	0.190964
930	0.197374	0.196223	0.197538	0.194087
931	0.200168	0.201647	0.197374	0.192279
932	0.196059	0.200497	0.197703	0.19573
933	0.20362	0.197867	0.197703	0.190142
934	0.19458	0.198853	0.198524	0.195402
935	0.200332	0.196881	0.196388	0.195073
936	0.197703	0.198524	0.198196	0.193594
937	0.199018	0.198031	0.198196	0.194416
938	0.189814	0.199346	0.197703	0.194251
939	0.199182	0.199018	0.195237	0.19195
940	0.196059	0.200497	0.197374	0.193922
941	0.198524	0.199346	0.19721	0.194251
942	0.199675	0.200825	0.195073	0.190964
943	0.198524	0.19836	0.197538	0.19458
944	0.198853	0.198853	0.199346	0.191457
945	0.196881	0.19836	0.197867	0.194087
946	0.201319	0.199346	0.196388	0.192443
947	0.200825	0.197045	0.195895	0.193758
948	0.198031	0.200661	0.196388	0.192443
949	0.186033	0.201647	0.193594	0.196552
950	0.19573	0.201154	0.189978	0.19458
951	0.195402	0.198853	0.195566	0.194744
952	0.197867	0.196388	0.198031	0.194087
953	0.19721	0.198853	0.199182	0.193101
954	0.198196	0.197374	0.197538	0.193101
955	0.199018	0.197538	0.201483	0.192115
956	0.197867	0.197867	0.196059	0.194087
957	0.200332	0.198853	0.199018	0.189978
958	0.199511	0.199346	0.200332	0.193922
959	0.200332	0.200661	0.19836	0.192443
960	0.190635	0.200004	0.200332	0.194909
961	0.19721	0.199839	0.195566	0.190635
962	0.198031	0.196388	0.195566	0.193594
963	0.19836	0.19836	0.198196	0.192115
964	0.196717	0.201483	0.19836	0.192772
965	0.199018	0.198031	0.19721	0.193758
966	0.197538	0.201812	0.200661	0.193265
967	0.196881	0.199346	0.196552	0.196717
968	0.200004	0.200332	0.199511	0.194744
969	0.199675	0.200332	0.198031	0.195566
970	0.199182	0.198196	0.198524	0.192936
971	0.191457	0.198524	0.197045	0.195566
972	0.197867	0.201483	0.200004	0.194416
973	0.198689	0.199018	0.197867	0.194909
974	0.200332	0.198524	0.199675	0.197538
975	0.19836	0.203126	0.198689	0.192772
976	0.202305	0.200332	0.199839	0.188992
977	0.197867	0.19836	0.201154	0.19195
978	0.198853	0.200661	0.196881	0.192772
979	0.198524	0.201812	0.201154	0.195566
980	0.197538	0.200332	0.197374	0.195895
981	0.197703	0.203948	0.199675	0.197703
982	0.190142	0.198853	0.197703	0.199018
983	0.197374	0.199346	0.200004	0.197045
984	0.199675	0.197538	0.195402	0.196059
985	0.200661	0.199675	0.199182	0.196059
986	0.196881	0.199511	0.199182	0.197045
987	0.200661	0.198196	0.200825	0.196388
988	0.200168	0.197538	0.199018	0.199018
989	0.199675	0.200168	0.196059	0.195402
990	0.199182	0.200168	0.195566	0.197703
991	0.200661	0.199839	0.196552	0.197374
992	0.197703	0.200825	0.19573	0.197703
993	0.193594	0.200497	0.197703	0.19573
994	0.197703	0.202962	0.197867	0.194744
995	0.199018	0.19836	0.193758	0.196388
996	0.197867	0.200497	0.200004	0.195237
997	0.196552	0.196223	0.199182	0.195566
998	0.195237	0.195895	0.198853	0.196388
999	0.198196	0.196059	0.20214	0.194416
1000	0.194416	0.199839	0.198524	0.196552
1001	0.198031	0.195566	0.201154	0.19721
1002	0.198689	0.196881	0.198196	0.198031
1003	0.199018	0.197703	0.198853	0.198689
1004	0.191786	0.198853	0.198524	0.197703
1005	0.198689	0.199346	0.198031	0.19836
1006	0.198853	0.199511	0.197703	0.196388
1007	0.199675	0.199346	0.199511	0.195402
1008	0.200825	0.201154	0.199839	0.196552
1009	0.198689	0.199182	0.201483	0.196552
1010	0.200661	0.201154	0.202305	0.194087
1011	0.197867	0.198031	0.200004	0.196717
1012	0.200661	0.19458	0.199675	0.197045
1013	0.201319	0.201976	0.200332	0.196388
1014	0.203455	0.199675	0.197703	0.196717
1015	0.191457	0.198689	0.200332	0.197703
1016	0.199511	0.201154	0.198524	0.197867
1017	0.198524	0.200332	0.197703	0.197538
1018	0.197703	0.197374	0.198524	0.198031
1019	0.198689	0.201647	0.200332	0.198689
1020	0.19836	0.197538	0.198524	0.199018
1021	0.200168	0.197045	0.201976	0.192443
1022	0.197538	0.199182	0.199346	0.19836
1023	0.197374	0.199018	0.199018	0.199018
1024	0.197045	0.200332	0.199182	0.19836
1025	0.200332	0.201154	0.199346	0.195566
1026	0.191621	0.198196	0.198524	0.199182
1027	0.199182	0.200661	0.197374	0.197703
1028	0.200825	0.200661	0.197538	0.194909
1029	0.199839	0.200497	0.198524	0.196223
1030	0.199346	0.196552	0.201154	0.198524
1031	0.200004	0.194744	0.200332	0.199675
1032	0.199182	0.197867	0.201319	0.194416
1033	0.196717	0.19458	0.199018	0.197538
1034	0.200332	0.20099	0.19836	0.200661
1035	0.200497	0.195237	0.199675	0.198853
1036	0.196223	0.20099	0.199675	0.197703
1037	0.188827	0.196059	0.196059	0.201319
1038	0.19573	0.197045	0.204113	0.197703
1039	0.198853	0.199018	0.198853	0.199511
1040	0.198196	0.197703	0.197538	0.198196
1041	0.19836	0.202305	0.197703	0.198853
1042	0.200825	0.19721	0.197538	0.198196
1043	0.200497	0.199018	0.200332	0.197374
1044	0.199346	0.135411	0.196388	0.199839
1045	0.200004	0.043536	0.200004	0.195237
1046	0.199675	0.049288	0.198853	0.196552
1047	0.198524	0.057671	0.20099	0.196881
1048	0.188663	0.062601	0.199839	0.197374
1049	0.196059	0.066053	0.201976	0.194744
1050	0.197045	0.074435	0.200168	0.197374
1051	0.197867	0.07838	0.206085	0.196059
1052	0.197045	0.082653	0.200168	0.198031
1053	0.201154	0.087255	0.200004	0.196552
1054	0.198524	0.0935	0.201812	0.197867
1055	0.197703	0.098431	0.19836	0.197867
1056	0.200332	0.103691	0.199018	0.199018
1057	0.200825	0.105663	0.196881	0.195566
1058	0.199511	0.113552	0.198524	0.197703
1059	0.197703	0.114702	0.201319	0.199346
1060	0.198031	0.118154	0.200661	0.19721
1061	0.200661	0.122427	0.198853	0.197374
1062	0.200168	0.127194	0.203126	0.197538
1063	0.200332	0.131467	0.200825	0.197703
1064	0.199839	0.134918	0.202305	0.197538
1065	0.199675	0.136069	0.202305	0.198031
1066	0.199346	0.138863	0.200004	0.196717
1067	0.198196	0.140506	0.200004	0.199511
1068	0.200004	0.140835	0.199182	0.196881
1069	0.199675	0.143629	0.198853	0.200168
1070	0.192608	0.14593	0.200825	0.197703
1071	0.197538	0.147081	0.19836	0.196717
1072	0.199346	0.149053	0.199346	0.19721
1073	0.198031	0.151025	0.200168	0.200497
1074	0.199018	0.153326	0.197703	0.193922
1075	0.199182	0.155627	0.199839	0.196059
1076	0.20362	0.156449	0.199346	0.196223
1077	0.199839	0.158586	0.197045	0.19836
1078	0.203126	0.158421	0.198196	0.19836
1079	0.200661	0.163845	0.200168	0.198196
1080	0.200661	0.166146	0.199675	0.19836
1081	0.193101	0.167132	0.201319	0.195895
1082	0.196717	0.167625	0.199675	0.200004
1083	0.199182	0.166968	0.199675	0.193758
1084	0.197867	0.169433	0.200497	0.199346
1085	0.198196	0.166804	0.199182	0.195895
1086	0.198031	0.16779	0.199675	0.196717
1087	0.199346	0.173707	0.199182	0.200661
1088	0.196059	0.168776	0.198031	0.198853
1089	0.194087	0.174857	0.202305	0.198853
1090	0.192936	0.174364	0.19836	0.199839
1091	0.20099	0.17535	0.200332	0.199675
1092	0.192279	0.175679	0.200168	0.200168
1093	0.197867	0.175843	0.194251	0.199839
1094	0.198853	0.178144	0.19836	0.19721
1095	0.200661	0.177322	0.197703	0.199675
1096	0.201483	0.177487	0.19836	0.197538
1097	0.194744	0.178473	0.199182	0.201319
1098	0.199675	0.180281	0.20214	0.200168
1099	0.196059	0.177815	0.200661	0.199182
1100	0.199182	0.182746	0.200332	0.200661
1101	0.194744	0.182253	0.202469	0.198524
1102	0.196059	0.181267	0.196059	0.200168
1103	0.195237	0.181596	0.198853	0.197703
1104	0.197867	0.181924	0.199182	0.198031
1105	0.197538	0.184718	0.197703	0.198689
1106	0.199182	0.184225	0.199018	0.196717
1107	0.199511	0.186198	0.197703	0.196059
1108	0.20099	0.183239	0.195895	0.197374
1109	0.197374	0.187184	0.200168	0.198031
1110	0.195566	0.184883	0.199018	0.200497
1111	0.199018	0.186033	0.200825	0.198196
1112	0.200168	0.186855	0.197538	0.200661
1113	0.197045	0.184554	0.198031	0.198524
1114	0.198524	0.184718	0.199839	0.200332
1115	0.19836	0.18554	0.201154	0.199018
1116	0.197538	0.189649	0.198524	0.199018
1117	0.198853	0.188663	0.201976	0.197703
1118	0.199346	0.191293	0.19836	0.199839
1119	0.199346	0.189978	0.199346	0.197045
1120	0.200004	0.18932	0.199675	0.197374
1121	0.200168	0.189814	0.195237	0.197867
1122	0.198196	0.191457	0.19836	0.196059
1123	0.200497	0.187348	0.198853	0.198689
1124	0.199675	0.192443	0.199346	0.194909
1125	0.200332	0.189978	0.19721	0.196059
1126	0.199182	0.193429	0.199675	0.195237
1127	0.199018	0.193101	0.197045	0.199018
1128	0.201483	0.191786	0.197867	0.197703
1129	0.198524	0.194087	0.200661	0.201154
1130	0.199346	0.19195	0.199346	0.198689
1131	0.200168	0.193429	0.200332	0.199675
1132	0.199675	0.193101	0.199018	0.199182
1133	0.199018	0.192443	0.199511	0.200497
1134	0.200004	0.193922	0.199675	0.202633
1135	0.198689	0.197374	0.199675	0.199182
1136	0.20362	0.193265	0.19836	0.197867
1137	0.200661	0.196881	0.200332	0.199018
1138	0.203291	0.195895	0.197538	0.200004
1139	0.202305	0.196059	0.197703	0.196881
1140	0.200332	0.195566	0.199018	0.197867
1141	0.199511	0.196388	0.199675	0.199018
1142	0.200661	0.193429	0.196388	0.197045
1143	0.200661	0.194909	0.197867	0.197867
1144	0.199018	0.193922	0.197374	0.201319
1145	0.199018	0.192279	0.196059	0.199018
1146	0.199346	0.196552	0.194087	0.200497
1147	0.205756	0.199839	0.19721	0.198524
1148	0.198524	0.194416	0.201483	0.201483
1149	0.200497	0.194744	0.198031	0.200661
1150	0.197703	0.195566	0.198853	0.199018
1151	0.19721	0.19573	0.200661	0.199018
1152	0.196223	0.196223	0.197703	0.200825
1153	0.201976	0.193922	0.194744	0.196388
1154	0.196881	0.201483	0.199511	0.197703
1155	0.197867	0.199346	0.19721	0.197703
1156	0.199346	0.200332	0.199346	0.19458
1157	0.195895	0.200497	0.198853	0.197045
1158	0.202798	0.19836	0.197045	0.197703
1159	0.195566	0.19721	0.19836	0.197867
1160	0.201483	0.196059	0.198689	0.199346
1161	0.199839	0.196717	0.199675	0.199018
1162	0.201154	0.197045	0.198853	0.198689
1163	0.200332	0.19721	0.199675	0.200661
1164	0.201319	0.195237	0.197374	0.198689
1165	0.197703	0.19721	0.199675	0.200661
1166	0.202469	0.197867	0.198524	0.199839
1167	0.198853	0.198524	0.200825	0.199182
1168	0.201647	0.198524	0.19721	0.199018
1169	0.203784	0.19836	0.197374	0.199675
1170	0.201319	0.197867	0.19836	0.19836
1171	0.199511	0.199346	0.201812	0.198196
1172	0.200168	0.198031	0.200661	0.195237
1173	0.200825	0.19836	0.200825	0.19573
1174	0.19836	0.193429	0.201154	0.197374
1175	0.201647	0.194251	0.198853	0.193922
1176	0.199018	0.190142	0.198196	0.196388
1177	0.199511	0.195402	0.198853	0.197374
1178	0.199018	0.196552	0.197867	0.200168
1179	0.198031	0.197867	0.199182	0.199675
1180	0.203784	0.196223	0.198689	0.203126
1181	0.198196	0.198524	0.199018	0.197867
1182	0.197374	0.198524	0.199182	0.20099
1183	0.199182	0.195895	0.199182	0.203126
1184	0.19836	0.197703	0.198524	0.202962
1185	0.200497	0.197703	0.198524	0.19836
1186	0.200661	0.197374	0.200825	0.198196
1187	0.198524	0.196223	0.199839	0.200825
1188	0.197045	0.198689	0.200332	0.198196
1189	0.200825	0.198524	0.196388	0.198196
1190	0.201812	0.199182	0.195402	0.198031
1191	0.204934	0.198853	0.197538	0.200661
1192	0.199018	0.198524	0.198689	0.196717
1193	0.198689	0.196223	0.19573	0.197045
1194	0.200004	0.198689	0.197867	0.19836
1195	0.198031	0.197867	0.198524	0.20099
1196	0.197703	0.19573	0.197703	0.198524
1197	0.197374	0.19836	0.19836	0.194744
1198	0.198031	0.196552	0.197538	0.199675
1199	0.19836	0.199346	0.199675	0.199675
1200	0.196881	0.196388	0.200004	0.199675
1201	0.199346	0.197867	0.196388	0.196059
1202	0.202469	0.198524	0.198524	0.203948
1203	0.199346	0.19836	0.199675	0.197374
1204	0.201154	0.199675	0.201483	0.197867
1205	0.199675	0.201154	0.202469	0.197374
1206	0.201154	0.20099	0.201154	0.197703
1207	0.202305	0.198196	0.201647	0.194251
1208	0.200661	0.199018	0.199675	0.200004
1209	0.203784	0.19721	0.198689	0.197703
1210	0.197045	0.198853	0.199675	0.198196
1211	0.197867	0.198196	0.199511	0.199511
1212	0.197045	0.200004	0.199675	0.197703
1213	0.201319	0.19836	0.197703	0.202469
1214	0.196552	0.199346	0.200825	0.199018
1215	0.198031	0.197045	0.198196	0.198689
1216	0.199675	0.199675	0.200825	0.19836
1217	0.199511	0.199675	0.198689	0.199511
1218	0.200168	0.198031	0.19836	0.197374
1219	0.201976	0.198196	0.200332	0.197538
1220	0.199018	0.199018	0.201976	0.196552
1221	0.201483	0.198689	0.200661	0.199511
1222	0.200004	0.199675	0.199182	0.197045
1223	0.198689	0.198031	0.200661	0.199839
1224	0.202305	0.20099	0.19836	0.196388
1225	0.19721	0.202305	0.200004	0.198031
1226	0.19721	0.202469	0.20099	0.198031
1227	0.198031	0.202633	0.200332	0.199182
1228	0.201154	0.199675	0.19836	0.200825
1229	0.196881	0.198031	0.200497	0.200004
1230	0.204277	0.200004	0.19721	0.199346
1231	0.196223	0.199675	0.199675	0.200332
1232	0.19721	0.196881	0.196059	0.20099
1233	0.198524	0.199182	0.199346	0.201647
1234	0.19836	0.197374	0.197867	0.199018
1235	0.201154	0.200332	0.198689	0.199018
1236	0.200661	0.198689	0.20099	0.199675
1237	0.201154	0.198853	0.200661	0.197703
1238	0.200661	0.198196	0.200168	0.198524
1239	0.199018	0.201154	0.200661	0.199511
1240	0.195237	0.197703	0.202469	0.200168
1241	0.200004	0.198524	0.198524	0.197703
1242	0.197867	0.199511	0.199182	0.200497
1243	0.200004	0.197703	0.196223	0.200004
1244	0.197703	0.199675	0.197867	0.198689
1245	0.198524	0.199182	0.198031	0.200332
1246	0.196223	0.200332	0.199018	0.203126
1247	0.196388	0.197867	0.200825	0.199675
1248	0.196552	0.197867	0.201812	0.199018
1249	0.196552	0.198196	0.197867	0.197867
1250	0.196388	0.198853	0.199839	0.202798
1251	0.197867	0.192936	0.198689	0.200661
1252	0.201319	0.198689	0.199018	0.19836
1253	0.200332	0.199182	0.198689	0.20214
1254	0.203291	0.201647	0.203784	0.199675
1255	0.198689	0.200332	0.206085	0.199511
1256	0.201647	0.203784	0.202305	0.196881
1257	0.20214	0.202305	0.200168	0.203126
1258	0.200497	0.198853	0.204606	0.203126
1259	0.196881	0.202305	0.202633	0.199675
1260	0.200825	0.19721	0.199018	0.19836
1261	0.199346	0.20099	0.200661	0.201154
1262	0.200004	0.200168	0.200004	0.201812
1263	0.202305	0.198196	0.199018	0.197538
1264	0.199675	0.199346	0.200661	0.199018
1265	0.199018	0.19836	0.200661	0.201483
1266	0.199018	0.19836	0.200332	0.199675
1267	0.199839	0.201812	0.199346	0.199018
1268	0.201154	0.199839	0.198853	0.202305
1269	0.201647	0.198524	0.200497	0.19573
1270	0.197538	0.19836	0.198689	0.199839
1271	0.200497	0.19836	0.198524	0.195566
1272	0.199675	0.201319	0.200661	0.200332
1273	0.200168	0.200661	0.200661	0.200661
1274	0.201319	0.201319	0.19836	0.200661
1275	0.199839	0.195895	0.200497	0.200004
1276	0.200332	0.200825	0.199346	0.202305
1277	0.199839	0.199346	0.196552	0.200497
1278	0.202633	0.201812	0.198524	0.199018
1279	0.202305	0.200661	0.197703	0.202305
1280	0.197374	0.200004	0.200497	0.199839
1281	0.199346	0.200332	0.196717	0.199018
1282	0.199675	0.200004	0.200332	0.199346
1283	0.197045	0.197045	0.198196	0.201154
1284	0.199018	0.19573	0.200497	0.198196
1285	0.198689	0.200004	0.197374	0.198196
1286	0.19573	0.199346	0.198524	0.200332
1287	0.20214	0.197045	0.199182	0.20362
1288	0.201647	0.199182	0.199511	0.200168
1289	0.197045	0.200661	0.200004	0.201976
1290	0.202469	0.198196	0.198031	0.202633
1291	0.197538	0.199675	0.199182	0.199182
1292	0.200004	0.199511	0.198853	0.199675
1293	0.199018	0.199018	0.199839	0.198524
1294	0.199675	0.198689	0.19836	0.201319
1295	0.200004	0.199018	0.198689	0.202305
1296	0.201812	0.199346	0.196717	0.202305
1297	0.197045	0.200332	0.199839	0.199182
1298	0.199675	0.197703	0.199182	0.201812
1299	0.199182	0.196717	0.198853	0.200661
1300	0.19836	0.19836	0.198196	0.199675
1301	0.200004	0.200497	0.19836	0.200168
1302	0.196717	0.194087	0.200168	0.202305
1303	0.201483	0.193101	0.200497	0.199675
1304	0.199346	0.196223	0.200004	0.199346
1305	0.199346	0.195566	0.199346	0.203948
1306	0.199346	0.196552	0.201154	0.201812
1307	0.200168	0.199346	0.198689	0.20214
1308	0.196388	0.197374	0.198196	0.204441
1309	0.204113	0.198853	0.200168	0.200497
1310	0.199346	0.200661	0.19836	0.202305
1311	0.198689	0.200004	0.200004	0.201154
1312	0.200661	0.203126	0.200168	0.198689
1313	0.199346	0.199839	0.201976	0.200825
1314	0.200661	0.200004	0.203126	0.197538
1315	0.198031	0.198689	0.197374	0.201154
1316	0.200661	0.201812	0.199839	0.201812
1317	0.199839	0.198524	0.198689	0.199839
1318	0.202633	0.19836	0.199346	0.197867
1319	0.19836	0.199346	0.199675	0.201319
1320	0.203126	0.197538	0.198031	0.203126
1321	0.198689	0.197867	0.20099	0.199346
1322	0.200004	0.198689	0.198196	0.201483
1323	0.200004	0.201812	0.200661	0.200497
1324	0.199839	0.196223	0.198031	0.20362
1325	0.198853	0.197703	0.198689	0.201154
1326	0.200332	0.193922	0.197538	0.203784
1327	0.201154	0.201647	0.201154	0.20362
1328	0.20099	0.198689	0.196059	0.201319
1329	0.20099	0.200825	0.199018	0.199839
1330	0.200168	0.199839	0.199511	0.201976
1331	0.20214	0.201812	0.200497	0.199675
1332	0.198853	0.199511	0.198853	0.20214
1333	0.200661	0.201154	0.199346	0.20099
1334	0.201483	0.201483	0.200004	0.199675
1335	0.201319	0.199018	0.199346	0.200825
1336	0.200497	0.198689	0.20099	0.205099
1337	0.199182	0.197703	0.196388	0.204113
1338	0.199346	0.200825	0.199018	0.20362
1339	0.202798	0.19458	0.199346	0.203455
1340	0.203291	0.199675	0.197703	0.202305
1341	0.201154	0.198689	0.195237	0.203126
1342	0.201319	0.198524	0.195073	0.201812
1343	0.20214	0.197867	0.196552	0.203291
1344	0.201812	0.202469	0.196059	0.199182
1345	0.201154	0.198196	0.198689	0.202305
1346	0.198689	0.200004	0.199018	0.20099
1347	0.199839	0.200004	0.200332	0.200497
1348	0.198689	0.200661	0.201647	0.19721
1349	0.198031	0.200497	0.200497	0.202633
1350	0.200168	0.19573	0.198031	0.199839
1351	0.198853	0.198853	0.200661	0.199511
1352	0.197703	0.199839	0.199018	0.201812
1353	0.198524	0.197374	0.199182	0.201154
1354	0.200661	0.198031	0.197867	0.199839
1355	0.198689	0.199675	0.199675	0.200497
1356	0.200004	0.197374	0.198196	0.200497
1357	0.196717	0.19836	0.197538	0.201976
1358	0.200497	0.197867	0.199839	0.200825
1359	0.201647	0.197374	0.199675	0.200497
1360	0.200332	0.199675	0.19836	0.200332
1361	0.200825	0.200497	0.200332	0.199675
1362	0.199511	0.199511	0.200332	0.201154
1363	0.200497	0.200825	0.196388	0.202633
1364	0.203455	0.203291	0.197374	0.200825
1365	0.201812	0.199675	0.200825	0.200497
1366	0.201319	0.201319	0.201483	0.197538
1367	0.202798	0.200332	0.198853	0.199839
1368	0.202469	0.199675	0.199018	0.200497
1369	0.197703	0.200168	0.197867	0.20099
1370	0.198853	0.199511	0.201319	0.201154
1371	0.200332	0.197374	0.200825	0.199182
1372	0.198196	0.199018	0.199675	0.201319
1373	0.198689	0.192772	0.196388	0.198689
1374	0.199675	0.199182	0.19836	0.200168
1375	0.199675	0.198524	0.197374	0.201812
1376	0.200497	0.200004	0.199511	0.201154
1377	0.199511	0.204277	0.198524	0.194909
1378	0.203784	0.198524	0.197538	0.200497
1379	0.199675	0.202305	0.199018	0.202962
1380	0.200332	0.199511	0.200661	0.199675
1381	0.198853	0.199511	0.201319	0.200332
1382	0.200168	0.199839	0.199675	0.20214
1383	0.198196	0.200497	0.201647	0.200661
1384	0.200168	0.199018	0.199839	0.19836
1385	0.198196	0.199675	0.20099	0.200497
1386	0.199346	0.197538	0.196223	0.203126
1387	0.198853	0.199346	0.199018	0.201319
1388	0.199675	0.199675	0.200825	0.19195
1389	0.198196	0.200825	0.196388	0.198689
1390	0.20099	0.199182	0.19573	0.20099
1391	0.20362	0.200661	0.199346	0.198853
1392	0.199182	0.197867	0.196881	0.201319
1393	0.201319	0.199018	0.197867	0.196717
1394	0.200332	0.200004	0.201647	0.198031
1395	0.20214	0.197867	0.196059	0.198853
1396	0.19836	0.200825	0.201319	0.200825
1397	0.203126	0.199346	0.200332	0.197703
1398	0.200168	0.197867	0.200497	0.199182
1399	0.198689	0.19836	0.200332	0.189814
1400	0.200497	0.200332	0.201976	0.199511
1401	0.199839	0.194909	0.199018	0.197867
1402	0.194087	0.197538	0.202798	0.197538
1403	0.197867	0.196717	0.200825	0.199182
1404	0.19836	0.200004	0.20099	0.196059
1405	0.198689	0.201812	0.198524	0.200168
1406	0.200825	0.200825	0.199839	0.197374
1407	0.202305	0.199511	0.198031	0.196223
1408	0.202305	0.198524	0.199511	0.197045
1409	0.199675	0.199018	0.198031	0.199018
1410	0.202798	0.200497	0.197703	0.197374
1411	0.200497	0.201483	0.199675	0.197374
1412	0.201483	0.199839	0.200004	0.19836
1413	0.202633	0.200661	0.201976	0.200004
1414	0.202305	0.199839	0.194416	0.196552
1415	0.199675	0.198196	0.200332	0.199675
1416	0.201976	0.198853	0.19721	0.197867
1417	0.200168	0.199511	0.201483	0.19721
1418	0.198196	0.19836	0.197867	0.200004
1419	0.200332	0.20099	0.200497	0.196059
1420	0.20099	0.198196	0.199511	0.197045
1421	0.199018	0.203455	0.201319	0.200004
1422	0.198853	0.19836	0.198853	0.195237
1423	0.198031	0.201154	0.199018	0.193265
1424	0.199018	0.199839	0.200004	0.194251
1425	0.198689	0.199511	0.200497	0.193265
1426	0.19721	0.199839	0.19721	0.197045
1427	0.199182	0.19836	0.198689	0.195566
1428	0.201154	0.195073	0.200661	0.195073
1429	0.198689	0.197538	0.19573	0.20099
1430	0.19721	0.199839	0.199018	0.197045
1431	0.199675	0.197703	0.199839	0.19836
1432	0.198524	0.200168	0.199675	0.205592
1433	0.198524	0.200168	0.199182	0.198031
1434	0.197374	0.204606	0.200497	0.194416
1435	0.197045	0.198031	0.200497	0.19836
1436	0.198853	0.199511	0.201154	0.197538
1437	0.196717	0.197374	0.199182	0.197867
1438	0.195566	0.197538	0.200332	0.19721
1439	0.198689	0.199839	0.198031	0.19458
1440	0.197703	0.199182	0.196552	0.198524
1441	0.196223	0.199346	0.19836	0.195073
1442	0.198524	0.197703	0.197867	0.196388
1443	0.199182	0.199675	0.193101	0.203784
1444	0.198853	0.200168	0.197703	0.193758
1445	0.196388	0.199675	0.196059	0.197538
1446	0.196881	0.198689	0.19721	0.19721
1447	0.195073	0.20099	0.197538	0.196881
1448	0.200661	0.196552	0.197538	0.198689
1449	0.194251	0.197703	0.203291	0.196881
1450	0.197703	0.199018	0.20214	0.200004
1451	0.197867	0.197703	0.198031	0.198196
1452	0.199018	0.197045	0.200332	0.198524
1453	0.200661	0.199182	0.199675	0.197703
1454	0.198031	0.197538	0.199839	0.202633
1455	0.199018	0.199018	0.199346	0.195073
1456	0.200004	0.203948	0.200825	0.196717
1457	0.201976	0.199839	0.200661	0.197703
1458	0.200497	0.202305	0.199839	0.196881
1459	0.200168	0.200168	0.199182	0.196059
1460	0.199346	0.199346	0.199839	0.197538
1461	0.200825	0.199675	0.201483	0.199675
1462	0.197867	0.200168	0.199346	0.199346
1463	0.199182	0.197867	0.196388	0.198524
1464	0.196552	0.200004	0.205263	0.199839
1465	0.197867	0.19721	0.201319	0.201976
1466	0.199018	0.199839	0.201319	0.195566
1467	0.197867	0.199182	0.201976	0.199346
1468	0.198524	0.199018	0.20214	0.198853
1469	0.198524	0.200168	0.196552	0.194087
1470	0.199346	0.199511	0.202469	0.19721
1471	0.19836	0.200497	0.202469	0.19721
1472	0.203126	0.202305	0.197374	0.195073
1473	0.201647	0.203291	0.200332	0.196388
1474	0.199675	0.201319	0.197703	0.199346
1475	0.201319	0.201483	0.19573	0.198524
1476	0.20099	0.199346	0.198031	0.199018
1477	0.200004	0.202633	0.200497	0.197045
1478	0.200332	0.204277	0.197538	0.197867
1479	0.198031	0.202962	0.204113	0.197538
1480	0.195895	0.199018	0.195402	0.199839
1481	0.197703	0.202305	0.200661	0.19836
1482	0.19836	0.199346	0.200168	0.200497
1483	0.202469	0.200168	0.198031	0.197867
1484	0.201976	0.200661	0.199182	0.200661
1485	0.200497	0.199018	0.199018	0.198524
1486	0.199675	0.198853	0.199018	0.200825
1487	0.200332	0.19836	0.199018	0.197703
1488	0.199839	0.201483	0.199346	0.194744
1489	0.199839	0.201976	0.200004	0.192443
1490	0.197867	0.20214	0.199839	0.201647
1491	0.195895	0.201319	0.197703	0.196388
1492	0.197538	0.203455	0.200497	0.199182
1493	0.200497	0.197538	0.200332	0.202305
1494	0.197374	0.201647	0.200168	0.198031
1495	0.201976	0.199675	0.20099	0.200661
1496	0.198524	0.200332	0.201812	0.19721
1497	0.195073	0.198689	0.197867	0.200497
1498	0.19836	0.196059	0.199839	0.200497
1499	0.197867	0.199018	0.200332	0.199018
1500	0.197045	0.198031	0.199182	0.199675
1501	0.196223	0.20099	0.198031	0.20099
1502	0.19721	0.196717	0.199839	0.199018
1503	0.199346	0.202305	0.200825	0.200332
1504	0.201483	0.200168	0.199511	0.198853
1505	0.199675	0.199675	0.199675	0.199511
1506	0.202633	0.199675	0.200004	0.198689
1507	0.199182	0.203291	0.200004	0.197703
1508	0.200168	0.201319	0.200168	0.197045
1509	0.200004	0.200332	0.201319	0.199018
1510	0.198524	0.202305	0.199839	0.196881
1511	0.199346	0.200004	0.199182	0.196552
1512	0.199675	0.199182	0.201647	0.201154
1513	0.197538	0.201154	0.202962	0.199018
1514	0.197867	0.200497	0.20214	0.198524
1515	0.200661	0.200168	0.199346	0.200661
1516	0.201319	0.19721	0.200332	0.202305
1517	0.200168	0.200332	0.196717	0.201976
1518	0.200004	0.200497	0.194251	0.201976
1519	0.199346	0.200168	0.198853	0.199839
1520	0.200004	0.199839	0.200168	0.198031
1521	0.20214	0.20362	0.199182	0.197538
1522	0.197867	0.204277	0.200168	0.198689
1523	0.201483	0.201483	0.200332	0.198031
1524	0.200004	0.20214	0.201319	0.196223
1525	0.200497	0.200661	0.202305	0.195237
1526	0.200004	0.20362	0.201812	0.201483
1527	0.200825	0.200004	0.203784	0.19458
1528	0.201154	0.200332	0.198031	0.194909
1529	0.198031	0.202305	0.19836	0.197374
1530	0.197703	0.19721	0.200332	0.196059
1531	0.197867	0.197703	0.199182	0.197045
1532	0.196388	0.200661	0.199675	0.194087
1533	0.195566	0.200661	0.203948	0.196388
1534	0.199018	0.20099	0.197867	0.196059
1535	0.195402	0.199018	0.198853	0.198524
1536	0.198524	0.199182	0.200168	0.196881
1537	0.197867	0.201483	0.199018	0.198031
1538	0.200332	0.199675	0.200004	0.196223
1539	0.201812	0.20099	0.199839	0.194251
1540	0.200825	0.20099	0.197867	0.197045
1541	0.197867	0.201976	0.196717	0.197538
1542	0.198689	0.199511	0.19573	0.199018
1543	0.200168	0.202633	0.200004	0.196059
1544	0.198689	0.200825	0.198524	0.198853
1545	0.197538	0.202305	0.199511	0.196552
1546	0.199182	0.200332	0.202962	0.197703
1547	0.197045	0.201483	0.202305	0.194251
1548	0.195895	0.199675	0.200497	0.199839
1549	0.198853	0.197867	0.200497	0.197703
1550	0.200004	0.194416	0.199511	0.19721
1551	0.200004	0.198196	0.200004	0.202962
1552	0.196881	0.199182	0.199511	0.197703
1553	0.199839	0.197703	0.198031	0.197374
1554	0.199511	0.199675	0.200825	0.19721
1555	0.200661	0.197703	0.197867	0.197703
1556	0.199511	0.200661	0.201154	0.193265
1557	0.200332	0.199182	0.200497	0.198196
1558	0.200004	0.202469	0.200661	0.19573
1559	0.200825	0.198853	0.20099	0.196552
1560	0.143629	0.201319	0.201483	0.197703
1561	0.145602	0.200004	0.203948	0.200168
1562	0.146259	0.201647	0.200332	0.19721
1563	0.147903	0.19836	0.201483	0.199675
1564	0.154641	0.199018	0.197538	0.199182
1565	0.151518	0.201976	0.197045	0.198031
1566	0.152998	0.200497	0.197867	0.198853
1567	0.153326	0.200004	0.20214	0.200168
1568	0.159901	0.200332	0.201154	0.199018
1569	0.156285	0.202305	0.202962	0.199018
1570	0.16138	0.199018	0.199346	0.198524
1571	0.165817	0.201812	0.201154	0.195895
1572	0.168612	0.20099	0.198524	0.197045
1573	0.165489	0.198853	0.198524	0.198689
1574	0.169598	0.19836	0.199839	0.198689
1575	0.170255	0.198689	0.200825	0.194416
1576	0.172227	0.200661	0.200661	0.194251
1577	0.170913	0.201812	0.201976	0.197538
1578	0.169762	0.199346	0.20214	0.195237
1579	0.174857	0.197867	0.199839	0.197867
1580	0.173378	0.199675	0.201812	0.200332
1581	0.173542	0.199839	0.197045	0.198524
1582	0.176008	0.200168	0.199182	0.198031
1583	0.176665	0.196552	0.199511	0.199346
1584	0.176172	0.201976	0.199839	0.199839
1585	0.177815	0.200825	0.198031	0.199839
1586	0.177487	0.198689	0.200497	0.201154
1587	0.179623	0.199839	0.198031	0.200004
1588	0.182746	0.201976	0.200332	0.198196
1589	0.181924	0.199675	0.197867	0.198689
1590	0.183239	0.200004	0.196223	0.203291
1591	0.183239	0.200497	0.202798	0.197703
1592	0.181596	0.200004	0.198689	0.197538
1593	0.184883	0.199018	0.200661	0.200168
1594	0.187019	0.201812	0.200168	0.198689
1595	0.183568	0.200332	0.199839	0.199675
1596	0.185376	0.198689	0.19836	0.198853
1597	0.183075	0.201319	0.201319	0.202962
1598	0.187348	0.200332	0.199675	0.196223
1599	0.184718	0.202305	0.200332	0.199182
1600	0.186198	0.198689	0.200497	0.201812
1601	0.186855	0.199018	0.201483	0.197538
1602	0.189649	0.199675	0.199018	0.203948
1603	0.189156	0.200004	0.200332	0.201154
1604	0.190635	0.198853	0.200004	0.195402
1605	0.19195	0.200825	0.200332	0.199346
1606	0.188663	0.199018	0.199018	0.201319
1607	0.188334	0.198031	0.199346	0.197374
1608	0.189814	0.19458	0.199511	0.205099
1609	0.18817	0.20099	0.201154	0.198031
1610	0.188663	0.200661	0.200497	0.199018
1611	0.188499	0.200004	0.202469	0.199839
1612	0.190471	0.200497	0.200332	0.200168
1613	0.190964	0.202305	0.19836	0.198524
1614	0.188334	0.201483	0.196388	0.199182
1615	0.190964	0.199675	0.200497	0.198689
1616	0.190471	0.200825	0.198031	0.199346
1617	0.192279	0.200168	0.196717	0.200497
1618	0.1908	0.199511	0.200332	0.197538
1619	0.194087	0.200825	0.198031	0.200004
1620	0.193429	0.201319	0.197538	0.196388
1621	0.195402	0.199675	0.199018	0.198031
1622	0.192279	0.19836	0.200497	0.196388
1623	0.193265	0.19721	0.198853	0.19836
1624	0.193265	0.200497	0.199182	0.197374
1625	0.195895	0.198689	0.199018	0.200004
1626	0.197703	0.197045	0.200497	0.199018
1627	0.195895	0.201483	0.199839	0.202305
1628	0.197867	0.199018	0.199182	0.198524
1629	0.198853	0.199018	0.198853	0.203784
1630	0.198689	0.200825	0.199018	0.204113
1631	0.19836	0.20477	0.200497	0.201647
1632	0.199182	0.200497	0.200004	0.201812
1633	0.197703	0.202633	0.200497	0.196717
1634	0.199675	0.19836	0.199675	0.199346
1635	0.197374	0.201319	0.200661	0.197538
1636	0.197374	0.199018	0.199511	0.199675
1637	0.197538	0.199675	0.202798	0.19836
1638	0.200332	0.198689	0.197045	0.200168
1639	0.199839	0.199675	0.198524	0.198689
1640	0.198524	0.197703	0.19721	0.20099
1641	0.198031	0.197867	0.20099	0.201647
1642	0.196388	0.199675	0.199675	0.200332
1643	0.198853	0.200004	0.19721	0.19836
1644	0.198524	0.200004	0.20214	0.200825
1645	0.195895	0.199182	0.198031	0.200004
1646	0.194251	0.201319	0.199346	0.19836
1647	0.196223	0.198524	0.19573	0.200825
1648	0.194087	0.19836	0.199346	0.199182
1649	0.194909	0.198196	0.200332	0.19721
1650	0.19458	0.202798	0.20099	0.199839
1651	0.198031	0.197538	0.200004	0.199346
1652	0.193758	0.198031	0.200332	0.195237
1653	0.195895	0.20099	0.198853	0.19836
1654	0.193594	0.201154	0.200825	0.194909
1655	0.196717	0.199182	0.200004	0.200004
1656	0.196059	0.199839	0.201319	0.198031
1657	0.191457	0.198524	0.199839	0.198689
1658	0.196717	0.196388	0.20099	0.200004
1659	0.194744	0.199182	0.200332	0.199182
1660	0.196388	0.197374	0.198196	0.201647
1661	0.198196	0.200004	0.200168	0.200168
1662	0.198524	0.199675	0.199018	0.200168
1663	0.19721	0.19836	0.198524	0.20214
1664	0.200004	0.199839	0.201812	0.198031
1665	0.197867	0.200497	0.201647	0.195895
1666	0.197538	0.200497	0.200661	0.198689
1667	0.200497	0.202305	0.201319	0.198853
1668	0.199018	0.201647	0.19836	0.196552
1669	0.197538	0.200825	0.201976	0.194909
1670	0.197045	0.199675	0.202305	0.19721
1671	0.199018	0.197703	0.199346	0.19721
1672	0.197045	0.193922	0.200004	0.197045
1673	0.197867	0.197867	0.199675	0.196881
1674	0.196388	0.197538	0.200661	0.199675
1675	0.201647	0.197374	0.198196	0.200004
1676	0.19721	0.198853	0.201154	0.200004
1677	0.19573	0.200332	0.197703	0.199675
1678	0.197867	0.200332	0.200332	0.200661
1679	0.197703	0.200332	0.197867	0.19836
1680	0.197045	0.199182	0.200168	0.200004
1681	0.201483	0.200168	0.200004	0.201483
1682	0.199675	0.200661	0.198853	0.199018
1683	0.199675	0.199018	0.197374	0.198853
1684	0.20099	0.198196	0.200497	0.199018
1685	0.197867	0.197703	0.198524	0.199511
1686	0.20214	0.200004	0.199839	0.197538
1687	0.198853	0.198853	0.201812	0.197703
1688	0.197045	0.198524	0.20099	0.198196
1689	0.198196	0.199675	0.200168	0.199018
1690	0.194744	0.199839	0.196717	0.199182
1691	0.193429	0.198689	0.197045	0.199675
1692	0.196388	0.198524	0.196223	0.198524
1693	0.197867	0.199346	0.197703	0.201647
1694	0.19836	0.198689	0.19573	0.199511
1695	0.19836	0.200332	0.200661	0.201319
1696	0.199182	0.199018	0.196388	0.200661
1697	0.197867	0.199018	0.19573	0.19721
1698	0.199675	0.198196	0.197703	0.200332
1699	0.197867	0.201319	0.202798	0.200168
1700	0.197703	0.198524	0.198524	0.199675
1701	0.198031	0.200497	0.202305	0.197703
1702	0.198031	0.197374	0.201483	0.193758
1703	0.005076	0.197045	0.201647	0.195237
1704	0.013294	0.198853	0.20477	0.196717
1705	0.023977	0.196388	0.197703	0.197867
1706	0.030716	0.20099	0.202962	0.197703
1707	0.035482	0.198196	0.200168	0.20099
1708	0.043536	0.197538	0.199182	0.199182
1709	0.050932	0.199018	0.200332	0.199182
1710	0.054383	0.198524	0.200825	0.20099
1711	0.063094	0.19836	0.19836	0.199346
1712	0.069833	0.203126	0.200497	0.199839
1713	0.076736	0.19836	0.201483	0.199675
1714	0.07838	0.199511	0.203455	0.19721
1715	0.086762	0.199182	0.200004	0.197867
1716	0.092679	0.200825	0.202798	0.197703
1717	0.100403	0.200004	0.201154	0.199839
1718	0.101718	0.199839	0.200332	0.199182
1719	0.105663	0.200168	0.202798	0.194416
1720	0.109772	0.197374	0.205592	0.194909
1721	0.1101	0.200332	0.20214	0.19573
1722	0.115195	0.196552	0.199839	0.196223
1723	0.118811	0.199182	0.202305	0.196388
1724	0.121441	0.197867	0.20099	0.197867
1725	0.123742	0.199346	0.198031	0.197703
1726	0.129988	0.199839	0.199182	0.198031
1727	0.129988	0.200661	0.199511	0.200825
1728	0.133275	0.19721	0.198031	0.199346
1729	0.134425	0.200497	0.199675	0.197538
1730	0.137055	0.199839	0.198524	0.197538
1731	0.143465	0.198196	0.200332	0.195237
1732	0.144122	0.195895	0.200825	0.201154
1733	0.14478	0.197374	0.199839	0.19836
1734	0.150204	0.201319	0.202633	0.199839
1735	0.152669	0.200004	0.200004	0.199839
1736	0.150368	0.199839	0.20099	0.195237
1737	0.156449	0.199346	0.201647	0.197374
1738	0.158421	0.201483	0.202798	0.201976
1739	0.15875	0.200004	0.200825	0.197374
1740	0.157271	0.199182	0.202469	0.201647
1741	0.163188	0.200332	0.197867	0.196223
1742	0.161544	0.200497	0.200497	0.197703
1743	0.164174	0.199839	0.200825	0.201154
1744	0.167132	0.20099	0.199346	0.199018
1745	0.166804	0.200661	0.197538	0.198853
1746	0.167297	0.201647	0.202962	0.198524
1747	0.168283	0.200332	0.198689	0.196223
1748	0.171899	0.199182	0.198196	0.199346
1749	0.172556	0.199182	0.201647	0.201976
1750	0.174364	0.197538	0.200825	0.19458
1751	0.173871	0.198524	0.200825	0.199839
1752	0.177487	0.198853	0.200497	0.200332
1753	0.173378	0.198031	0.199675	0.201319
1754	0.178802	0.198689	0.202962	0.197538
1755	0.177815	0.201154	0.203948	0.199839
1756	0.184554	0.20099	0.201483	0.19836
1757	0.180116	0.198853	0.201154	0.199018
1758	0.181103	0.197045	0.200661	0.196717
1759	0.182582	0.201154	0.200332	0.200004
1760	0.182582	0.199511	0.201154	0.201319
1761	0.183075	0.200497	0.202469	0.19836
1762	0.183239	0.200168	0.202798	0.201319
1763	0.187677	0.200004	0.201647	0.198853
1764	0.184554	0.200004	0.200332	0.200004
1765	0.186362	0.199182	0.199182	0.198853
1766	0.187184	0.199346	0.20214	0.20099
1767	0.189978	0.199839	0.199839	0.199675
1768	0.186362	0.200332	0.20214	0.200825
1769	0.188006	0.199675	0.201976	0.196717
1770	0.187348	0.199182	0.199675	0.197703
1771	0.1908	0.199018	0.196717	0.197045
1772	0.188663	0.200661	0.200661	0.201154
1773	0.1908	0.196223	0.198524	0.198689
1774	0.192115	0.202305	0.200661	0.194087
1775	0.190471	0.200497	0.196552	0.199675
1776	0.190471	0.197703	0.202962	0.195237
1777	0.191457	0.201483	0.199839	0.201319
1778	0.189156	0.199675	0.200332	0.200004
1779	0.190635	0.197374	0.200168	0.202469
1780	0.188827	0.201976	0.202469	0.198196
1781	0.190964	0.19573	0.199839	0.197703
1782	0.19458	0.200004	0.199839	0.198196
1783	0.190635	0.199511	0.200332	0.200661
1784	0.19195	0.19836	0.200332	0.199182
1785	0.193594	0.200332	0.20214	0.200168
1786	0.193265	0.199346	0.199182	0.20099
1787	0.193101	0.199839	0.20099	0.199511
1788	0.196552	0.19836	0.196881	0.200661
1789	0.191786	0.20477	0.197045	0.199839
1790	0.196881	0.198196	0.197374	0.200497
1791	0.195566	0.200661	0.201319	0.196552
1792	0.198031	0.200004	0.197374	0.201812
1793	0.196059	0.201647	0.200004	0.199018
1794	0.19573	0.203126	0.200661	0.198524
1795	0.194909	0.19836	0.200004	0.199675
1796	0.193922	0.201319	0.200825	0.19836
1797	0.193429	0.20214	0.202305	0.198689
1798	0.193265	0.198031	0.201154	0.201319
1799	0.195566	0.197867	0.201319	0.196223
1800	0.192115	0.200332	0.201154	0.202633
1801	0.19836	0.195237	0.200004	0.199675
1802	0.192772	0.198196	0.20362	0.200332
1803	0.198853	0.199346	0.200661	0.196552
1804	0.197374	0.200332	0.199346	0.199018
1805	0.198689	0.200661	0.198853	0.199182
1806	0.198689	0.199346	0.201483	0.199182
1807	0.204441	0.199182	0.198689	0.199018
1808	0.199346	0.201319	0.199675	0.197538
1809	0.196717	0.20099	0.20099	0.198689
1810	0.199675	0.200825	0.200825	0.198524
1811	0.197538	0.202305	0.201154	0.200497
1812	0.197045	0.202305	0.201154	0.197867
1813	0.196059	0.199675	0.204934	0.197867
1814	0.199675	0.200661	0.19836	0.199346
1815	0.197045	0.199346	0.198196	0.200661
1816	0.202962	0.198031	0.197703	0.200004
1817	0.192772	0.202469	0.199839	0.201483
1818	0.198031	0.198524	0.198196	0.19721
1819	0.196881	0.201319	0.196223	0.19836
1820	0.197867	0.199018	0.198689	0.200661
1821	0.196881	0.201483	0.203291	0.197374
1822	0.199182	0.203784	0.201154	0.20099
1823	0.199018	0.199839	0.201812	0.198524
1824	0.198524	0.200825	0.203455	0.199182
1825	0.202798	0.202633	0.201483	0.199018
1826	0.198031	0.200497	0.199018	0.200004
1827	0.201976	0.202633	0.200004	0.197374
1828	0.20214	0.201319	0.199511	0.198853
1829	0.202962	0.20099	0.199511	0.194087
1830	0.197703	0.201154	0.200004	0.198689
1831	0.200332	0.200497	0.200661	0.200332
1832	0.19721	0.202469	0.200004	0.198853
1833	0.198196	0.200497	0.199511	0.198689
1834	0.19573	0.202633	0.200661	0.199675
1835	0.197045	0.192772	0.201154	0.202469
1836	0.198853	0.201812	0.200168	0.200497
1837	0.199511	0.200497	0.198689	0.200825
1838	0.200168	0.198689	0.199675	0.200497
1839	0.200497	0.198524	0.193101	0.203126
1840	0.202305	0.205099	0.197867	0.199839
1841	0.199511	0.199182	0.196223	0.199675
1842	0.203455	0.202962	0.200168	0.198689
1843	0.20099	0.201319	0.195895	0.199182
1844	0.199839	0.203784	0.20214	0.198196
1845	0.198524	0.198853	0.200661	0.200497
1846	0.197867	0.199511	0.201976	0.196223
1847	0.197045	0.200661	0.204606	0.200168
1848	0.199018	0.19721	0.201483	0.199018
1849	0.195402	0.198524	0.201319	0.202305
1850	0.197374	0.19721	0.200168	0.207071
1851	0.199511	0.197538	0.201647	0.199675
1852	0.198196	0.196881	0.197867	0.200332
1853	0.199839	0.199839	0.200168	0.200004
1854	0.199182	0.198853	0.198689	0.204934
1855	0.200497	0.202469	0.198853	0.199675
1856	0.200332	0.197703	0.200004	0.20099
1857	0.196717	0.198853	0.200661	0.199839
1858	0.205099	0.201647	0.198689	0.20099
1859	0.202305	0.200661	0.200332	0.199346
1860	0.199018	0.200661	0.199182	0.20099
1861	0.20214	0.20099	0.20214	0.199675
1862	0.200168	0.203455	0.200661	0.197867
1863	0.200825	0.199511	0.200825	0.198689
1864	0.199346	0.200825	0.201154	0.199511
1865	0.198853	0.199018	0.198853	0.200332
1866	0.197374	0.202633	0.200332	0.198524
1867	0.198524	0.199346	0.199182	0.201483
1868	0.199018	0.197867	0.201647	0.197045
1869	0.196059	0.199018	0.197703	0.197867
1870	0.199839	0.200497	0.198196	0.199839
1871	0.197374	0.20099	0.197867	0.200004
1872	0.201647	0.202633	0.19721	0.199675
1873	0.201647	0.201483	0.195895	0.199675
1874	0.199839	0.200661	0.197867	0.199346
1875	0.201319	0.202305	0.199018	0.201154
1876	0.200332	0.201319	0.198689	0.199346
1877	0.20099	0.204441	0.199182	0.201976
1878	0.203291	0.200661	0.200332	0.201154
1879	0.201647	0.200497	0.202798	0.198853
1880	0.203784	0.199675	0.199839	0.199511
1881	0.20099	0.202633	0.20214	0.199346
1882	0.19836	0.198524	0.199182	0.205099
1883	0.198196	0.198689	0.200661	0.202305
1884	0.200168	0.202469	0.200661	0.198689
1885	0.19721	0.197703	0.198196	0.201976
1886	0.19836	0.19836	0.199839	0.200661
1887	0.200332	0.199346	0.199018	0.199182
1888	0.19836	0.200004	0.201976	0.200825
1889	0.199346	0.199675	0.199346	0.199675
1890	0.198196	0.200004	0.201319	0.202962
1891	0.198689	0.200004	0.198853	0.195895
1892	0.199839	0.200004	0.200497	0.201319
1893	0.201154	0.198689	0.196388	0.199839
1894	0.198853	0.197538	0.199675	0.199839
1895	0.205592	0.201154	0.200497	0.199018
1896	0.199018	0.201483	0.200497	0.199839
1897	0.198853	0.197538	0.204277	0.199675
1898	0.201483	0.202305	0.20362	0.200168
1899	0.198196	0.199511	0.203126	0.201319
1900	0.196717	0.19836	0.201154	0.201483
1901	0.19721	0.199839	0.200332	0.200661
1902	0.197867	0.198196	0.199018	0.200661
1903	0.199346	0.196717	0.199675	0.200168
1904	0.197867	0.199675	0.200168	0.201647
1905	0.197867	0.199346	0.198196	0.198853
1906	0.202962	0.199839	0.199839	0.198031
1907	0.196223	0.201647	0.198524	0.200004
1908	0.197538	0.200497	0.199675	0.201483
1909	0.199511	0.202798	0.202469	0.199839
1910	0.200168	0.202962	0.200004	0.200168
1911	0.199839	0.198853	0.200497	0.201154
1912	0.199839	0.199511	0.202798	0.200497
1913	0.199346	0.20214	0.203291	0.199675
1914	0.201483	0.200332	0.198524	0.200332
1915	0.196552	0.201483	0.200825	0.200332
1916	0.200004	0.199839	0.200825	0.201976
1917	0.200497	0.201812	0.200661	0.197703
1918	0.199346	0.200497	0.200168	0.199839
1919	0.198853	0.20099	0.200497	0.196388
1920	0.201647	0.198689	0.200004	0.199675
1921	0.200661	0.200661	0.199839	0.198031
1922	0.198196	0.199511	0.19721	0.200497
1923	0.199839	0.201647	0.196388	0.197374
1924	0.199182	0.201319	0.198196	0.199018
1925	0.201483	0.200825	0.195237	0.201976
1926	0.197703	0.201483	0.199839	0.200661
1927	0.201319	0.196223	0.199018	0.201483
1928	0.200332	0.201976	0.196881	0.200168
1929	0.199839	0.200168	0.199839	0.201154
1930	0.199018	0.200825	0.201647	0.200004
1931	0.201319	0.199346	0.199839	0.200825
1932	0.199018	0.200661	0.201319	0.200332
1933	0.19836	0.19836	0.20099	0.205263
1934	0.199511	0.198689	0.20099	0.200497
1935	0.199511	0.195402	0.200332	0.201319
1936	0.199018	0.198196	0.19721	0.199675
1937	0.199675	0.196881	0.198196	0.199511
1938	0.198031	0.198031	0.198524	0.200168
1939	0.195402	0.200497	0.197867	0.199511
1940	0.199346	0.19836	0.195895	0.20099
1941	0.19836	0.200168	0.202305	0.199839
1942	0.199346	0.198524	0.199182	0.202469
1943	0.199346	0.20362	0.19836	0.20099
1944	0.199675	0.197045	0.19721	0.201812
1945	0.196059	0.197045	0.20099	0.20099
1946	0.199675	0.199018	0.199182	0.20362
1947	0.196388	0.197538	0.203126	0.200004
1948	0.197045	0.19836	0.201976	0.202469
1949	0.19721	0.199675	0.201647	0.197374
1950	0.19458	0.197538	0.199675	0.198853
1951	0.192608	0.199511	0.20099	0.198031
1952	0.189978	0.199182	0.203126	0.199018
1953	0.193758	0.193758	0.199018	0.19721
1954	0.194416	0.201483	0.200332	0.195566
1955	0.192772	0.199346	0.200168	0.201483
1956	0.189485	0.199675	0.202962	0.199675
1957	0.194416	0.198689	0.199182	0.200661
1958	0.186855	0.200332	0.20099	0.201812
1959	0.190142	0.19836	0.198524	0.200497
1960	0.190142	0.199675	0.201154	0.201319
1961	0.188663	0.197867	0.199182	0.200497
1962	0.189485	0.199182	0.201647	0.201319
1963	0.190142	0.200825	0.202305	0.201976
1964	0.189649	0.200168	0.201647	0.201319
1965	0.191128	0.200661	0.199839	0.201647
1966	0.193101	0.200497	0.20214	0.201647
1967	0.189649	0.200497	0.202305	0.20214
1968	0.194251	0.200004	0.199511	0.199839
1969	0.193265	0.201154	0.201154	0.199182
1970	0.196552	0.198853	0.198689	0.197374
1971	0.190964	0.200168	0.202469	0.199839
1972	0.193429	0.199675	0.196717	0.198524
1973	0.191457	0.196223	0.196717	0.197374
1974	0.195895	0.198853	0.204606	0.196552
1975	0.191786	0.200168	0.20362	0.199018
1976	0.189649	0.198853	0.199346	0.201154
1977	0.192279	0.200825	0.201976	0.200497
1978	0.192608	0.198196	0.200661	0.201647
1979	0.193265	0.198689	0.200332	0.199839
1980	0.191621	0.19836	0.19721	0.202962
1981	0.190307	0.201976	0.200168	0.198196
1982	0.188334	0.199182	0.198524	0.201647
1983	0.188006	0.199839	0.200825	0.198689
1984	0.185869	0.202633	0.197374	0.199675
1985	0.186526	0.197867	0.200661	0.197374
1986	0.183568	0.202633	0.200661	0.200332
1987	0.182746	0.202962	0.195566	0.199018
1988	0.180938	0.20099	0.197374	0.201319
1989	0.116017	0.200661	0.197703	0.200661
1990	-0.001005	0.201647	0.199018	0.200004
1991	0.009678	0.199018	0.194744	0.200661
1992	0.015266	0.201154	0.196388	0.200004
1993	0.023484	0.201647	0.199675	0.202305
1994	0.03236	0.20099	0.199839	0.198196
1995	0.036304	0.199018	0.198031	0.202962
1996	0.043043	0.200004	0.201483	0.198689
1997	0.049617	0.199182	0.204113	0.202798
1998	0.057835	0.198031	0.200497	0.201647
1999	0.0603	0.199675	0.201647	0.197538
2000	0.066217	0.195402	0.202962	0.202305
2001	0.07312	0.199182	0.200332	0.199675
2002	0.079859	0.200661	0.200661	0.197867
2003	0.082324	0.202305	0.20099	0.200497
2004	0.088241	0.201483	0.199182	0.201976
2005	0.092843	0.208879	0.20099	0.201647
2006	0.093336	0.199182	0.198689	0.201319
2007	0.09991	0.20099	0.200661	0.196552
2008	0.101225	0.201319	0.202798	0.201812
2009	0.10254	0.201154	0.200168	0.19836
2010	0.105663	0.198689	0.201647	0.202633
2011	0.109607	0.201483	0.201647	0.200332
2012	0.112894	0.197867	0.199675	0.202469
2013	0.115853	0.199346	0.199839	0.201319
2014	0.116017	0.200332	0.201647	0.202633
2015	0.11914	0.199839	0.198853	0.20214
2016	0.123578	0.202469	0.200825	0.201319
2017	0.124235	0.201154	0.199018	0.199182
2018	0.12555	0.20099	0.199018	0.199675
2019	0.130316	0.201154	0.200168	0.196388
2020	0.13311	0.202962	0.200168	0.198853
2021	0.130645	0.200497	0.199346	0.198031
2022	0.12933	0.203784	0.202962	0.196717
2023	0.133439	0.201647	0.201154	0.201319
2024	0.134754	0.199839	0.201154	0.198524
2025	0.138041	0.199839	0.20099	0.202469
2026	0.135411	0.199511	0.19573	0.203784
2027	0.13837	0.201319	0.200497	0.204113
2028	0.140013	0.200168	0.197538	0.199839
2029	0.143301	0.200332	0.199018	0.201319
2030	0.145108	0.199675	0.198196	0.200825
2031	0.141986	0.198689	0.19836	0.202962
2032	0.145602	0.197703	0.198196	0.200497
2033	0.145437	0.199182	0.202305	0.200004
2034	0.151847	0.198524	0.19836	0.200168
2035	0.150861	0.198031	0.202305	0.200004
2036	0.153162	0.200332	0.201976	0.199182
2037	0.152505	0.201976	0.199346	0.201154
2038	0.155956	0.202305	0.197374	0.199839
2039	0.152833	0.202798	0.199018	0.198689
2040	0.152176	0.200004	0.198031	0.200168
2041	0.15497	0.200825	0.200497	0.198524
2042	0.153491	0.198689	0.197867	0.201319
2043	0.156285	0.200004	0.198689	0.200004
2044	0.15612	0.200168	0.201647	0.201319
2045	0.157764	0.199018	0.198031	0.201319
2046	0.154806	0.199346	0.200332	0.201483
2047	0.157271	0.197538	0.199675	0.201812
2048	0.158257	0.19573	0.200004	0.199018
2049	0.159079	0.197374	0.195237	0.200332
2050	0.157435	0.198196	0.200168	0.200497
2051	0.161215	0.196552	0.199839	0.201976
2052	0.161051	0.199018	0.200825	0.200332
2053	0.16401	0.198031	0.200497	0.198689
2054	0.162202	0.199839	0.201812	0.198853
2055	0.163023	0.194251	0.201812	0.200825
2056	0.164338	0.199018	0.201976	0.193265
2057	0.160065	0.200661	0.200661	0.199346
2058	0.160394	0.200497	0.200497	0.19836
2059	0.159243	0.199511	0.202798	0.200004
2060	0.16401	0.200332	0.199182	0.198031
2061	0.160394	0.199839	0.199346	0.199346
2062	0.162202	0.199675	0.200825	0.196881
2063	0.158586	0.199182	0.198524	0.200497
2064	0.163681	0.197538	0.201319	0.20099
2065	0.160722	0.197374	0.202798	0.200004
2066	0.161215	0.199346	0.20214	0.20099
2067	0.16138	0.199018	0.200497	0.19836
2068	0.162859	0.197867	0.197867	0.19836
2069	0.161215	0.199675	0.201483	0.197045
2070	0.162037	0.19721	0.199675	0.200004
2071	0.158914	0.200168	0.201154	0.195566
2072	0.159572	0.196881	0.199182	0.199511
2073	0.157928	0.201976	0.202305	0.197867
2074	0.158586	0.201319	0.20099	0.196717
2075	0.159901	0.199839	0.198853	0.198524
2076	0.1576	0.199346	0.199346	0.200004
2077	0.1576	0.20099	0.201154	0.200168
2078	0.157928	0.198689	0.199346	0.201812
2079	0.156285	0.198524	0.198853	0.200168
2080	0.154148	0.19721	0.199839	0.201647
2081	0.154312	0.198031	0.200497	0.200497
2082	0.152669	0.199839	0.199675	0.201647
2083	0.151518	0.197045	0.197374	0.198689
2084	0.151025	0.200004	0.203126	0.199018
2085	0.148396	0.196388	0.198196	0.201319
2086	0.150861	0.200004	0.200661	0.197703
2087	0.146259	0.198524	0.201976	0.202469
2088	0.143794	0.200332	0.201319	0.200825
2089	0.146095	0.197045	0.198524	0.200825
2090	0.143136	0.198853	0.202469	0.200004
2091	0.137548	0.194744	0.197374	0.200332
2092	0.134918	0.200497	0.197538	0.199346
2093	0.131631	0.201483	0.199018	0.200825
2094	0.127358	0.197703	0.197703	0.19836
2095	0.121934	0.202633	0.203784	0.199839
2096	0.116675	0.195237	0.194909	0.200825
2097	0.10632	0.198853	0.198524	0.197867
2098	0.105498	0.19721	0.197703	0.20362
2099	0.097281	0.197703	0.201483	0.20362
2100	0.092186	0.195402	0.197374	0.20362
2101	0.086597	0.199182	0.200825	0.200497
2102	0.082982	0.196552	0.199511	0.201319
2103	0.080516	0.193922	0.200332	0.200661
2104	0.076243	0.19836	0.199511	0.199675
2105	0.069176	0.200661	0.199511	0.197374
2106	0.066053	0.201319	0.203455	0.200004
2107	0.0603	0.195073	0.199839	0.202633
2108	0.058985	0.198524	0.201319	0.202798
2109	0.05537	0.200661	0.200168	0.199839
2110	0.047152	0.197703	0.202962	0.204277
2111	0.043371	0.198689	0.198853	0.199675
2112	0.038276	0.201647	0.20099	0.199675
2113	0.035975	0.196552	0.195895	0.200004
2114	0.029237	0.199346	0.198853	0.201812
2115	0.026114	0.199346	0.198853	0.199511
2116	0.02447	0.198524	0.200661	0.199018
2117	0.020033	0.199018	0.201812	0.199675
2118	0.021348	0.189485	0.199346	0.199346
2119	0.019704	0.193758	0.199346	0.197867
2120	0.019047	0.196552	0.200332	0.197867
2121	0.021183	0.197703	0.201976	0.202305
2122	0.020362	0.196223	0.201319	0.197374
2123	0.024142	0.196881	0.199018	0.200497
2124	0.018882	0.190964	0.199675	0.202469
2125	0.019868	0.194909	0.196552	0.200497
2126	0.02447	0.198524	0.196552	0.196552
2127	0.01954	0.198853	0.199675	0.200004
2128	0.018225	0.196223	0.199346	0.201483
2129	0.018554	0.192115	0.201319	0.196881
2130	0.016746	0.1908	0.199182	0.202633
2131	0.018882	0.190307	0.200825	0.200004
2132	0.020033	0.124071	0.201812	0.201812
2133	0.022827	0.002282	0.198031	0.203455
2134	0.025785	0.011979	0.196881	0.200497
2135	0.026114	0.021183	0.197867	0.199018
2136	0.020033	0.026114	0.197045	0.201319
2137	0.019704	0.034989	0.198524	0.201483
2138	0.015102	0.044522	0.19836	0.20214
2139	0.013787	0.047973	0.194251	0.20099
2140	0.011979	0.051096	0.198031	0.202305
2141	0.014445	0.05915	0.196552	0.20099
2142	0.01576	0.067861	0.195895	0.201976
2143	0.016088	0.073778	0.194744	0.20099
2144	0.012308	0.081667	0.197374	0.201154
2145	0.017732	0.085118	0.194744	0.199839
2146	0.015595	0.090378	0.195073	0.199182
2147	0.016417	0.09498	0.192936	0.199346
2148	0.021183	0.100239	0.196223	0.201319
2149	0.01428	0.102376	0.193429	0.203455
2150	0.017074	0.107964	0.19458	0.201647
2151	0.018718	0.107964	0.193101	0.20099
2152	0.021676	0.111744	0.191293	0.199675
2153	0.019704	0.114209	0.192936	0.202962
2154	0.021019	0.119633	0.191457	0.199839
2155	0.022498	0.122263	0.189814	0.203126
2156	0.025128	0.124071	0.186855	0.203291
2157	0.023977	0.131302	0.187348	0.20362
2158	0.025128	0.130481	0.184061	0.204606
2159	0.024142	0.135904	0.183732	0.199839
2160	0.026114	0.140013	0.180116	0.201483
2161	0.02595	0.142314	0.182746	0.200004
2162	0.026443	0.147409	0.177651	0.200661
2163	0.031702	0.148889	0.179623	0.199182
2164	0.029072	0.151354	0.179459	0.203291
2165	0.02595	0.153655	0.176501	0.199018
2166	0.0271	0.152176	0.175515	0.203455
2167	0.026114	0.152998	0.173214	0.197703
2168	0.023977	0.155299	0.171406	0.203126
2169	0.024799	0.1576	0.169926	0.199346
2170	0.02447	0.160065	0.168118	0.199182
2171	0.028086	0.159243	0.166968	0.201154
2172	0.022498	0.163681	0.167625	0.201812
2173	0.027265	0.168612	0.163516	0.199839
2174	0.026607	0.166475	0.163023	0.203784
2175	0.028908	0.165653	0.160722	0.206578
2176	0.028579	0.168776	0.163845	0.200332
2177	0.034825	0.169926	0.160558	0.203455
2178	0.032195	0.170584	0.160722	0.201976
2179	0.034003	0.170419	0.1576	0.201483
2180	0.032853	0.17272	0.159079	0.202962
2181	0.035318	0.176336	0.155792	0.201154
2182	0.034496	0.173542	0.155463	0.200332
2183	0.041892	0.175843	0.151683	0.204606
2184	0.041564	0.182417	0.149875	0.201319
2185	0.0437	0.176501	0.148067	0.201483
2186	0.044686	0.177487	0.148067	0.204113
2187	0.048631	0.17798	0.146423	0.203948
2188	0.05274	0.179952	0.144122	0.202962
2189	0.054876	0.182417	0.14478	0.203948
2190	0.0603	0.181103	0.139356	0.201812
2191	0.067532	0.182911	0.139849	0.203455
2192	0.071312	0.184225	0.140013	0.203126
2193	0.0769	0.183897	0.139192	0.20099
2194	0.084132	0.186526	0.136891	0.201483
2195	0.084954	0.190142	0.136562	0.200825
2196	0.092186	0.18554	0.134754	0.201483
2197	0.095801	0.188006	0.133603	0.201483
2198	0.094651	0.184225	0.129495	0.203948
2199	0.105005	0.187841	0.120948	0.202469
2200	0.108293	0.187184	0.101061	0.204113
2201	0.111744	0.185869	0.084954	0.200825
2202	0.114209	0.186855	0.07575	0.201976
2203	0.12177	0.186691	0.070162	0.199839
2204	0.119304	0.188663	0.069833	0.200661
2205	0.129988	0.189485	0.06293	0.201647
2206	0.126043	0.192115	0.065724	0.201154
2207	0.130152	0.188827	0.06293	0.20099
2208	0.136069	0.193429	0.067203	0.199182
2209	0.137219	0.192443	0.059972	0.199839
2210	0.141821	0.192279	0.056356	0.199675
2211	0.142479	0.192443	0.055534	0.200825
2212	0.14478	0.194416	0.053726	0.199675
2213	0.149053	0.194416	0.055534	0.201483
2214	0.155956	0.196552	0.055041	0.199182
2215	0.152833	0.194251	0.053233	0.20099
2216	0.155299	0.193758	0.052082	0.199018
2217	0.155299	0.195895	0.051754	0.199346
2218	0.15875	0.192279	0.049124	0.196717
2219	0.158914	0.196059	0.051096	0.198689
2220	0.160887	0.192608	0.052082	0.198689
2221	0.162202	0.196059	0.046659	0.197867
2222	0.165324	0.195895	0.04633	0.201483
2223	0.164667	0.196223	0.050603	0.199511
2224	0.166311	0.193429	0.045837	0.200332
2225	0.166475	0.197045	0.050274	0.200332
2226	0.171241	0.195073	0.03992	0.200168
2227	0.172556	0.19836	0.014116	0.19836
2228	0.1742	0.196881	0.008363	0.20099
2229	0.174693	0.199675	0.007706	0.199839
2230	0.173707	0.19573	0.014609	0.202798
2231	0.176336	0.195566	0.022827	0.20099
2232	0.175843	0.197045	0.027429	0.20214
2233	0.180774	0.197703	0.028908	0.200825
2234	0.175021	0.196223	0.034332	0.199182
2235	0.173214	0.194909	0.035647	0.199346
2236	0.177651	0.197867	0.040577	0.203455
2237	0.178802	0.196717	0.03992	0.201483
2238	0.178473	0.199346	0.045508	0.197703
2239	0.18554	0.199182	0.046823	0.200497
2240	0.182253	0.19458	0.046823	0.199018
2241	0.183568	0.197703	0.051425	0.199675
2242	0.185047	0.198524	0.059807	0.198196
2243	0.184883	0.195895	0.060629	0.202305
2244	0.186855	0.197703	0.067203	0.197538
2245	0.185705	0.197538	0.073284	0.198196
2246	0.179623	0.197374	0.077722	0.198853
2247	0.18554	0.197374	0.083475	0.196388
2248	0.189649	0.192443	0.085118	0.199839
2249	0.186033	0.198853	0.090213	0.200332
2250	0.188827	0.194744	0.09498	0.200661
2251	0.189814	0.196059	0.101718	0.196881
2252	0.191128	0.196717	0.102047	0.198524
2253	0.1908	0.199346	0.10895	0.197538
2254	0.192936	0.197045	0.109443	0.198689
2255	0.189156	0.201976	0.112894	0.196059
2256	0.192772	0.198689	0.118811	0.198196
2257	0.185869	0.199839	0.122427	0.197374
2258	0.19195	0.199346	0.120948	0.195073
2259	0.193265	0.199839	0.124564	0.197374
2260	0.1908	0.198196	0.128508	0.199346
2261	0.19721	0.199511	0.131631	0.197045
2262	0.192936	0.199346	0.134754	0.199182
2263	0.189156	0.197703	0.136726	0.199675
2264	0.191786	0.198689	0.139192	0.199839
2265	0.192443	0.198689	0.140506	0.199182
2266	0.194087	0.198524	0.146588	0.197045
2267	0.195402	0.198196	0.146423	0.196552
2268	0.185212	0.199018	0.14971	0.197045
2269	0.194909	0.199018	0.150039	0.196388
2270	0.195073	0.200661	0.152669	0.194251
2271	0.195895	0.198524	0.151683	0.196552
2272	0.195237	0.202633	0.1576	0.197867
2273	0.194416	0.198689	0.156778	0.196388
2274	0.19573	0.199346	0.159243	0.196552
2275	0.194251	0.197045	0.16138	0.195237
2276	0.197538	0.201154	0.160394	0.197703
2277	0.196223	0.200661	0.163845	0.199839
2278	0.198689	0.198689	0.166146	0.198031
2279	0.188827	0.199675	0.164174	0.201319
2280	0.194744	0.200661	0.172063	0.19573
2281	0.196059	0.20099	0.169762	0.199511
2282	0.194416	0.198689	0.172885	0.20362
2283	0.192608	0.202305	0.174364	0.199018
2284	0.19721	0.197867	0.172885	0.199182
2285	0.198196	0.200168	0.17798	0.200004
2286	0.199839	0.19836	0.176994	0.199839
2287	0.199675	0.200825	0.176008	0.199675
2288	0.19836	0.201154	0.174693	0.197703
2289	0.199511	0.200497	0.178473	0.193758
2290	0.194251	0.200168	0.180774	0.201319
2291	0.199018	0.201154	0.176829	0.197374
2292	0.197045	0.200168	0.178637	0.196717
2293	0.199182	0.199018	0.181103	0.201812
2294	0.196717	0.200497	0.182746	0.197045
2295	0.199675	0.197374	0.180281	0.199346
2296	0.198031	0.200661	0.182746	0.201976
2297	0.196223	0.196059	0.185212	0.200825
2298	0.197045	0.197538	0.184225	0.197374
2299	0.197374	0.201319	0.185376	0.201647
2300	0.196717	0.196717	0.186362	0.200332
2301	0.201483	0.197538	0.185047	0.200168
2302	0.196717	0.200661	0.18554	0.197867
2303	0.19836	0.199839	0.186526	0.199511
2304	0.199839	0.201976	0.191457	0.19836
2305	0.19836	0.20099	0.187019	0.198689
2306	0.200332	0.200825	0.192115	0.195895
2307	0.198853	0.202469	0.192115	0.20099
2308	0.199346	0.199675	0.192279	0.197538
2309	0.199018	0.200661	0.191128	0.201154
2310	0.202633	0.198524	0.189814	0.201483
2311	0.198524	0.199839	0.191457	0.200661
2312	0.206249	0.197867	0.189814	0.200332
2313	0.194744	0.200004	0.191786	0.199839
2314	0.200332	0.197867	0.190307	0.199511
2315	0.198689	0.20099	0.194087	0.200661
2316	0.195895	0.199511	0.190635	0.20099
2317	0.199675	0.197703	0.1908	0.19721
2318	0.200004	0.20099	0.19195	0.201483
2319	0.193922	0.199675	0.194416	0.199511
2320	0.201812	0.199839	0.192772	0.199182
2321	0.201319	0.200661	0.194251	0.197374
2322	0.198853	0.200497	0.192936	0.200004
2323	0.206578	0.200497	0.193429	0.198196
2324	0.197703	0.202305	0.195402	0.199675
2325	0.200497	0.199839	0.193594	0.197538
2326	0.199839	0.201976	0.19573	0.19721
2327	0.20099	0.198853	0.194087	0.196552
2328	0.197867	0.195237	0.195073	0.198853
2329	0.199511	0.198031	0.191128	0.203126
2330	0.195895	0.194909	0.196881	0.20099
2331	0.197703	0.193594	0.191293	0.198524
2332	0.20099	0.200661	0.194251	0.204277
2333	0.200497	0.196059	0.196388	0.199675
2334	0.205592	0.197538	0.195895	0.19836
2335	0.19836	0.200332	0.194744	0.201647
2336	0.196881	0.200168	0.198031	0.197867
2337	0.199675	0.200332	0.19458	0.200004
2338	0.200332	0.202633	0.197045	0.198689
2339	0.199182	0.200168	0.19573	0.197867
2340	0.201812	0.201976	0.196223	0.200332
2341	0.198689	0.201976	0.200661	0.20214
2342	0.201154	0.199675	0.194416	0.197867
2343	0.199839	0.200168	0.19721	0.199182
2344	0.201976	0.19836	0.197538	0.199018
2345	0.203126	0.199675	0.199675	0.200825
2346	0.197374	0.199511	0.199018	0.200332
2347	0.193594	0.200825	0.197374	0.199839
2348	0.197045	0.198031	0.196552	0.197538
2349	0.197538	0.197045	0.197703	0.197703
2350	0.198196	0.19721	0.19458	0.200168
2351	0.198853	0.19458	0.197867	0.199675
2352	0.19836	0.196059	0.199182	0.202798
2353	0.201154	0.195237	0.196223	0.199182
2354	0.202305	0.199018	0.198524	0.012637
2355	0.202469	0.201812	0.197867	0.012308
2356	0.205756	0.200332	0.195402	0.021841
2357	0.201812	0.202305	0.197374	0.026443
2358	0.199182	0.201154	0.197374	0.036633
2359	0.201812	0.199675	0.197703	0.043043
2360	0.200661	0.20362	0.199346	0.051754
2361	0.197867	0.198853	0.197867	0.056191
2362	0.196717	0.200825	0.200332	0.063587
2363	0.198031	0.198853	0.195566	0.072134
2364	0.199182	0.201483	0.19836	0.074271
2365	0.202962	0.198689	0.19573	0.081338
2366	0.201647	0.199839	0.197867	0.08594
2367	0.204277	0.199018	0.196223	0.093007
2368	0.199346	0.200497	0.20099	0.092843
2369	0.201812	0.201647	0.198196	0.097609
2370	0.199839	0.199018	0.20099	0.103691
2371	0.199675	0.201647	0.200004	0.109114
2372	0.202305	0.199346	0.201154	0.110758
2373	0.199018	0.201319	0.199346	0.115195
2374	0.200497	0.197374	0.196552	0.120126
2375	0.201647	0.201647	0.199675	0.124071
2376	0.204113	0.20099	0.19721	0.125386
2377	0.197538	0.202962	0.200004	0.128673
2378	0.20362	0.199182	0.197538	0.133603
2379	0.197538	0.203948	0.20099	0.13311
2380	0.198524	0.203126	0.198031	0.139027
2381	0.199182	0.200168	0.198031	0.139192
2382	0.200168	0.200168	0.196881	0.140013
2383	0.198689	0.198031	0.200168	0.145437
2384	0.198853	0.199839	0.198031	0.150861
2385	0.199511	0.19836	0.197045	0.151683
2386	0.202962	0.197867	0.192936	0.15234
2387	0.203455	0.201483	0.197374	0.15234
2388	0.202305	0.202633	0.200168	0.157928
2389	0.20362	0.199182	0.200825	0.157271
2390	0.199182	0.201154	0.196223	0.156613
2391	0.202469	0.199839	0.196059	0.161051
2392	0.200332	0.201483	0.202305	0.161709
2393	0.20099	0.201154	0.19573	0.162695
2394	0.199839	0.201647	0.201976	0.164831
2395	0.198196	0.200661	0.200332	0.170091
2396	0.19836	0.20099	0.199839	0.168118
2397	0.196552	0.195073	0.200004	0.171241
2398	0.196552	0.19573	0.197703	0.170255
2399	0.19836	0.197703	0.198689	0.169598
2400	0.201483	0.197703	0.200661	0.171241
2401	0.195895	0.19458	0.198524	0.17157
2402	0.197374	0.201812	0.197374	0.172063
2403	0.198031	0.201812	0.200004	0.176501
2404	0.200168	0.201319	0.198853	0.175843
2405	0.200497	0.201483	0.200497	0.176336
2406	0.204113	0.201154	0.199839	0.179788
2407	0.201319	0.198853	0.19836	0.180938
2408	0.202633	0.198524	0.199675	0.182417
2409	0.199511	0.201319	0.200661	0.179952
2410	0.201319	0.200004	0.199346	0.184225
2411	0.207071	0.19836	0.201812	0.177322
2412	0.199182	0.202798	0.198689	0.183239
2413	0.200168	0.20099	0.198689	0.181431
2414	0.198196	0.201154	0.200825	0.18439
2415	0.196717	0.201976	0.199675	0.184225
2416	0.200497	0.200497	0.199182	0.185047
2417	0.198031	0.200497	0.198524	0.183568
2418	0.199839	0.200825	0.202305	0.185047
2419	0.201812	0.198031	0.195073	0.183897
2420	0.199346	0.201154	0.199182	0.186033
2421	0.199346	0.197703	0.199675	0.186198
2422	0.201319	0.199182	0.198689	0.189485
2423	0.199839	0.199346	0.19836	0.188992
2424	0.200004	0.200497	0.198689	0.188827
2425	0.200004	0.198196	0.198524	0.191128
2426	0.199839	0.200332	0.200168	0.190142
2427	0.19836	0.198031	0.200004	0.192279
2428	0.198524	0.201319	0.196717	0.193429
2429	0.199182	0.194909	0.197374	0.194087
2430	0.199675	0.202633	0.200168	0.191128
2431	0.198853	0.204277	0.199346	0.191128
2432	0.196717	0.200661	0.199018	0.191128
2433	0.201647	0.19836	0.198031	0.193265
2434	0.195402	0.201647	0.198031	0.192608
2435	0.193265	0.199839	0.197374	0.192936
2436	0.199839	0.201647	0.19721	0.193922
2437	0.199675	0.20099	0.197703	0.19573
2438	0.195237	0.198031	0.197703	0.196552
2439	0.198196	0.199346	0.193429	0.197703
2440	0.197374	0.197374	0.192279	0.195895
2441	0.200332	0.199182	0.199675	0.194251
2442	0.200004	0.199839	0.198524	0.198031
2443	0.200168	0.200497	0.197374	0.196881
2444	0.200004	0.198524	0.198524	0.197867
2445	0.196059	0.201647	0.199511	0.19573
2446	0.196059	0.201154	0.19836	0.198196
2447	0.198853	0.199018	0.200332	0.194251
2448	0.198689	0.206249	0.201319	0.200825
2449	0.19836	0.200825	0.200004	0.196552
2450	0.198031	0.198689	0.193265	0.197374
2451	0.19836	0.200168	0.195073	0.196059
2452	0.199018	0.199675	0.200661	0.197538
2453	0.201154	0.195895	0.197867	0.197538
2454	0.199346	0.19836	0.199511	0.196059
2455	0.200168	0.193922	0.19836	0.197703
2456	0.198689	0.199018	0.199018	0.196717
2457	0.19721	0.200332	0.198031	0.199018
2458	0.200332	0.199018	0.200004	0.197045
2459	0.197374	0.200825	0.200168	0.198853
2460	0.198196	0.198524	0.199675	0.197867
2461	0.198689	0.199839	0.194251	0.196552
2462	0.200497	0.200661	0.199182	0.199182
2463	0.200168	0.200332	0.198689	0.199018
2464	0.199675	0.200825	0.199182	0.19573
2465	0.197867	0.200825	0.199839	0.198689
2466	0.197703	0.197374	0.19836	0.194909
2467	0.19721	0.203291	0.20099	0.192936
2468	0.199346	0.197867	0.196388	0.197538
2469	0.197374	0.201319	0.200332	0.193265
2470	0.20099	0.202305	0.197867	0.195073
2471	0.197703	0.196881	0.19721	0.196388
2472	0.198196	0.199346	0.19836	0.19836
2473	0.198031	0.199182	0.198031	0.200004
2474	0.200497	0.198031	0.197867	0.200825
2475	0.19836	0.200168	0.195895	0.198524
2476	0.199675	0.201483	0.196881	0.201647
2477	0.200004	0.197867	0.199839	0.199839
2478	0.198196	0.200497	0.200168	0.200332
2479	0.198853	0.199839	0.200168	0.199839
2480	0.198853	0.199182	0.199675	0.200332
2481	0.198196	0.19836	0.199346	0.198524
2482	0.192936	0.199511	0.20214	0.201812
2483	0.202305	0.197374	0.202305	0.197045
2484	0.199346	0.200168	0.198689	0.199018
2485	0.199182	0.201812	0.199675	0.200661
2486	0.201976	0.199346	0.200004	0.198196
2487	0.198031	0.197867	0.198031	0.199839
2488	0.199018	0.19721	0.199018	0.19836
2489	0.197045	0.199182	0.19836	0.200497
2490	0.197867	0.199511	0.19721	0.200168
2491	0.202633	0.19836	0.198689	0.198524
2492	0.200497	0.200497	0.197374	0.199346
2493	0.198689	0.198524	0.200825	0.202962
2494	0.201154	0.198524	0.203291	0.197374
2495	0.198853	0.200661	0.197703	0.202798
2496	0.198196	0.199839	0.199346	0.201976
2497	0.19836	0.202633	0.20099	0.199346
2498	0.201483	0.196881	0.195402	0.199018
2499	0.201154	0.197867	0.200004	0.200497
