Ladekurvenmessung
Zeit: 2018_05_04 09.04.56
Info: FVA3, v = 1.05, T = 23, F = 20, h = 518.2
Ladewiderstand[Ohm]: 1012700
Störkapazität[pF]: 0.000000
Entladezeit[ms]: 200
Abtastrate[Hz]: 250000
Anzahl der Messwerte: 2500.000000
Verzögerung[ms]: 3
Ladespannung[V]: 0.200000
	Kurve_1	Kurve_2	Kurve_3	Kurve_4	Kurve_5	Kurve_6
0	0.001625	0.000474	-0.002648	-0.00347	-1.9e-05	0.000639
1	0.002282	0.000474	-0.000512	0.000967	0.001132	-0.000347
2	-1.9e-05	0.001789	-0.000841	-0.000347	0.001789	0.004912
3	-0.000841	-0.001005	-1.9e-05	-0.001169	0.001296	0.001954
4	0.000474	-0.000347	-0.002484	-0.004456	0.001625	0.005898
5	0.000146	0.005405	-0.000347	-0.000676	-0.000512	0.003761
6	-0.000512	0.003761	-0.001827	0.000639	0.00294	0.005076
7	0.000474	0.001954	-0.000841	-0.001662	0.000639	-0.000183
8	-0.000512	-0.000347	-0.002813	-0.001169	0.000967	0.001954
9	-0.002484	0.001954	-0.002155	0.001132	0.002447	0.002118
10	0.000474	0.000639	-0.004949	-0.000676	0.005405	-0.002813
11	-0.002155	0.002447	-0.003142	0.002282	0.004583	0.004912
12	-0.001662	-0.000676	-0.001991	0.002282	0.001625	-0.003142
13	-0.003142	0.000639	-0.00232	-0.000676	0.000639	0.001625
14	-0.002155	0.000639	-0.002484	0.001789	0.000474	0.001954
15	-0.001498	0.001132	0.000803	-0.000676	0.000639	-0.001005
16	0.001132	0.002775	-0.002648	0.001132	-0.000183	0.003104
17	-0.001498	0.002611	-0.002155	0.001296	0.001296	0.003268
18	0.001296	0.000474	-0.003142	0.002282	-0.001005	0.001132
19	-0.000347	0.000474	-0.004456	-0.001662	0.001789	0.003104
20	-0.000512	-0.001005	-0.00232	-0.000841	0.003433	0.000474
21	-0.00347	-1.9e-05	-0.004128	-0.003306	0.003268	0.003104
22	-0.002648	-0.001005	-0.001991	-0.00347	0.000967	0.00146
23	-0.000512	-0.002977	-0.004456	0.000146	-0.000841	0.001296
24	-0.003306	-0.001662	-0.001662	-0.001169	-0.002155	0.00031
25	-0.000676	-0.001991	-0.003799	0.000146	0.001296	0.001625
26	-0.002648	0.000474	-0.000841	0.000639	0.001625	0.00031
27	-0.003142	0.000474	0.000803	0.000967	-0.00347	-0.000183
28	-0.006922	0.001789	-0.000841	-1.9e-05	0.001296	-0.002155
29	0.00031	0.00031	-0.001334	0.002611	-0.001991	-0.002977
30	-0.003306	0.000639	-0.002484	-0.000183	-0.003963	0.000967
31	-0.001827	0.002775	-0.001169	0.001625	-0.000512	-0.001169
32	-0.001169	0.001625	-0.001827	-0.001662	0.004419	0.003104
33	0.000967	0.000967	-0.003799	0.001132	-0.002155	0.001954
34	-0.000841	0.002447	-0.002648	-0.000347	0.00294	0.003433
35	-1.9e-05	-0.002977	-0.001334	-0.000183	-0.000347	-0.001334
36	-0.000347	-0.001498	0.000474	-0.000512	0.00146	0.005405
37	0.003268	-0.001827	0.000967	-0.000676	-0.000347	0.001625
38	0.000803	-0.001334	-0.001005	-0.00347	-0.001334	0.003433
39	-0.004128	0.001296	-1.9e-05	-0.00347	0.000639	0.005734
40	0.002118	-0.001498	-0.001498	-0.001827	0.000639	0.00146
41	-0.000841	0.001296	-0.001334	-0.004785	-0.001169	0.001132
42	-0.001169	-0.000347	-0.004456	0.001789	-0.001005	0.000146
43	-0.001169	-1.9e-05	-0.000183	-0.000512	-0.002813	0.000803
44	0.000967	-0.000512	-0.001334	0.001954	-0.003963	-0.000841
45	-0.002813	-0.000512	0.00146	-0.001005	0.000474	-0.000347
46	0.000967	-0.001662	-0.000841	0.001296	-0.001991	-0.001498
47	-0.000347	-0.000512	-0.002813	-0.000347	-0.002484	0.000803
48	0.00031	0.00031	0.001132	0.002447	-0.003306	0.000474
49	-1.9e-05	0.001132	0.001789	-0.001498	0.000967	0.00294
50	-1.9e-05	0.00146	0.000803	0.000639	-1.9e-05	0.004255
51	-0.000841	-0.000512	0.000639	-0.000512	0.001789	0.003761
52	-0.001005	0.001789	0.000474	-0.001334	-0.000676	0.002118
53	-0.000347	0.000639	-0.000676	-0.001662	0.002118	0.004255
54	-0.000841	0.003761	-0.000676	0.000146	0.001789	0.000967
55	0.003597	-0.001991	-0.001991	-0.002813	-1.9e-05	-0.000183
56	-0.003635	-0.000676	0.001296	0.001132	-0.000347	0.000967
57	0.00146	-0.004292	-1.9e-05	-0.00347	0.001296	0.000803
58	-0.001662	-0.001498	-0.000841	-0.003306	-0.004621	-0.000512
59	0.000146	-0.001005	0.000474	-0.002484	-0.003142	0.000146
60	0.00146	-0.000347	0.000474	-0.001662	-0.001169	0.000639
61	-0.00232	0.001954	-0.000512	0.000803	-0.001662	0.001954
62	-0.003142	-1.9e-05	0.000639	-0.000676	0.001954	-1.9e-05
63	-1.9e-05	-0.001662	-0.000347	0.00031	0.000146	-0.001991
64	-0.00347	-0.000841	-0.001662	-0.000841	0.001132	-0.000841
65	-0.000676	-0.001334	0.000803	0.00031	0.001625	0.002447
66	-0.000347	-0.001991	-0.000183	0.000474	-0.000512	-0.000841
67	-0.003635	0.000803	0.00146	-0.000841	-0.001498	0.001132
68	0.000146	0.001954	-0.001169	-0.000676	-1.9e-05	0.001296
69	-0.001662	0.00031	-0.000841	0.000474	-0.000512	-0.001005
70	-0.001334	-0.001662	0.001132	0.00031	0.000474	0.001296
71	-0.005936	-0.000347	0.002611	0.001789	0.000146	0.004255
72	-0.00347	-0.000183	-0.005771	0.002611	-0.001169	0.001954
73	-0.000183	-1.9e-05	0.00294	0.00031	-1.9e-05	0.00146
74	-0.000512	-0.002484	-0.001334	0.000146	0.000803	-0.000183
75	-0.001334	-0.00232	0.000803	-0.001498	-0.000676	-1.9e-05
76	-0.000841	-0.001005	0.000474	0.00146	-0.001169	0.000146
77	-0.002813	-0.001169	-0.00232	-0.003799	-0.00347	0.00031
78	-0.000512	-0.000841	0.001132	-0.001169	-0.001991	0.000146
79	-0.007086	0.001132	0.002118	-0.001498	-0.003635	-0.000183
80	-0.002155	-0.001334	-0.000841	0.000146	0.001954	-0.003142
81	-0.004621	-0.003799	0.001789	0.00031	0.000803	0.000146
82	-0.004292	-0.001334	0.001132	-0.000347	-0.001005	-0.004128
83	-0.002813	-1.9e-05	-1.9e-05	0.001954	0.000967	-0.001005
84	-0.001334	0.000146	0.002282	0.000967	-0.006757	-0.000512
85	0.000146	0.002118	-0.001662	0.000967	0.003104	0.000803
86	-0.001991	-0.000676	-0.000841	-0.000512	-0.001991	-0.000183
87	-0.001498	-0.001991	-0.000512	-0.000841	0.00146	0.003433
88	0.002282	0.00031	0.000639	-0.00347	-0.000841	-0.001169
89	0.000146	-0.001334	-0.000512	-0.002484	-1.9e-05	-1.9e-05
90	-0.000841	-0.000676	0.000146	-0.002484	-0.000841	0.000803
91	0.000639	0.00146	-0.001005	-1.9e-05	-0.005114	-0.00232
92	-0.000841	-0.000183	0.000967	-0.002813	-0.003799	-0.000512
93	-0.000347	0.00146	0.003268	0.001132	-0.003635	0.001296
94	-0.000512	0.001789	0.002282	-0.00347	-0.001334	0.000474
95	0.00031	-0.000676	0.001296	-0.000183	-0.004292	-0.001005
96	-0.001169	-0.001005	0.000803	-0.003142	-0.000841	0.001625
97	0.001789	-0.000841	-0.001005	0.000146	-0.001498	-0.003142
98	0.001954	0.000803	0.000803	-0.001827	0.000967	0.00031
99	-0.004128	-0.001498	0.002447	0.000967	-0.000512	0.001296
100	-0.002155	-0.002977	-0.001662	-0.000347	0.001625	-0.000841
101	-0.002484	-0.001498	-0.000676	-0.001498	-0.000512	-0.000676
102	-0.000512	-0.002484	-0.00232	0.000639	0.000474	0.000639
103	-0.001991	0.00146	-0.00232	-0.001334	-0.000512	0.000639
104	-0.001991	-0.000841	-0.002155	0.000967	0.000639	0.002775
105	-0.002484	0.000639	-0.001827	-0.001169	0.00146	0.004419
106	0.000146	-0.001498	0.00031	-0.002813	-0.000512	0.000803
107	-0.001498	0.001625	-0.000512	-0.000676	0.003268	0.002611
108	0.002118	0.003433	-0.004128	-0.001169	0.003433	0.00031
109	0.00146	0.003597	-0.000512	0.001789	0.001132	0.001296
110	0.000146	-0.000183	-0.000512	-0.002977	-0.001498	-0.001334
111	0.000803	-0.000512	-0.001827	-0.00232	-0.002155	0.000474
112	-0.000676	-0.000841	-0.00232	-0.001991	-0.003142	-0.001334
113	-0.001498	-0.001498	-0.002484	-0.002484	-0.002155	-1.9e-05
114	-0.000841	-0.001005	-0.000676	0.000146	-0.002155	-0.001827
115	-0.001169	-0.001005	-0.00232	-0.002155	-0.001334	0.000803
116	-0.005114	-0.000676	-0.001827	0.003268	-0.001498	0.001132
117	0.001132	-0.001169	-0.005607	0.000639	0.000803	-0.000676
118	-0.001498	-0.000676	-0.003635	-0.001169	0.00031	-0.000676
119	-0.000676	-0.001827	-0.004292	0.000146	0.00031	0.003433
120	-0.005771	0.000474	-0.005278	-0.000512	0.001625	0.001132
121	-0.002484	-0.00232	-0.008072	0.000639	-0.001005	0.000474
122	-0.000841	-0.001991	-0.004621	0.000803	0.00031	0.002282
123	0.000146	-0.004785	-0.005278	0.002775	-0.001005	-0.000841
124	-0.000676	-0.001662	-0.002484	0.000803	-0.000512	0.002118
125	0.000146	-0.001334	-0.002155	-0.000183	-0.000183	0.000803
126	-0.000841	0.00031	-0.004128	-0.001662	-0.00232	0.00146
127	-0.002484	0.002611	-0.003306	-0.000183	-0.000347	-0.001334
128	-0.000512	0.000146	-0.004785	-0.001169	0.000474	0.001954
129	-0.003142	0.000146	-0.001169	-0.000841	0.00031	0.000474
130	-0.00232	-0.001498	-0.004785	-0.001662	0.001789	0.000967
131	-0.004949	0.00146	-0.001334	-0.001005	0.001296	0.001132
132	-0.005114	-0.003142	-0.003142	0.001132	-1.9e-05	-0.001334
133	-0.003306	-0.001991	-0.003142	-1.9e-05	0.000967	-0.005443
134	-0.000347	-0.002813	-0.005771	0.001625	-0.000183	-0.002813
135	-0.002813	-0.000841	-0.003963	0.000474	0.003268	-0.001662
136	-0.002813	0.002118	-0.003635	0.000803	-0.000347	-0.005114
137	-0.005936	0.001789	-0.004621	-0.003142	0.000967	0.000967
138	-0.001827	0.000639	-0.005771	0.00146	-0.000676	0.002775
139	-0.000183	0.001625	-0.002155	0.00146	0.000803	0.001296
140	-0.000512	0.001132	-0.005771	0.000967	-0.004456	0.000146
141	-0.000183	-0.000183	-0.002813	-0.000183	-0.001005	0.002611
142	0.001132	0.000803	-0.001991	-1.9e-05	-0.000347	0.000803
143	-0.001662	0.00031	-0.001991	-0.004456	-0.001334	0.002118
144	-0.000841	0.000146	-0.002813	-0.004292	-0.002648	-0.000183
145	-0.001334	-0.002648	-0.006593	-0.002977	-0.001827	-0.000676
146	-0.002155	-0.000841	-0.002648	0.000474	-0.003142	-0.001334
147	-1.9e-05	0.000803	-0.004456	-0.001005	0.000639	0.002611
148	-0.003799	0.003433	-0.009387	-0.00232	-0.002155	0.00146
149	-0.004621	-0.00232	-0.004949	0.002611	-0.000347	-0.001498
150	-0.005443	0.000146	-0.011524	-0.000512	0.000639	-0.004456
151	-0.001334	-0.001827	-0.010045	0.000146	-1.9e-05	-0.001991
152	-0.004785	-0.001005	-0.008565	-0.001827	0.001296	-1.9e-05
153	-0.001991	-0.003635	-0.009716	0.002447	0.00146	0.00146
154	-0.004949	-0.003963	-0.00873	-0.000183	0.000146	0.002118
155	-0.001827	-0.000183	-0.00873	0.000474	-0.000512	-0.002155
156	-0.002155	-0.002155	-0.008237	-0.001662	0.000146	-0.001005
157	-0.003142	-0.002648	-0.008565	-0.001498	-0.002155	0.000474
158	-0.003142	0.000146	-0.006593	-0.002155	-0.000183	-1.9e-05
159	-0.001498	-0.001169	-0.007086	-0.00347	-0.002977	0.000639
160	-0.001334	-0.000183	-0.007908	-0.003142	-0.001334	0.002118
161	-0.000841	-0.000183	-0.004292	-0.000183	-0.000183	-1.9e-05
162	0.001132	-0.002484	-0.008894	-0.003306	-0.002484	0.00031
163	-0.002648	-0.000676	-0.010045	-0.001334	-0.004128	-0.000841
164	-0.004128	-0.002813	-0.008401	-0.000183	0.000803	0.00146
165	-0.004128	-0.000841	-0.00725	0.000146	-0.001991	-0.001662
166	-0.003635	-0.001498	-0.009387	0.002775	-0.002155	-0.000347
167	-0.001827	-0.001005	-0.009387	0.004255	-0.000347	-0.001827
168	-0.003142	-0.002484	-0.011195	0.002118	-0.000183	-0.003306
169	-0.005114	-0.003306	-0.009716	0.001625	-1.9e-05	0.000639
170	-0.001498	-0.003799	-0.011195	0.002611	-0.000841	-0.000183
171	-0.004128	-0.001498	-0.011688	0.000967	-0.000676	0.000474
172	0.001789	-0.003142	-0.008894	0.001296	0.00031	-0.001169
173	-0.00232	-0.001662	-0.014975	0.001954	0.002118	-0.000347
174	-0.000676	-0.001991	-0.009716	0.002775	-0.001005	-0.00232
175	-0.00347	-1.9e-05	-0.01251	-0.000183	0.003597	0.000803
176	-0.005771	-0.001005	-0.00988	0.001625	-0.001991	-0.001498
177	-0.00232	-0.001662	-0.012839	0.000146	-0.000347	-0.000841
178	-0.002155	-0.001005	-0.010702	0.001296	-0.000512	-0.006757
179	-0.003142	-0.001991	-0.012674	0.000967	0.00146	-0.001334
180	-0.005278	0.00031	-0.010866	-0.000512	-0.001991	-0.003963
181	-0.002648	0.001132	-0.009223	0.000474	-0.002648	-0.002977
182	-0.00347	0.001296	-0.011195	0.001296	0.00146	0.001625
183	-0.001498	-0.000347	-0.011195	0.003104	-0.001005	-0.000183
184	-0.003306	-0.001827	-0.013825	0.001132	-0.001662	-0.001334
185	-0.001169	0.00031	-0.012346	0.004419	0.000146	-0.00232
186	-0.009058	0.00031	-0.014318	-0.000512	0.000803	0.000474
187	-0.00347	-0.000841	-0.013167	0.000967	-0.001662	-0.003635
188	-0.006264	-0.001498	-0.013332	0.002775	-0.001498	-0.002813
189	-0.002813	-0.000841	-0.014153	0.004912	-0.001991	-0.003306
190	-0.00232	-0.000676	-0.019084	0.002118	-0.000676	-0.001169
191	-0.002813	-0.001169	-0.012017	0.002611	-0.002484	-0.002155
192	-0.001334	0.000146	-0.011852	0.001625	-0.000512	0.000639
193	-0.003306	0.000474	-0.010373	0.003433	-0.001991	-0.001169
194	-0.002155	-0.001827	-0.013496	0.003761	-0.001827	-0.000347
195	-0.002977	-0.000183	-0.015468	0.003761	-1.9e-05	-0.000347
196	0.000146	-0.000841	-0.014975	0.005241	-0.001498	0.001132
197	-0.012839	-1.9e-05	-0.015304	0.002118	0.000639	0.004583
198	-0.004785	-0.001498	-0.015468	0.00294	-0.002155	-0.004456
199	-0.005278	-0.001005	-0.019906	0.00146	-1.9e-05	-0.002648
200	-0.004128	-0.001498	-0.016948	0.004419	-1.9e-05	-0.001498
201	-0.003306	-0.000183	-0.017934	0.003433	0.00031	-0.000676
202	-0.002977	-0.004949	-0.018591	0.002282	-0.000841	-0.003799
203	-1.9e-05	-0.004128	-0.019577	0.000146	-0.000347	-1.9e-05
204	-0.003799	-0.003635	-0.020235	0.002282	-0.000347	-0.005443
205	-0.004128	0.000146	-0.021056	0.00031	0.000803	-0.001334
206	-0.001827	-0.001991	-0.021056	0.002447	0.00146	-0.00347
207	-0.002977	-0.00232	-0.024508	0.003597	0.001625	-0.000512
208	-0.015633	-0.002977	-0.021878	-0.001169	0.000639	-0.001334
209	-0.00347	-0.002484	-0.024837	0.002118	0.000639	0.001132
210	-0.002813	-0.001498	-0.024508	0.001954	0.000967	-0.001334
211	-0.004128	-0.003142	-0.024179	0.002611	-0.000676	-0.000183
212	-0.003963	-0.001334	-0.026316	0.00146	0.003268	-0.00232
213	-0.001169	-0.002813	-0.02648	0.001296	-0.00232	-0.000841
214	-0.003963	0.002118	-0.024837	0.000146	-0.001662	0.001296
215	-0.00232	-0.001005	-0.028453	0.004748	0.00146	0.001296
216	-0.001991	-0.001005	-0.027302	0.000474	0.000967	-0.000183
217	-0.001827	-0.000676	-0.030589	0.00146	-0.000512	-0.001662
218	-1.9e-05	-0.00232	-0.033548	0.00146	0.000474	-0.001334
219	-0.010045	-0.002977	-0.031904	0.003268	0.000146	-0.000512
220	-0.001334	-0.003306	-0.03667	0.000803	-0.000183	-0.001827
221	-0.001662	-0.002813	-0.031247	-0.000841	-0.001662	-0.002484
222	-0.001498	-0.001827	-0.036177	0.001132	-0.000676	-0.001005
223	-0.001498	-0.004456	-0.036835	-0.000676	-1.9e-05	-0.003142
224	-0.00232	-0.00347	-0.035356	0.001132	-0.000347	-0.001005
225	-0.003306	0.000146	-0.033548	-1.9e-05	0.000803	-0.000183
226	-0.002648	-0.000512	-0.037163	0.001789	0.001954	0.00294
227	-0.005278	-0.000841	-0.036506	-0.000347	0.000474	-0.001662
228	-0.002484	-0.001169	-0.040451	0.002775	0.000639	-0.001827
229	-0.003306	-0.000183	-0.038971	0.00031	0.000474	-0.000512
230	-0.002813	-0.003799	-0.039793	-0.000676	-0.001005	0.000803
231	-0.005278	-0.001334	-0.038807	0.000146	-0.000183	-0.004456
232	-1.9e-05	-0.002155	-0.039958	0.001296	-0.001827	-0.001169
233	-0.002155	0.00031	-0.040451	-0.001169	-0.001827	0.002447
234	-0.001005	-0.00232	-0.043409	0.001625	-0.000183	-0.000183
235	-0.000676	-0.005278	-0.041272	-0.000841	-0.002648	-0.000676
236	0.000639	-0.001334	-0.040615	-0.000183	-0.003306	-0.001005
237	-0.001498	-0.001334	-0.042752	0.002282	-0.001498	0.00146
238	-0.001991	-0.001334	-0.042258	0.000639	-0.000512	-0.001169
239	-0.00232	-0.001334	-0.04571	0.000474	-0.001005	-0.000347
240	-0.001662	0.000146	-0.044559	-0.000183	0.000639	-0.000183
241	0.003104	-0.001169	-0.047354	-0.001827	0.001132	0.00031
242	-0.003635	-0.001005	-0.043409	-0.001005	0.000146	-0.002155
243	-0.001334	-0.002977	-0.046367	-0.001827	-0.001334	-0.001334
244	-0.004128	-0.000841	-0.04686	-0.001498	-0.002977	0.002775
245	-0.002484	-0.002484	-0.050148	0.002118	-0.000347	-0.000183
246	-0.003963	-0.000676	-0.045546	-0.003635	-0.001005	-0.000676
247	0.00031	-0.000347	-0.04834	-0.001991	0.000474	-0.001991
248	-0.003635	0.003268	-0.047025	-0.00232	0.001296	0.003104
249	0.000146	-0.001827	-0.047025	0.000803	-0.000676	-0.001169
250	-0.00347	0.000474	-0.047518	-0.002977	0.001132	0.001789
251	0.000803	0.000474	-0.047682	-0.000841	-0.001169	-0.000347
252	0.007542	-0.002648	-0.051956	-0.005114	0.002118	0.000639
253	-0.002648	-0.001991	-0.051462	-0.002813	-0.002977	-0.001005
254	-0.000676	-0.002155	-0.049983	-0.004292	0.00146	-0.001662
255	-0.000841	-0.003306	-0.049819	-0.005278	-1.9e-05	-0.003142
256	-0.000183	-0.002648	-0.055243	-0.00347	-0.003799	0.004255
257	-0.001498	-0.00232	-0.051627	-0.002813	0.001625	-0.000512
258	-0.002155	-0.001498	-0.05327	-0.005607	-0.000512	-0.002813
259	-0.007415	0.002611	-0.051134	-0.002648	0.000639	0.003268
260	-0.000183	0.00031	-0.05327	-0.001827	0.00146	-0.001169
261	-0.004456	-0.001334	-0.051298	-0.00347	0.00146	0.000474
262	-0.003142	-0.004456	-0.052777	-0.001169	0.003268	0.000146
263	0.003104	-0.000347	-0.054257	-0.005114	0.004748	0.003104
264	-0.003963	-0.000841	-0.052449	-0.001991	0.000146	-0.000841
265	-0.002484	-0.001334	-0.051956	-0.001498	0.000803	-0.000841
266	-0.002813	0.000146	-0.051462	-0.003635	-0.000183	-0.001498
267	-0.000512	-0.004949	-0.053599	-0.005936	0.00031	-0.000512
268	-0.000841	-0.001991	-0.053106	-0.001334	-0.002155	-0.002155
269	-0.002155	0.001132	-0.055736	-0.006264	-0.001334	-0.002977
270	-0.001991	0.00031	-0.051791	-0.004621	-0.001991	0.00031
271	-0.001662	-0.003306	-0.049655	-0.000841	-0.000512	0.000474
272	-0.001662	-0.002484	-0.05212	-0.006922	-0.00232	-0.001662
273	-0.001827	-0.004128	-0.048833	-0.004621	-0.000512	-0.000841
274	0.001789	-0.001827	-0.04571	-0.005278	0.00146	0.000639
275	-0.003799	-0.006922	-0.048011	-0.004128	-0.00232	-0.004128
276	-0.004621	-0.001827	-0.042587	-0.001662	-0.001005	-0.001498
277	-0.004128	-0.003963	-0.044231	-0.001991	-0.000347	-0.000841
278	-0.003306	-0.002813	-0.045053	-0.000841	-0.000183	-0.002155
279	-0.002648	-0.000512	-0.039136	-0.001991	-0.003635	-0.002813
280	-0.004785	-0.001827	-0.036342	-0.004128	-0.001334	-0.00232
281	-0.004949	0.000967	-0.03289	-0.001827	-0.001169	-1.9e-05
282	-0.000841	-0.001169	-0.028288	-0.002484	0.00146	-0.002648
283	-0.000183	-1.9e-05	-0.027959	-0.000512	-0.001827	-0.00232
284	0.000146	0.000146	-0.025987	-0.004785	0.00031	0.002611
285	0.000146	0.00031	-0.021385	-0.003963	0.000639	-0.000183
286	-0.000841	-0.005114	-0.02007	-0.004456	0.002775	0.000967
287	0.003761	-0.002977	-0.014318	-0.001827	-0.000183	0.001625
288	0.004583	-0.001169	-0.013496	-0.001169	-0.001498	-0.000676
289	-0.001005	-0.00347	-0.009551	-0.004128	-0.000841	0.000146
290	0.001132	-0.000183	-0.00873	-0.002155	-0.001662	-0.001662
291	-0.001334	0.000146	-0.003635	-0.003142	-0.003799	-0.003142
292	-0.001662	-0.000183	-0.000183	-0.004128	-0.001005	-1.9e-05
293	-0.001498	0.00146	0.005405	-0.002813	0.000639	-0.000512
294	-0.001169	-0.002155	0.000146	-0.000512	-0.002977	-0.002648
295	-0.002155	-0.002155	0.003761	-0.004949	-0.001827	-0.001334
296	-0.000347	0.000474	0.007706	-0.003799	-1.9e-05	0.002447
297	-0.002155	-0.001827	0.009514	-0.002648	0.000146	0.00146
298	0.000146	0.00031	0.015102	-0.000183	0.001296	-0.002977
299	-0.001005	0.00031	0.016417	-0.001005	0.000967	0.002118
300	0.002447	-0.000676	0.01576	-0.001498	-0.001334	-0.000841
301	0.003926	-0.002155	0.017074	-0.003142	-1.9e-05	0.000803
302	0.000967	0.003761	0.018718	-0.003635	-0.000183	-0.001005
303	0.001625	0.003926	0.018061	-0.001662	-0.002648	0.002118
304	0.001296	0.000639	0.023484	-0.000676	-0.001169	-0.002648
305	0.002447	-0.001827	0.019868	-0.004456	-0.001991	-0.001005
306	0.000639	-0.000183	0.021512	-0.004621	-0.005114	0.002447
307	0.003268	-0.000512	0.022169	-0.00347	-0.001005	-0.000347
308	0.000146	-0.001991	0.023649	-0.004785	0.000474	-0.003142
309	0.000474	-0.003142	0.022991	-0.003799	-0.000512	-0.001005
310	-0.001498	-0.0061	0.024306	-0.002977	0.000803	-0.001498
311	-0.000512	-0.004785	0.020855	-0.000841	0.000967	-0.002648
312	-0.002648	-0.002648	0.022169	-0.001334	0.004255	-1.9e-05
313	-0.000841	-0.001005	0.024306	-0.000512	0.001954	-0.003142
314	0.000639	0.000474	0.019375	-0.000183	0.003104	-0.001169
315	0.000146	0.000146	0.023649	0.00294	-1.9e-05	-0.002155
316	0.000146	-0.000183	0.021841	0.003268	0.00146	-0.000512
317	0.001132	0.001132	0.015924	-0.000841	-0.000347	-0.00232
318	0.003433	0.000803	0.021841	-0.002484	0.001296	0.00146
319	0.00031	-0.005607	0.016253	-0.001334	-1.9e-05	-0.001334
320	-0.001827	-0.004785	0.015266	-0.002155	-0.000183	0.000146
321	0.001132	0.001132	0.019704	-0.001334	-0.003306	-0.000347
322	0.000474	-0.004949	0.017239	-0.00347	0.001132	-0.001334
323	-0.000676	-0.002813	0.019704	-0.004785	-0.000347	-0.000676
324	0.002118	0.001296	0.018225	-0.002648	-0.000512	-0.00232
325	0.00031	-1.9e-05	0.017403	-0.002484	-0.000512	0.000803
326	0.002282	-0.001991	0.018718	-0.000841	-0.002484	-0.001991
327	-0.001827	-0.000183	0.012965	0.000474	-1.9e-05	-1.9e-05
328	0.000146	-0.002977	0.012308	-0.001991	-0.001498	-0.002813
329	0.00146	-0.001169	0.01313	-0.001662	-0.003635	0.00031
330	-0.00347	-1.9e-05	0.015431	0.00031	-0.001991	-0.005278
331	-0.000512	0.000639	0.010336	0.000474	-0.002648	-0.001662
332	-0.001334	-1.9e-05	0.015924	-0.001334	-0.000676	-0.003635
333	0.003433	-0.000512	0.014938	0.001625	0.000803	-0.000347
334	0.001789	-0.000183	0.017074	-0.001005	-0.000512	0.000803
335	0.003104	0.000803	0.015266	-0.003799	-0.000183	-0.000183
336	0.001296	-0.000676	0.01954	-0.000512	0.001132	0.000803
337	0.007542	-0.00232	0.018554	-0.000512	0.003433	0.000146
338	0.00146	-0.000841	0.018061	0.000146	-0.00232	0.001132
339	0.005405	-0.002648	0.017896	-0.003963	-0.001334	-1.9e-05
340	0.00409	-0.001662	0.018718	-0.005278	-0.000347	0.003433
341	0.003104	-0.001662	0.019704	0.000474	-0.004621	0.000146
342	0.002611	-0.001498	0.019375	-0.004621	-0.003306	-0.000347
343	0.000967	-0.002977	0.022169	-0.001827	-0.00232	-0.002155
344	0.001132	-0.003963	0.017567	-0.001169	-0.001827	-0.001827
345	0.002282	0.000803	0.018882	-0.002155	-0.002484	-0.00347
346	0.000803	-0.000841	0.01954	0.00031	-0.001991	0.001625
347	0.00031	-0.000347	0.020362	0.002447	-0.000183	-0.002648
348	0.003104	-0.00232	0.022005	0.002775	0.000639	-0.000512
349	0.003268	0.000146	0.020855	-0.000841	-1.9e-05	0.004419
350	0.003433	-0.00232	0.020526	-0.004785	0.000967	0.00146
351	0.005076	0.00031	0.022169	-0.002813	-0.000183	0.000803
352	0.001132	0.000474	0.018225	-0.001334	-1.9e-05	0.001625
353	0.000967	0.000146	0.022169	-0.005607	0.001954	-0.000183
354	0.001132	-0.001827	0.023649	-0.002813	0.002775	0.000639
355	0.000146	-0.000841	0.023813	-0.003142	0.001789	-0.000676
356	0.003761	-0.001991	0.023156	-0.001991	-0.001827	-0.003142
357	0.003926	-0.000183	0.027265	-0.005936	-0.000347	-0.001991
358	0.002118	-0.001334	0.022663	-0.000512	0.001625	-0.001498
359	0.003268	-0.003306	0.024635	-0.000512	0.001789	0.001789
360	0.001625	-0.002155	0.023813	-0.000183	-0.000676	-0.001498
361	0.000639	-0.001005	0.024142	-0.009058	0.000803	0.001132
362	0.001789	-0.000676	0.023977	-0.001005	-0.000183	-0.001662
363	-0.000347	-0.002813	0.024142	-0.002155	0.003761	-0.001005
364	-0.000676	-0.001334	0.025292	-0.000347	0.001296	-0.002484
365	0.002447	-0.003142	0.024635	0.00031	-0.000183	-0.001169
366	-0.001334	-0.001498	0.024635	-0.000676	0.001132	-0.004128
367	0.00146	-0.001662	0.024142	0.000639	0.000639	-0.000841
368	-0.000183	-0.001827	0.030059	-0.001827	-0.000841	-0.001334
369	0.000803	-0.001498	0.027265	0.000474	0.004255	0.001954
370	0.003926	-0.001169	0.026771	-0.001334	0.001296	-0.000512
371	0.000967	-0.002977	0.024306	0.000967	-0.001005	-0.000841
372	0.001132	-0.002813	0.028415	-0.010209	0.002775	0.00031
373	0.002775	-0.004949	0.02973	-0.003963	-0.001662	0.002775
374	-0.001498	-0.002648	0.028415	-0.004128	-0.000183	0.001132
375	-0.002155	-0.003635	0.029072	-0.001005	-0.001334	0.002447
376	-0.001498	-0.004949	0.028579	-0.002484	-0.000841	0.002447
377	-0.001005	-0.003142	0.028579	-0.001498	0.000639	-0.001005
378	-0.003142	-0.005607	0.027429	-0.001334	0.000639	-0.001334
379	-0.005771	-0.005443	0.02973	-0.001662	-0.00725	-0.004128
380	-0.001498	0.000474	0.028744	-0.001005	-0.001827	-0.001662
381	-0.001169	-0.001498	0.032524	0.000639	-0.001169	-0.002648
382	-0.000183	-0.004128	0.029072	0.002118	-0.001662	-0.001662
383	-0.001827	0.000474	0.031702	-0.00347	0.000146	-0.001169
384	0.001132	-0.002813	0.03088	-0.000183	-0.000512	0.000474
385	-0.001169	-0.002977	0.033346	-0.002155	-1.9e-05	0.000639
386	-0.001169	-0.001005	0.034496	-0.000676	-0.001662	0.000639
387	-0.003963	-0.003963	0.035647	-0.001334	-0.002484	0.000967
388	-0.002813	-0.003635	0.036797	0.000803	-0.003142	0.00031
389	-0.004456	-0.000183	0.036304	0.00146	0.000474	0.002611
390	-1.9e-05	-0.001991	0.037455	-0.003635	-0.000183	-0.000347
391	-0.003142	0.000146	0.036469	-0.000841	0.001296	-0.000676
392	-0.001498	0.000146	0.039427	-0.001169	0.000474	0.001132
393	-0.000676	-0.001169	0.037783	-0.002648	-0.001498	0.001789
394	-0.002484	-0.000512	0.038441	0.003926	-0.001662	-0.002155
395	-1.9e-05	-0.002977	0.033839	-0.001991	-0.003799	0.001954
396	-0.00232	-0.000512	0.036633	0.001625	-0.004292	-0.001662
397	-0.002155	-0.002648	0.034168	0.001132	-0.001334	-0.000676
398	-0.001991	0.000639	0.036797	0.001132	-0.000676	-0.001991
399	-0.001498	-0.005278	0.034661	-0.002648	-0.001169	0.003926
400	-0.005936	-0.001334	0.033346	-0.001005	0.000803	0.000639
401	-0.000512	0.001296	0.032853	-0.000512	0.000639	-0.002155
402	-0.004621	-0.000676	0.029401	-0.000512	0.00146	0.002447
403	-0.006264	0.000146	0.03351	-0.000183	0.000639	0.000474
404	-0.006922	-0.001662	0.032031	-0.001662	0.002282	0.000474
405	-0.003963	-0.001827	0.032195	0.004255	0.002118	-0.000512
406	-0.001334	-0.001169	0.02973	-0.003635	0.001132	0.004912
407	-0.002977	-0.002155	0.028908	-0.003306	0.00031	-0.001005
408	-0.003142	-0.002155	0.028086	-0.00232	0.001132	0.003433
409	-0.001827	-0.001169	0.032524	-0.003799	0.000639	0.001625
410	-0.001991	-0.000676	0.030552	-0.005443	0.000967	0.00031
411	-0.002813	0.002447	0.028086	-0.000512	0.000639	0.00031
412	-0.002155	-0.000183	0.026114	-0.001827	-0.000841	0.000146
413	-0.002155	0.000146	0.027429	-0.002813	0.003104	-0.002155
414	-0.000841	-0.001827	0.027593	-0.001827	-0.002813	-0.001169
415	-0.001005	-0.003963	0.022991	-0.002155	0.000474	-0.001169
416	-0.001005	-0.002813	0.022991	-0.000676	-0.000512	-0.001991
417	-0.002813	-0.001662	0.023484	-0.002813	-0.001169	0.000803
418	0.001132	-0.002155	0.02447	0.001132	-0.001991	-0.001334
419	-0.003963	-0.002813	0.023813	-0.000347	0.002775	0.000639
420	-0.001827	-0.004949	0.023977	0.000146	-0.000841	-0.001498
421	-0.002648	-0.002977	0.024635	-0.000676	0.001954	-1.9e-05
422	-0.002155	-0.002155	0.023156	-0.002155	0.00146	-0.000841
423	-0.003306	-0.003963	0.020362	-0.00347	0.001296	-0.000347
424	-0.002813	-0.001991	0.021348	-0.000512	0.000639	0.003926
425	-0.001827	-0.002155	0.023484	-0.001334	0.000803	0.003761
426	-0.003799	0.001296	0.016581	-0.001005	0.000803	-0.000512
427	-0.004128	0.000639	0.020197	-0.000841	-0.000512	0.000967
428	-0.00347	0.002118	0.021348	-0.002484	-0.004456	-0.001005
429	-0.004128	-0.001498	0.021348	-0.001991	-0.00232	-0.002155
430	-0.004292	0.00031	0.02069	-0.00232	-0.004128	-0.00347
431	-0.001662	-0.001827	0.023156	-0.000512	-0.002813	-0.001827
432	-0.003635	0.000639	0.021183	-0.001662	-0.001498	-0.000676
433	0.001132	-0.003799	0.020197	-0.001169	-0.003306	-0.000347
434	-0.003635	-0.000512	0.020362	-0.001662	0.000967	0.001625
435	-0.004128	-0.002484	0.018882	-0.000347	0.000474	-1.9e-05
436	-0.004128	-0.001991	0.019211	-0.000347	-0.000347	0.000639
437	-0.004785	-0.001334	0.016581	0.00294	-0.001991	0.000639
438	-0.000183	-0.002484	0.017074	0.002282	0.002611	0.001625
439	-0.002813	-0.001169	0.017896	0.002447	0.001296	0.002447
440	-0.005114	-0.002977	0.015595	-0.003963	0.00294	-0.000183
441	-0.001005	-0.001827	0.016417	0.000639	-0.000183	0.00031
442	-0.004292	-0.001662	0.01576	-0.001662	-0.002155	0.000639
443	-0.005114	-0.000512	0.01954	-0.000841	-0.002484	-0.001498
444	-0.002484	-0.001827	0.015266	-0.004128	-0.000676	-0.001662
445	-0.004128	-0.000512	0.016253	-0.002155	-0.001498	-0.001005
446	-0.00347	0.00031	0.015102	0.000146	-0.002648	-0.000347
447	-0.004621	-0.000841	0.01691	-0.002155	-0.000347	0.002447
448	-0.002484	-1.9e-05	0.012965	-0.003142	-0.001005	-0.001169
449	-0.003635	-0.001991	0.010993	-0.001662	-1.9e-05	0.001954
450	-0.002977	-0.001005	0.012144	-0.003635	-0.003142	0.00031
451	-0.005936	-0.000183	0.011651	-0.002813	-0.000841	0.000639
452	-0.006593	-0.001498	0.010336	-0.000347	-0.002813	-0.000512
453	-0.005607	-0.000841	0.011486	-0.001991	-0.001991	0.001625
454	-0.001334	-0.000841	0.014445	-0.00232	-0.001827	-0.001991
455	-0.003963	-0.004128	0.006556	-0.002484	0.000639	0.000146
456	-0.005936	-0.003306	0.010007	-0.001169	-0.001005	0.001625
457	-0.000676	-0.001169	0.007213	-0.002484	0.002282	0.001132
458	-0.005114	-0.001498	0.00935	-0.001498	0.000803	0.001296
459	-0.006593	-0.001169	0.00787	-0.001005	0.00031	0.002447
460	-0.004292	-0.000841	0.007706	-0.001005	-0.001169	-0.000841
461	-0.004456	-0.000676	0.007542	-0.001827	-0.002155	0.002118
462	-0.005278	-0.001662	0.007049	0.000146	0.000474	-0.001334
463	-0.006429	-0.003799	0.00672	0.000146	0.000146	-0.001662
464	-0.006593	-0.002155	0.008363	-0.003306	-0.000841	-0.000183
465	-0.006264	-0.002813	0.009843	-0.001662	-0.000347	-0.002484
466	-0.004949	-0.00347	0.003761	-0.002155	-0.000347	-0.001827
467	-0.005278	-0.005443	0.00294	-0.00347	-0.00232	-0.001662
468	-0.005443	-0.003142	0.001789	-0.001169	0.003104	0.000967
469	-0.004785	-0.001991	0.00409	0.00146	-0.00232	0.000967
470	-0.005607	-0.002977	0.001132	-0.001169	0.002775	-0.001334
471	-0.006264	-0.004949	0.002282	0.00031	-0.004785	-0.001005
472	-0.003635	-0.004456	-0.000512	-0.004456	0.000967	0.001296
473	-0.005443	-0.001991	0.000639	-0.002155	0.000474	-0.004949
474	-0.005278	-0.0061	0.002447	-0.000183	-0.000676	-0.000512
475	-0.005607	-0.003799	0.002447	-0.001827	-0.001662	-0.001005
476	-0.006429	-1.9e-05	0.002447	-0.000183	-0.001662	-0.000183
477	-0.006429	-0.001005	0.001296	-0.001991	0.000967	-0.001005
478	-0.003142	-0.002813	0.002775	-0.003142	-0.001334	-0.004292
479	-0.005936	0.001954	0.003433	-0.00232	0.003926	-0.001498
480	-0.004949	-1.9e-05	0.002611	-0.000841	-0.003142	-0.001991
481	-0.004292	-0.001662	0.001296	-0.002648	-0.000676	-0.000347
482	-0.001334	-0.001005	-1.9e-05	0.00146	-0.007415	-0.002813
483	-0.002977	-0.002155	0.000967	-0.003635	-0.001498	0.000639
484	-0.004128	-0.001827	0.002118	-0.001827	0.000146	-0.001827
485	-0.004785	-0.002977	-0.000841	-0.001827	-0.001334	-0.001005
486	-0.005114	-0.001827	0.001625	-0.000841	-0.001991	-0.001334
487	-0.002484	-0.003306	-0.001827	-0.000512	-0.001005	0.001625
488	-0.003963	-0.004456	-1.9e-05	0.001789	0.003433	-0.001498
489	-0.002484	-0.004128	-0.001662	0.00031	0.002118	-0.001169
490	-0.005443	0.00409	0.000803	0.001132	-1.9e-05	-0.001991
491	-0.001827	-0.003306	0.000146	0.001132	-0.003142	-0.000676
492	-0.005771	-0.001334	-0.002813	-0.000347	0.001132	0.000803
493	-0.006593	-0.002813	-0.000183	-0.001169	-0.011195	-0.000676
494	-0.001662	0.001789	0.00146	-0.002155	-0.006922	0.004255
495	-0.001498	-0.000512	0.001625	-0.001498	-0.003306	-0.000841
496	-0.00232	-0.000183	0.001954	-0.001498	-0.000183	-0.000676
497	-0.002813	-0.002977	0.001132	-0.000841	-0.001334	-0.001827
498	-0.001334	0.00031	0.002611	-0.005771	-0.00232	-0.001005
499	-0.001498	-0.001498	0.001132	0.000967	-0.002155	-0.00347
500	-0.002648	-0.002813	0.000803	-0.004128	-0.000347	0.001132
501	-0.00347	-0.000347	-0.000512	-0.000676	-0.001169	-0.000183
502	-0.002484	0.000639	0.000639	-0.001498	-0.000347	0.000474
503	-0.00347	-0.000183	-0.002155	-0.001005	-0.004785	-0.000183
504	-0.003306	-0.001334	-0.003306	-0.001169	-0.011359	0.00146
505	-0.003799	-0.000512	-0.004949	-0.004785	-0.003635	0.00031
506	-0.002648	-0.002813	-0.005607	-0.000512	-0.003142	0.000146
507	-0.004128	-0.001991	-0.002155	-0.001991	-0.001334	-0.002813
508	-0.000676	-0.00232	-0.001991	-0.000841	-0.001005	0.00031
509	-0.003799	-0.001827	-0.000183	-0.004128	-0.002155	-0.001498
510	-0.003142	-1.9e-05	-0.001334	-0.001827	-0.002484	-0.003635
511	-0.003799	-0.000512	0.000803	-0.004456	-0.001827	-0.001662
512	-0.000841	-0.002648	-0.000183	0.00294	0.000639	-0.001827
513	-0.002484	-0.00232	0.001789	0.002775	-0.000841	-0.000183
514	-0.000841	-0.002155	-0.000512	-0.000676	-0.002977	-0.001169
515	-0.001005	-0.001498	0.001132	-0.00347	-0.00725	0.000146
516	-0.002155	-0.000841	-0.002648	-0.001827	-0.004621	0.000803
517	-0.001334	-0.002484	-0.004292	-0.000841	-0.00232	-1.9e-05
518	-0.002977	-0.001827	-0.001005	-0.001498	-0.00232	-0.000183
519	-0.001498	-0.004128	-0.004949	-0.000841	-0.001005	-0.000676
520	-0.00232	-0.002648	-0.002484	-0.002155	-0.001334	-0.001498
521	-0.000841	-0.003963	-0.001991	-0.000347	-0.002155	-0.001169
522	-0.001498	-0.005936	-0.000841	-0.00347	-1.9e-05	-0.004292
523	-0.001498	-0.002484	-0.002648	-0.000676	-0.001662	-0.004456
524	-0.002813	0.00031	-0.000183	0.00146	-0.00232	-0.001005
525	-0.000676	-0.003799	-0.003142	-0.000676	-0.00347	-0.00232
526	-0.003306	-0.00347	-0.000841	-0.000183	-0.005443	0.001132
527	-0.00347	-0.004621	-0.002155	-0.001334	-0.001991	0.000146
528	-0.005114	-0.000183	-1.9e-05	-0.000676	0.002611	-0.002813
529	-0.002977	-0.001334	0.003104	-0.001662	-0.001169	-0.002813
530	-0.002813	-0.000512	-0.001005	-0.001169	0.001296	-0.001169
531	-0.003142	-0.001005	0.00146	-0.000841	-0.004456	-0.001498
532	-0.002813	-0.003142	-0.000676	-0.001334	0.001789	-0.001827
533	-0.000676	-0.002648	0.000639	-0.002484	-0.002155	-0.005607
534	0.000474	-1.9e-05	-0.000512	-0.001334	0.000639	-0.001005
535	-0.00347	-0.000347	0.000967	-0.001334	-0.001005	-1.9e-05
536	0.00031	0.000146	-0.0061	-0.000676	-0.000841	-0.000183
537	0.001625	-0.002977	-0.000512	-0.001827	-0.001662	-0.002648
538	-0.000183	-0.00232	-0.000183	-0.000347	-0.00232	0.003761
539	-0.000676	-0.000841	-0.000512	0.000474	-0.00232	-0.001662
540	-0.000512	-0.003799	-0.002977	-0.000183	-0.004621	-0.002484
541	-0.001662	-0.000676	0.000474	-0.001991	-0.001991	-0.000676
542	0.000803	-0.002484	-0.001005	0.000803	-0.004292	-0.001662
543	-0.001005	-0.001991	-0.003963	-0.000183	-0.005278	0.000803
544	-0.000841	-0.002155	-0.001169	-0.000841	-0.002977	-0.002484
545	-0.00347	-0.001662	0.00031	-0.001334	-0.001334	-0.000183
546	-0.000676	0.001954	0.001625	0.000639	-0.000841	0.001954
547	-0.000841	-0.000841	-0.001662	-0.000676	0.001132	0.000474
548	-0.000347	-0.000512	0.00031	0.000639	0.002118	-0.002484
549	0.000803	-1.9e-05	-0.001169	0.000146	-0.000512	0.002775
550	-0.001498	0.000967	0.00146	0.002118	0.000146	-0.003142
551	0.000146	-0.005607	-0.000676	-1.9e-05	0.001296	0.000639
552	-0.00232	0.00146	0.00031	-0.003799	0.00146	-0.001334
553	0.00031	0.00031	0.000639	-0.003306	-0.000512	-0.002484
554	-0.002813	0.000639	0.001132	-0.004621	-0.001498	-0.000183
555	0.00031	-0.003635	-0.003963	-0.004621	-0.001991	-0.001827
556	-0.002977	0.000967	-1.9e-05	-0.00232	-0.001498	-0.000347
557	-0.001005	-0.002155	0.000967	-0.003306	-0.001662	-0.001827
558	-0.001662	-0.000841	-0.001991	-0.001498	-0.000183	-0.001169
559	-0.000512	-0.00232	-0.000676	0.000803	0.00294	-0.002813
560	-0.000841	-0.001662	0.000474	-0.003799	-0.002484	0.002611
561	-0.003799	-0.00232	-1.9e-05	-0.001827	-0.001005	-0.005443
562	-0.001169	-0.002648	-0.001498	-0.002813	-0.001498	-0.001169
563	-0.001498	0.00146	0.003433	-0.000512	-0.003799	-0.002648
564	-0.000347	0.001789	0.001954	-0.001005	-0.000676	-0.000183
565	-0.002155	-0.001991	0.004255	-0.001169	-0.000347	-0.000841
566	-0.002813	-0.004456	-0.001005	-0.002648	-0.001169	-1.9e-05
567	-0.005771	0.001789	-0.001169	-0.000841	-1.9e-05	0.000639
568	-1.9e-05	-0.003963	-0.002813	-0.001005	-0.001005	0.001132
569	-0.002648	-0.001662	-0.001169	-0.001169	-0.001005	0.001132
570	0.000639	-0.003142	-0.004621	0.000803	0.004748	-1.9e-05
571	0.000474	-0.001991	0.00146	-0.004128	-0.002977	0.002611
572	-0.003799	-0.004621	-0.000183	-0.001662	-0.002648	-0.000676
573	0.000146	-0.001005	-0.001169	-0.000347	-0.001827	-0.000512
574	-0.002977	-0.002648	-0.000676	-0.001991	-0.003142	-0.000676
575	-0.005771	0.00031	0.000474	-0.001334	-0.000676	-0.001169
576	-0.003142	-0.001991	0.000803	0.000967	-0.003142	-0.003142
577	-0.00347	-0.003142	0.002447	-0.003799	-0.001662	-0.002977
578	-0.005443	-0.001334	0.000967	0.00031	-0.003635	-0.004292
579	-0.003799	-0.003142	-0.001498	-0.000676	0.001954	-0.000841
580	-0.004785	-0.001662	0.000803	-0.000841	0.003761	-0.00232
581	-0.000183	-0.001662	-0.001498	0.000146	0.007049	-0.001991
582	-0.00232	-0.001005	-0.000841	-0.000512	-0.000841	0.000146
583	-0.002648	-0.001662	-0.001498	0.000146	-0.000183	-0.002155
584	-0.003306	-0.003142	-0.000183	-0.001827	0.003761	0.002118
585	-0.001498	-0.000512	-0.001005	-0.001169	-0.001334	0.000146
586	-0.003142	-0.001005	0.002282	-0.001498	-0.001662	-0.001169
587	-1.9e-05	-0.003306	0.000803	-0.001169	-0.001005	0.000146
588	-0.00232	-0.002648	-0.000347	-0.00725	-0.002977	-0.000183
589	-0.003799	-0.000512	0.001789	-0.000841	-0.000183	-0.000841
590	0.000639	-0.001662	-1.9e-05	-0.003306	-0.001991	-0.000676
591	-0.001169	-0.001334	0.000967	-0.001005	-0.004292	-0.000512
592	-0.002977	-0.001991	-0.003306	-0.001005	0.00146	-0.000183
593	0.001625	-0.004621	-1.9e-05	-0.001827	-0.004621	0.002611
594	-0.001827	-0.002648	-0.005278	-0.00232	-0.004128	-0.002155
595	-0.005443	-0.003963	-0.000841	-0.001334	-0.002648	-0.003963
596	-0.004621	-0.003963	-0.000841	-0.001498	-0.001827	-0.000347
597	-0.004621	-0.001662	0.001132	-0.000841	0.000967	-0.000512
598	-0.002648	-0.003142	-0.002648	-0.000676	0.000146	0.002118
599	-0.003142	-0.002648	0.000474	-0.002155	0.002611	-0.004128
600	-0.002484	-0.000841	-0.002484	0.002775	-0.000841	0.001296
601	-0.004456	-0.000183	0.000803	-0.002813	0.00031	-0.001005
602	-0.000183	-0.003799	-0.002484	-0.003306	0.002447	-0.000512
603	-0.00232	0.000803	-0.000676	-0.003799	0.001789	-0.000841
604	-1.9e-05	-0.002155	-0.001827	-0.004621	-0.003799	0.000146
605	-0.002155	-0.000841	-0.001991	-0.005771	-0.000676	-0.000183
606	-0.000512	-0.001827	0.001954	-0.003963	-0.00232	-0.000676
607	-0.001498	-0.003799	0.003104	-0.004785	-0.000183	-0.000676
608	-0.001827	-0.001662	0.003597	-0.005114	-0.001827	-0.001662
609	-0.000183	-0.002648	0.00031	-0.003142	-0.002484	-0.000512
610	-0.004456	-0.003306	-0.001005	-0.004456	-0.002648	-0.004621
611	-0.006593	-0.003142	-0.000347	-0.002813	-0.002484	0.000967
612	-0.003799	-0.001662	-0.000512	-0.002813	-0.002813	-0.000347
613	-0.00232	-0.003142	-1.9e-05	-0.002155	-0.001991	-0.000347
614	-0.008565	0.000639	-0.00232	-0.000183	0.000474	-0.000183
615	0.00031	-0.004785	-0.001169	-0.001169	-0.003142	0.002282
616	-0.00347	-0.002813	-0.002813	-0.001991	-0.001005	-0.002813
617	-0.001991	-0.002813	-0.00347	-0.000347	-0.000676	0.001132
618	-0.001662	-0.001991	-0.001991	-0.002813	0.000146	-0.000347
619	-0.000841	-0.001991	-0.000512	-0.001991	-0.00232	-0.001662
620	-0.001498	-0.000512	-0.00232	-0.002155	-0.000676	0.000639
621	-0.000512	-0.003142	-0.002484	-0.001662	-0.002813	0.000146
622	-0.002648	-0.001498	-0.001827	-0.001662	-0.000347	0.001132
623	-0.001334	-0.001662	0.000639	0.000639	-0.001827	-0.001498
624	0.000639	-0.000512	-0.001662	-0.001498	-0.001334	-1.9e-05
625	-0.003142	0.00031	-0.000183	0.000146	-0.002813	-0.001169
626	-0.003142	-0.003306	-1.9e-05	-0.001169	-0.002648	0.001625
627	-0.007086	-0.006593	0.000146	-0.00347	-0.003306	-0.002648
628	-0.006264	-0.003306	-0.000512	0.000474	-0.00232	-0.000676
629	-0.006757	-0.001827	0.001296	-0.001991	-0.00725	-0.004128
630	-0.001827	-0.003306	-0.000347	-0.001169	-0.000512	-0.004785
631	-0.004292	-0.000841	0.000146	-0.000512	-0.000183	-0.002977
632	-0.000841	-0.003963	-0.001169	-0.001991	-0.000841	-0.002648
633	-0.003635	-0.000676	-0.000676	-0.002155	0.000803	0.000474
634	-0.002484	-0.000512	0.000474	0.000967	-0.000676	-0.00232
635	-0.001005	-0.003635	-0.001498	-0.001991	-0.002155	-1.9e-05
636	-0.002484	-0.001498	0.000474	0.002118	-0.004456	-0.000512
637	-0.001005	-0.000841	-0.000183	-0.003306	0.000967	0.001789
638	-0.002484	-0.000676	-0.000676	-0.004456	-0.004128	-0.00347
639	-0.004621	-0.001991	0.000803	-0.006922	0.003104	-1.9e-05
640	-0.001005	0.000474	0.002447	-0.002977	-0.002813	-0.002155
641	-0.00232	-0.002155	0.002447	-0.002648	-0.002484	-0.001498
642	-0.004785	-0.001005	0.002447	-0.003963	-0.00347	0.000639
643	-0.003306	-0.003306	0.000146	-0.002484	-0.002155	-0.001991
644	-0.004621	-0.000512	0.00672	-0.000676	-0.001827	-0.000512
645	-0.000347	-0.002155	-0.001005	-0.001169	-0.002813	-1.9e-05
646	-0.002977	-0.001827	-0.001498	-0.000347	-0.002155	-0.000841
647	-0.001662	-0.003142	0.001132	0.001132	-0.001827	-0.001005
648	-0.002813	0.000146	0.000474	-0.001169	0.00031	0.00031
649	-0.003799	-0.002484	-0.000841	0.000146	-0.002484	0.003104
650	-0.005607	-0.001991	-0.001827	-0.001827	-0.002155	0.001132
651	-0.003963	-0.001169	0.001132	-0.004128	-0.002813	-0.000183
652	-0.003963	-0.002484	0.00146	-0.002155	0.000803	-1.9e-05
653	-0.001991	-0.005607	0.000639	-0.002155	-0.000841	-0.002648
654	-0.001827	0.000967	0.000474	-0.002813	0.000639	-1.9e-05
655	-0.00232	-0.001005	0.00146	-0.001334	-0.001334	0.000803
656	-0.00232	-0.000841	0.004255	-0.003799	-0.000183	-1.9e-05
657	-0.001005	-0.001662	0.003597	-0.003306	0.003104	-0.001005
658	-0.000512	-0.000512	0.003104	-0.003635	-0.001827	0.001789
659	-0.004785	0.001132	0.00146	-0.002484	-0.001169	0.002611
660	-0.002813	-0.003963	0.001625	-0.003963	-0.001005	-0.000841
661	-0.003799	-0.000676	0.002611	-0.004128	-0.001991	0.001789
662	-0.005607	-0.002155	0.00031	-0.001169	-0.001827	0.003926
663	-0.008401	-0.001662	0.001296	-0.000183	0.001789	-0.001005
664	-0.004128	-0.005936	-0.001827	-0.003306	0.000146	-0.001334
665	-0.007086	-0.004621	0.002118	0.000639	0.001296	-0.000676
666	-0.004456	-0.003963	-0.000676	0.000639	-0.000676	-0.001498
667	-0.004128	-0.00232	-0.000183	-0.001169	-0.000841	0.00031
668	-0.00347	-0.002648	0.000639	0.00031	-0.001334	-0.001169
669	-0.003799	-0.002155	0.00146	-0.001991	0.000639	-0.002813
670	-0.001827	-0.003142	-0.000841	-0.001005	-0.002813	0.000474
671	-0.001991	-0.003799	-0.002155	-0.000841	-0.000347	-0.00347
672	-0.002484	-0.001334	0.001789	0.001954	-0.001498	0.000803
673	-0.001334	-0.001334	0.00031	-0.001498	-0.000676	0.00146
674	-0.002648	-0.00232	0.002118	-0.001005	-0.001005	-1.9e-05
675	-0.002648	-0.000347	0.000639	-0.001498	-0.002155	0.000474
676	-0.005607	-0.000676	0.002282	-0.00232	-0.002484	-0.000676
677	-0.002977	-0.002813	-0.000347	-0.001334	-0.000512	-0.001169
678	-0.004128	0.00031	0.001296	-0.001498	-0.001498	-0.001991
679	-0.004949	-0.00232	0.001132	0.000639	-0.002648	0.000146
680	-0.004949	-0.001169	-0.000841	-0.001334	-0.003635	-0.001827
681	-0.001169	-0.001498	0.000639	-0.001169	-0.003963	0.00031
682	-0.006264	-0.001334	-0.000512	-0.001498	-0.000347	-0.002155
683	-0.001498	-0.00347	-0.001005	0.001625	-0.004292	-0.001169
684	-0.004128	-0.002155	0.002118	-0.001498	-0.002648	0.001296
685	-0.002813	-0.00347	0.002447	0.001789	-0.001498	-0.001662
686	-0.002813	-0.004456	0.000967	-0.001334	-0.000183	-0.000512
687	-0.001662	0.000967	0.002447	-0.004292	-0.003142	-0.000512
688	-0.00232	0.000639	0.001296	-0.000183	-1.9e-05	0.00146
689	-0.001334	-0.001169	0.003268	-0.002813	-0.002155	-0.000347
690	0.000474	-0.001005	0.000803	-0.005114	-0.003635	0.001296
691	-0.003306	0.000474	0.003268	-0.00347	0.001132	0.000639
692	0.002775	-0.001991	0.000639	-0.003635	-0.000676	0.003104
693	-0.00347	-0.001334	0.003433	-0.002813	-0.001334	0.000146
694	-0.001334	-0.000841	0.003926	-0.002813	-0.002484	-0.000676
695	-0.005114	-0.001169	0.005241	-0.002813	-0.000347	-0.000676
696	0.000639	0.00031	0.00409	0.000146	-0.00232	0.000639
697	-0.00232	-0.00232	0.002775	-0.00232	-0.000841	-0.000347
698	-0.000183	-0.001827	0.001132	-0.00232	-0.000512	0.00031
699	-0.002484	0.000146	0.000474	0.001132	-0.001498	-0.000841
700	-0.000841	-0.001827	0.000474	-0.000183	-0.004456	-0.001005
701	-0.000841	-0.001498	-0.000841	-0.004949	-0.000841	0.002447
702	-0.002484	-0.001827	-0.000183	-1.9e-05	0.000967	-0.001827
703	0.00031	-0.001334	-0.001169	-0.001662	-0.004456	0.001625
704	-0.003799	-0.002977	0.000803	-0.002648	-0.002977	-0.001827
705	-0.000512	-0.002977	-0.001169	-0.004292	0.000639	-0.002155
706	-0.001005	-0.00232	0.002118	-0.001827	-0.002155	0.000474
707	-0.003142	-0.003963	0.001954	-0.003306	-0.000183	0.000803
708	-0.003306	-0.001827	0.001296	-0.004128	-1.9e-05	-0.000347
709	-0.000841	-0.004949	-0.001334	-0.001169	-0.002813	0.000803
710	-0.001662	-0.000512	0.001625	0.000146	-1.9e-05	0.000803
711	0.000146	-0.000512	0.000639	0.002118	-0.001005	-1.9e-05
712	-0.00347	-0.001005	0.001296	-0.000512	0.004912	0.001132
713	0.000639	-0.000512	-0.002155	0.001625	-0.001991	-0.003142
714	0.001789	0.001296	-0.001662	-0.001991	-0.001005	-0.001005
715	-0.00347	-0.005443	-0.00347	-0.001827	-0.002484	-0.003799
716	-0.003799	-0.004949	-0.002155	-0.000676	-0.002977	-0.001827
717	-0.001005	-0.001991	0.000474	-0.000512	-0.002813	-0.00347
718	-0.003306	-0.004456	-0.000676	-0.002813	-0.00347	-0.002155
719	-0.001827	-0.003963	0.00031	0.000639	-0.001991	-0.00725
720	0.000803	-0.005771	-0.00232	-0.007086	-0.001169	-0.003963
721	-0.001005	-0.001991	0.000803	0.004419	-0.001662	-0.001991
722	0.001296	-0.008565	-0.000676	-0.001169	-0.000841	-0.001334
723	-0.004785	-0.004292	0.00031	-0.001498	-0.002648	-0.001498
724	-0.00347	-0.001169	0.000639	-0.001334	0.000474	0.00146
725	-0.001005	-0.001005	-0.001169	-0.001991	0.000967	-0.000512
726	-0.004949	-0.003142	-0.001991	-0.001827	-0.003142	-1.9e-05
727	-0.0061	-0.001169	0.001296	-0.000841	-0.000676	-0.000183
728	-0.002155	-0.001827	0.001789	-0.001169	-0.002813	-0.005936
729	-0.004128	0.00146	0.001954	-0.001498	-0.001991	-0.002813
730	-0.001662	-0.001334	0.000474	-0.000183	-0.001005	-0.004621
731	-0.000841	-0.003635	0.000146	-0.005278	-0.005771	-0.003799
732	-0.000347	0.000146	-0.000512	0.000146	-0.003635	-0.005278
733	-0.001498	-0.000841	-0.000347	-0.001662	-0.002648	-0.004456
734	-0.001498	-0.001169	0.00031	0.000639	-0.003799	-0.002977
735	-0.001334	-0.001334	-0.00232	-0.001169	-0.001334	-0.001991
736	-0.001169	0.002118	0.000474	-0.000347	-0.003635	-0.002813
737	-0.002155	-0.003142	-0.002484	-0.002155	-0.00232	-0.002484
738	-0.003963	-0.001169	-0.001498	-0.000512	-0.001991	-0.002813
739	-0.001662	-0.002155	-0.000183	-0.001005	-0.002813	-0.001662
740	-0.004128	-0.002155	0.00031	-0.000841	-0.003635	-0.000676
741	-0.003306	-0.002155	-0.000841	-0.000183	-0.001005	-1.9e-05
742	-0.001991	-0.001662	-0.001662	-0.0061	-0.005114	-0.001334
743	0.002118	-0.001169	-0.001169	0.000474	-0.005114	-0.000676
744	-0.001827	0.000803	-0.003963	-0.000183	-0.002813	0.000474
745	-0.003799	-0.001169	-0.002813	0.00031	-0.003799	-0.002648
746	-0.001005	-0.000512	-0.001827	-0.001334	-0.000347	-0.001827
747	-0.000183	0.000474	-0.000841	-0.001005	-0.002648	0.000474
748	-0.002155	-0.001991	-0.003799	-0.001662	-0.001005	-0.002484
749	-0.002813	-0.000183	-0.001662	-0.00232	0.001132	-0.006429
750	-0.002484	-0.001169	-0.003306	-0.001169	-0.002813	-0.003963
751	0.001789	0.003104	0.00409	0.000639	0.001296	0.000146
752	0.010171	0.010829	0.008363	0.009678	0.010993	0.0105
753	0.019211	0.019704	0.016581	0.016581	0.016581	0.01428
754	0.025785	0.026771	0.022334	0.028908	0.026114	0.027593
755	0.031867	0.034003	0.034661	0.031538	0.035647	0.034661
756	0.042221	0.038934	0.03729	0.040742	0.039263	0.039098
757	0.043865	0.043865	0.043536	0.046494	0.04748	0.048631
758	0.053726	0.051754	0.049453	0.053069	0.052082	0.054712
759	0.056191	0.059314	0.05011	0.061615	0.059972	0.061286
760	0.065231	0.064409	0.061286	0.066875	0.064738	0.065231
761	0.069997	0.07197	0.070162	0.072298	0.072463	0.071312
762	0.077229	0.076572	0.078051	0.077558	0.075257	0.073942
763	0.083146	0.081995	0.07838	0.080352	0.080516	0.079694
764	0.088077	0.086926	0.085776	0.084625	0.08331	0.078544
765	0.095144	0.092186	0.081995	0.090213	0.090378	0.091528
766	0.098924	0.094815	0.093172	0.094651	0.092843	0.093172
767	0.100896	0.102376	0.093993	0.099089	0.098924	0.099746
768	0.105498	0.103691	0.098924	0.104184	0.103033	0.103362
769	0.109607	0.103855	0.10254	0.108621	0.108457	0.108786
770	0.1101	0.109936	0.107142	0.110758	0.106156	0.109114
771	0.114209	0.110429	0.110593	0.112401	0.114538	0.114374
772	0.116346	0.114867	0.116346	0.117661	0.118811	0.117825
773	0.12177	0.116675	0.118647	0.122263	0.119633	0.119797
774	0.119304	0.123578	0.122263	0.124564	0.126372	0.125879
775	0.127687	0.125221	0.1267	0.128344	0.122592	0.127358
776	0.130481	0.130645	0.132617	0.130152	0.133768	0.130152
777	0.130481	0.133603	0.133275	0.13459	0.132124	0.132782
778	0.134425	0.139027	0.133603	0.137384	0.139849	0.136562
779	0.14215	0.139192	0.137219	0.141657	0.139192	0.137219
780	0.141986	0.140835	0.139192	0.140013	0.14215	0.141986
781	0.142479	0.145602	0.144451	0.142643	0.144944	0.139849
782	0.147409	0.144615	0.140671	0.143958	0.145108	0.145437
783	0.147903	0.150039	0.149546	0.147245	0.147903	0.149053
784	0.15119	0.151847	0.150039	0.150861	0.149217	0.152176
785	0.152011	0.153491	0.153655	0.150532	0.151683	0.151847
786	0.155956	0.150861	0.155134	0.15234	0.151354	0.154312
787	0.15612	0.158093	0.155956	0.155463	0.155792	0.155956
788	0.157764	0.154312	0.1576	0.155627	0.155463	0.159572
789	0.157107	0.158093	0.156449	0.160229	0.160887	0.160394
790	0.16138	0.158914	0.158914	0.16516	0.159079	0.160722
791	0.163023	0.162202	0.161215	0.16401	0.159901	0.166146
792	0.160229	0.162859	0.163023	0.165653	0.161873	0.163352
793	0.162037	0.164996	0.164667	0.16516	0.163845	0.165653
794	0.16779	0.167297	0.166311	0.169433	0.16253	0.164831
795	0.166311	0.168118	0.17157	0.167297	0.165653	0.168776
796	0.168118	0.169269	0.168447	0.171899	0.168283	0.169269
797	0.169762	0.171406	0.170255	0.169433	0.171077	0.169269
798	0.1742	0.174528	0.17272	0.17157	0.17272	0.170748
799	0.173542	0.17272	0.173871	0.171899	0.174528	0.175515
800	0.173214	0.176501	0.175515	0.169926	0.17535	0.174528
801	0.176501	0.174364	0.175679	0.176994	0.174857	0.173049
802	0.176008	0.177651	0.176829	0.174035	0.173214	0.176008
803	0.174364	0.173214	0.177322	0.176665	0.175515	0.176829
804	0.176994	0.176994	0.178309	0.176501	0.176336	0.176665
805	0.177651	0.175186	0.18061	0.176665	0.178637	0.177487
806	0.176829	0.179295	0.182253	0.177651	0.178637	0.180116
807	0.179788	0.177815	0.180116	0.177651	0.179295	0.178802
808	0.179623	0.178637	0.180445	0.177158	0.179295	0.181431
809	0.182089	0.180774	0.183568	0.183239	0.180774	0.183568
810	0.180445	0.183897	0.181103	0.183239	0.183568	0.181924
811	0.183897	0.183897	0.183239	0.183239	0.180116	0.182253
812	0.186033	0.183732	0.183239	0.186033	0.182253	0.184061
813	0.184554	0.18554	0.185376	0.182582	0.182911	0.182417
814	0.184225	0.185047	0.184883	0.183404	0.182746	0.183568
815	0.184554	0.186855	0.190471	0.184225	0.185212	0.186033
816	0.187513	0.187513	0.187019	0.186033	0.184883	0.187841
817	0.186526	0.190471	0.186855	0.185869	0.187184	0.189649
818	0.183568	0.187841	0.191293	0.186691	0.185705	0.189485
819	0.184883	0.18554	0.189978	0.184883	0.18554	0.185047
820	0.188663	0.187348	0.190142	0.188334	0.187513	0.188992
821	0.187348	0.188006	0.186362	0.186362	0.189978	0.18932
822	0.188663	0.186855	0.189649	0.191128	0.187184	0.189156
823	0.189814	0.185705	0.188663	0.1908	0.190142	0.187677
824	0.187019	0.186526	0.190471	0.190964	0.187513	0.187513
825	0.185376	0.186691	0.189156	0.189978	0.1908	0.190307
826	0.188827	0.191128	0.18932	0.192279	0.188992	0.186198
827	0.187019	0.18817	0.189649	0.192443	0.189978	0.186691
828	0.188663	0.192115	0.194416	0.193922	0.191457	0.190471
829	0.189978	0.190964	0.191786	0.192608	0.189814	0.189485
830	0.191786	0.191457	0.191293	0.188499	0.185376	0.188334
831	0.193922	0.192772	0.195402	0.191786	0.19195	0.194416
832	0.192443	0.193594	0.193429	0.191621	0.192115	0.19458
833	0.194909	0.191128	0.193429	0.192115	0.192115	0.19458
834	0.192936	0.192772	0.198689	0.193265	0.192443	0.195073
835	0.196059	0.191786	0.196388	0.192936	0.192279	0.193101
836	0.19195	0.194087	0.197538	0.189978	0.194251	0.194087
837	0.192936	0.193265	0.195895	0.193758	0.193758	0.192772
838	0.193429	0.190471	0.196552	0.191457	0.193922	0.193922
839	0.193922	0.194416	0.195566	0.192443	0.192115	0.192608
840	0.195073	0.194087	0.195566	0.188006	0.194416	0.195895
841	0.196388	0.192115	0.195237	0.195402	0.189485	0.194251
842	0.19458	0.194251	0.193922	0.194744	0.191786	0.193594
843	0.195566	0.193758	0.195566	0.193758	0.191786	0.191457
844	0.195073	0.194251	0.193265	0.195237	0.192115	0.194744
845	0.196059	0.195402	0.195895	0.195895	0.192608	0.194087
846	0.198689	0.195895	0.194909	0.195237	0.193922	0.194087
847	0.196717	0.195237	0.194416	0.192772	0.194087	0.195895
848	0.193265	0.195237	0.196717	0.196552	0.196388	0.195566
849	0.195073	0.195402	0.195237	0.193429	0.19721	0.195895
850	0.197538	0.195566	0.199346	0.194251	0.193265	0.196388
851	0.193922	0.19721	0.197703	0.194744	0.196059	0.201976
852	0.197538	0.19458	0.19573	0.20099	0.194744	0.19573
853	0.19721	0.196223	0.197867	0.191128	0.197045	0.198524
854	0.196881	0.19721	0.19721	0.196059	0.195566	0.197867
855	0.084954	0.193429	0.19573	0.190964	0.199018	0.196717
856	0.085776	0.195073	0.196717	0.192608	0.194087	0.196059
857	0.092021	0.19573	0.19573	0.192936	0.196552	0.196717
858	0.094815	0.195073	0.196552	0.192608	0.194909	0.19458
859	0.100075	0.195895	0.19721	0.196552	0.19458	0.197538
860	0.10139	0.196388	0.197374	0.195895	0.197374	0.193758
861	0.106485	0.195402	0.198031	0.19721	0.195402	0.195073
862	0.11158	0.197703	0.197867	0.196552	0.199182	0.195237
863	0.112894	0.195073	0.197045	0.199675	0.194416	0.19573
864	0.11914	0.197374	0.199018	0.19836	0.197538	0.197867
865	0.124071	0.194416	0.19836	0.196881	0.197703	0.201647
866	0.02332	0.198524	0.197374	0.196388	0.198524	0.197045
867	0.008363	0.198524	0.196717	0.197867	0.196059	0.200332
868	0.020855	0.201647	0.198196	0.195895	0.198031	0.196717
869	0.008528	0.196059	0.200332	0.197374	0.196223	0.199182
870	0.016746	0.197867	0.19458	0.197703	0.197867	0.199346
871	0.023813	0.201976	0.198689	0.199675	0.19836	0.194909
872	0.032853	0.196717	0.199839	0.196059	0.198524	0.198031
873	0.037948	0.19573	0.19836	0.198031	0.197703	0.196552
874	0.040249	0.194251	0.197374	0.199346	0.19573	0.197703
875	0.04633	0.196881	0.199675	0.197538	0.196059	0.197045
876	0.054876	0.197374	0.193594	0.199182	0.195402	0.201154
877	0.058492	0.198196	0.199675	0.197374	0.196388	0.196059
878	0.065724	0.196059	0.197045	0.198524	0.196388	0.197867
879	0.068518	0.199018	0.198196	0.198853	0.196223	0.196388
880	0.077886	0.196059	0.197045	0.200497	0.195895	0.19458
881	0.080187	0.196881	0.197538	0.200825	0.195073	0.196388
882	0.086104	0.195073	0.198196	0.198689	0.193594	0.197045
883	0.090871	0.198853	0.199839	0.196059	0.196059	0.19573
884	0.094815	0.199182	0.199346	0.202798	0.199839	0.196223
885	0.102047	0.200497	0.197374	0.199018	0.198196	0.197045
886	0.106813	0.199511	0.199018	0.199182	0.194087	0.197867
887	0.108128	0.200661	0.198689	0.196059	0.201319	0.198524
888	0.111251	0.199018	0.195895	0.197703	0.19836	0.19721
889	0.112894	0.197374	0.19721	0.195402	0.192772	0.197703
890	0.116675	0.202469	0.198524	0.197045	0.197538	0.19458
891	0.122427	0.198853	0.197538	0.197538	0.195566	0.195402
892	0.083146	0.197703	0.199182	0.197703	0.195073	0.193594
893	-0.001334	0.200332	0.199346	0.197045	0.194251	0.193101
894	0.009678	0.196059	0.201154	0.19836	0.196059	0.194251
895	0.01954	0.196223	0.196223	0.199675	0.197045	0.192772
896	0.029072	0.198853	0.20099	0.199839	0.196223	0.192443
897	0.036633	0.19573	0.196059	0.198196	0.198196	0.195895
898	0.03992	0.197703	0.19836	0.197703	0.198524	0.19458
899	0.04633	0.197867	0.197374	0.199346	0.19836	0.193265
900	0.052411	0.198853	0.195402	0.197703	0.198031	0.195073
901	0.061286	0.199182	0.200168	0.197538	0.199346	0.195237
902	0.064409	0.198031	0.198689	0.198196	0.200168	0.196059
903	0.068682	0.197867	0.19836	0.198196	0.19836	0.195237
904	0.075092	0.202305	0.199346	0.196552	0.200497	0.197374
905	0.08331	0.201812	0.200825	0.198031	0.199839	0.199511
906	0.086762	0.199839	0.199675	0.197374	0.198031	0.196552
907	0.089391	0.198524	0.200168	0.196552	0.19573	0.196881
908	0.097774	0.19836	0.199182	0.197867	0.197867	0.19721
909	0.09991	0.200332	0.199675	0.19836	0.197703	0.198031
910	0.104512	0.19836	0.199182	0.19573	0.199839	0.196717
911	0.10632	0.199511	0.200825	0.196881	0.197867	0.1908
912	0.106978	0.19721	0.198031	0.196223	0.19721	0.193922
913	0.111415	0.19836	0.200661	0.199346	0.19573	0.196223
914	0.117661	0.196552	0.19836	0.196388	0.198853	0.195073
915	0.118154	0.195895	0.199675	0.196059	0.19836	0.19721
916	0.123085	0.19836	0.202633	0.199182	0.19836	0.196223
917	0.12933	0.197867	0.198524	0.199675	0.200004	0.196881
918	0.133768	0.195566	0.201647	0.199511	0.196059	0.196717
919	0.136069	0.197045	0.199839	0.201976	0.20099	0.200004
920	0.136398	0.197538	0.199839	0.19721	0.198853	0.198031
921	0.139192	0.197374	0.202305	0.199018	0.194416	0.200004
922	0.141986	0.19458	0.204277	0.199182	0.198031	0.191786
923	0.145437	0.200497	0.201319	0.19721	0.196717	0.196388
924	0.144451	0.198031	0.205427	0.197867	0.195566	0.196388
925	0.148724	0.198196	0.201812	0.197374	0.196388	0.199182
926	0.146588	0.199511	0.202305	0.196223	0.196388	0.196717
927	0.151518	0.198689	0.204606	0.199018	0.196388	0.199511
928	0.153984	0.199018	0.198853	0.199346	0.198031	0.196059
929	0.153162	0.196717	0.200497	0.199182	0.195895	0.196881
930	0.155792	0.197045	0.203948	0.197703	0.200004	0.200825
931	0.157435	0.199511	0.203126	0.200661	0.19836	0.192279
932	0.159243	0.197045	0.199018	0.198524	0.197538	0.199182
933	0.162037	0.19836	0.204277	0.200168	0.198031	0.187019
934	0.163188	0.195895	0.199675	0.199018	0.200661	0.197703
935	0.161544	0.19573	0.200004	0.199018	0.201319	0.198196
936	0.166475	0.196388	0.201319	0.198031	0.198853	0.199675
937	0.168283	0.197703	0.199182	0.199182	0.198524	0.198853
938	0.17157	0.196881	0.201647	0.197045	0.196717	0.19836
939	0.169269	0.200168	0.202469	0.199839	0.196881	0.199018
940	0.1742	0.197045	0.200168	0.198524	0.192279	0.198031
941	0.174035	0.200332	0.202962	0.196388	0.196223	0.200497
942	0.175679	0.199182	0.201483	0.199182	0.195073	0.197703
943	0.175515	0.198524	0.20099	0.195566	0.198689	0.198031
944	0.17798	0.201812	0.200825	0.197867	0.19458	0.190635
945	0.178144	0.201812	0.201319	0.19195	0.196059	0.19721
946	0.182253	0.198853	0.200497	0.197867	0.195073	0.197867
947	0.179952	0.198853	0.198853	0.19573	0.200168	0.199346
948	0.179952	0.196059	0.197045	0.197045	0.196717	0.196552
949	0.180281	0.19721	0.19721	0.197867	0.197703	0.200004
950	0.18176	0.198853	0.197867	0.200497	0.200004	0.197045
951	0.181267	0.197045	0.192443	0.198853	0.199346	0.19836
952	0.182746	0.198853	0.196388	0.19836	0.198689	0.200497
953	0.186362	0.19836	0.196717	0.199511	0.199675	0.200825
954	0.184554	0.198196	0.196881	0.196552	0.20099	0.198196
955	0.185212	0.197867	0.19836	0.196881	0.195566	0.197538
956	0.186691	0.200497	0.198853	0.197374	0.197374	0.196717
957	0.187184	0.198031	0.199182	0.19836	0.193265	0.203126
958	0.187348	0.198689	0.200825	0.198196	0.196717	0.199018
959	0.190307	0.19573	0.197374	0.197374	0.196881	0.198524
960	0.186855	0.195073	0.202469	0.196552	0.198196	0.200332
961	0.190307	0.196223	0.200497	0.200168	0.198031	0.197045
962	0.183404	0.197045	0.198689	0.199675	0.19836	0.19836
963	0.189156	0.19721	0.199839	0.200661	0.196388	0.197374
964	0.188992	0.19836	0.197703	0.196717	0.197703	0.199675
965	0.190471	0.197538	0.19573	0.198196	0.197374	0.196388
966	0.190635	0.197374	0.197538	0.199346	0.198524	0.201483
967	0.190964	0.198196	0.197374	0.199182	0.196881	0.19573
968	0.190471	0.195237	0.196388	0.198853	0.196881	0.197867
969	0.188827	0.197045	0.197703	0.197867	0.200004	0.197374
970	0.187348	0.19721	0.195402	0.20099	0.198196	0.197867
971	0.190471	0.198524	0.197538	0.200661	0.19836	0.197867
972	0.19195	0.197867	0.196059	0.199675	0.200004	0.198031
973	0.192772	0.198031	0.197374	0.19721	0.200497	0.197374
974	0.191457	0.199018	0.198524	0.199018	0.196717	0.19836
975	0.194744	0.201319	0.200332	0.200332	0.200168	0.197867
976	0.193429	0.200004	0.197703	0.199182	0.196717	0.194087
977	0.192115	0.200332	0.198853	0.197045	0.197867	0.201154
978	0.195895	0.200497	0.200004	0.200332	0.196388	0.194744
979	0.193265	0.196717	0.200825	0.196552	0.197703	0.196059
980	0.193594	0.196388	0.200004	0.197703	0.19721	0.194416
981	0.193594	0.201154	0.195073	0.198031	0.198031	0.19836
982	0.193101	0.199511	0.200497	0.198853	0.196223	0.197703
983	0.194744	0.198524	0.198524	0.203126	0.198689	0.199675
984	0.194416	0.199675	0.199839	0.20214	0.199839	0.199511
985	0.195402	0.196552	0.194744	0.200168	0.196388	0.197867
986	0.193265	0.200004	0.199018	0.200661	0.198689	0.198524
987	0.196223	0.198196	0.19721	0.202305	0.195073	0.19836
988	0.196223	0.199346	0.197703	0.199346	0.19573	0.206414
989	0.198524	0.199675	0.198524	0.201483	0.196059	0.19836
990	0.196059	0.200661	0.19573	0.197703	0.198196	0.197703
991	0.199018	0.198853	0.19836	0.198853	0.197374	0.19836
992	0.19458	0.198853	0.198853	0.196717	0.199675	0.199675
993	0.196881	0.19721	0.200004	0.199675	0.196717	0.19721
994	0.134097	0.199675	0.199839	0.199839	0.200332	0.192936
995	0.139356	0.199018	0.200004	0.199182	0.197867	0.150039
996	0.143794	0.199346	0.199182	0.197374	0.200168	0.107635
997	0.095308	0.199182	0.20099	0.19836	0.194416	0.077558
998	0.099253	0.198196	0.196388	0.19836	0.199182	0.05652
999	0.103197	0.198524	0.199018	0.198524	0.19836	0.044358
1000	0.105827	0.199511	0.198031	0.200168	0.19721	0.033017
1001	0.10895	0.19836	0.200332	0.197045	0.197374	0.027265
1002	0.113388	0.194251	0.193594	0.19721	0.199182	0.023813
1003	0.118647	0.199511	0.195237	0.198524	0.200004	0.02069
1004	0.121112	0.197374	0.198031	0.199346	0.196059	0.017074
1005	0.123249	0.19836	0.194909	0.19573	0.20362	0.020033
1006	0.127522	0.197045	0.197867	0.200004	0.200004	0.01691
1007	0.131302	0.197538	0.197538	0.198689	0.203126	0.01691
1008	0.133932	0.201812	0.200661	0.199839	0.197045	0.013787
1009	0.132124	0.196223	0.199018	0.199018	0.199839	0.015266
1010	0.139356	0.197703	0.19836	0.199675	0.198524	0.019375
1011	0.138699	0.200332	0.199182	0.197538	0.19836	0.015266
1012	0.13837	0.200004	0.200497	0.19836	0.19836	0.016581
1013	0.143794	0.197703	0.197374	0.198524	0.198524	0.019047
1014	0.142479	0.199018	0.199675	0.19721	0.198031	0.021019
1015	0.135576	0.199839	0.197703	0.200497	0.199182	0.024964
1016	0.039756	0.199182	0.200332	0.193922	0.198853	0.029894
1017	0.03236	0.197703	0.197045	0.202305	0.199511	0.03729
1018	0.029072	0.198524	0.198196	0.199511	0.199511	0.043371
1019	0.025457	0.195073	0.194744	0.048631	0.196388	0.051096
1020	0.018718	0.199511	0.194087	0.050932	0.199346	0.057835
1021	0.023977	0.196552	0.197703	0.018882	0.196223	0.063259
1022	0.024142	0.197867	0.202305	0.018554	0.201154	0.067532
1023	0.016746	0.196059	0.200825	0.027758	0.196223	0.07312
1024	0.014609	0.197374	0.199346	0.01313	0.197703	0.07838
1025	0.013787	0.197538	0.200661	0.023156	0.198031	0.085611
1026	0.01313	0.199511	0.202469	0.035154	0.199182	0.087419
1027	0.011979	0.199346	0.200332	0.03729	0.198689	0.094487
1028	0.005898	0.194909	0.200168	0.043371	0.201647	0.101718
1029	0.006062	0.19836	0.201483	0.050603	0.200332	0.104184
1030	0.003104	0.195237	0.200004	0.056027	0.198689	0.107306
1031	-0.001498	0.198689	0.200332	0.062273	0.197867	0.112073
1032	-0.000183	0.197374	0.197867	0.069504	0.199182	0.115524
1033	-0.004128	0.199675	0.200661	0.074764	0.197538	0.115524
1034	0.002118	0.19836	0.199018	0.080023	0.199675	0.121934
1035	0.006062	0.19836	0.19836	0.084296	0.201647	0.12292
1036	0.009021	0.19836	0.197374	0.08972	0.198689	0.125714
1037	0.009678	0.199018	0.20099	0.092679	0.201319	0.130974
1038	0.015431	0.195895	0.197374	0.096623	0.198524	0.131796
1039	0.016417	0.194744	0.198524	0.102704	0.199839	0.136562
1040	0.019704	0.199511	0.198853	0.105992	0.198031	0.136726
1041	0.018225	0.197538	0.200661	0.108786	0.196059	0.141657
1042	0.015595	0.200497	0.199018	0.115195	0.199182	0.142479
1043	0.01428	0.199511	0.198031	0.117332	0.201647	0.14856
1044	0.015266	0.198524	0.199511	0.118647	0.195402	0.146752
1045	0.017896	0.196717	0.198524	0.123906	0.196223	0.151683
1046	0.020855	0.198196	0.202962	0.122756	0.197374	0.153655
1047	0.028086	0.197538	0.19836	0.128344	0.200661	0.153984
1048	0.034661	0.200168	0.197374	0.132617	0.199346	0.156449
1049	0.041564	0.196881	0.195895	0.133603	0.200497	0.158257
1050	0.046166	0.200168	0.197867	0.138205	0.199346	0.1576
1051	0.056191	0.199839	0.200661	0.144944	0.19721	0.160887
1052	0.0603	0.200497	0.200497	0.141328	0.196552	0.16138
1053	0.066546	0.195402	0.198689	0.143629	0.199182	0.163516
1054	0.068682	0.198689	0.197374	0.148067	0.197045	0.168447
1055	0.077722	0.196552	0.197703	0.149382	0.194909	0.165489
1056	0.077558	0.196717	0.19721	0.150532	0.191621	0.169598
1057	0.086433	0.19721	0.197867	0.154641	0.19573	0.172392
1058	0.090871	0.19721	0.195073	0.156449	0.197045	0.170091
1059	0.091528	0.197374	0.197538	0.159079	0.195237	0.17157
1060	0.098595	0.196059	0.197538	0.159408	0.201647	0.173707
1061	0.099582	0.195073	0.199182	0.163188	0.199346	0.172063
1062	0.104184	0.198689	0.197538	0.164174	0.200168	0.177815
1063	0.110922	0.197538	0.198524	0.163681	0.200332	0.176336
1064	0.116017	0.196881	0.195402	0.170419	0.198689	0.177651
1065	0.116839	0.200661	0.196717	0.166475	0.200825	0.179952
1066	0.121934	0.199675	0.194416	0.171241	0.197867	0.174528
1067	0.123085	0.199346	0.197045	0.167954	0.198524	0.178309
1068	0.127358	0.199182	0.195566	0.172227	0.19836	0.178637
1069	0.128837	0.200661	0.192115	0.170091	0.199018	0.180281
1070	0.133768	0.196717	0.196552	0.172227	0.195237	0.181267
1071	0.134918	0.19836	0.19836	0.172392	0.199346	0.181431
1072	0.136562	0.195402	0.194909	0.176336	0.19836	0.180774
1073	0.139192	0.195895	0.195237	0.177815	0.198031	0.18554
1074	0.140013	0.196223	0.196388	0.17913	0.19721	0.184061
1075	0.140835	0.195073	0.194251	0.177487	0.198524	0.186362
1076	0.144287	0.199346	0.196552	0.179952	0.200004	0.18554
1077	0.149546	0.197703	0.194909	0.179459	0.19573	0.181924
1078	0.147903	0.199182	0.196552	0.181267	0.199346	0.179295
1079	0.147081	0.199839	0.196223	0.180774	0.199675	0.186033
1080	0.152505	0.200168	0.196223	0.181596	0.197867	0.185212
1081	0.156613	0.204277	0.196059	0.184225	0.198196	0.185705
1082	0.157435	0.20214	0.197045	0.181596	0.200661	0.188499
1083	0.161873	0.199675	0.196552	0.184718	0.197045	0.188334
1084	0.162037	0.201319	0.197703	0.183075	0.197045	0.190307
1085	0.163516	0.198524	0.198524	0.184225	0.19721	0.189485
1086	0.166311	0.201976	0.19573	0.181431	0.194087	0.190307
1087	0.163516	0.199018	0.196223	0.184883	0.197374	0.192115
1088	0.166804	0.197703	0.195566	0.184883	0.197703	0.190307
1089	0.164996	0.19721	0.197867	0.184225	0.193101	0.188006
1090	0.168283	0.196881	0.194744	0.184554	0.196717	0.191786
1091	0.070326	0.198031	0.19573	0.187841	0.196552	0.191621
1092	0.077886	0.197374	0.194909	0.188334	0.197703	0.192936
1093	0.081831	0.199018	0.197538	0.189814	0.198524	0.188499
1094	0.089391	0.195566	0.196552	0.194087	0.199182	0.194251
1095	0.094651	0.202798	0.193758	0.192772	0.199675	0.193758
1096	0.096623	0.19721	0.197045	0.193429	0.199018	0.195073
1097	0.103855	0.200168	0.197045	0.188006	0.201812	0.194744
1098	0.107471	0.198031	0.196059	0.192115	0.198524	0.194416
1099	0.109607	0.199839	0.196059	0.190471	0.196717	0.194416
1100	0.115195	0.198524	0.196059	0.191786	0.198853	0.192608
1101	0.11914	0.201154	0.192608	0.188663	0.197703	0.195237
1102	0.121934	0.200332	0.196223	0.189978	0.198853	0.1908
1103	0.121605	0.197538	0.196552	0.187184	0.198524	0.192115
1104	0.125714	0.198853	0.19721	0.188827	0.196717	0.193101
1105	0.129823	0.19573	0.195566	0.191621	0.197374	0.192608
1106	0.134261	0.19836	0.195402	0.189485	0.198524	0.194087
1107	0.134918	0.196223	0.197045	0.192115	0.202305	0.194251
1108	0.136726	0.199018	0.195073	0.193429	0.198689	0.195402
1109	0.138863	0.197867	0.19458	0.19195	0.196388	0.197374
1110	0.140013	0.200004	0.194909	0.193922	0.200497	0.193594
1111	0.141657	0.198524	0.192608	0.194744	0.197538	0.195237
1112	0.139192	0.199182	0.194416	0.194087	0.198853	0.196552
1113	0.150039	0.199346	0.192608	0.195073	0.197045	0.195402
1114	0.151025	0.199182	0.193429	0.192279	0.199675	0.196717
1115	0.152669	0.197867	0.196059	0.191457	0.197867	0.196552
1116	0.156285	0.200332	0.194416	0.194744	0.20099	0.195895
1117	0.159736	0.197538	0.192936	0.190964	0.195566	0.196552
1118	0.159408	0.201154	0.196388	0.193758	0.200661	0.197703
1119	0.161215	0.200825	0.199182	0.196059	0.197703	0.196881
1120	0.159736	0.19195	0.196552	0.192936	0.198689	0.19836
1121	0.166146	0.195073	0.197045	0.194416	0.196717	0.194909
1122	0.160558	0.19458	0.198196	0.195073	0.197867	0.193922
1123	0.16138	0.195895	0.195402	0.195073	0.196388	0.197374
1124	0.162695	0.197045	0.196223	0.195895	0.196223	0.197045
1125	0.163516	0.195566	0.198031	0.195073	0.199018	0.191457
1126	0.16779	0.197538	0.19573	0.196388	0.196717	0.196552
1127	0.167297	0.198031	0.196552	0.199018	0.200332	0.193429
1128	0.169598	0.198689	0.195073	0.197703	0.197045	0.19836
1129	0.168612	0.197867	0.196388	0.194087	0.200497	0.198196
1130	0.173707	0.195566	0.19458	0.199182	0.199346	0.196223
1131	0.173542	0.189814	0.196717	0.197703	0.195237	0.19721
1132	0.176994	0.195895	0.195895	0.198031	0.197703	0.19721
1133	0.177158	0.199018	0.196717	0.196059	0.201976	0.196717
1134	0.179952	0.197703	0.196388	0.196388	0.198031	0.194087
1135	0.177651	0.199675	0.195402	0.194744	0.199018	0.198031
1136	0.184061	0.199675	0.197538	0.197045	0.196223	0.197045
1137	0.181596	0.198031	0.197045	0.19458	0.194744	0.198524
1138	0.181431	0.197703	0.196223	0.193922	0.195237	0.196881
1139	0.182911	0.198031	0.196881	0.198031	0.194744	0.199018
1140	0.181924	0.198031	0.198524	0.196223	0.196388	0.197045
1141	0.182417	0.197867	0.196223	0.19573	0.196388	0.198196
1142	0.182089	0.188006	0.196059	0.198689	0.19458	0.199511
1143	0.185212	0.195895	0.194416	0.194744	0.193594	0.196223
1144	0.183075	0.198031	0.196388	0.19721	0.197538	0.198524
1145	0.185212	0.197703	0.193429	0.196717	0.19721	0.197045
1146	0.180774	0.197867	0.193594	0.20099	0.196881	0.199511
1147	0.187019	0.200332	0.19458	0.200004	0.196388	0.196223
1148	0.187184	0.199182	0.195073	0.198853	0.198689	0.19836
1149	0.186855	0.197867	0.195402	0.198031	0.197045	0.198524
1150	0.190142	0.201812	0.194909	0.198031	0.199675	0.200004
1151	0.189485	0.198853	0.19836	0.197374	0.199511	0.198031
1152	0.188827	0.200497	0.191128	0.195073	0.199511	0.20099
1153	0.189156	0.193265	0.195237	0.197867	0.198031	0.201647
1154	0.191621	0.193758	0.195402	0.192936	0.197538	0.198853
1155	0.187513	0.19836	0.196717	0.192608	0.201319	0.197538
1156	0.191293	0.196717	0.197045	0.195402	0.196223	0.198524
1157	0.188992	0.197538	0.197374	0.193922	0.193429	0.196881
1158	0.189649	0.19573	0.198853	0.19573	0.194909	0.194909
1159	0.190142	0.197867	0.196223	0.196059	0.195895	0.19836
1160	0.188499	0.192936	0.195895	0.198524	0.19721	0.193429
1161	0.189485	0.199511	0.197045	0.197374	0.19721	0.199346
1162	0.185705	0.198524	0.199346	0.198689	0.195895	0.19573
1163	0.189156	0.19836	0.19458	0.197374	0.196059	0.199018
1164	0.1908	0.195895	0.196388	0.197703	0.196388	0.19836
1165	0.192279	0.19836	0.196223	0.197703	0.199182	0.196717
1166	0.192772	0.199018	0.196552	0.19836	0.194744	0.197867
1167	0.192608	0.199839	0.193429	0.200168	0.198689	0.200168
1168	0.193265	0.19721	0.19836	0.197867	0.197045	0.197867
1169	0.194251	0.19573	0.196059	0.196388	0.196223	0.200168
1170	0.194087	0.198524	0.198196	0.19458	0.198853	0.19836
1171	0.193594	0.195895	0.196388	0.19573	0.198031	0.197703
1172	0.190307	0.200004	0.202305	0.015102	0.198196	0.200497
1173	0.192772	0.19573	0.202305	0.015431	0.195895	0.199018
1174	0.191621	0.200497	0.201483	0.022334	0.193758	0.195895
1175	0.192936	0.201154	0.198524	0.031702	0.199018	0.198689
1176	0.196388	0.197867	0.198196	0.036962	0.197045	0.197374
1177	0.191457	0.195237	0.200825	0.044522	0.193265	0.195566
1178	0.191621	0.197045	0.19836	0.051261	0.198524	0.196388
1179	0.196059	0.195237	0.19721	0.059643	0.194744	0.198689
1180	0.192772	0.199182	0.19836	0.065231	0.195073	0.193594
1181	0.195237	0.199346	0.199839	0.069669	0.19458	0.196388
1182	0.195073	0.203784	0.199346	0.074599	0.197703	0.19721
1183	0.197374	0.200168	0.201319	0.080023	0.196388	0.19721
1184	0.19721	0.200497	0.199839	0.085283	0.196223	0.200168
1185	0.19458	0.198524	0.199346	0.088241	0.198031	0.199182
1186	0.198524	0.202305	0.199511	0.0935	0.19836	0.203126
1187	0.195402	0.199839	0.201154	0.097116	0.199675	0.199018
1188	0.196552	0.195895	0.199675	0.100403	0.193101	0.200004
1189	0.195237	0.200004	0.20214	0.105005	0.19721	0.200168
1190	0.196388	0.196388	0.199018	0.109443	0.19195	0.198524
1191	0.197045	0.19836	0.201319	0.111251	0.190307	0.198853
1192	0.197045	0.198524	0.200004	0.119469	0.189814	0.199346
1193	0.19721	0.19836	0.198031	0.123249	0.192443	0.197374
1194	0.198196	0.199182	0.19836	0.125714	0.189649	0.198196
1195	0.196717	0.198853	0.200004	0.130645	0.190471	0.198853
1196	0.197703	0.198524	0.199018	0.128015	0.18932	0.196881
1197	0.197703	0.203291	0.194416	0.133275	0.192443	0.201319
1198	0.19721	0.197703	0.19836	0.137877	0.187513	0.196059
1199	0.196552	0.201319	0.196717	0.139192	0.186691	0.199182
1200	0.196717	0.198689	0.198853	0.141493	0.185869	0.197867
1201	0.198031	0.196223	0.19721	0.141821	0.183568	0.197045
1202	0.196388	0.198031	0.198853	0.14215	0.184883	0.200332
1203	0.19458	0.196552	0.196717	0.147738	0.18176	0.200004
1204	0.196059	0.200004	0.20099	0.146259	0.182746	0.198853
1205	0.200004	0.196223	0.199182	0.149217	0.171406	0.200661
1206	0.196059	0.199675	0.200332	0.153819	0.168283	0.201154
1207	0.195237	0.20099	0.199346	0.15612	0.164503	0.202469
1208	0.193922	0.204277	0.199346	0.158093	0.155463	0.199675
1209	0.194251	0.197867	0.200168	0.15875	0.122098	0.196223
1210	0.193265	0.19836	0.198853	0.158914	0.10632	0.19721
1211	0.193594	0.194416	0.199511	0.162695	0.0603	0.196552
1212	0.18932	0.197867	0.198031	0.163845	0.027429	0.198853
1213	0.193265	0.198031	0.200497	0.16516	0.023977	0.195566
1214	0.194744	0.196552	0.199675	0.168776	0.022169	0.199018
1215	0.195566	0.19836	0.199346	0.170255	0.018225	0.195073
1216	0.196223	0.197538	0.198524	0.171734	0.014116	0.200661
1217	0.194416	0.198689	0.20362	0.170584	0.01428	0.196388
1218	0.196552	0.196717	0.196552	0.170584	0.012472	0.197374
1219	0.193594	0.200497	0.195402	0.170748	0.01428	0.204606
1220	0.19573	0.196717	0.201647	0.172227	0.015924	0.198524
1221	0.194251	0.197374	0.199839	0.17272	0.022663	0.199182
1222	0.194087	0.196059	0.199839	0.176994	0.02069	0.200168
1223	0.196059	0.197374	0.199346	0.176336	0.01954	0.198689
1224	0.19721	0.196552	0.199182	0.177815	0.002611	0.201154
1225	0.198853	0.199018	0.198031	0.17535	0.006391	0.200661
1226	0.19721	0.198196	0.20214	0.180938	0.003761	0.19573
1227	0.197374	0.20099	0.198524	0.17798	0.000146	0.198524
1228	0.195237	0.197867	0.203291	0.179295	-0.002813	0.197374
1229	0.19721	0.20099	0.198031	0.180281	0.000146	0.194416
1230	0.196552	0.20099	0.200332	0.183568	0.002775	0.197374
1231	0.195895	0.198031	0.200168	0.181596	0.00031	0.197703
1232	0.197374	0.197867	0.201647	0.183732	-0.000347	0.196552
1233	0.19573	0.192936	0.197867	0.183075	-1.9e-05	0.199675
1234	0.193429	0.198031	0.201812	0.184554	0.003597	0.198196
1235	0.195073	0.195402	0.198689	0.185047	0.000803	0.198524
1236	0.194744	0.199346	0.200497	0.182253	0.005734	0.200497
1237	0.195566	0.196552	0.199675	0.18817	0.008199	0.198524
1238	0.199018	0.199675	0.200661	0.18554	0.004583	0.20099
1239	0.19721	0.197538	0.201812	0.187841	-0.00232	0.196388
1240	0.197538	0.201319	0.199018	0.186855	0.009021	0.20214
1241	0.199182	0.20099	0.198853	0.188006	0.005405	0.203455
1242	0.196059	0.199182	0.198853	0.188499	0.010171	0.198196
1243	0.198689	0.199839	0.201647	0.191128	0.00935	0.197538
1244	0.197703	0.19836	0.198196	0.189814	0.004419	0.199018
1245	0.19836	0.200004	0.199675	0.186691	0.006227	0.198031
1246	0.201319	0.198031	0.201812	0.188499	0.002118	0.199018
1247	0.197045	0.199182	0.20099	0.183239	0.002775	0.197374
1248	0.199018	0.197703	0.200661	0.1908	0.002447	0.196717
1249	0.198524	0.199346	0.199182	0.188663	0.002611	0.198853
1250	0.199182	0.197538	0.198524	0.195073	0.001789	0.198853
1251	0.195237	0.19836	0.200168	0.188499	0.001296	0.199675
1252	0.198196	0.196223	0.199511	0.190471	-0.005278	0.19721
1253	0.195073	0.196388	0.196388	0.188827	0.003761	0.196717
1254	0.196059	0.194909	0.196717	0.195073	0.003268	0.19836
1255	0.19721	0.196717	0.196223	0.188992	0.004583	0.19836
1256	0.198031	0.19458	0.198031	0.191128	0.005076	0.198689
1257	0.196717	0.196717	0.19836	0.193429	0.009678	0.202305
1258	0.198689	0.197703	0.19836	0.192279	0.010171	0.199675
1259	0.196388	0.197374	0.198196	0.194251	0.006391	0.197867
1260	0.198689	0.202305	0.198689	0.194251	0.002118	0.198196
1261	0.198524	0.195237	0.198031	0.194909	0.000967	0.200332
1262	0.201483	0.199675	0.200661	0.192279	0.002118	0.196552
1263	0.196881	0.19836	0.19721	0.194416	0.003926	0.200661
1264	0.197374	0.19836	0.198689	0.197867	0.002282	0.196717
1265	0.197374	0.194744	0.196717	0.194087	0.001296	0.198031
1266	0.197045	0.198689	0.19573	0.193429	0.00294	0.197374
1267	0.197045	0.196717	0.194087	0.196059	0.003761	0.19836
1268	0.194744	0.198524	0.194909	0.194416	0.007213	0.198853
1269	0.197867	0.195895	0.192115	0.197867	0.005734	0.197374
1270	0.19458	0.193429	0.194416	0.198031	0.008857	0.19721
1271	0.199182	0.195237	0.196552	0.198689	0.007377	0.200004
1272	0.196388	0.197045	0.197045	0.197703	0.005076	0.200168
1273	0.201647	0.19721	0.198689	0.198196	0.009678	0.202633
1274	0.197703	0.197703	0.197703	0.19721	0.013294	0.200332
1275	0.199675	0.19573	0.200332	0.19573	0.014445	0.19836
1276	0.198031	0.19573	0.199346	0.195237	0.019047	0.199511
1277	0.197374	0.20099	0.201483	0.19573	0.021676	0.19836
1278	0.19721	0.201483	0.197538	0.195073	0.024306	0.197867
1279	0.196388	0.200332	0.200497	0.19458	0.025621	0.198031
1280	0.200168	0.197703	0.197374	0.195237	0.033181	0.199839
1281	0.196388	0.198196	0.200004	0.194416	0.034989	0.199182
1282	0.199675	0.19721	0.198031	0.196717	0.040906	0.199182
1283	0.199182	0.199675	0.199018	0.19458	0.047645	0.198853
1284	0.197374	0.19836	0.196552	0.19573	0.049453	0.199018
1285	0.194251	0.199346	0.194744	0.195566	0.060465	0.200497
1286	0.200004	0.197045	0.19836	0.19721	0.061122	0.19721
1287	0.194087	0.196223	0.193922	0.196881	0.070983	0.202305
1288	0.197867	0.196552	0.19836	0.197703	0.077065	0.197374
1289	0.196717	0.196881	0.196223	0.196223	0.076736	0.197374
1290	0.196388	0.198031	0.198524	0.196717	0.081502	0.198196
1291	0.19721	0.196223	0.198524	0.194251	0.088734	0.200004
1292	0.198031	0.197867	0.198031	0.196388	0.090706	0.197374
1293	0.200661	0.197045	0.199018	0.196552	0.096294	0.20099
1294	0.199839	0.196717	0.199182	0.195402	0.105827	0.198196
1295	0.20214	0.19836	0.193922	0.196223	0.105005	0.202798
1296	0.199675	0.201976	0.199182	0.19573	0.110429	0.201154
1297	0.201647	0.195237	0.198031	0.196881	0.111744	0.197538
1298	0.19836	0.199511	0.198196	0.193922	0.11651	0.198853
1299	0.198031	0.198196	0.198031	0.195073	0.119469	0.199018
1300	0.197867	0.197374	0.197045	0.193758	0.123742	0.197045
1301	0.198853	0.196223	0.201812	0.197538	0.125221	0.197538
1302	0.199018	0.197045	0.199511	0.193758	0.132617	0.201976
1303	0.196388	0.196059	0.197867	0.197374	0.129988	0.195895
1304	0.198196	0.198524	0.194909	0.196881	0.133439	0.201483
1305	0.197867	0.199511	0.198853	0.196059	0.137384	0.197867
1306	0.198031	0.199018	0.197538	0.197538	0.141164	0.198196
1307	0.197703	0.198689	0.196223	0.197045	0.141328	0.199182
1308	0.200332	0.197045	0.19721	0.198196	0.14593	0.200825
1309	0.197538	0.199182	0.197867	0.197374	0.147738	0.199511
1310	0.198031	0.198524	0.19721	0.199675	0.147245	0.199839
1311	0.201812	0.202469	0.198853	0.196717	0.154148	0.199839
1312	0.202798	0.201976	0.199346	0.198524	0.153491	0.198853
1313	0.20099	0.19836	0.200825	0.19573	0.156942	0.19836
1314	0.198689	0.197374	0.19721	0.196881	0.157928	0.195566
1315	0.201483	0.199511	0.197867	0.19573	0.160229	0.199346
1316	0.200168	0.201319	0.199346	0.199839	0.160394	0.198853
1317	0.198853	0.195895	0.19573	0.196717	0.16253	0.198853
1318	0.197045	0.197374	0.197867	0.198524	0.163023	0.197703
1319	0.198524	0.196717	0.196552	0.202305	0.16516	0.198689
1320	0.198196	0.194909	0.199511	0.197703	0.164996	0.196388
1321	0.196223	0.195895	0.197867	0.198524	0.166475	0.199182
1322	0.196552	0.195237	0.199018	0.199675	0.16894	0.197045
1323	0.198031	0.196552	0.198524	0.199839	0.168776	0.197867
1324	0.19836	0.20099	0.200661	0.198524	0.170419	0.200332
1325	0.192608	0.197538	0.201154	0.199675	0.173049	0.196881
1326	0.197374	0.199839	0.199511	0.197374	0.1742	0.195895
1327	0.201319	0.200168	0.198853	0.200497	0.174693	0.197703
1328	0.197045	0.199018	0.20099	0.198031	0.176172	0.19836
1329	0.19836	0.198031	0.198689	0.200661	0.174364	0.20099
1330	0.199018	0.198853	0.201812	0.197538	0.178802	0.197045
1331	0.200825	0.197867	0.201812	0.19836	0.174528	0.193922
1332	0.199675	0.197703	0.201647	0.197703	0.178637	0.195566
1333	0.202305	0.200332	0.20099	0.198524	0.177487	0.198689
1334	0.199839	0.19721	0.199839	0.197374	0.181103	0.198524
1335	0.198689	0.197538	0.203126	0.197703	0.176994	0.197374
1336	0.19836	0.198031	0.199346	0.199018	0.184225	0.199675
1337	0.199839	0.197374	0.200168	0.198524	0.183897	0.198196
1338	0.197867	0.19836	0.201319	0.198031	0.18439	0.199511
1339	0.19836	0.198853	0.199675	0.200332	0.181596	0.197374
1340	0.196881	0.198689	0.197867	0.201154	0.182746	0.200004
1341	0.196552	0.199182	0.203126	0.200004	0.185705	0.198031
1342	0.200332	0.197538	0.197867	0.199839	0.184554	0.199182
1343	0.199346	0.201154	0.202798	0.198031	0.185047	0.199839
1344	0.198853	0.200332	0.201647	0.201154	0.186198	0.201647
1345	0.197867	0.19836	0.20214	0.198524	0.189649	0.198196
1346	0.199346	0.197374	0.201647	0.200332	0.187348	0.200004
1347	0.194744	0.198853	0.202798	0.200661	0.190471	0.200661
1348	0.201483	0.199018	0.201976	0.198031	0.190635	0.198524
1349	0.197703	0.197703	0.203291	0.197703	0.189978	0.201483
1350	0.199675	0.198524	0.201647	0.197538	0.192608	0.19458
1351	0.200004	0.199346	0.199018	0.196552	0.1908	0.202305
1352	0.198524	0.199182	0.202962	0.196388	0.187841	0.19721
1353	0.19836	0.196223	0.201483	0.196059	0.188663	0.200332
1354	0.197867	0.194909	0.201976	0.197538	0.186691	0.199675
1355	0.199675	0.197538	0.200332	0.19836	0.191621	0.198853
1356	0.19836	0.197374	0.203126	0.199839	0.189156	0.197538
1357	0.198196	0.195237	0.199018	0.196552	0.191128	0.199346
1358	0.194909	0.197867	0.20214	0.200661	0.194744	0.196388
1359	0.200661	0.198524	0.199511	0.200004	0.192279	0.200497
1360	0.196388	0.197703	0.202305	0.202305	0.195073	0.199182
1361	0.199346	0.197538	0.202633	0.19721	0.19458	0.200661
1362	0.195895	0.201154	0.200825	0.20099	0.197045	0.201319
1363	0.200497	0.197045	0.200661	0.195566	0.19195	0.198196
1364	0.198853	0.200168	0.198524	0.195566	0.195237	0.198196
1365	0.200168	0.199182	0.200661	0.197867	0.193758	0.199182
1366	0.198689	0.19836	0.199182	0.198031	0.195237	0.20099
1367	0.199346	0.199839	0.200004	0.198031	0.194744	0.198524
1368	0.199511	0.19721	0.196059	0.197045	0.19458	0.200825
1369	0.19721	0.199346	0.20362	0.198031	0.193594	0.197374
1370	0.200004	0.198524	0.200332	0.196388	0.197538	0.199182
1371	0.197703	0.192772	0.203291	0.199018	0.193101	0.196223
1372	0.198524	0.197538	0.199839	0.201647	0.192608	0.200168
1373	0.196552	0.197703	0.200497	0.199675	0.194416	0.200168
1374	0.197538	0.193265	0.198196	0.198689	0.192115	0.198853
1375	0.194744	0.195566	0.198031	0.197045	0.19573	0.195402
1376	0.192443	0.19573	0.197374	0.203126	0.193265	0.197374
1377	0.194909	0.195402	0.196717	0.196388	0.19458	0.196717
1378	0.19836	0.193758	0.200661	0.198524	0.193922	0.196717
1379	0.036469	0.198689	0.199182	0.19836	0.199182	0.200168
1380	0.026771	0.195895	0.20099	0.200825	0.19836	0.198031
1381	0.038441	0.199182	0.20214	0.200661	0.199018	0.196223
1382	0.044029	0.198853	0.20099	0.198524	0.196552	0.198853
1383	0.053233	0.199182	0.198031	0.19836	0.198196	0.201647
1384	0.056191	0.198853	0.200497	0.201812	0.196059	0.202633
1385	0.064574	0.198853	0.198031	0.195895	0.198524	0.200825
1386	0.068354	0.200168	0.200661	0.196717	0.193758	0.199346
1387	0.074764	0.199839	0.199018	0.197045	0.193265	0.199018
1388	0.079037	0.197703	0.195895	0.196552	0.197703	0.198853
1389	0.084132	0.197703	0.198524	0.195073	0.192115	0.199346
1390	0.088405	0.200825	0.200004	0.196059	0.196881	0.196552
1391	0.093829	0.196388	0.194909	0.198524	0.192772	0.200332
1392	0.097445	0.199675	0.200332	0.198524	0.196388	0.199018
1393	0.102869	0.19573	0.200661	0.199018	0.194416	0.198524
1394	0.102704	0.19836	0.199511	0.198196	0.195237	0.200168
1395	0.108128	0.198689	0.202305	0.199675	0.196388	0.199675
1396	0.1101	0.197045	0.198689	0.200661	0.19721	0.200168
1397	0.114702	0.19836	0.200825	0.202469	0.197703	0.198689
1398	0.122098	0.198689	0.198853	0.20099	0.199346	0.200497
1399	0.123085	0.19836	0.19458	0.199182	0.197374	0.200332
1400	0.127522	0.19836	0.197538	0.198031	0.199182	0.198524
1401	0.129001	0.198853	0.196552	0.197703	0.200004	0.201976
1402	0.132782	0.197538	0.197703	0.19836	0.198031	0.200661
1403	0.136233	0.199839	0.200332	0.196059	0.203126	0.199675
1404	0.13952	0.199839	0.199675	0.197045	0.196223	0.199346
1405	0.141657	0.200168	0.198196	0.195402	0.200004	0.196717
1406	0.14478	0.198689	0.198524	0.198524	0.198853	0.200168
1407	0.143958	0.192772	0.19721	0.194909	0.197045	0.197867
1408	0.148396	0.196881	0.196223	0.196717	0.196388	0.194909
1409	0.147738	0.198689	0.197703	0.198031	0.19721	0.201154
1410	0.152011	0.196552	0.195566	0.198196	0.196388	0.197045
1411	0.150368	0.19573	0.197374	0.19836	0.195073	0.199675
1412	0.152176	0.193594	0.197867	0.194416	0.196223	0.201154
1413	0.152176	0.196552	0.196552	0.198689	0.197867	0.200168
1414	0.159408	0.201812	0.197374	0.199346	0.198524	0.199675
1415	0.159243	0.19836	0.196717	0.196388	0.198196	0.201483
1416	0.161051	0.199839	0.196059	0.199511	0.198853	0.200497
1417	0.165324	0.200497	0.192115	0.202305	0.200332	0.202633
1418	0.165817	0.198524	0.197703	0.199018	0.199346	0.19836
1419	0.167461	0.195073	0.196881	0.198689	0.196881	0.199675
1420	0.167297	0.19836	0.197538	0.198196	0.20099	0.198853
1421	0.170913	0.198196	0.195402	0.204441	0.196388	0.199839
1422	0.169598	0.199346	0.196059	0.198031	0.198196	0.198689
1423	0.170419	0.196059	0.198524	0.197703	0.197538	0.199346
1424	0.169598	0.196223	0.197538	0.200004	0.198689	0.199346
1425	0.174364	0.199346	0.198196	0.19721	0.196552	0.194909
1426	0.169433	0.192279	0.19836	0.198031	0.19721	0.196717
1427	0.176172	0.194909	0.199346	0.199675	0.19573	0.197374
1428	0.177158	0.199839	0.199182	0.199675	0.197703	0.199839
1429	0.175515	0.196717	0.197703	0.199182	0.198524	0.196552
1430	0.176665	0.19458	0.197867	0.197867	0.201154	0.199018
1431	0.176665	0.200497	0.197045	0.199346	0.200332	0.199511
1432	0.180938	0.19836	0.192936	0.199675	0.199346	0.203126
1433	0.18176	0.19721	0.197703	0.196717	0.199182	0.201812
1434	0.181267	0.201483	0.19721	0.199018	0.200497	0.202469
1435	0.182253	0.204277	0.197374	0.197538	0.200004	0.200332
1436	0.186855	0.20099	0.198689	0.197374	0.19721	0.20099
1437	0.183404	0.201647	0.20099	0.194416	0.19836	0.200497
1438	0.188006	0.199675	0.197703	0.196552	0.196881	0.198196
1439	0.184883	0.201319	0.199018	0.197538	0.199346	0.201647
1440	0.187184	0.199182	0.198196	0.19573	0.194909	0.19721
1441	0.18554	0.198031	0.197538	0.195895	0.194087	0.198689
1442	0.187019	0.196552	0.198031	0.196717	0.199346	0.198524
1443	0.185869	0.199018	0.195895	0.195895	0.19573	0.19836
1444	0.186855	0.196552	0.199346	0.198196	0.194909	0.197703
1445	0.18932	0.196059	0.199511	0.196223	0.198524	0.201812
1446	0.187184	0.197045	0.197867	0.199182	0.196388	0.19836
1447	0.189485	0.19836	0.195402	0.203126	0.200332	0.198689
1448	0.188992	0.199511	0.197703	0.202469	0.199018	0.20099
1449	0.190307	0.19836	0.196223	0.201812	0.200168	0.200661
1450	0.188663	0.202305	0.198031	0.200497	0.200004	0.203784
1451	0.189485	0.199675	0.193429	0.19836	0.197045	0.199675
1452	0.190635	0.200497	0.200332	0.197703	0.200004	0.199018
1453	0.191293	0.200332	0.199839	0.19721	0.198031	0.199839
1454	0.192115	0.203291	0.200332	0.195566	0.201483	0.200004
1455	0.191293	0.199018	0.199511	0.194416	0.200004	0.197703
1456	0.192279	0.198689	0.200004	0.193758	0.200004	0.202469
1457	0.192443	0.197703	0.200497	0.199839	0.201319	0.196223
1458	0.193594	0.198031	0.197538	0.196717	0.198853	0.197538
1459	0.191128	0.197867	0.199346	0.19836	0.19721	0.198689
1460	0.191293	0.19836	0.197374	0.197045	0.198689	0.196717
1461	0.19195	0.195566	0.199346	0.201154	0.199839	0.199675
1462	0.193101	0.192443	0.197045	0.198524	0.191293	0.200661
1463	0.192608	0.197703	0.19721	0.196717	0.201154	0.19573
1464	0.193101	0.196388	0.196223	0.200004	0.197703	0.19836
1465	0.191786	0.199675	0.194744	0.199511	0.200004	0.199839
1466	0.195073	0.199018	0.194416	0.200661	0.198031	0.198031
1467	0.192608	0.197703	0.19721	0.198524	0.200332	0.199839
1468	0.193758	0.197045	0.197867	0.201319	0.199182	0.200497
1469	0.194251	0.203126	0.197703	0.197374	0.200825	0.200004
1470	0.198689	0.19458	0.19836	0.198196	0.199675	0.197867
1471	0.194251	0.198196	0.200497	0.200661	0.198853	0.199675
1472	0.196223	0.200497	0.200332	0.197045	0.197703	0.200497
1473	0.196388	0.195566	0.195895	0.194744	0.198689	0.19836
1474	0.193594	0.196059	0.200825	0.19836	0.198689	0.199511
1475	0.194416	0.196717	0.198853	0.194416	0.198031	0.19573
1476	0.192443	0.197374	0.198031	0.196552	0.196552	0.194909
1477	0.196552	0.195402	0.201812	0.198524	0.199839	0.198524
1478	0.196717	0.199839	0.199182	0.193922	0.199839	0.196059
1479	0.19458	0.197703	0.19721	0.199182	0.195237	0.199346
1480	0.194251	0.199346	0.19836	0.199182	0.198196	0.198031
1481	0.196388	0.195895	0.197538	0.199182	0.197703	0.199018
1482	0.195237	0.200004	0.199018	0.199511	0.200004	0.197374
1483	0.198031	0.198853	0.196717	0.201647	0.196881	0.203126
1484	0.19573	0.201976	0.196059	0.198689	0.197538	0.195237
1485	0.195073	0.19573	0.19836	0.198031	0.197703	0.197867
1486	0.196388	0.196223	0.198524	0.195895	0.199018	0.197045
1487	0.19721	0.198689	0.196881	0.19836	0.195566	0.197703
1488	0.197045	0.199018	0.19836	0.197703	0.197374	0.200168
1489	0.197045	0.197867	0.198853	0.197703	0.196717	0.199675
1490	0.19836	0.198031	0.198689	0.195895	0.198853	0.201319
1491	0.196552	0.200332	0.199675	0.200004	0.197045	0.199182
1492	0.199675	0.197703	0.197703	0.199018	0.19836	0.200497
1493	0.196059	0.199346	0.197538	0.197374	0.197867	0.19836
1494	0.195237	0.200004	0.19573	0.199346	0.198031	0.201976
1495	0.194909	0.197538	0.197045	0.197867	0.198031	0.197374
1496	0.197538	0.197538	0.193758	0.198196	0.19836	0.199675
1497	0.196223	0.199511	0.19573	0.200497	0.198524	0.196881
1498	0.196717	0.198031	0.193101	0.200825	0.198524	0.196717
1499	0.195402	0.199182	0.19573	0.201812	0.196388	0.197045
1500	0.199182	0.198689	0.194744	0.200825	0.199018	0.200825
1501	0.195402	0.19836	0.194087	0.197867	0.200004	0.200332
1502	0.19836	0.197374	0.196552	0.198524	0.198524	0.199839
1503	0.198689	0.198853	0.196059	0.196223	0.199182	0.201812
1504	0.199018	0.199346	0.198689	0.19836	0.20099	0.197374
1505	0.198031	0.199839	0.197374	0.196881	0.202798	0.201647
1506	0.201647	0.196552	0.194744	0.195237	0.197867	0.198689
1507	0.197045	0.198689	0.195566	0.196388	0.200661	0.198196
1508	0.197703	0.199018	0.196223	0.19836	0.199675	0.197374
1509	0.199839	0.198031	0.192443	0.197867	0.197867	0.079694
1510	0.196059	0.197374	0.198196	0.197374	0.199511	0.07838
1511	0.200661	0.195073	0.196223	0.19836	0.199346	0.08331
1512	0.195895	0.193594	0.195895	0.200004	0.201976	0.090542
1513	0.196388	0.198689	0.192443	0.196388	0.199839	0.091528
1514	0.199018	0.198689	0.192115	0.20099	0.198689	0.095144
1515	0.200332	0.197045	0.193101	0.20214	0.195566	0.099253
1516	0.19836	0.200825	0.192443	0.201976	0.201319	0.109772
1517	0.198689	0.197374	0.191128	0.199511	0.195073	0.107471
1518	0.19836	0.195895	0.193594	0.197045	0.199182	0.114045
1519	0.198031	0.197703	0.19836	0.199839	0.199182	0.116839
1520	0.198031	0.197703	0.192936	0.199839	0.196388	0.121112
1521	0.200004	0.196717	0.19721	0.197538	0.199675	0.125386
1522	0.199018	0.197867	0.196223	0.195566	0.200168	0.129988
1523	0.197867	0.195402	0.195895	0.198689	0.198524	0.13196
1524	0.197538	0.199675	0.195566	0.198689	0.200332	0.138699
1525	0.199182	0.199182	0.196059	0.198853	0.199346	0.133932
1526	0.199346	0.198031	0.193265	0.200661	0.197703	0.138863
1527	0.19573	0.201483	0.194416	0.199511	0.202305	0.14215
1528	0.199675	0.197538	0.189814	0.19836	0.197703	0.141821
1529	0.196388	0.200332	0.190964	0.196059	0.198524	0.143301
1530	0.198689	0.198031	0.194251	0.198853	0.196717	0.144615
1531	0.19573	0.199675	0.191457	0.198524	0.198689	0.147574
1532	0.193922	0.197374	0.190471	0.198853	0.195237	0.14971
1533	0.195073	0.199839	0.192443	0.19721	0.19836	0.152833
1534	0.195237	0.195895	0.192608	0.198853	0.197538	0.153984
1535	0.195566	0.196059	0.192443	0.198031	0.19836	0.157435
1536	0.196223	0.196059	0.192936	0.200661	0.197374	0.157271
1537	0.197538	0.199346	0.192443	0.19573	0.196717	0.160229
1538	0.195237	0.199182	0.193594	0.201976	0.19836	0.164503
1539	0.196059	0.197538	0.192936	0.199511	0.196388	0.163516
1540	0.17798	0.198031	0.193265	0.197374	0.19721	0.163516
1541	0.179295	0.200004	0.195566	0.199182	0.198196	0.168283
1542	0.180281	0.201319	0.196223	0.199346	0.199018	0.16779
1543	0.181924	0.195895	0.193594	0.198031	0.195566	0.170584
1544	0.181596	0.200004	0.196388	0.197703	0.200168	0.172392
1545	0.182911	0.196059	0.195073	0.201647	0.199346	0.171899
1546	0.187677	0.200661	0.193265	0.196223	0.199346	0.171734
1547	0.185869	0.199182	0.194251	0.201647	0.197703	0.173871
1548	0.185705	0.199511	0.194744	0.199675	0.19836	0.171241
1549	0.184061	0.199182	0.193594	0.200332	0.198031	0.174693
1550	0.186033	0.196717	0.193265	0.194744	0.198524	0.1742
1551	0.186198	0.197703	0.195073	0.198853	0.195895	0.175186
1552	0.186526	0.195402	0.195073	0.197045	0.197538	0.178966
1553	0.186526	0.195237	0.196223	0.197374	0.196881	0.17798
1554	0.184883	0.194416	0.19573	0.193922	0.201154	0.180445
1555	0.187019	0.199346	0.197703	0.198031	0.198853	0.180281
1556	0.188006	0.195073	0.195402	0.200825	0.198853	0.183897
1557	0.188499	0.198524	0.19573	0.198689	0.203126	0.182746
1558	0.1908	0.198031	0.194416	0.200004	0.199675	0.183897
1559	0.190471	0.200661	0.196552	0.198689	0.199018	0.186033
1560	0.18932	0.199511	0.195566	0.200661	0.201647	0.187513
1561	0.193429	0.196717	0.19836	0.197703	0.200332	0.183568
1562	0.192608	0.197045	0.195402	0.200168	0.199018	0.185047
1563	0.19195	0.200168	0.199675	0.195237	0.19573	0.18554
1564	0.193594	0.19836	0.192115	0.203126	0.19573	0.185212
1565	0.194744	0.199839	0.197374	0.197045	0.19573	0.185869
1566	0.193265	0.199182	0.19836	0.197374	0.193101	0.186033
1567	0.193922	0.19721	0.195237	0.199018	0.198853	0.18932
1568	0.19573	0.196223	0.195237	0.19836	0.196881	0.187019
1569	0.19458	0.193922	0.199675	0.199346	0.196881	0.187348
1570	0.19458	0.198853	0.200825	0.200004	0.199675	0.186033
1571	0.194416	0.196059	0.198196	0.200497	0.198853	0.193594
1572	0.192443	0.195566	0.200825	0.19836	0.19836	0.188499
1573	0.192772	0.19458	0.19836	0.203455	0.198853	0.191621
1574	0.193758	0.200004	0.200825	0.199839	0.196223	0.190964
1575	0.19458	0.197045	0.197867	0.200332	0.198689	0.190142
1576	0.191128	0.198853	0.200332	0.197867	0.197045	0.190471
1577	0.193594	0.198196	0.201154	0.198031	0.201154	0.190635
1578	0.193101	0.200004	0.200497	0.198689	0.201483	0.191128
1579	0.197538	0.200332	0.196388	0.199675	0.198524	0.190142
1580	0.19573	0.199346	0.200168	0.197045	0.199018	0.192936
1581	0.197045	0.20099	0.20214	0.200825	0.199346	0.191786
1582	0.196881	0.200168	0.198853	0.200004	0.200332	0.194251
1583	0.197374	0.19721	0.203291	0.197538	0.195895	0.189814
1584	0.196717	0.201154	0.200497	0.19573	0.197867	0.195237
1585	0.194909	0.197374	0.200661	0.198853	0.19721	0.193265
1586	0.19458	0.196552	0.20214	0.197538	0.197374	0.196223
1587	0.19458	0.200825	0.20214	0.196223	0.195073	0.193101
1588	0.19573	0.19836	0.199182	0.195402	0.196552	0.197045
1589	0.195073	0.199018	0.202305	0.199182	0.200004	0.195237
1590	0.197538	0.196717	0.193265	0.199182	0.197045	0.19721
1591	0.193265	0.199346	0.200497	0.197867	0.198853	0.195073
1592	0.19573	0.200004	0.199839	0.200497	0.198689	0.196881
1593	0.193429	0.198524	0.199511	0.199182	0.200332	0.196388
1594	0.196223	0.200168	0.200661	0.199346	0.194744	0.193922
1595	0.19573	0.198853	0.201483	0.198689	0.198689	0.196717
1596	0.19721	0.198031	0.20099	0.199346	0.197538	0.19458
1597	0.196717	0.199018	0.202469	0.199018	0.198853	0.19836
1598	0.197703	0.200168	0.203291	0.199675	0.198031	0.195237
1599	0.196717	0.198853	0.201483	0.196388	0.196223	0.196717
1600	0.195566	0.200332	0.201154	0.196059	0.198524	0.195895
1601	0.196881	0.198524	0.194416	0.197867	0.197538	0.19721
1602	0.194087	0.199346	0.201812	0.19573	0.19721	0.19458
1603	0.196059	0.196223	0.20099	0.196059	0.198853	0.19721
1604	0.194909	0.199839	0.201483	0.19721	0.200497	0.194744
1605	0.193101	0.194251	0.199018	0.195566	0.198689	0.195402
1606	0.194416	0.198196	0.201319	0.199511	0.199346	0.195073
1607	0.192936	0.196881	0.198689	0.20099	0.199018	0.195237
1608	0.195566	0.19721	0.198853	0.197867	0.19836	0.195237
1609	0.19573	0.199182	0.200497	0.201483	0.196552	0.197538
1610	0.192772	0.199675	0.200168	0.196059	0.198853	0.193429
1611	0.195073	0.194416	0.200825	0.200004	0.193594	0.196717
1612	0.195402	0.201319	0.190307	0.199839	0.200332	0.197703
1613	0.19721	0.200825	0.199182	0.195073	0.196717	0.194744
1614	0.197538	0.200004	0.198196	0.198853	0.197045	0.196223
1615	0.196552	0.202798	0.200825	0.199675	0.201154	0.194744
1616	0.197703	0.196881	0.20099	0.198031	0.197867	0.196388
1617	0.198031	0.198524	0.196717	0.195566	0.19721	0.193265
1618	0.199675	0.196388	0.19721	0.199018	0.19836	0.197045
1619	0.197374	0.198196	0.197538	0.197867	0.19721	0.193101
1620	0.19573	0.197867	0.201812	0.199511	0.197867	0.197045
1621	0.195402	0.198689	0.205592	0.19721	0.196223	0.195895
1622	0.19458	0.192772	0.197045	0.199675	0.198689	0.196552
1623	0.193265	0.197538	0.189649	0.200497	0.199018	0.200004
1624	0.194909	0.196717	0.197703	0.198689	0.196717	0.198853
1625	0.195402	0.195237	0.198196	0.196717	0.199018	0.197045
1626	0.194744	0.194416	0.198524	0.20214	0.196388	0.199182
1627	0.195402	0.196552	0.197703	0.197538	0.196388	0.196059
1628	0.198689	0.200497	0.200825	0.198196	0.196388	0.193429
1629	0.198853	0.199182	0.200332	0.200004	0.197374	0.197374
1630	0.197703	0.197538	0.202798	0.198196	0.197538	0.19458
1631	0.197538	0.200004	0.202633	0.196552	0.196388	0.197374
1632	0.198031	0.201976	0.201812	0.195402	0.197538	0.196717
1633	0.199018	0.196552	0.200168	0.199018	0.200497	0.200825
1634	0.197374	0.200332	0.193429	0.198196	0.196388	0.20099
1635	0.195402	0.19836	0.19836	0.19573	0.198689	0.199675
1636	0.198524	0.19836	0.199675	0.19836	0.197867	0.197867
1637	0.198031	0.201647	0.200497	0.20214	0.197867	0.199018
1638	0.200825	0.196717	0.197538	0.197045	0.19836	0.197045
1639	0.194909	0.196388	0.196388	0.200332	0.196717	0.195895
1640	0.193429	0.199182	0.195402	0.19836	0.198031	0.197538
1641	0.197045	0.199018	0.198689	0.199346	0.195402	0.197703
1642	0.193101	0.19721	0.199675	0.199018	0.197538	0.197867
1643	0.196717	0.196388	0.199675	0.200004	0.193758	0.196388
1644	0.196717	0.198031	0.198031	0.20099	0.196717	0.200332
1645	0.199018	0.196223	0.195402	0.200332	0.196552	0.199346
1646	0.200004	0.200825	0.198031	0.201319	0.198853	0.198524
1647	0.199839	0.201154	0.196881	0.199675	0.198196	0.199839
1648	0.199511	0.200004	0.197867	0.199182	0.200168	0.201647
1649	0.197538	0.199018	0.200661	0.19836	0.197867	0.197538
1650	0.200332	0.201483	0.198689	0.196881	0.19721	0.199182
1651	0.195566	0.202469	0.200168	0.19836	0.198853	0.199511
1652	0.200168	0.198031	0.19721	0.199346	0.197045	0.198196
1653	0.197538	0.19836	0.20099	0.195402	0.198524	0.196717
1654	0.198689	0.200168	0.199675	0.195895	0.194416	0.198853
1655	0.196223	0.196388	0.19721	0.19836	0.201319	0.19836
1656	0.198524	0.197374	0.19836	0.198031	0.19721	0.198031
1657	0.195895	0.200168	0.196223	0.199182	0.199839	0.19836
1658	0.199018	0.197703	0.19721	0.197703	0.19721	0.197867
1659	0.196388	0.199511	0.197374	0.199182	0.197867	0.201647
1660	0.198031	0.197538	0.198524	0.201483	0.196388	0.191457
1661	0.197538	0.200661	0.197703	0.19836	0.197867	0.167625
1662	0.197703	0.201154	0.198524	0.198196	0.196059	0.132289
1663	0.199346	0.201319	0.196552	0.196717	0.197867	0.075585
1664	0.19836	0.199675	0.200004	0.198524	0.197867	0.048631
1665	0.197374	0.199675	0.199839	0.198689	0.204277	0.049453
1666	0.199182	0.199675	0.200661	0.19721	0.196717	0.034825
1667	0.197867	0.198853	0.204113	0.198524	0.19721	0.016088
1668	0.194416	0.200332	0.195402	0.200825	0.200332	0.01313
1669	0.202633	0.19721	0.196717	0.199018	0.198853	0.007706
1670	0.200332	0.200004	0.19573	0.198853	0.201812	0.008528
1671	0.201647	0.196552	0.199346	0.199839	0.197045	0.007049
1672	0.198689	0.198524	0.197867	0.198196	0.19836	0.003926
1673	0.197867	0.194087	0.198524	0.199018	0.195566	0.000146
1674	0.19573	0.196717	0.199182	0.19721	0.197867	0.002611
1675	0.198031	0.19721	0.20099	0.196059	0.195237	0.003761
1676	0.197374	0.201154	0.200168	0.19836	0.19721	0.003433
1677	0.19573	0.196717	0.202305	0.200661	0.195073	0.006227
1678	0.196717	0.196388	0.204277	0.199511	0.197867	-0.003142
1679	0.196059	0.200004	0.201154	0.201319	0.19836	-0.000347
1680	0.199839	0.198524	0.200497	0.199675	0.198689	0.001954
1681	0.199018	0.199018	0.200332	0.199346	0.200168	0.00031
1682	0.201154	0.197703	0.202962	0.199346	0.198196	0.006227
1683	0.19721	0.202305	0.204277	0.198031	0.199839	0.002611
1684	0.200168	0.199182	0.20214	0.198031	0.198853	0.001789
1685	0.197703	0.199675	0.202962	0.199839	0.199839	0.000146
1686	0.201483	0.197703	0.20362	0.200168	0.19573	-0.003635
1687	0.194744	0.202305	0.202962	0.195073	0.202962	0.000146
1688	0.19836	0.195402	0.20214	0.199511	0.199839	0.001132
1689	0.199511	0.197867	0.206085	0.200004	0.199182	-0.000183
1690	0.199346	0.197703	0.200168	0.199182	0.19573	-0.001169
1691	0.198196	0.19836	0.200332	0.199018	0.196552	0.001789
1692	0.199511	0.198031	0.201812	0.199018	0.196388	-0.001005
1693	0.200497	0.197703	0.202633	0.199346	0.195073	0.004748
1694	0.198524	0.198853	0.202305	0.201319	0.197538	0.002775
1695	0.199018	0.198031	0.201319	0.198689	0.198196	0.000967
1696	0.197703	0.199675	0.203291	0.199511	0.197374	0.000967
1697	0.201483	0.197703	0.202633	0.201812	0.199182	0.00409
1698	0.198689	0.200497	0.204441	0.197703	0.197538	0.000967
1699	0.19573	0.196717	0.201154	0.200332	0.198689	0.006556
1700	0.199511	0.200825	0.209372	0.198031	0.201154	0.00409
1701	0.200497	0.201483	0.200168	0.198524	0.197867	0.001789
1702	0.199511	0.20099	0.201483	0.198524	0.199182	0.004912
1703	0.20099	0.198524	0.20214	0.20099	0.198524	0.002447
1704	0.199839	0.199675	0.202962	0.197538	0.197703	0.001954
1705	0.199346	0.199018	0.203126	0.197045	0.199018	0.001296
1706	0.201647	0.199018	0.202305	0.195895	0.198031	0.001132
1707	0.198196	0.19836	0.201154	0.199675	0.195566	0.001789
1708	0.198689	0.198689	0.20099	0.199018	0.198524	0.004255
1709	0.198031	0.201154	0.203784	0.199839	0.195566	0.000146
1710	0.198031	0.200332	0.202305	0.199839	0.196059	0.00409
1711	0.19836	0.201154	0.205263	0.200332	0.197374	0.000639
1712	0.198853	0.199182	0.197045	0.199839	0.195895	0.001296
1713	0.198524	0.199018	0.199839	0.198031	0.19836	0.000474
1714	0.201319	0.199182	0.200332	0.196059	0.199675	0.002282
1715	0.198196	0.19836	0.199346	0.198196	0.199839	0.001789
1716	0.198196	0.197374	0.199839	0.198524	0.195895	0.002611
1717	0.197703	0.198196	0.200497	0.199018	0.19836	0.002775
1718	0.199182	0.196388	0.204277	0.200168	0.198031	0.002775
1719	0.195895	0.200332	0.203126	0.200332	0.200004	0.003597
1720	0.198031	0.20099	0.201976	0.197867	0.199182	0.001132
1721	0.19836	0.19721	0.202469	0.202633	0.200661	0.004255
1722	0.199675	0.198524	0.204113	0.201319	0.198524	0.00031
1723	0.199511	0.198196	0.199182	0.197374	0.198689	0.000146
1724	0.198689	0.200004	0.202305	0.200332	0.195402	0.002282
1725	0.196881	0.200332	0.204113	0.195402	0.201319	0.004748
1726	0.200004	0.200332	0.202469	0.200661	0.196552	0.001625
1727	0.197538	0.200168	0.200661	0.198689	0.196223	0.002447
1728	0.198031	0.197703	0.202305	0.198853	0.197538	0.000146
1729	0.198031	0.195895	0.199511	0.200004	0.195895	0.001789
1730	0.197045	0.198524	0.203455	0.198689	0.198689	0.001789
1731	0.200497	0.197374	0.199018	0.199675	0.195402	0.000146
1732	0.197045	0.199018	0.19836	0.200661	0.199511	0.005076
1733	0.200004	0.198689	0.198853	0.201483	0.199675	0.000803
1734	0.198196	0.199675	0.20214	0.196881	0.199675	0.002447
1735	0.198853	0.198524	0.199839	0.20214	0.197867	0.002775
1736	0.199675	0.201812	0.197867	0.200497	0.203126	-0.002155
1737	0.201812	0.198853	0.204606	0.200168	0.199346	-0.001498
1738	0.19836	0.198689	0.199839	0.199675	0.198689	0.001132
1739	0.20099	0.198524	0.20099	0.200497	0.193429	-0.000183
1740	0.204277	0.19836	0.198196	0.197867	0.199018	0.002611
1741	0.196717	0.201976	0.20214	0.19836	0.196223	-0.000512
1742	0.200004	0.199511	0.198031	0.19836	0.193265	0.000474
1743	0.197538	0.20099	0.200004	0.19836	0.196059	-0.000183
1744	0.199346	0.200332	0.201154	0.20099	0.196881	-0.000347
1745	0.197703	0.199675	0.199346	0.202469	0.199182	-0.003635
1746	0.200497	0.19721	0.197374	0.198853	0.193922	-0.001827
1747	0.197703	0.20099	0.200332	0.195895	0.203126	-0.00347
1748	0.199182	0.196059	0.197045	0.198524	0.19836	-0.000512
1749	0.197703	0.19458	0.195566	0.195402	0.196059	0.001132
1750	0.198524	0.197867	0.196552	0.199675	0.200825	0.001132
1751	0.198524	0.197703	0.198689	0.196552	0.199511	0.00146
1752	0.199018	0.198853	0.201812	0.196552	0.198689	0.000967
1753	0.200004	0.20099	0.198853	0.195402	0.198689	0.000639
1754	0.200168	0.201154	0.199675	0.19836	0.197045	-0.000347
1755	0.199018	0.200004	0.197374	0.199182	0.197045	-0.001005
1756	0.200497	0.200825	0.199675	0.199839	0.19836	0.000967
1757	0.200497	0.198689	0.19721	0.197703	0.19573	0.003268
1758	0.199511	0.20099	0.198524	0.196881	0.201154	0.007377
1759	0.200168	0.198031	0.197374	0.197703	0.196881	0.005405
1760	0.197703	0.197538	0.19836	0.197374	0.197538	0.009185
1761	0.200004	0.197703	0.198689	0.198689	0.195073	0.001296
1762	0.200332	0.195073	0.195237	0.196388	0.19836	-0.000183
1763	0.196717	0.196223	0.194909	0.199839	0.196717	-0.000676
1764	0.19836	0.200332	0.197045	0.193922	0.197867	0.002118
1765	0.197538	0.19573	0.195237	0.199675	0.196059	0.002447
1766	0.196223	0.198031	0.197374	0.197045	0.196388	0.000803
1767	0.201154	0.198689	0.192936	0.193758	0.19458	0.004255
1768	0.199346	0.195895	0.19458	0.188006	0.198524	0.008035
1769	0.19836	0.199018	0.200497	0.190471	0.200497	0.01691
1770	0.201154	0.197703	0.198689	0.189814	0.201319	-0.000347
1771	0.196059	0.197867	0.198524	0.188334	0.196717	-0.000183
1772	0.196552	0.197538	0.197045	0.191128	0.198689	-0.000347
1773	0.196552	0.199182	0.198689	0.188499	0.197867	-0.000512
1774	0.198196	0.198689	0.198853	0.189814	0.195895	0.000146
1775	0.197867	0.204277	0.199182	0.1908	0.201976	0.000474
1776	0.19836	0.19836	0.198524	0.194744	0.197867	0.000146
1777	0.197045	0.200004	0.200168	0.191786	0.199018	-0.000676
1778	0.197867	0.203784	0.198524	0.19458	0.197703	-0.000676
1779	0.200661	0.200497	0.193429	0.193429	0.198524	-0.000676
1780	0.200661	0.199511	0.198031	0.192115	0.199511	-0.000347
1781	0.196388	0.198689	0.19458	0.192279	0.199511	-0.000347
1782	0.199511	0.19836	0.193265	0.195237	0.197045	-1.9e-05
1783	0.197374	0.197374	0.194251	0.1908	0.198689	-0.000183
1784	0.197703	0.198031	0.195895	0.191621	0.199018	-1.9e-05
1785	0.19836	0.199182	0.193758	0.193265	0.198031	0.000146
1786	0.19836	0.201647	0.197045	0.194251	0.197867	-0.000183
1787	0.20099	0.200168	0.197867	0.195073	0.199346	0.000803
1788	0.202962	0.200168	0.19836	0.193429	0.196881	-0.000676
1789	0.199675	0.201483	0.194744	0.194251	0.197045	-0.000512
1790	0.199346	0.200332	0.201154	0.191786	0.197374	0.000474
1791	0.199182	0.201647	0.191621	0.193429	0.197703	0.00031
1792	0.199839	0.201647	0.198031	0.193429	0.198196	0.000639
1793	0.200332	0.200004	0.195073	0.195402	0.195402	-0.001334
1794	0.198196	0.200168	0.195566	0.193922	0.197703	0.000639
1795	0.200332	0.197045	0.194909	0.195402	0.197045	-0.001169
1796	0.199182	0.198524	0.196223	0.192772	0.19836	-0.001005
1797	0.198689	0.199675	0.194251	0.197374	0.197374	-0.000676
1798	0.197045	0.197867	0.193758	0.196223	0.200004	0.000146
1799	0.200004	0.196552	0.19458	0.194909	0.198689	-0.000183
1800	0.198689	0.198689	0.1908	0.198196	0.198524	-0.000512
1801	0.199839	0.198524	0.193594	0.197867	0.196223	-0.000347
1802	0.198196	0.19721	0.193429	0.195073	0.204934	0.000639
1803	0.198031	0.197703	0.193594	0.195895	0.201647	0.001296
1804	0.199839	0.19836	0.191128	0.195237	0.197867	0.002118
1805	0.198689	0.198524	0.193429	0.196223	0.196552	0.002775
1806	0.200497	0.198853	0.192608	0.194251	0.19458	0.005076
1807	0.199182	0.20099	0.195073	0.196717	0.199182	0.000474
1808	0.200497	0.201976	0.194087	0.195402	0.197045	0.003268
1809	0.196552	0.199018	0.19721	0.195237	0.198853	0.008363
1810	0.201483	0.19573	0.19573	0.196388	0.197867	0.012801
1811	0.197374	0.198524	0.192936	0.196717	0.198689	0.022005
1812	0.200168	0.199346	0.193922	0.198689	0.199018	0.030223
1813	0.199182	0.200661	0.191457	0.195566	0.20099	0.037948
1814	0.199018	0.197538	0.193922	0.201812	0.196552	0.045672
1815	0.197374	0.19721	0.191786	0.19836	0.199346	0.050439
1816	0.198196	0.198196	0.192608	0.198689	0.196717	0.054712
1817	0.19721	0.197045	0.189814	0.198853	0.194087	0.06408
1818	0.19836	0.200661	0.190307	0.199346	0.200004	0.066217
1819	0.201976	0.198196	0.190964	0.19836	0.196552	0.074599
1820	0.196059	0.198196	0.19195	0.198524	0.201154	0.079366
1821	0.202305	0.197703	0.193429	0.200004	0.198524	0.083803
1822	0.197867	0.199675	0.191128	0.197703	0.199675	0.089063
1823	0.198689	0.197374	0.192772	0.199675	0.195566	0.093829
1824	0.197867	0.200004	0.194087	0.196881	0.200497	0.098267
1825	0.199839	0.197538	0.195073	0.197374	0.196059	0.097938
1826	0.197374	0.200497	0.195237	0.199675	0.199182	0.104184
1827	0.198031	0.19836	0.195895	0.197045	0.197703	0.106978
1828	0.197867	0.19721	0.19573	0.196552	0.199839	0.111415
1829	0.200497	0.202305	0.196881	0.199839	0.19721	0.116017
1830	0.19836	0.200497	0.192936	0.194909	0.197867	0.121605
1831	0.198524	0.199511	0.195402	0.200661	0.198524	0.125879
1832	0.197867	0.20099	0.196552	0.197538	0.199018	0.128344
1833	0.199675	0.197867	0.191786	0.198853	0.198031	0.127194
1834	0.199018	0.199182	0.195402	0.19836	0.198689	0.132782
1835	0.19836	0.201154	0.194087	0.199511	0.201154	0.134097
1836	0.203291	0.197045	0.191786	0.195073	0.193922	0.136398
1837	0.200168	0.201154	0.196388	0.199018	0.195402	0.13952
1838	0.197867	0.197538	0.194087	0.198524	0.197045	0.14478
1839	0.197374	0.199182	0.194744	0.19721	0.197538	0.146588
1840	0.199346	0.199839	0.193594	0.198031	0.194909	0.147245
1841	0.201647	0.205756	0.195237	0.19721	0.196388	0.151518
1842	0.200825	0.196881	0.192115	0.200004	0.19836	0.154477
1843	0.200168	0.200661	0.197374	0.199018	0.198031	0.155134
1844	0.200825	0.201976	0.194087	0.199675	0.196881	0.160229
1845	0.200497	0.199511	0.193429	0.19836	0.199839	0.158093
1846	0.200332	0.20214	0.194251	0.200497	0.201812	0.159243
1847	0.201647	0.200332	0.192115	0.199346	0.197867	0.161215
1848	0.19836	0.200825	0.194251	0.198031	0.198031	0.162202
1849	0.199018	0.196717	0.193101	0.200332	0.198031	0.162366
1850	0.197703	0.201483	0.191786	0.196552	0.199346	0.161709
1851	0.200332	0.198031	0.18932	0.195237	0.197703	0.165817
1852	0.199675	0.20099	0.192443	0.198853	0.19721	0.166639
1853	0.19836	0.198853	0.192608	0.197703	0.196881	0.170091
1854	0.197703	0.200168	0.195237	0.19836	0.200332	0.16894
1855	0.20099	0.199018	0.190964	0.196223	0.202798	0.171899
1856	0.200004	0.199018	0.193265	0.200004	0.200332	0.17157
1857	0.197538	0.199018	0.193429	0.200497	0.200497	0.173871
1858	0.199018	0.198196	0.193101	0.197374	0.198689	0.173214
1859	0.19836	0.198031	0.19458	0.199839	0.198031	0.175679
1860	0.198031	0.201154	0.193594	0.19836	0.199346	0.177651
1861	0.200661	0.201154	0.193922	0.200004	0.199018	0.178144
1862	0.199182	0.201812	0.194416	0.200004	0.200168	0.179295
1863	0.200004	0.202633	0.195402	0.198196	0.197374	0.179623
1864	0.198689	0.19836	0.18932	0.195895	0.200004	0.182253
1865	0.201319	0.201154	0.195402	0.198524	0.200004	0.180774
1866	0.202469	0.198524	0.190964	0.20099	0.198196	0.181103
1867	0.198031	0.200004	0.191293	0.199018	0.197538	0.181431
1868	0.202305	0.200332	0.191128	0.20099	0.204113	0.182089
1869	0.201154	0.198031	0.19573	0.199839	0.199675	0.181431
1870	0.199346	0.19836	0.191621	0.199511	0.198196	0.181431
1871	0.199182	0.201812	0.194087	0.198196	0.199511	0.182911
1872	0.202633	0.195073	0.192772	0.20099	0.197045	0.184883
1873	0.199182	0.19573	0.194087	0.198196	0.195073	0.185376
1874	0.196552	0.199839	0.19195	0.201812	0.195895	0.190635
1875	0.195402	0.196881	0.193922	0.196552	0.20099	0.190471
1876	0.199675	0.197538	0.196223	0.202798	0.197045	0.189814
1877	0.194744	0.196881	0.191293	0.199675	0.199675	0.187841
1878	0.198689	0.195895	0.195402	0.196717	0.199018	0.187348
1879	0.200661	0.197867	0.19195	0.196881	0.202798	0.190471
1880	0.056684	0.199018	0.194416	0.199018	0.198853	0.187019
1881	0.042878	0.197867	0.192936	0.200004	0.198196	0.189485
1882	0.04633	0.199839	0.196059	0.200168	0.198689	0.187513
1883	0.055863	0.197374	0.193265	0.199018	0.197538	0.188992
1884	0.060793	0.199839	0.20214	0.201154	0.198853	0.189485
1885	0.067039	0.200497	0.197538	0.198689	0.196223	0.190964
1886	0.069997	0.201483	0.19458	0.199346	0.198853	0.191786
1887	0.076572	0.198524	0.196388	0.198524	0.19721	0.191786
1888	-0.003799	0.198524	0.191457	0.19721	0.19836	0.192115
1889	0.008363	0.19836	0.193922	0.199839	0.19721	0.192936
1890	0.01428	0.198853	0.192608	0.19836	0.200332	0.193101
1891	0.020855	0.199182	0.195895	0.199511	0.195237	0.189978
1892	0.028579	0.196717	0.192279	0.197374	0.197045	0.193101
1893	0.035482	0.198689	0.195566	0.201483	0.196059	0.191457
1894	0.049617	0.200332	0.194744	0.199182	0.200661	0.197538
1895	0.052411	0.195895	0.194251	0.198524	0.200168	0.194087
1896	0.058985	0.202633	0.193265	0.196881	0.198689	0.196223
1897	0.064245	0.201976	0.196059	0.198031	0.20099	0.196388
1898	0.071477	0.200004	0.19458	0.198031	0.200168	0.19573
1899	0.075257	0.201647	0.196717	0.198689	0.198853	0.199182
1900	0.07838	0.200168	0.194909	0.201319	0.198853	0.193594
1901	0.074764	0.201647	0.196388	0.199839	0.201647	0.195402
1902	0.083146	0.199675	0.194909	0.200497	0.196881	0.19458
1903	0.085776	0.197045	0.195237	0.196388	0.197867	0.193101
1904	0.090378	0.197374	0.193101	0.19721	0.195237	0.193758
1905	0.094487	0.200497	0.193758	0.197538	0.197703	0.197045
1906	0.098102	0.196059	0.197374	0.200168	0.198853	0.195237
1907	0.100075	0.197374	0.19573	0.196388	0.198031	0.200332
1908	0.103033	0.198689	0.198031	0.200168	0.199182	0.196881
1909	0.108786	0.201319	0.195237	0.199839	0.199346	0.196717
1910	0.111251	0.199346	0.196388	0.200168	0.199182	0.196388
1911	0.118154	0.199346	0.194416	0.201319	0.199511	0.196881
1912	0.119797	0.200825	0.196223	0.201647	0.202798	0.196717
1913	0.125386	0.19836	0.195566	0.20362	0.201812	0.197703
1914	0.126865	0.201154	0.196059	0.199511	0.197703	0.195402
1915	0.127851	0.196881	0.193758	0.198853	0.197867	0.196223
1916	0.131302	0.201647	0.19573	0.199346	0.198689	0.195237
1917	0.139192	0.198524	0.195237	0.200004	0.197045	0.196059
1918	0.137548	0.199018	0.195073	0.194087	0.20214	0.196881
1919	0.139849	0.196552	0.197703	0.201976	0.198196	0.19573
1920	0.142972	0.199675	0.195237	0.200168	0.201647	0.197538
1921	0.142972	0.196059	0.198524	0.200168	0.196717	0.196388
1922	0.147081	0.19721	0.19836	0.201154	0.200332	0.19573
1923	0.150039	0.199018	0.197703	0.201647	0.198031	0.196388
1924	0.150204	0.198031	0.196388	0.201812	0.19721	0.197703
1925	0.14971	0.197703	0.197867	0.20214	0.19836	0.190635
1926	0.155299	0.198853	0.197374	0.20099	0.196881	0.197045
1927	0.152833	0.197538	0.197045	0.201154	0.199511	0.197703
1928	0.157928	0.202962	0.199018	0.200497	0.200497	0.19573
1929	0.15612	0.20477	0.195402	0.197703	0.198031	0.19721
1930	0.160394	0.197867	0.197045	0.201483	0.199839	0.198524
1931	0.165982	0.201647	0.199839	0.202469	0.199346	0.198689
1932	0.168118	0.200332	0.19573	0.204934	0.198524	0.197867
1933	0.166968	0.199839	0.196552	0.20099	0.199839	0.198689
1934	0.169926	0.200168	0.194416	0.202305	0.199675	0.197538
1935	0.16894	0.200661	0.194744	0.198689	0.198853	0.196881
1936	0.170913	0.199839	0.199018	0.201647	0.199346	0.197538
1937	0.174364	0.199018	0.198524	0.199675	0.197703	0.197374
1938	0.17535	0.197867	0.197703	0.200168	0.194251	0.197538
1939	0.171734	0.19836	0.198689	0.20099	0.196552	0.198196
1940	0.175515	0.199018	0.199675	0.200004	0.196552	0.193265
1941	0.173707	0.197867	0.200332	0.200497	0.197045	0.19573
1942	0.175515	0.196059	0.19836	0.206085	0.197703	0.195402
1943	0.182089	0.195237	0.193922	0.202305	0.196717	0.196388
1944	0.175843	0.199839	0.196223	0.206578	0.200661	0.197703
1945	0.17798	0.195566	0.193594	0.199839	0.201319	0.200332
1946	0.177158	0.198524	0.191293	0.201483	0.199182	0.198031
1947	0.179788	0.200004	0.194744	0.203126	0.19836	0.199182
1948	0.178309	0.201647	0.196881	0.200825	0.199675	0.198689
1949	0.181924	0.197703	0.196881	0.200497	0.198031	0.198524
1950	0.182089	0.201976	0.19836	0.19573	0.200825	0.198524
1951	0.185047	0.200825	0.199675	0.199182	0.197703	0.196881
1952	0.183239	0.198689	0.197867	0.196223	0.200332	0.199511
1953	0.184225	0.199511	0.201319	0.199839	0.199182	0.199346
1954	0.184554	0.199018	0.195073	0.199839	0.200661	0.196717
1955	0.182911	0.197703	0.198853	0.00031	0.195895	0.197703
1956	0.183897	0.200004	0.195895	0.010829	0.198689	0.199182
1957	0.182417	0.195237	0.197867	0.020526	0.197703	0.195566
1958	0.183075	0.19721	0.196059	0.026936	0.197538	0.195895
1959	0.182417	0.196388	0.197703	0.035647	0.197045	0.196223
1960	0.184883	0.194087	0.194909	0.042714	0.198689	0.196388
1961	0.184718	0.199346	0.197538	0.051425	0.200825	0.196717
1962	0.187348	0.200004	0.194416	0.056191	0.198689	0.19721
1963	0.186855	0.197703	0.194909	0.062766	0.199675	0.199511
1964	0.190471	0.201319	0.198853	0.068847	0.199346	0.199346
1965	0.189485	0.200825	0.195073	0.076079	0.200004	0.198031
1966	0.189978	0.19836	0.198689	0.079859	0.197867	0.200825
1967	0.072134	0.20099	0.196223	0.083968	0.202798	0.198031
1968	0.077886	0.196388	0.199018	0.086433	0.200332	0.196717
1969	0.083475	0.199018	0.199018	0.092186	0.196717	0.199018
1970	0.088241	0.196388	0.20099	0.097938	0.194744	0.196881
1971	0.090871	0.19458	0.197374	0.10139	0.193758	0.199182
1972	0.092843	0.197374	0.201154	0.104841	0.197538	0.198524
1973	0.09876	0.198689	0.199018	0.108621	0.196552	0.197045
1974	0.10139	0.19836	0.202798	0.115524	0.198031	0.197867
1975	0.107635	0.197703	0.199346	0.11914	0.198031	0.19721
1976	0.109114	0.199182	0.198689	0.121441	0.197867	0.196388
1977	0.114867	0.197538	0.194744	0.125714	0.197703	0.198031
1978	0.119304	0.199346	0.196717	0.128344	0.203291	0.196552
1979	0.123578	0.196059	0.196717	0.128015	0.194744	0.198196
1980	0.124399	0.202798	0.196552	0.135247	0.198853	0.195895
1981	0.130809	0.199346	0.198524	0.13574	0.197374	0.194251
1982	0.133275	0.200661	0.196223	0.13837	0.199182	0.196881
1983	0.134918	0.198853	0.201483	0.140013	0.198031	0.199675
1984	0.140013	0.202962	0.199346	0.141164	0.199182	0.197867
1985	0.139849	0.196717	0.198853	0.143465	0.196881	0.199675
1986	0.145273	0.199839	0.200497	0.145602	0.198196	0.200168
1987	0.149217	0.202305	0.199675	0.148889	0.200168	0.198196
1988	0.147409	0.198524	0.197703	0.14856	0.199675	0.199018
1989	0.147738	0.200497	0.199675	0.154641	0.200004	0.199182
1990	0.15234	0.198031	0.198031	0.154148	0.19721	0.197703
1991	0.152176	0.200004	0.199675	0.158093	0.197703	0.197867
1992	0.157107	0.197867	0.199839	0.16138	0.198689	0.198853
1993	0.154312	0.196552	0.19721	0.158914	0.198689	0.197374
1994	0.156942	0.201154	0.198031	0.161544	0.197374	0.197867
1995	0.157271	0.205263	0.195895	0.160887	0.19721	0.196223
1996	0.162366	0.199511	0.194909	0.165982	0.196717	0.198196
1997	0.160722	0.199346	0.193922	0.164338	0.19836	0.198524
1998	0.166804	0.201154	0.192279	0.164996	0.199839	0.198031
1999	0.166639	0.200661	0.196388	0.164667	0.199511	0.198853
2000	0.16401	0.199675	0.19836	0.164338	0.201976	0.200661
2001	0.169926	0.200168	0.197374	0.166639	0.199018	0.196717
2002	0.170584	0.19836	0.199182	0.167625	0.198853	0.197703
2003	0.173378	0.197045	0.199675	0.166804	0.199182	0.199675
2004	0.17272	0.201976	0.196388	0.171406	0.20099	0.200168
2005	0.174693	0.197703	0.200004	0.17157	0.199018	0.200661
2006	0.173378	0.20099	0.200661	0.172227	0.204934	0.198031
2007	0.175186	0.198031	0.197867	0.174528	0.201483	0.201319
2008	0.176665	0.200004	0.198689	0.172885	0.201647	0.194744
2009	0.179788	0.202469	0.197867	0.178473	0.200497	0.200497
2010	0.176501	0.201319	0.198196	0.176008	0.201976	0.198524
2011	0.171899	0.19836	0.197045	0.176501	0.198031	0.197867
2012	0.177651	0.198031	0.198196	0.176829	0.200497	0.196717
2013	0.181267	0.199346	0.195566	0.179788	0.197538	0.196717
2014	0.182089	0.198524	0.195402	0.176501	0.198196	0.199182
2015	0.183568	0.200661	0.195895	0.179623	0.197703	0.197867
2016	0.184554	0.198031	0.197374	0.180281	0.19836	0.197538
2017	0.185047	0.201154	0.197538	0.179952	0.198524	0.198689
2018	0.187841	0.200332	0.198196	0.18061	0.201483	0.202469
2019	0.185212	0.197045	0.202962	0.180938	0.199839	0.19836
2020	0.186855	0.201319	0.199346	0.186855	0.204934	0.201647
2021	0.18817	0.199346	0.200168	0.18439	0.204277	0.200497
2022	0.179295	0.196881	0.200004	0.183075	0.202798	0.200825
2023	0.183568	0.19836	0.201647	0.184718	0.199675	0.198031
2024	0.186691	0.19836	0.199182	0.183568	0.200168	0.19836
2025	0.185869	0.199182	0.196059	0.181596	0.198524	0.19721
2026	0.186855	0.198031	0.196059	0.187677	0.199839	0.196388
2027	0.187513	0.201319	0.197867	0.184061	0.197867	0.196223
2028	0.189814	0.201319	0.198524	0.186362	0.196717	0.19573
2029	0.188499	0.199675	0.199182	0.186362	0.199346	0.201647
2030	0.191293	0.195402	0.200661	0.188334	0.202305	0.19721
2031	0.192115	0.198689	0.199511	0.185869	0.199018	0.202305
2032	0.190635	0.197703	0.199675	0.18817	0.201812	0.199511
2033	0.193101	0.199675	0.199346	0.186033	0.20214	0.200825
2034	0.190142	0.199675	0.202633	0.188006	0.199346	0.199182
2035	0.191621	0.198853	0.197867	0.189156	0.203126	0.200497
2036	0.195237	0.198853	0.201154	0.18817	0.198689	0.198689
2037	0.192443	0.198524	0.200004	0.188663	0.200168	0.201154
2038	0.189649	0.200497	0.201483	0.188006	0.201154	0.199511
2039	0.195402	0.201976	0.199182	0.192608	0.196059	0.198853
2040	0.190471	0.20214	0.202962	0.189814	0.198031	0.199018
2041	0.194909	0.199346	0.202962	0.188992	0.198689	0.200497
2042	0.194251	0.201976	0.200004	0.18932	0.199675	0.200168
2043	0.196223	0.201976	0.20099	0.193101	0.195895	0.198524
2044	0.196552	0.194251	0.196223	0.189156	0.199839	0.199839
2045	0.196059	0.193101	0.200332	0.189978	0.198031	0.197374
2046	0.195073	0.198689	0.200004	0.1908	0.198689	0.199346
2047	0.193758	0.19721	0.200825	0.193594	0.198689	0.198031
2048	0.195402	0.197703	0.20099	0.190964	0.198524	0.199839
2049	0.193758	0.198031	0.201812	0.194087	0.198031	0.198031
2050	0.195566	0.201154	0.199346	0.18817	0.200004	0.199182
2051	0.193101	0.199839	0.201647	0.193265	0.200004	0.199018
2052	0.197867	0.199839	0.200825	0.191457	0.201319	0.204113
2053	0.196881	0.198853	0.198524	0.190142	0.199675	0.19836
2054	0.196223	0.196223	0.195895	0.193429	0.199675	0.200661
2055	0.200497	0.192936	0.200497	0.19195	0.20477	0.20214
2056	0.19573	0.196388	0.199182	0.193594	0.19836	0.199839
2057	0.19458	0.199675	0.200168	0.194909	0.201812	0.201319
2058	0.19721	0.196388	0.200825	0.195237	0.199182	0.196059
2059	0.196223	0.201483	0.199839	0.193758	0.197867	0.200497
2060	0.196881	0.201976	0.199839	0.19573	0.195895	0.197703
2061	0.198196	0.20099	0.198689	0.193594	0.20099	0.196552
2062	0.196388	0.199839	0.20099	0.194744	0.199346	0.198853
2063	0.19458	0.200497	0.19721	0.194087	0.199839	0.199018
2064	0.195895	0.199675	0.195402	0.198524	0.197867	0.197703
2065	0.196223	0.198031	0.196881	0.194416	0.199018	0.200661
2066	0.20362	0.20099	0.199839	0.19573	0.200004	0.198689
2067	0.197374	0.198031	0.194744	0.196223	0.198031	0.198689
2068	0.196059	0.200825	0.19573	0.19573	0.199182	0.19836
2069	0.198196	0.196552	0.198031	0.196059	0.199018	0.20099
2070	0.199018	0.196552	0.197538	0.194744	0.200332	0.199675
2071	0.199346	0.19458	0.19836	0.19721	0.199346	0.199675
2072	0.199346	0.202633	0.198031	0.195073	0.200168	0.200004
2073	0.199675	0.199346	0.200497	0.19836	0.199346	0.201483
2074	0.19573	0.200825	0.205099	0.196717	0.201319	0.197538
2075	0.197867	0.198524	0.199346	0.19721	0.198853	0.19836
2076	0.198689	0.202305	0.203455	0.195073	0.199675	0.199346
2077	0.199018	0.201483	0.201154	0.196717	0.198031	0.197703
2078	0.196388	0.199018	0.198853	0.19573	0.199511	0.19836
2079	0.196881	0.199182	0.200497	0.196059	0.198196	0.199018
2080	0.200168	0.199675	0.201319	0.197374	0.19573	0.195402
2081	0.199675	0.199839	0.200332	0.195895	0.195566	0.199018
2082	0.19836	0.199018	0.197867	0.19721	0.195073	0.202469
2083	0.198031	0.198524	0.200168	0.196059	0.196717	0.198853
2084	0.19836	0.202798	0.199182	0.197867	0.198031	0.200661
2085	0.198689	0.204277	0.201812	0.197538	0.201483	0.200168
2086	0.198524	0.199346	0.196717	0.198689	0.197045	0.20099
2087	0.19573	0.200332	0.19836	0.196717	0.200168	0.200332
2088	0.197374	0.200497	0.198853	0.19721	0.19836	0.202962
2089	0.196717	0.200661	0.199511	0.198196	0.197867	0.199839
2090	0.199839	0.199018	0.196552	0.197045	0.197867	0.198031
2091	0.19836	0.201154	0.201976	0.198031	0.198524	0.201319
2092	0.201319	0.199511	0.199018	0.198853	0.195566	0.199182
2093	0.196881	0.201319	0.201976	0.194251	0.19836	0.200497
2094	0.203455	0.201976	0.205427	0.196881	0.198853	0.195073
2095	0.203784	0.200332	0.201976	0.195402	0.200661	0.199839
2096	0.200825	0.20099	0.201319	0.196388	0.198689	0.201154
2097	0.200168	0.199675	0.196223	0.198524	0.198524	0.200497
2098	0.200004	0.19836	0.197867	0.196223	0.198196	0.197867
2099	0.198524	0.201483	0.19836	0.196717	0.201154	0.201319
2100	0.195402	0.194744	0.196717	0.195237	0.200497	0.201812
2101	0.199511	0.197867	0.197045	0.195237	0.197374	0.196059
2102	0.19836	0.202305	0.200004	0.196552	0.201154	0.204441
2103	0.199675	0.197867	0.194744	0.197374	0.199675	0.200168
2104	0.197703	0.201154	0.197538	0.193922	0.199182	0.200168
2105	0.198853	0.198031	0.198031	0.197538	0.19836	0.198689
2106	0.198689	0.201319	0.19836	0.199018	0.201812	0.199346
2107	0.200168	0.199182	0.200168	0.200168	0.197538	0.199346
2108	0.19721	0.200004	0.195073	0.198524	0.201483	0.200497
2109	0.200661	0.200004	0.197538	0.196388	0.200168	0.198689
2110	0.200825	0.201647	0.197703	0.193429	0.203948	0.20214
2111	0.201483	0.201154	0.19836	0.19458	0.203948	0.198031
2112	0.200825	0.198031	0.194087	0.19573	0.200661	0.199511
2113	0.201483	0.198689	0.201154	0.198031	0.200004	0.198031
2114	0.200825	0.198524	0.195073	0.19721	0.198689	0.197703
2115	0.199675	0.198524	0.197538	0.197374	0.200004	0.198853
2116	0.200332	0.198031	0.196223	0.19836	0.197374	0.196552
2117	0.19721	0.203126	0.198031	0.200332	0.201976	0.200497
2118	0.200004	0.197703	0.198853	0.196717	0.197867	0.198031
2119	0.19836	0.200332	0.196717	0.199346	0.201812	0.200661
2120	0.203126	0.196552	0.196552	0.195566	0.197374	0.19721
2121	0.200332	0.19836	0.196881	0.196717	0.201319	0.202633
2122	0.199182	0.19836	0.196881	0.199675	0.198031	0.199182
2123	0.201154	0.198689	0.194416	0.197703	0.197867	0.197045
2124	0.199346	0.197045	0.198689	0.199182	0.198196	0.200168
2125	0.195402	0.20099	0.19573	0.198853	0.200661	0.200497
2126	0.200497	0.200825	0.195073	0.19721	0.197538	0.197538
2127	0.199018	0.202633	0.200168	0.196059	0.19836	0.197045
2128	0.198196	0.202962	0.200661	0.198689	0.199675	0.196388
2129	0.198853	0.199675	0.199839	0.198853	0.198524	0.199018
2130	0.200825	0.19836	0.199675	0.199839	0.20362	0.196388
2131	0.201319	0.197867	0.199839	0.189156	0.202469	0.194744
2132	0.200332	0.202798	0.200004	0.196717	0.203126	0.196552
2133	0.199675	0.197703	0.199511	0.198196	0.201154	0.199182
2134	0.199346	0.199018	0.198524	0.198031	0.197374	0.197867
2135	0.201154	0.20214	0.199018	0.198524	0.199346	0.199182
2136	0.194416	0.201154	0.19836	0.195073	0.199346	0.199839
2137	0.19721	0.196552	0.199182	0.20099	0.198689	0.198853
2138	0.196552	0.202305	0.197538	0.196881	0.195895	0.198031
2139	0.199018	0.202305	0.198524	0.198689	0.196717	0.199346
2140	0.198524	0.201154	0.199511	0.201319	0.197538	0.200661
2141	0.202305	0.201812	0.200168	0.197374	0.199346	0.198853
2142	0.200332	0.201483	0.198524	0.19195	0.196881	0.199511
2143	0.202469	0.20099	0.199182	0.197045	0.200497	0.200825
2144	0.201812	0.201154	0.198524	0.198031	0.19836	0.201319
2145	0.197703	0.200497	0.199675	0.198031	0.200825	0.199018
2146	0.197374	0.199182	0.197374	0.19836	0.197703	0.200168
2147	0.197703	0.202469	0.202798	0.197374	0.200004	0.201976
2148	0.201319	0.199018	0.20099	0.197867	0.199675	0.198524
2149	0.198031	0.200332	0.204934	0.197045	0.198524	0.199346
2150	0.201319	0.20099	0.200661	0.199675	0.201154	0.195402
2151	0.198689	0.20099	0.203455	0.196059	0.200004	0.198853
2152	0.200004	0.199346	0.198853	0.198689	0.198524	0.198031
2153	0.201154	0.197703	0.199346	0.195895	0.200332	0.196059
2154	0.202798	0.200004	0.200168	0.198524	0.198196	0.198524
2155	0.197703	0.196552	0.199182	0.19573	0.196388	0.196552
2156	0.198853	0.203784	0.200332	0.200497	0.199182	0.19573
2157	0.199511	0.199182	0.20214	0.19836	0.198853	0.194416
2158	0.200661	0.202469	0.201483	0.199346	0.197374	0.197538
2159	0.199675	0.201976	0.19836	0.200004	0.199182	0.200004
2160	0.199182	0.200825	0.20214	0.199346	0.196388	0.197045
2161	0.198853	0.202305	0.200168	0.196223	0.197045	0.199839
2162	0.201976	0.201154	0.202962	0.199018	0.200661	0.199182
2163	0.20099	0.199018	0.199346	0.200004	0.198853	0.200168
2164	0.197867	0.201812	0.199182	0.20099	0.202798	0.200661
2165	0.204441	0.198853	0.198031	0.198689	0.198196	0.201483
2166	0.197374	0.200168	0.202469	0.19836	0.199839	0.199346
2167	0.20099	0.198853	0.197703	0.199346	0.199675	0.198031
2168	0.199346	0.19836	0.198524	0.19573	0.200004	0.198853
2169	0.199346	0.197045	0.201319	0.202633	0.19836	0.198853
2170	0.201483	0.199182	0.199839	0.199839	0.199182	0.198196
2171	0.20099	0.198689	0.20099	0.205099	0.196388	0.192279
2172	0.196717	0.200332	0.200332	0.202633	0.19836	0.199346
2173	0.197374	0.200168	0.206085	0.200497	0.199018	0.195237
2174	0.200168	0.201483	0.198524	0.200004	0.198031	0.197703
2175	0.196552	0.201976	0.202469	0.204441	0.199346	0.196223
2176	0.200661	0.200825	0.197374	0.19836	0.197538	0.198689
2177	0.198031	0.199182	0.197703	0.198196	0.199182	0.197538
2178	0.201154	0.200168	0.199018	0.198524	0.19836	0.199675
2179	0.19836	0.203455	0.202962	0.200168	0.201647	0.199675
2180	0.198689	0.197703	0.201647	0.19836	0.200497	0.199839
2181	0.20099	0.199018	0.202798	0.19836	0.199839	0.198524
2182	0.20099	0.197703	0.200825	0.196552	0.195402	0.197045
2183	0.198196	0.202633	0.200661	0.196717	0.19721	0.19836
2184	0.20099	0.199675	0.204277	0.200332	0.19836	0.199346
2185	0.203291	0.198031	0.198853	0.196717	0.199182	0.198524
2186	0.198853	0.200332	0.201812	0.201976	0.198196	0.196388
2187	0.199511	0.201154	0.200004	0.196717	0.197045	0.202798
2188	0.197538	0.197867	0.201154	0.200004	0.197703	0.195566
2189	0.198031	0.198689	0.200661	0.200825	0.194909	0.198853
2190	0.19721	0.200497	0.202962	0.201154	0.198853	0.197867
2191	0.200168	0.199346	0.20099	0.201154	0.195895	0.197374
2192	0.199346	0.200497	0.202962	0.200332	0.200004	0.200004
2193	0.201154	0.198524	0.198524	0.196881	0.196223	0.197538
2194	0.19721	0.202469	0.201319	0.198689	0.199018	0.199346
2195	0.198853	0.199839	0.20477	0.199511	0.200332	0.199675
2196	0.197703	0.201647	0.200004	0.198196	0.199839	0.199839
2197	0.200661	0.200497	0.200661	0.200332	0.200661	0.199839
2198	0.201319	0.202305	0.204113	0.195402	0.200497	0.201812
2199	0.199346	0.197538	0.199182	0.196059	0.198853	0.197538
2200	0.199182	0.200168	0.199511	0.195237	0.200497	0.196552
2201	0.198196	0.200332	0.203455	0.197374	0.199182	0.199675
2202	0.203126	0.199675	0.201319	0.196059	0.199675	0.200168
2203	0.19836	0.201154	0.204606	0.19721	0.197867	0.199182
2204	0.199511	0.202305	0.198853	0.198196	0.197374	0.200004
2205	0.199182	0.200168	0.201812	0.198853	0.198853	0.198196
2206	0.199018	0.202633	0.205263	0.198524	0.197045	0.200004
2207	0.198524	0.198853	0.200004	0.200168	0.200661	0.198031
2208	0.199511	0.198524	0.198853	0.199839	0.199018	0.195895
2209	0.19836	0.200825	0.201154	0.19836	0.200497	0.199182
2210	0.199511	0.196552	0.200497	0.199346	0.199346	0.196717
2211	0.193429	0.198524	0.199839	0.198853	0.195237	0.198524
2212	0.196059	0.198196	0.20099	0.200825	0.195402	0.198196
2213	0.199018	0.198689	0.200332	0.197538	0.199182	0.197867
2214	0.198853	0.200332	0.202798	0.200168	0.196881	0.199675
2215	0.199675	0.201647	0.199675	0.197703	0.201483	0.198853
2216	0.200661	0.19836	0.199511	0.198853	0.198853	0.198524
2217	0.198524	0.200825	0.200497	0.195895	0.200004	0.200497
2218	0.201319	0.199511	0.20099	0.199346	0.200004	0.197045
2219	0.200661	0.198689	0.199511	0.196059	0.198524	0.198689
2220	0.199511	0.19836	0.201483	0.197538	0.196552	0.200004
2221	0.202305	0.197374	0.199346	0.192772	0.197045	0.198031
2222	0.197538	0.19836	0.198031	0.199511	0.197374	0.19458
2223	0.196881	0.198196	0.202798	0.200661	0.197538	0.19573
2224	0.196059	0.197538	0.202962	0.199839	0.198031	0.196717
2225	0.19836	0.197045	0.19836	0.198524	0.19573	0.196881
2226	0.195895	0.199018	0.203784	0.197374	0.198524	0.199675
2227	0.197703	0.20099	0.200661	0.200825	0.19721	0.195237
2228	0.197374	0.199346	0.20099	0.198031	0.199018	0.200825
2229	0.199182	0.198689	0.199018	0.200661	0.197374	0.200825
2230	0.198524	0.19836	0.199839	0.198853	0.195566	0.200661
2231	0.200661	0.202633	0.199346	0.199839	0.196881	0.205592
2232	0.197703	0.205427	0.199346	0.197703	0.199839	0.201976
2233	0.200661	0.19836	0.199675	0.198853	0.200497	0.201154
2234	0.200004	0.201319	0.199182	0.19721	0.201812	0.198689
2235	0.200168	0.198689	0.202305	0.196552	0.200004	0.199182
2236	0.20099	0.196223	0.198853	0.198689	0.198853	0.19836
2237	0.194744	0.195895	0.200004	0.196717	0.197867	0.198196
2238	0.199675	0.199511	0.199346	0.196388	0.198031	0.198524
2239	0.201154	0.201154	0.201976	0.196717	0.197703	0.196717
2240	0.199675	0.198689	0.198524	0.196388	0.195566	0.198196
2241	0.198031	0.200661	0.199346	0.198689	0.193758	0.196388
2242	0.199675	0.199018	0.19573	0.192279	0.196881	0.199839
2243	0.197538	0.198689	0.203455	0.19573	0.196059	0.197538
2244	0.198196	0.198524	0.200332	0.199675	0.193922	0.197374
2245	0.197703	0.200661	0.200168	0.196552	0.196881	0.198196
2246	0.19836	0.19836	0.200168	0.200661	0.197538	0.197703
2247	0.202962	0.200332	0.197703	0.198689	0.201319	0.198196
2248	0.200332	0.197374	0.196552	0.199182	0.199346	0.19721
2249	0.199018	0.202633	0.198524	0.196388	0.200168	0.201483
2250	0.203455	0.20099	0.198689	0.19836	0.201976	0.203291
2251	0.200661	0.200332	0.196059	0.197703	0.198196	0.200497
2252	0.199346	0.200497	0.200497	0.198524	0.19573	0.199839
2253	0.200825	0.201647	0.198524	0.192936	0.197538	0.203291
2254	0.200004	0.196059	0.198196	0.195237	0.198689	0.196388
2255	0.200004	0.198524	0.196059	0.197867	0.198031	0.196223
2256	0.199018	0.194909	0.195237	0.197538	0.19836	0.198031
2257	0.197374	0.19721	0.202305	0.199511	0.19573	0.197703
2258	0.199839	0.199346	0.197374	0.198031	0.197703	0.197374
2259	0.196388	0.196552	0.195237	0.197703	0.196881	0.197867
2260	0.197045	0.200332	0.195073	0.199511	0.20099	0.198853
2261	0.197867	0.199182	0.198031	0.19836	0.199675	0.192772
2262	0.196717	0.200168	0.194909	0.197703	0.198689	0.200004
2263	0.19836	0.199675	0.192115	0.203126	0.192115	0.197374
2264	0.199018	0.201319	0.192115	0.198031	0.198524	0.201483
2265	0.195566	0.201483	0.196223	0.199182	0.199511	0.197867
2266	0.20099	0.200661	0.193101	0.199511	0.198689	0.197867
2267	0.199675	0.199346	0.194416	0.200497	0.197538	0.198524
2268	0.200825	0.200332	0.195402	0.200004	0.199018	0.199182
2269	0.199675	0.199182	0.198853	0.198031	0.200661	0.197538
2270	0.200332	0.194909	0.194909	0.199018	0.197538	0.199346
2271	0.199182	0.201154	0.200168	0.196717	0.199839	0.199346
2272	0.19836	0.198853	0.199182	0.196388	0.196059	0.198031
2273	0.198524	0.194416	0.195073	0.196059	0.199675	0.195566
2274	0.197045	0.198031	0.19458	0.199675	0.190142	0.197703
2275	0.195895	0.199839	0.19458	0.197045	0.19573	0.199839
2276	0.198524	0.197703	0.194251	0.198524	0.197867	0.19721
2277	0.194416	0.200168	0.196059	0.199018	0.199675	0.196059
2278	0.197045	0.197538	0.196223	0.19836	0.196717	0.193922
2279	0.196717	0.199018	0.195895	0.198196	0.195237	0.197703
2280	0.197045	0.199511	0.195566	0.19836	0.199182	0.196717
2281	0.198689	0.197703	0.193101	0.198031	0.198524	0.195402
2282	0.19721	0.200825	0.19458	0.199182	0.200004	0.20099
2283	0.200661	0.204441	0.194087	0.199511	0.199182	0.200004
2284	0.199346	0.20099	0.193429	0.198689	0.19458	0.201647
2285	0.199675	0.202469	0.192608	0.198031	0.190307	0.199018
2286	0.203455	0.206578	0.194744	0.197374	0.197538	0.201976
2287	0.200661	0.200168	0.193758	0.196552	0.19573	0.199182
2288	0.197703	0.198853	0.193922	0.192936	0.197374	0.197538
2289	0.201319	0.198524	0.193101	0.19836	0.196388	0.197867
2290	0.198853	0.199182	0.198031	0.196717	0.197867	0.199839
2291	0.19836	0.198031	0.195073	0.199182	0.195073	0.199182
2292	0.199018	0.197867	0.19458	0.197538	0.19721	0.197045
2293	0.198689	0.200661	0.196059	0.201319	0.196388	0.197045
2294	0.198689	0.198689	0.193429	0.201812	0.199182	0.200497
2295	0.199675	0.198689	0.191293	0.196717	0.19836	0.198524
2296	0.198524	0.19836	0.191786	0.199675	0.193594	0.198196
2297	0.203291	0.199675	0.192115	0.198524	0.197703	0.198853
2298	0.198031	0.197703	0.193265	0.197703	0.198689	0.196552
2299	0.19836	0.200168	0.19458	0.198853	0.198524	0.200004
2300	0.199182	0.198853	0.192936	0.195073	0.199182	0.197374
2301	0.199839	0.199675	0.194909	0.196552	0.197867	0.197045
2302	0.201483	0.195237	0.194087	0.199018	0.198689	0.201154
2303	0.199675	0.19573	0.194087	0.192772	0.201647	0.196717
2304	0.199675	0.197374	0.193429	0.196059	0.193594	0.197045
2305	0.198031	0.19573	0.196388	0.197045	0.201319	0.201976
2306	0.20099	0.19836	0.194744	0.199839	0.196388	0.197045
2307	0.198196	0.195895	0.193101	0.196223	0.199511	0.198524
2308	0.201812	0.192443	0.194909	0.197867	0.197374	0.201976
2309	0.199839	0.189978	0.195237	0.200004	0.196881	0.196717
2310	0.19836	0.188334	0.19573	0.197045	0.198031	0.199182
2311	0.197703	0.187019	0.188499	0.196717	0.197703	0.19836
2312	0.198031	0.184225	0.196717	0.199182	0.199511	0.196552
2313	0.194744	0.182417	0.191293	0.198524	0.198853	0.199839
2314	0.199182	0.182417	0.195073	0.197703	0.198524	0.195566
2315	0.199018	0.181267	0.193101	0.199346	0.198524	0.197538
2316	0.198689	0.181103	0.196552	0.199018	0.200004	0.198196
2317	0.199839	0.180281	0.191621	0.19836	0.197867	0.19836
2318	0.200004	0.179295	0.194909	0.196881	0.20099	0.196388
2319	0.200004	0.181431	0.196717	0.200004	0.19573	0.200825
2320	0.197703	0.178802	0.196717	0.197867	0.199182	0.198196
2321	0.198524	0.17798	0.197703	0.201647	0.198031	0.198689
2322	0.199182	0.179623	0.200332	0.201812	0.201154	0.196881
2323	0.199675	0.17913	0.200168	0.200004	0.19573	0.195402
2324	0.196059	0.182911	0.198524	0.198196	0.200168	0.198853
2325	0.197703	0.179952	0.199182	0.19836	0.198853	0.195073
2326	0.197867	0.182253	0.196223	0.197374	0.196223	0.198853
2327	0.198196	0.182417	0.199839	0.199182	0.200332	0.199675
2328	0.197538	0.182253	0.196552	0.198031	0.196717	0.199346
2329	0.19721	0.183568	0.199675	0.199839	0.205263	0.196717
2330	0.199018	0.184225	0.197703	0.198853	0.199839	0.201483
2331	0.199675	0.18176	0.200332	0.199511	0.19836	0.196717
2332	0.198853	0.182417	0.200004	0.196059	0.197374	0.195073
2333	0.199018	0.184061	0.199018	0.199675	0.196881	0.196223
2334	0.201319	0.186198	0.200497	0.199182	0.199839	0.19836
2335	0.198031	0.185705	0.197867	0.20099	0.201319	0.198689
2336	0.200661	0.183568	0.20099	0.196388	0.199018	0.198196
2337	0.201812	0.191457	0.200825	0.197867	0.199182	0.201154
2338	0.201812	0.187513	0.202962	0.204441	0.198031	0.200332
2339	0.200497	0.190142	0.201483	0.201812	0.198689	0.20099
2340	0.201976	0.188663	0.202469	0.202469	0.201647	0.199182
2341	0.200168	0.189978	0.20214	0.197703	0.195237	0.202962
2342	0.199675	0.189814	0.202469	0.201483	0.196717	0.197867
2343	0.201154	0.189156	0.200004	0.197867	0.197374	0.198853
2344	0.199018	0.188006	0.201647	0.194251	0.198031	0.199346
2345	0.199182	0.192279	0.198524	0.199511	0.200332	0.198524
2346	0.199182	0.18932	0.202305	0.198853	0.198196	0.19721
2347	0.20099	0.190471	0.202798	0.196552	0.197374	0.19836
2348	0.195237	0.19195	0.202305	0.197867	0.199018	0.19836
2349	0.19836	0.190471	0.200825	0.200004	0.197867	0.195895
2350	0.196552	0.193265	0.197374	0.196717	0.200332	0.196223
2351	0.200168	0.1908	0.20099	0.202305	0.199018	0.197045
2352	0.194744	0.192608	0.202798	0.197045	0.198689	0.201647
2353	0.202305	0.192279	0.202962	0.200168	0.198524	0.197867
2354	0.197374	0.194251	0.203455	0.197867	0.200004	0.202633
2355	0.204113	0.191786	0.204441	0.20099	0.198031	0.200497
2356	0.20099	0.195402	0.203948	0.200497	0.201976	0.20099
2357	0.195073	0.193594	0.206249	0.20099	0.198689	0.198689
2358	0.200497	0.188334	0.20477	0.19836	0.201647	0.199675
2359	0.199511	0.19573	0.206414	0.202798	0.199511	0.198853
2360	0.201154	0.193265	0.201976	0.197867	0.198524	0.199018
2361	0.199018	0.193758	0.202798	0.199182	0.19836	0.19721
2362	0.199511	0.195895	0.200497	0.202305	0.197867	0.199839
2363	0.199018	0.197538	0.203126	0.199675	0.198689	0.200661
2364	0.199839	0.193922	0.202469	0.201319	0.197374	0.196552
2365	0.199018	0.195073	0.202962	0.199018	0.199839	0.197538
2366	0.198689	0.193429	0.202305	0.201483	0.195895	0.197374
2367	0.19573	0.197867	0.208386	0.199182	0.200497	0.200004
2368	0.202305	0.19458	0.20099	0.200661	0.19721	0.197867
2369	0.19836	0.194416	0.200168	0.197374	0.197538	0.199018
2370	0.195073	0.196717	0.206085	0.201976	0.198196	0.19836
2371	0.199346	0.19573	0.201319	0.200168	0.199839	0.198853
2372	0.199182	0.196059	0.201483	0.200332	0.198853	0.19721
2373	0.197374	0.19573	0.201319	0.205756	0.200168	0.199839
2374	0.199675	0.197045	0.201647	0.201319	0.198031	0.198524
2375	0.197538	0.194744	0.200168	0.20099	0.199675	0.198689
2376	0.19721	0.195895	0.202962	0.201319	0.199018	0.197374
2377	0.196552	0.197374	0.200332	0.201812	0.197867	0.193758
2378	0.198524	0.198031	0.200168	0.200004	0.200004	0.198689
2379	0.200497	0.197045	0.201483	0.201154	0.200497	0.19836
2380	0.198853	0.197538	0.200661	0.198031	0.199182	0.196388
2381	0.197374	0.201812	0.20099	0.203126	0.196717	0.200497
2382	0.200004	0.199675	0.203291	0.200004	0.198853	0.198853
2383	0.200497	0.19721	0.200004	0.200004	0.19836	0.194416
2384	0.198524	0.199675	0.20099	0.201976	0.199018	0.197867
2385	0.199346	0.196059	0.201154	0.201483	0.196223	0.199839
2386	0.196059	0.194909	0.200004	0.200004	0.193922	0.199018
2387	0.19573	0.199346	0.200004	0.200168	0.197374	0.19836
2388	0.200497	0.19836	0.199675	0.203126	0.198196	0.198524
2389	0.201976	0.197538	0.202305	0.202633	0.199018	0.199182
2390	0.19836	0.199018	0.201319	0.201647	0.201976	0.200004
2391	0.200825	0.19836	0.200825	0.202305	0.197045	0.197703
2392	0.19721	0.200332	0.201483	0.201319	0.19836	0.201976
2393	0.200661	0.200004	0.196552	0.201483	0.199018	0.200332
2394	0.201647	0.198689	0.19836	0.20477	0.197867	0.197867
2395	0.198524	0.199839	0.200004	0.204606	0.198689	0.200168
2396	0.201154	0.199511	0.198196	0.202962	0.194087	0.200332
2397	0.19836	0.200004	0.199346	0.200332	0.199018	0.196552
2398	0.19836	0.197045	0.199346	0.201319	0.19836	0.197045
2399	0.196552	0.201812	0.197867	0.201319	0.198689	0.195237
2400	0.199675	0.194744	0.202305	0.199675	0.197703	0.196223
2401	0.199018	0.198196	0.199511	0.19836	0.199839	0.201483
2402	0.199511	0.199346	0.200004	0.198853	0.196388	0.195895
2403	0.196223	0.199675	0.199346	0.199511	0.197045	0.199839
2404	0.200497	0.200168	0.201976	0.200661	0.198031	0.198031
2405	0.198689	0.197703	0.196388	0.198524	0.198853	0.196881
2406	0.198689	0.201319	0.19836	0.206249	0.201154	0.196059
2407	0.196388	0.198031	0.196717	0.201319	0.196552	0.201319
2408	0.202962	0.201154	0.197045	0.20214	0.199675	0.196223
2409	0.199675	0.201319	0.196388	0.202798	0.198689	0.200004
2410	0.197538	0.199346	0.198196	0.200497	0.199182	0.197374
2411	0.203948	0.198196	0.19721	0.20099	0.197374	0.197538
2412	0.20099	0.201812	0.198031	0.199675	0.198031	0.198196
2413	0.197703	0.197867	0.196388	0.200004	0.196059	0.196223
2414	0.198689	0.201154	0.198031	0.200332	0.198853	0.199346
2415	0.201154	0.200004	0.196059	0.201483	0.200661	0.198196
2416	0.199511	0.19836	0.193265	0.200332	0.197703	0.199018
2417	0.200661	0.197045	0.195402	0.20362	0.199675	0.197538
2418	0.197867	0.201483	0.193429	0.200661	0.199675	0.200661
2419	0.200661	0.19458	0.194416	0.201483	0.195566	0.194909
2420	0.199346	0.195566	0.198524	0.201812	0.198524	0.198853
2421	0.200004	0.19836	0.197867	0.200004	0.197538	0.198524
2422	0.195402	0.195895	0.196388	0.20099	0.19836	0.194744
2423	0.199346	0.196881	0.196552	0.20099	0.199346	0.196223
2424	0.197867	0.19836	0.195402	0.200332	0.197374	0.19836
2425	0.197045	0.19836	0.197374	0.200825	0.199346	0.197374
2426	0.200497	0.200332	0.197703	0.201976	0.200004	0.199018
2427	0.197538	0.201154	0.195402	0.201812	0.200497	0.196881
2428	0.200004	0.19721	0.194251	0.201319	0.200168	0.196717
2429	0.200004	0.202305	0.19573	0.201154	0.19721	0.202305
2430	0.201154	0.19721	0.196223	0.201154	0.196059	0.194251
2431	0.198853	0.198031	0.196552	0.199675	0.197867	0.200168
2432	0.201812	0.199018	0.198524	0.202305	0.197867	0.196223
2433	0.201154	0.198689	0.196552	0.19836	0.198524	0.199839
2434	0.199182	0.198031	0.199182	0.20099	0.198524	0.194744
2435	0.197374	0.199675	0.197374	0.198196	0.196881	0.197045
2436	0.199839	0.195402	0.197703	0.202798	0.195895	0.196059
2437	0.197045	0.197374	0.197374	0.201483	0.199018	0.198853
2438	0.196717	0.198853	0.196717	0.203126	0.199018	0.19721
2439	0.198196	0.197538	0.196388	0.201483	0.201647	0.197867
2440	0.19721	0.200004	0.198524	0.200661	0.19721	0.199182
2441	0.201154	0.197867	0.195895	0.20099	0.195402	0.197538
2442	0.197374	0.200004	0.197703	0.203784	0.196388	0.197703
2443	0.200825	0.199839	0.193922	0.202469	0.196223	0.197538
2444	0.199346	0.201483	0.197045	0.198524	0.196881	0.19836
2445	0.200168	0.199675	0.198853	0.202305	0.19721	0.196881
2446	0.202305	0.198853	0.198031	0.196059	0.199346	0.199511
2447	0.198853	0.201154	0.199675	0.198689	0.20099	0.19721
2448	0.200004	0.200497	0.196059	0.200332	0.199346	0.198853
2449	0.201483	0.20099	0.198853	0.197867	0.199839	0.196552
2450	0.200332	0.199346	0.199839	0.199511	0.200168	0.203126
2451	0.202633	0.201319	0.202305	0.198196	0.198524	0.202798
2452	0.200004	0.198031	0.198031	0.197045	0.199675	0.198031
2453	0.199018	0.201812	0.200168	0.199182	0.199018	0.197538
2454	0.201154	0.19836	0.199839	0.20099	0.197045	0.197703
2455	0.19721	0.19721	0.198196	0.20214	0.200661	0.196881
2456	0.199675	0.199839	0.199346	0.201154	0.201154	0.197045
2457	0.19458	0.198031	0.200332	0.199675	0.201812	0.19836
2458	0.197374	0.198689	0.199675	0.202305	0.200497	0.197045
2459	0.197538	0.201319	0.200825	0.200004	0.199346	0.199182
2460	0.198689	0.196881	0.198031	0.203948	0.198689	0.198689
2461	0.199675	0.200332	0.199839	0.201483	0.201647	0.197538
2462	0.200661	0.200332	0.197538	0.198689	0.199511	0.200168
2463	0.196881	0.199839	0.196223	0.199018	0.19836	0.200825
2464	0.20099	0.200168	0.199511	0.20099	0.197538	0.19721
2465	0.198196	0.198853	0.199675	0.194087	0.200661	0.199675
2466	0.199182	0.197867	0.198689	0.199182	0.19836	0.197374
2467	0.200497	0.200004	0.19836	0.198196	0.197703	0.19836
2468	0.201483	0.198853	0.19836	0.196881	0.198524	0.197703
2469	0.196388	0.19721	0.197374	0.19836	0.200004	0.199675
2470	0.19836	0.19458	0.201647	0.199018	0.199675	0.196881
2471	0.198689	0.199839	0.197374	0.201319	0.199511	0.199018
2472	0.198031	0.199511	0.197703	0.196881	0.198689	0.196388
2473	0.198524	0.19573	0.196388	0.196223	0.198689	0.197045
2474	0.193922	0.197374	0.198524	0.19836	0.198524	0.195237
2475	0.199511	0.200332	0.196552	0.200661	0.19836	0.198853
2476	0.198196	0.199675	0.199511	0.197045	0.198524	0.198196
2477	0.194087	0.198031	0.200497	0.197867	0.198196	0.197538
2478	0.197703	0.199839	0.193429	0.198524	0.198524	0.197374
2479	0.200004	0.201483	0.200825	0.198524	0.193594	0.19836
2480	0.199511	0.200497	0.197374	0.19836	0.201154	0.201647
2481	0.201812	0.198196	0.196059	0.198524	0.199346	0.196881
2482	0.200497	0.201647	0.198524	0.19721	0.199675	0.202305
2483	0.200497	0.199018	0.200497	0.198031	0.202305	0.198031
2484	0.200661	0.200004	0.199182	0.195073	0.198524	0.198524
2485	0.198689	0.200168	0.199675	0.195895	0.202469	0.200332
2486	0.201647	0.197374	0.199018	0.19721	0.200332	0.19836
2487	0.201812	0.196223	0.200825	0.196552	0.200004	0.197045
2488	0.202305	0.198524	0.19836	0.192936	0.195237	0.199018
2489	0.197703	0.200004	0.198031	0.195895	0.19836	0.197045
2490	0.200661	0.196388	0.200825	0.194909	0.19721	0.196717
2491	0.198853	0.200332	0.198031	0.195566	0.198524	0.198031
2492	0.199839	0.198689	0.194416	0.198689	0.197045	0.197045
2493	0.199182	0.200168	0.19458	0.196881	0.200332	0.199839
2494	0.200168	0.199182	0.199346	0.199675	0.200661	0.197374
2495	0.200004	0.201647	0.19721	0.191293	0.200825	0.201319
2496	0.200825	0.199018	0.199018	0.198031	0.201483	0.197374
2497	0.199839	0.202305	0.196881	0.194909	0.199511	0.199346
2498	0.199675	0.198853	0.201319	0.195895	0.198524	0.19836
2499	0.200661	0.200004	0.198853	0.194251	0.201319	0.206085
