Ladekurvenmessung
Zeit: 2016_06_21 16.36.29
Info: 2250rpm
Ladewiderstand[Ohm]: 199500
Störkapazität[pF]: 278.000000
Entladezeit[ms]: 100
Abtastrate[Hz]: 250000
Messzeit [ms]: 5.000000
Verzögerung[ms]: 1
Ladespannung[V]: 1.000000

Kurve 1

-0.003645
-0.003152
-0.002988
-0.003481
-0.003317
-0.002660
-0.003317
0.001611
-0.005616
-0.001838
-0.006438
-0.005124
-0.004959
-0.005124
-0.004959
-0.007259
-0.002167
-0.002660
-0.000853
-0.001017
-0.001017
-0.001674
-0.002167
-0.001838
-0.003645
-0.003152
-0.002824
-0.002988
-0.002824
-0.002988
-0.000688
-0.002988
-0.002331
-0.002660
-0.002824
-0.002331
-0.002824
-0.002660
-0.002495
-0.002988
0.006046
0.005882
0.007032
0.005718
0.005225
0.004732
0.001447
-0.005288
-0.004959
-0.003809
-0.003974
-0.003974
-0.003809
0.005225
-0.003809
-0.003809
-0.003317
-0.003645
-0.003809
-0.003809
0.021651
-0.004302
-0.002660
-0.003481
-0.005616
-0.004302
-0.004959
-0.004795
-0.004795
-0.006273
-0.008737
0.000790
-0.006766
-0.006109
-0.004467
-0.003974
-0.003974
-0.004302
-0.004302
-0.006273
-0.004795
-0.005124
-0.005124
-0.005452
0.000954
-0.004631
-0.001181
-0.002824
-0.002988
-0.002988
-0.003317
-0.003317
-0.002988
-0.002660
-0.004467
-0.004795
-0.004302
-0.004467
-0.004467
-0.004467
-0.005288
-0.005124
-0.004631
-0.004138
-0.004467
-0.004302
-0.004467
-0.004138
-0.003974
-0.004467
-0.004959
-0.002495
-0.002003
-0.001674
-0.001674
-0.002003
-0.002331
-0.012351
-0.010216
-0.009230
-0.008902
-0.008573
-0.008245
-0.008080
0.000297
-0.002331
-0.002331
-0.002331
-0.002331
-0.002331
-0.002331
-0.002660
-0.002660
-0.003809
-0.001510
-0.002167
-0.002331
-0.001838
-0.001674
-0.002003
-0.003809
-0.002660
-0.002167
-0.002331
-0.002331
-0.002660
-0.002331
0.008182
-0.003481
0.001118
0.000297
0.000133
-0.000031
0.000133
-0.000196
0.005554
-0.004959
-0.003152
-0.002988
-0.003481
-0.003481
-0.003152
-0.003152
-0.006109
-0.003152
-0.002331
-0.002824
-0.002495
-0.002331
-0.002660
-0.002495
-0.005616
-0.003974
-0.007095
-0.007588
-0.007423
-0.007095
-0.006930
-0.006766
-0.002660
-0.001838
-0.004302
-0.003481
-0.003152
-0.003317
-0.003317
0.005718
-0.000524
-0.013008
-0.009394
-0.009066
-0.008409
-0.008409
-0.008245
-0.001838
-0.002331
-0.002003
-0.000853
-0.001510
-0.001510
-0.001346
-0.001346
-0.007752
0.001776
-0.000688
0.000954
0.001118
0.000790
0.000297
0.000297
-0.002331
-0.002167
-0.002167
-0.001838
-0.001674
-0.001674
-0.001674
0.001776
-0.003152
-0.003645
-0.002988
-0.002824
-0.003152
-0.002824
-0.002824
-0.013173
-0.002495
-0.001838
-0.003317
-0.003152
-0.002988
-0.002988
-0.002988
-0.002824
-0.003809
-0.003481
-0.002495
-0.002495
-0.002660
-0.002660
-0.002824
-0.000853
-0.002495
-0.003152
-0.002988
-0.002988
-0.002824
-0.003317
-0.000524
-0.002988
0.000461
0.008675
0.024115
0.040378
0.055490
0.070766
0.080951
0.098363
0.103784
0.134008
0.143043
0.155363
0.167682
0.179345
0.191008
0.193965
0.209898
0.220411
0.229774
0.240451
0.250471
0.260163
0.272976
0.280203
0.289895
0.299094
0.306978
0.315520
0.323733
0.329154
0.337860
0.365292
0.351330
0.359050
0.365785
0.372848
0.379419
0.383854
0.392067
0.397981
0.403237
0.416378
0.421470
0.425577
0.426234
0.431162
0.435761
0.442660
0.442168
0.447917
0.452845
0.455144
0.460894
0.470257
0.470750
0.477977
0.481262
0.485369
0.487669
0.491611
0.493911
0.498346
0.500317
0.504752
0.509352
0.512308
0.515265
0.518550
0.509352
0.510337
0.512801
0.516086
0.521671
0.519207
0.524300
0.527092
0.530049
0.533006
0.536291
0.539412
0.542533
0.545161
0.547625
0.550089
0.555510
0.545654
0.550089
0.551732
0.555510
0.558631
0.584256
0.566680
0.573743
0.574236
0.575386
0.575550
0.576043
0.577850
0.579164
0.581135
0.582613
0.583435
0.584749
0.583106
0.588034
0.589677
0.591484
0.593290
0.594769
0.581299
0.595754
0.598054
0.598054
0.599368
0.600518
0.601668
0.603146
0.605775
0.605610
0.606432
0.607417
0.653411
0.609553
0.610210
0.611031
0.613823
0.611524
0.618751
0.618094
0.617602
0.618916
0.611359
0.617766
0.618423
0.619573
0.619573
0.620230
0.622529
0.623187
0.623844
0.617109
0.625486
0.619408
0.622529
0.623844
0.624336
0.624501
0.629593
0.630414
0.628443
0.628771
0.628936
0.632550
0.631892
0.632385
0.632221
0.632221
0.629429
0.634521
0.634849
0.634521
0.635506
0.633535
0.649633
0.643719
0.643719
0.644377
0.616944
0.625979
0.627786
0.629921
0.631071
0.640598
0.636985
0.639449
0.640927
0.641420
0.640763
0.684128
0.643391
0.643555
0.644048
0.643062
0.643884
0.644705
0.644869
0.644048
0.644212
0.646183
0.646676
0.643719
0.644048
0.644377
0.638135
0.647005
0.646512
0.646676
0.647990
0.647333
0.604953
0.606924
0.649304
0.649633
0.647498
0.649633
0.651768
0.652097
0.653247
0.652425
0.661953
0.650783
0.651933
0.652097
0.660803
0.651111
0.657518
0.656204
0.654725
0.655218
0.697927
0.652918
0.652754
0.653247
0.653247
0.654068
0.657353
0.652754
0.654561
0.654889
0.655546
0.650783
0.654397
0.655054
0.656039
0.620558
0.654725
0.654889
0.655382
0.655382
0.655218
0.654561
0.655218
0.655875
0.655875
0.657353
0.656696
0.656696
0.656204
0.655382
0.655546
0.685771
0.656204
0.656532
0.656696
0.657025
0.656861
0.655054
0.667045
0.665238
0.665074
0.665238
0.664745
0.655382
0.656696
0.656532
0.651604
0.658503
0.651933
0.653740
0.654889
0.655218
0.654725
0.660967
0.657189
0.640270
0.635835
0.633371
0.633864
0.634356
0.634028
0.634356
0.638135
0.633535
0.637806
0.636163
0.636163
0.636820
0.630086
0.636985
0.636820
0.636985
0.637970
0.637970
0.637806
0.591648
0.602489
0.605117
0.641420
0.640927
0.641091
0.641420
0.641913
0.641748
0.648812
0.642405
0.643062
0.640927
0.640763
0.639613
0.640270
0.641091
0.641748
0.642898
0.645855
0.646512
0.645362
0.645362
0.646348
0.646841
0.652261
0.649797
0.651440
0.652425
0.652425
0.652261
0.636328
0.652590
0.651933
0.653083
0.652425
0.652918
0.653411
0.653575
0.653904
0.653904
0.654397
0.655711
0.654068
0.654889
0.655054
0.655382
0.655218
0.655875
0.656861
0.654889
0.658175
0.656696
0.656368
0.656532
0.657518
0.656039
0.657518
0.658010
0.658339
0.658996
0.658832
0.658503
0.656532
0.658996
0.658503
0.658832
0.659653
0.659817
0.659817
0.659817
0.659982
0.667373
0.665238
0.652754
0.657189
0.656204
0.656368
0.656861
0.657518
0.658832
0.660967
0.661953
0.662117
0.661460
0.662117
0.662446
0.644705
0.663595
0.662938
0.662774
0.664252
0.663924
0.663103
0.663267
0.661953
0.661789
0.663431
0.664252
0.664581
0.664910
0.664417
0.664252
0.676572
0.666388
0.663267
0.663760
0.662774
0.662281
0.657025
0.657518
0.657189
0.659489
0.659817
0.659982
0.660146
0.660146
0.660803
0.661131
0.660803
0.658503
0.659489
0.659982
0.650947
0.650290
0.650454
0.651276
0.651933
0.654232
0.654725
0.655546
0.655875
0.656039
0.656039
0.656861
0.657025
0.657353
0.657189
0.657353
0.657682
0.658832
0.659489
0.658832
0.658668
0.659160
0.658668
0.659160
0.658668
0.659653
0.660146
0.653740
0.659653
0.629429
0.630907
0.632385
0.633207
0.633207
0.634192
0.619901
0.637149
0.637477
0.640598
0.643555
0.643884
0.643884
0.643719
0.641913
0.642077
0.642077
0.642734
0.643062
0.644048
0.644541
0.644541
0.647498
0.647005
0.650454
0.650783
0.650454
0.651276
0.652590
0.652918
0.606596
0.612017
0.651111
0.651276
0.651768
0.650947
0.651111
0.633207
0.652261
0.654232
0.654889
0.655875
0.657025
0.656861
0.656039
0.700555
0.655218
0.649140
0.647333
0.647005
0.648483
0.650126
0.650290
0.671480
0.658339
0.659160
0.659325
0.659653
0.659817
0.661296
0.661296
0.613166
0.621544
0.624008
0.651276
0.663760
0.663595
0.663267
0.622365
0.666059
0.665895
0.665402
0.665567
0.665731
0.665402
0.665074
0.672958
0.669180
0.665238
0.665402
0.665895
0.665402
0.666059
0.666059
0.665402
0.665731
0.666059
0.666059
0.665895
0.666388
0.666224
0.666388
0.666224
0.666059
0.666388
0.666552
0.666388
0.665731
0.665567
0.665895
0.666059
0.665895
0.666059
0.667702
0.667702
0.667866
0.667538
0.668688
0.667702
0.668688
0.654232
0.657025
0.658010
0.658010
0.664910
0.668031
0.711725
0.668031
0.668031
0.667866
0.667866
0.668031
0.668031
0.667538
0.667866
0.668852
0.668359
0.669016
0.668195
0.668031
0.668688
0.668031
0.666716
0.674437
0.666716
0.667209
0.668688
0.668688
0.673287
0.668195
0.668359
0.668031
0.668852
0.668688
0.668359
0.668523
0.668359
0.678051
0.660803
0.664252
0.662774
0.643062
0.642734
0.643719
0.605939
0.650947
0.651604
0.652425
0.653411
0.653740
0.645526
0.654889
0.654889
0.655875
0.657025
0.650454
0.653575
0.654561
0.655546
0.682486
0.658339
0.659160
0.659653
0.658832
0.659982
0.659982
0.659817
0.660474
0.660639
0.660146
0.661624
0.661460
0.661789
0.661953
0.662446
0.645034
0.663267
0.663595
0.663103
0.663103
0.663267
0.653247
0.664581
0.664581
0.664910
0.662446
0.675587
0.675422
0.674601
0.674437
0.676572
0.713039
0.664745
0.663595
0.702526
0.663924
0.663431
0.664088
0.664252
0.664252
0.669016
0.664252
0.664088
0.664581
0.665074
0.665074
0.665402
0.666224
0.665731
0.665895
0.666224
0.666059
0.618423
0.631071
0.632221
0.669016
0.667209
0.683636
0.678872
0.678543
0.678708
0.678543
0.668359
0.672630
0.671973
0.671973
0.670002
0.670002
0.669180
0.669509
0.669345
0.692342
0.668359
0.668688
0.668688
0.668359
0.666552
0.666552
0.666388
0.666552
0.667209
0.666881
0.667209
0.667538
0.667373
0.667702
0.668359
0.660474
0.669509
0.664088
0.666059
0.666716
0.666552
0.717638
0.702197
0.668523
0.668359
0.668523
0.665895
0.661953
0.660803
0.661296
0.661789
0.669016
0.669837
0.669837
0.667373
0.665895
0.664745
0.664088
0.677394
0.674273
0.672958
0.666552
0.645526
0.644377
0.645034
0.646019
0.646841
0.596083
0.608238
0.615138
0.652097
0.652754
0.688728
0.689056
0.691028
0.688235
0.653247
0.657189
0.653411
0.654232
0.654068
0.654561
0.655875
0.656696
0.656696
0.657846
0.658175
0.658339
0.636985
0.660803
0.656532
0.658175
0.622529
0.660967
0.661624
0.661789
0.662610
0.663103
0.661953
0.662938
0.664252
0.663760
0.664417
0.670002
0.664088
0.665567
0.665895
0.666388
0.666716
0.682979
0.666388
0.666059
0.667209
0.675422
0.667209
0.667373
0.667866
0.667866
0.668195
0.668195
0.669673
0.668523
0.668523
0.664252
0.668523
0.669837
0.669509
0.669837
0.670002
0.668031
0.673123
0.670166
0.670166
0.670495
0.670987
0.671809
0.673287
0.671644
0.671973
0.672301
0.672466
0.672958
0.672466
0.673287
0.678215
0.649797
0.654397
0.654889
0.655218
0.655218
0.656532
0.665074
0.665238
0.667538
0.666059
0.666059
0.666224
0.666388
0.666552
0.667209
0.660146
0.668359
0.667702
0.668359
0.668688
0.668688
0.671809
0.668688
0.672630
0.673287
0.673287
0.672958
0.673287
0.669180
0.669509
0.670495
0.661953
0.663267
0.661953
0.662117
0.662610
0.662774
0.666388
0.670495
0.669509
0.678215
0.667045
0.668852
0.669180
0.669509
0.669837
0.666388
0.627129
0.628771
0.673780
0.674273
0.674273
0.679036
0.674108
0.674930
0.674765
0.674765
0.675258
0.674930
0.679201
0.672958
0.673616
0.669509
0.665567
0.664417
0.665074
0.665567
0.666059
0.666552
0.676572
0.671973
0.684128
0.680350
0.681007
0.681172
0.681007
0.680843
0.666881
0.676737
0.674930
0.676244
0.676244
0.675751
0.675915
0.676737
0.676737
0.676244
0.676737
0.676079
0.676572
0.676079
0.681664
0.675258
0.674601
0.676079
0.673944
0.674273
0.674437
0.674765
0.674601
0.674930
0.673616
0.675751
0.673123
0.673780
0.654889
0.655218
0.655875
0.649633
0.662774
0.661624
0.663595
0.664581
0.664581
0.664417
0.695627
0.661953
0.661953
0.662446
0.662446
0.663103
0.664252
0.664417
0.664745
0.665567
0.655218
0.658010
0.659160
0.659817
0.660310
0.660967
0.661789
0.667209
0.667702
0.669016
0.670002
0.670330
0.670002
0.669837
0.670330
0.671152
0.665731
0.667373
0.668031
0.668359
0.668688
0.670659
0.671973
0.673123
0.672794
0.672466
0.665402
0.658175
0.656532
0.656861
0.658832
0.658175
0.658339
0.658832
0.659489
0.659489
0.660310
0.660639
0.662774
0.660803
0.662774
0.664581
0.664581
0.664417
0.664581
0.665402
0.664088
0.662610
0.663267
0.663760
0.665238
0.665402
0.665731
0.672301
0.667045
0.667209
0.666881
0.666552
0.667373
0.668523
0.669016
0.711068

Kurve 2

0.000133
-0.000360
0.005061
-0.003974
-0.004795
-0.005452
-0.005124
-0.005945
0.000954
-0.005124
-0.003481
-0.002495
-0.002167
0.005554
0.000626
0.001940
0.002268
-0.000031
0.000461
0.000626
0.000790
0.000790
0.000133
0.007361
-0.001181
0.005389
0.003418
0.001940
-0.001017
-0.000196
-0.000524
-0.001181
-0.001017
0.004404
-0.013008
-0.009559
-0.010216
-0.009723
-0.010709
0.000954
0.000790
0.000461
0.000790
0.000626
0.000297
0.000297
0.000626
0.000790
-0.003152
0.000461
0.000461
0.000626
0.000461
0.000297
-0.000688
-0.004302
-0.005452
-0.007423
0.005718
-0.002495
0.003254
0.001118
0.000954
0.000461
0.033314
-0.000196
-0.000688
-0.000524
-0.000524
-0.000360
-0.001017
-0.001346
-0.000196
-0.000524
-0.000360
-0.000853
0.003090
-0.003809
-0.001674
-0.015308
0.000297
0.000297
-0.000196
0.000461
0.000461
0.000626
0.003254
0.001940
0.002761
0.005061
-0.000688
-0.002331
-0.001346
-0.001510
-0.001674
0.006703
-0.009066
-0.006766
-0.007752
-0.007752
-0.007095
-0.002988
-0.000360
0.001118
-0.000688
-0.000688
-0.000853
-0.005124
-0.000853
-0.000853
-0.002003
0.001776
-0.001510
-0.001674
-0.001510
-0.001510
-0.001510
0.006868
-0.001510
0.001283
-0.001181
-0.001017
-0.001510
-0.001346
-0.001346
-0.001510
-0.001181
-0.002331
-0.000853
-0.001346
-0.001346
-0.001017
-0.008737
-0.000196
-0.001346
-0.001017
-0.001181
-0.001181
-0.001017
-0.003974
-0.000524
-0.003317
0.000297
-0.002824
-0.001346
-0.000853
-0.000524
-0.001181
-0.000196
-0.001346
-0.000524
-0.001017
0.002597
-0.000360
0.000133
-0.000031
-0.000360
0.003090
-0.001181
-0.005124
-0.004795
-0.004302
-0.003809
-0.003152
-0.005945
0.002925
0.001611
0.000297
0.000297
0.000297
0.000133
0.000461
-0.000688
-0.003645
0.009003
0.007853
0.007032
0.007032
0.006868
0.006211
0.002104
0.005882
-0.004467
0.002925
0.001776
0.001118
0.001283
0.001447
0.001611
-0.001017
-0.000196
-0.001838
-0.001017
-0.000853
-0.000853
-0.006273
0.004239
-0.001510
-0.001346
-0.001510
-0.001346
-0.001346
-0.001510
0.000790
-0.004302
0.008839
0.006211
0.005718
0.005554
0.005718
0.005718
0.006211
0.003747
-0.011037
-0.006766
-0.005781
-0.002167
0.001447
0.001283
0.001447
0.001118
0.006046
0.005225
0.005718
0.005389
0.005389
0.002433
0.001611
0.001447
0.001118
0.001447
0.001118
0.001118
0.000954
0.000297
-0.004795
0.010317
0.007525
0.007689
0.007853
0.006703
0.006046
0.005718
0.000626
-0.000196
-0.000196
-0.000196
-0.000524
-0.000360
-0.000524
-0.000360
0.011467
0.027072
0.041199
0.057461
0.072902
0.087521
0.101648
0.113804
0.129245
0.142057
0.154870
0.167518
0.179017
0.190679
0.202014
0.207106
0.226982
0.231581
0.242751
0.253757
0.263284
0.272976
0.282503
0.292687
0.301886
0.306321
0.315520
0.323897
0.331618
0.338846
0.346566
0.359214
0.364635
0.370877
0.378597
0.385332
0.391246
0.397324
0.403566
0.409643
0.414407
0.420978
0.426563
0.431326
0.436418
0.441675
0.445289
0.450381
0.467300
0.473706
0.476663
0.480605
0.480441
0.482905
0.483234
0.484548
0.488654
0.492761
0.496210
0.500153
0.503438
0.507052
0.547954
0.514444
0.517729
0.521507
0.524464
0.527421
0.530706
0.533663
0.536619
0.538919
0.542204
0.544176
0.546804
0.549103
0.551567
0.544668
0.557974
0.560438
0.562902
0.564380
0.566844
0.569144
0.571115
0.573415
0.576536
0.577521
0.578507
0.581135
0.582613
0.584420
0.585899
0.587705
0.587705
0.593290
0.593290
0.594933
0.596576
0.598054
0.599861
0.600190
0.601339
0.602818
0.604296
0.604789
0.606432
0.607746
0.601339
0.610867
0.611359
0.611852
0.613166
0.614316
0.614809
0.616287
0.620394
0.618916
0.617437
0.621051
0.620065
0.621215
0.622037
0.622529
0.624008
0.628279
0.627129
0.626800
0.627786
0.629264
0.629429
0.630250
0.629264
0.630414
0.632714
0.632714
0.633371
0.633864
0.634685
0.634521
0.635999
0.634521
0.647333
0.643719
0.644048
0.644212
0.644541
0.642405
0.636328
0.647498
0.640106
0.645362
0.644212
0.643719
0.644377
0.645034
0.670495
0.643719
0.644212
0.644705
0.644705
0.645691
0.646841
0.643062
0.646512
0.647169
0.647169
0.647990
0.647990
0.648812
0.648483
0.657025
0.649633
0.650619
0.644541
0.646676
0.647169
0.647826
0.656696
0.650290
0.651440
0.655711
0.641256
0.644705
0.645362
0.645362
0.645691
0.646676
0.652918
0.654561
0.654725
0.654725
0.655054
0.655546
0.642405
0.649962
0.649469
0.649962
0.651111
0.650783
0.647990
0.652590
0.650619
0.652918
0.651933
0.647826
0.649962
0.651933
0.652918
0.658175
0.649469
0.653411
0.651276
0.646841
0.647005
0.645526
0.645198
0.645198
0.645526
0.649140
0.648155
0.648812
0.649304
0.649469
0.650454
0.650619
0.650947
0.650126
0.651440
0.652425
0.652918
0.645526
0.653411
0.654068
0.655382
0.612181
0.620394
0.617766
0.619737
0.622529
0.623679
0.660474
0.660967
0.659160
0.660803
0.660803
0.661460
0.660146
0.659489
0.659325
0.693984
0.661953
0.661953
0.662774
0.661953
0.662774
0.663431
0.663267
0.663103
0.663431
0.664252
0.664581
0.617109
0.654397
0.663267
0.663760
0.646019
0.666881
0.662117
0.664910
0.665731
0.665731
0.716817
0.703512
0.704004
0.700226
0.664910
0.660967
0.659653
0.659489
0.658503
0.659489
0.660803
0.661624
0.661789
0.661296
0.661953
0.662610
0.660474
0.672958
0.670659
0.670987
0.671644
0.662774
0.658668
0.660146
0.661296
0.661953
0.664581
0.660146
0.662446
0.663103
0.663267
0.671809
0.664417
0.669837
0.669509
0.668031
0.716160
0.705318
0.663267
0.663267
0.663431
0.714682
0.663924
0.663267
0.662938
0.663103
0.664417
0.653575
0.663924
0.664252
0.664581
0.664252
0.665402
0.664581
0.664745
0.666059
0.666552
0.663267
0.664417
0.663924
0.665731
0.665895
0.672630
0.654232
0.659653
0.657682
0.657025
0.657189
0.699569
0.687578
0.654068
0.654397
0.657353
0.656204
0.655875
0.655875
0.655546
0.657025
0.652590
0.659653
0.657189
0.659817
0.650454
0.662610
0.656368
0.658175
0.659653
0.660146
0.658503
0.661460
0.659325
0.660146
0.660967
0.661296
0.662446
0.663595
0.663760
0.662938
0.662774
0.684128
0.663595
0.665074
0.636328
0.646183
0.639941
0.640927
0.641748
0.641256
0.642405
0.644048
0.641091
0.645198
0.646512
0.631564
0.633864
0.634849
0.635342
0.636985
0.637970
0.636163
0.639449
0.640598
0.643227
0.644212
0.644377
0.661953
0.643555
0.644377
0.644869
0.645526
0.646676
0.648647
0.647333
0.651111
0.658010
0.647005
0.654889
0.650619
0.631400
0.631728
0.633207
0.589841
0.600518
0.599040
0.635671
0.636163
0.637313
0.637970
0.638299
0.638956
0.639120
0.640927
0.640763
0.642898
0.644048
0.644212
0.664581
0.643062
0.643555
0.644048
0.644212
0.644869
0.646019
0.645691
0.640106
0.641913
0.662446
0.647990
0.646512
0.647005
0.647169
0.647990
0.634192
0.635178
0.635835
0.637806
0.634521
0.637313
0.638627
0.639941
0.640763
0.635506
0.596247
0.601175
0.604953
0.648319
0.650454
0.651440
0.652754
0.655382
0.653575
0.653083
0.653740
0.654561
0.655546
0.653740
0.659817
0.658996
0.652590
0.652425
0.653247
0.654068
0.655054
0.655875
0.661460
0.659817
0.662610
0.658668
0.660803
0.661789
0.661460
0.662281
0.658339
0.666716
0.662938
0.665074
0.666388
0.666552
0.666552
0.709589
0.704169
0.667045
0.666552
0.666388
0.667045
0.668031
0.685607
0.665895
0.670495
0.668359
0.667866
0.668031
0.668359
0.669180
0.669509
0.621051
0.664417
0.670823
0.670987
0.671644
0.671809
0.671809
0.671809
0.671809
0.673123
0.672301
0.672794
0.673123
0.673616
0.673451
0.678215
0.673123
0.673944
0.674108
0.673944
0.674273
0.675094
0.675915
0.713367
0.676079
0.674601
0.674437
0.674765
0.674765
0.675751
0.676244
0.664417
0.674930
0.675422
0.675751
0.675915
0.675751
0.676244
0.676244
0.676408
0.676408
0.675915
0.677558
0.678379
0.678379
0.678215
0.677886
0.679201
0.677886
0.676408
0.676079
0.675751
0.676572
0.677065
0.676572
0.683964
0.677229
0.681664
0.681007
0.679693
0.680186
0.681007
0.681007
0.677394
0.676572
0.677558
0.677558
0.677394
0.677394
0.677394
0.678215
0.676901
0.675915
0.676408
0.677229
0.677722
0.677558
0.677229
0.681336
0.678051
0.679036
0.678872
0.678215
0.671973
0.664581
0.665402
0.682157
0.661789
0.663595
0.662446
0.661296
0.662281
0.663267
0.664088
0.662774
0.671644
0.669345
0.671152
0.672137
0.671316
0.670987
0.671316
0.663760
0.666388
0.668688
0.669180
0.670166
0.670166
0.670166
0.670330
0.668195
0.669509
0.669837
0.669180
0.669837
0.670987
0.671152
0.681007
0.672958
0.670987
0.670987
0.670002
0.672137
0.672630
0.672958
0.673616
0.673123
0.681664
0.682979
0.683471
0.682486
0.681829
0.681829
0.674930
0.675094
0.667702
0.670166
0.671644
0.671644
0.671644
0.671809
0.675094
0.677229
0.676408
0.675587
0.675915
0.676737
0.677065
0.718295
0.676572
0.671809
0.670495
0.668359
0.668852
0.669509
0.670330
0.676079
0.677065
0.687906
0.686264
0.688564
0.688399
0.687906
0.688071
0.687906
0.677558
0.677394
0.678051
0.678379
0.678379
0.678379
0.678543
0.729137
0.678708
0.678215
0.677722
0.678379
0.677886
0.678543
0.679036
0.678543
0.679858
0.678708
0.678708
0.679036
0.678872
0.678872
0.669509
0.679529
0.651604
0.679036
0.679201
0.676408
0.676737
0.677065
0.677065
0.675422
0.676737
0.672630
0.673123
0.673451
0.673123
0.673944
0.723387
0.711068
0.713367
0.712546
0.711396
0.710575
0.674601
0.673616
0.676572
0.696284
0.674108
0.674437
0.675258
0.675258
0.675751
0.640927
0.675587
0.675751
0.675915
0.675258
0.675915
0.675915
0.675915
0.676408
0.671973
0.677065
0.671316
0.672958
0.672958
0.673287
0.673944
0.686428
0.672137
0.676737
0.677065
0.676901
0.677065
0.683636
0.678215
0.679201
0.678543
0.678872
0.679529
0.679201
0.679365
0.679529
0.661460
0.680022
0.679693
0.679529
0.678379
0.670495
0.672794
0.673123
0.672958
0.673451
0.623679
0.638792
0.677394
0.677722
0.677886
0.678215
0.679036
0.667866
0.676244
0.676244
0.676408
0.676408
0.683143
0.678215
0.678708
0.678872
0.679693
0.680679
0.681172
0.681664
0.681829
0.681336
0.680022
0.678708
0.678708
0.674930
0.681172
0.676408
0.677558
0.678215
0.677886
0.632550
0.679529
0.680350
0.680350
0.680515
0.680515
0.680515
0.680350
0.680843
0.680679
0.680515
0.681172
0.727823
0.684128
0.680022
0.679858
0.681500
0.679201
0.680350
0.680186
0.680186
0.680186
0.676901
0.678215
0.679365
0.678872
0.635178
0.680679
0.681007
0.680843
0.681007
0.666224
0.681500
0.681172
0.681172
0.681172
0.681664
0.681336
0.682157
0.683800
0.683964
0.684785
0.684293
0.680350
0.682157
0.680186
0.680515
0.681172
0.680022
0.680679
0.679693
0.680350
0.681007
0.677722
0.681336
0.678215
0.677558
0.678051
0.629757
0.640763
0.682322
0.682322
0.682486
0.683636
0.682650
0.683307
0.683471
0.683307
0.683471
0.685443
0.670166
0.674273
0.674930
0.676408
0.682979
0.683800
0.683964
0.683636
0.683471
0.682979
0.685771
0.684128
0.684128
0.684128
0.673287
0.683471
0.683636
0.683143
0.683307
0.674108
0.684128
0.679036
0.681007
0.681172
0.682322
0.682979
0.682486
0.683307
0.682979
0.683143
0.702033
0.682157
0.682650
0.682486
0.685607
0.676244
0.681664
0.681172
0.681007
0.681007
0.685771
0.682979
0.681664
0.682650
0.682486
0.671644
0.663431
0.663267
0.663760
0.664252
0.664581
0.663760
0.669509
0.665567
0.666716
0.665402
0.668688
0.665731
0.665567
0.666552
0.666881
0.667373
0.670002
0.671152
0.671316
0.681007
0.671480
0.671316
0.671809
0.672137
0.672466
0.709754
0.672466
0.672958
0.672630
0.673287
0.673287
0.671644
0.682486
0.678379
0.677229
0.671152
0.658832
0.647990
0.649469
0.649962
0.624665
0.649962
0.650454
0.650783
0.650947
0.651276
0.651111
0.653575
0.637477
0.640434
0.638135
0.638956
0.638792
0.639941
0.640434
0.641091
0.658668
0.641420
0.642570
0.643062
0.643719
0.645034
0.641913
0.649304
0.645034
0.646183
0.647333
0.648155
0.649140
0.652754
0.653247
0.653411
0.655875
0.655546
0.656039
0.657682
0.658175
0.658503
0.662610
0.658339
0.661460
0.654068
0.654397
0.653411
0.653575
0.654725

Kurve 3

-0.004959
-0.002988
-0.005124
0.031015
-0.004138
-0.004467
-0.004138
-0.004467
-0.004138
-0.003974
-0.004302
-0.004138
-0.008573
-0.002988
-0.003809
-0.003809
-0.002988
-0.002824
-0.023521
-0.041262
-0.002660
-0.002495
-0.002167
-0.002331
-0.002824
0.026415
-0.002331
-0.002495
-0.002495
-0.002495
0.014095
-0.002988
0.002104
-0.000688
0.002433
-0.003809
-0.003481
-0.003809
-0.003645
-0.003645
-0.027464
-0.003645
-0.003481
-0.003645
-0.005124
-0.001838
-0.006109
-0.005288
-0.004302
-0.004138
-0.002660
-0.002988
-0.002824
-0.002495
-0.002660
-0.003317
0.009332
-0.004467
-0.002495
-0.002167
-0.002167
0.001118
-0.002824
0.001283
-0.000196
-0.001346
-0.002331
-0.001510
-0.001838
-0.002495
-0.002331
-0.031406
-0.038305
-0.042083
-0.038305
-0.034855
0.002104
0.001611
0.002104
0.002761
0.003254
0.001118
0.001447
0.001940
0.002925
0.002925
0.001940
0.012453
0.001283
0.001940
0.000626
-0.000524
0.041363
0.001447
0.000790
0.000626
-0.000031
0.004075
0.001776
0.000790
0.000790
0.000461
0.000297
0.001940
0.000626
0.000626
0.001283
0.000954
0.002104
-0.000524
0.002761
0.003254
-0.040933
-0.035184
-0.037976
-0.035841
-0.033377
-0.032720
-0.032227
0.016231
0.010317
0.009167
0.009003
0.005554
0.005225
0.006868
0.007361
0.007032
0.024773
0.007032
0.006703
0.006539
0.006539
0.006375
0.005718
0.005389
0.005389
0.005718
0.005389
-0.017936
0.005718
0.001940
0.003254
-0.017115
0.005718
0.005061
0.005061
0.004897
0.004732
0.004897
0.005061
0.006046
0.006703
0.014095
-0.006438
-0.002660
-0.003809
-0.003645
-0.003645
0.002104
-0.000031
0.004897
0.003582
0.003582
0.003418
-0.002824
0.009496
0.005718
0.004897
0.004897
0.004568
-0.001346
0.002597
0.004075
0.003418
0.002925
0.002104
0.001611
0.001776
0.001776
0.001447
0.007361
0.001283
0.005389
0.039721
0.000954
-0.000031
-0.000196
-0.001017
-0.001017
-0.001181
-0.002003
-0.001017
-0.001181
-0.001346
-0.001838
-0.013501
-0.001181
-0.001674
-0.002495
-0.002331
-0.002660
-0.002824
-0.050296
-0.004959
0.003582
-0.001510
0.006539
0.006868
0.006868
0.007032
0.006211
0.007525
0.044977
0.043170
0.001611
0.000297
0.000133
0.000790
0.000790
0.000297
0.000297
-0.000688
0.001118
0.000954
0.001776
0.001283
0.001447
-0.001510
-0.001181
-0.000196
-0.001017
-0.000524
-0.001181
-0.001181
0.001447
-0.000524
-0.000524
0.000297
0.000954
0.001118
0.000954
0.001118
0.001118
0.053354
0.038406
-0.000031
-0.000031
-0.000524
-0.000524
-0.000688
0.010974
0.026415
0.043006
0.058282
0.073066
0.087686
0.102141
0.116268
0.125631
0.142386
0.154870
0.166697
0.179017
0.191172
0.201849
0.211212
0.225010
0.233716
0.245708
0.256221
0.259670
0.267555
0.277082
0.285952
0.300408
0.302215
0.310756
0.319462
0.326854
0.335067
0.342624
0.350180
0.357243
0.412600
0.407836
0.413093
0.417199
0.421963
0.426070
0.426563
0.394531
0.401923
0.409151
0.415064
0.420649
0.426070
0.431490
0.439047
0.442989
0.463850
0.463193
0.468286
0.473542
0.477813
0.481427
0.485698
0.487012
0.484219
0.488654
0.492268
0.495882
0.499824
0.503274
0.507052
0.511323
0.514115
0.516743
0.520029
0.523314
0.526271
0.529063
0.530377
0.536455
0.537441
0.539740
0.542204
0.544997
0.547461
0.549761
0.550746
0.562573
0.563066
0.565530
0.567994
0.569636
0.571772
0.573579
0.571115
0.571608
0.571936
0.574236
0.576043
0.577521
0.578999
0.580806
0.585077
0.584749
0.586391
0.588198
0.589841
0.591648
0.592962
0.582285
0.599040
0.595919
0.597890
0.598875
0.600025
0.601504
0.602325
0.603475
0.607089
0.606924
0.611524
0.613002
0.613988
0.615138
0.614481
0.617602
0.615138
0.615630
0.617602
0.617602
0.618259
0.619573
0.620230
0.625650
0.621380
0.623515
0.624665
0.624829
0.625979
0.626800
0.627950
0.624665
0.606267
0.605939
0.606103
0.606924
0.608074
0.609224
0.610538
0.613659
0.617602
0.616944
0.617930
0.619408
0.620887
0.621544
0.624336
0.624172
0.625486
0.625650
0.625979
0.626636
0.627293
0.627950
0.630414
0.629429
0.630578
0.631235
0.631892
0.632714
0.633371
0.633864
0.633042
0.635506
0.634849
0.634521
0.635342
0.635506
0.636328
0.631235
0.639777
0.640598
0.639613
0.641091
0.641420
0.641748
0.642405
0.655054
0.645198
0.632057
0.634028
0.633207
0.633535
0.634521
0.635342
0.636163
0.648647
0.639449
0.641420
0.642570
0.643227
0.644869
0.645855
0.650126
0.651933
0.652754
0.652754
0.652754
0.653411
0.653247
0.646841
0.659817
0.652425
0.660639
0.658503
0.657846
0.655382
0.655875
0.659489
0.656204
0.657682
0.656532
0.656532
0.656532
0.656861
0.657353
0.657846
0.687249
0.656696
0.656696
0.657189
0.657518
0.658010
0.658832
0.638792
0.658832
0.658832
0.659817
0.660639
0.660310
0.659982
0.658175
0.659325
0.656696
0.661789
0.655546
0.657353
0.657846
0.658010
0.681500
0.660474
0.661131
0.661460
0.647333
0.644869
0.646019
0.646019
0.646512
0.647498
0.646676
0.652097
0.650619
0.650619
0.650947
0.652097
0.635342
0.651604
0.646348
0.648319
0.649797
0.649962
0.650126
0.653904
0.654068
0.654561
0.655382
0.647333
0.648647
0.650290
0.650947
0.654068
0.651604
0.652425
0.654068
0.651276
0.656368
0.654889
0.654725
0.655054
0.655711
0.656532
0.657353
0.658503
0.657025
0.657189
0.657682
0.658339
0.661953
0.657189
0.659817
0.659489
0.659160
0.658503
0.661624
0.658832
0.661789
0.658175
0.660639
0.662774
0.663267
0.664745
0.664252
0.661460
0.662774
0.662610
0.666716
0.662610
0.662938
0.663103
0.663103
0.663431
0.667702
0.656861
0.662446
0.662117
0.663103
0.664581
0.665402
0.666552
0.664088
0.666716
0.667045
0.666716
0.660310
0.667702
0.667702
0.667373
0.659160
0.675587
0.670987
0.672630
0.673780
0.673780
0.669345
0.669345
0.667373
0.667209
0.669509
0.669345
0.668852
0.668688
0.668852
0.669673
0.664252
0.671152
0.669180
0.668688
0.669016
0.670166
0.668195
0.669180
0.669673
0.669837
0.669673
0.666224
0.679036
0.676408
0.676737
0.676901
0.670166
0.664088
0.666716
0.667702
0.668195
0.672466
0.667373
0.672794
0.671973
0.671316
0.669180
0.669837
0.669345
0.669016
0.669180
0.669345
0.672958
0.671973
0.671316
0.671152
0.671809
0.664581
0.673944
0.664417
0.665895
0.667045
0.655546
0.665074
0.665567
0.666552
0.667045
0.665238
0.666388
0.667373
0.667702
0.668523
0.677886
0.665402
0.670330
0.668688
0.667702
0.670002
0.667045
0.669180
0.667209
0.666716
0.670987
0.669509
0.672630
0.671809
0.671152
0.671973
0.669837
0.670987
0.669673
0.671316
0.671644
0.674108
0.670002
0.671809
0.672137
0.671973
0.667045
0.680186
0.675422
0.671973
0.672630
0.672137
0.670166
0.676244
0.672630
0.671316
0.671480
0.677065
0.670659
0.670495
0.669345
0.676244
0.667209
0.672958
0.671316
0.670987
0.671809
0.672301
0.671973
0.664088
0.656696
0.650619
0.669345
0.663103
0.663595
0.664088
0.663924
0.651768
0.660474
0.660639
0.660639
0.661296
0.661460
0.663595
0.663267
0.665074
0.665074
0.664745
0.665567
0.714024
0.702197
0.700883
0.702855
0.662446
0.663267
0.663595
0.663760
0.664252
0.664417
0.663431
0.664088
0.661789
0.663924
0.665402
0.664745
0.664745
0.666059
0.666716
0.666716
0.668852
0.668031
0.668688
0.668852
0.669016
0.690206
0.669180
0.675422
0.674437
0.673944
0.674437
0.674930
0.670002
0.668852
0.667538
0.712053
0.705976
0.701869
0.700226
0.699405
0.699076
0.684293
0.663267
0.659982
0.667045
0.669673
0.670166
0.670659
0.670987
0.671152
0.671152
0.621708
0.671644
0.673123
0.673123
0.673123
0.673287
0.672137
0.673451
0.673287
0.673287
0.673451
0.673944
0.680515
0.673287
0.673944
0.674437
0.670002
0.670166
0.670823
0.672137
0.674273
0.674601
0.675587
0.675751
0.676244
0.675258
0.676572
0.676737
0.676737
0.676408
0.675094
0.676079
0.675587
0.676244
0.676572
0.676901
0.676408
0.680843
0.677065
0.677722
0.677065
0.676079
0.676572
0.677558
0.678543
0.676244
0.677722
0.677722
0.676244
0.675587
0.674765
0.673123
0.670166
0.667866
0.677558
0.639777
0.642241
0.647662
0.649304
0.650126
0.650783
0.651933
0.676244
0.676572
0.677229
0.677886
0.677886
0.677558
0.688235
0.676408
0.679529
0.678215
0.677394
0.677558
0.678872
0.679036
0.679365
0.709425
0.678543
0.677886
0.677394
0.677558
0.678051
0.678543
0.667373
0.676901
0.679201
0.679036
0.679036
0.679036
0.678379
0.678051
0.678872
0.678708
0.677886
0.679858
0.679858
0.680186
0.679693
0.679201
0.678379
0.678708
0.678215
0.677394
0.677558
0.678215
0.678708
0.678379
0.679201
0.677558
0.677558
0.677229
0.677394
0.677722
0.678215
0.677558
0.673780
0.689221
0.687414
0.688071
0.688399
0.687085
0.686428
0.686100
0.674765
0.675751
0.677065
0.676901
0.677886
0.677229
0.677229
0.690042
0.676408
0.676901
0.676737
0.676572
0.677229
0.678051
0.678379
0.700391
0.676079
0.676901
0.676901
0.674930
0.675422
0.676244
0.677394
0.671152
0.678379
0.678872
0.679036
0.678543
0.677722
0.676737
0.677886
0.634685
0.678215
0.679036
0.679036
0.679858
0.679693
0.679036
0.679036
0.678543
0.679036
0.679201
0.678708
0.678708
0.678872
0.678708
0.678872
0.681172
0.675751
0.677886
0.676737
0.676244
0.677229
0.678215
0.675258
0.680515
0.676901
0.680186
0.681336
0.680843
0.680350
0.680679
0.660803
0.676079
0.676244
0.676901
0.677886
0.677722
0.677394
0.677229
0.677229
0.677065
0.676901
0.676737
0.677229
0.678051
0.677722
0.692506
0.676901
0.676737
0.677065
0.677394
0.676572
0.676901
0.677065
0.676079
0.663431
0.678215
0.676244
0.677229
0.677394
0.677886
0.677886
0.677722
0.678543
0.673451
0.674437
0.673780
0.673780
0.673944
0.674273
0.727658
0.713039
0.682322
0.677394
0.677558
0.677394
0.677394
0.713532
0.677229
0.677722
0.678872
0.678543
0.679036
0.677722
0.677229
0.674930
0.677558
0.675587
0.676901
0.676079
0.675751
0.675915
0.676244
0.676737
0.651768
0.678379
0.679036
0.678708
0.678708
0.678215
0.678379
0.684785
0.678543
0.678051
0.678379
0.678543
0.678543
0.678543
0.683800
0.678379
0.678708
0.678051
0.678051
0.677229
0.677229
0.677229
0.673780
0.679201
0.679858
0.636656
0.642734
0.680186
0.680679
0.680679
0.680679
0.678872
0.683800
0.676244
0.677886
0.678215
0.680515
0.681007
0.684785
0.680022
0.681172
0.680843
0.680515
0.680515
0.681007
0.681007
0.681664
0.679693
0.680679
0.683636
0.681829
0.680843
0.681500
0.672630
0.682322
0.681336
0.656039
0.681664
0.681500
0.681664
0.681664
0.681829
0.681336
0.681336
0.681172
0.683143
0.682322
0.682486
0.681993
0.689056
0.680186
0.684457
0.682486
0.682322
0.682650
0.682486
0.680843
0.663103
0.663595
0.665402
0.644377
0.642405
0.644541
0.645526
0.646348
0.649633
0.647662
0.650126
0.643062
0.659817
0.658010
0.658175
0.658832
0.659489
0.649797
0.654397
0.653740
0.653575
0.654232
0.654725
0.655382
0.655546
0.657189
0.657353
0.657846
0.658339
0.684128
0.658996
0.659817
0.660639
0.663431
0.660967
0.661296
0.658503
0.659160
0.659325
0.659982
0.659653
0.661460
0.661296
0.662117
0.663595
0.664910
0.664910
0.665238
0.649304
0.664417
0.664581
0.665074
0.665402
0.665895
0.666224
0.667045
0.666552
0.660639
0.661624
0.662117
0.708768
0.697434
0.699241
0.698255
0.663924
0.660803
0.661789
0.662281
0.662117
0.663103
0.658996
0.653904
0.655875
0.656204
0.645526
0.619080
0.620723
0.659160
0.660146
0.660639
0.662281
0.657846
0.661460
0.661789
0.662610
0.664088
0.666881
0.665238
0.664745
0.665895
0.666224
0.715174
0.701869
0.666224
0.666388
0.666552
0.666881
0.658175
0.658339
0.659653
0.660146
0.632385
0.627786
0.625322
0.671973
0.672466
0.640927
0.673123
0.673287
0.673451
0.673944
0.672301
0.673123
0.673780
0.673944
0.674108
0.674273
0.691685
0.673287
0.674437
0.674930
0.675915
0.711068
0.708932
0.704990
0.704169
0.703347
0.674108
0.672466
0.672301
0.672137
0.672466
0.672137
0.678215
0.670659
0.672958
0.672630
0.672794
0.654889
0.672301
0.671316
0.670823
0.632057
0.674930
0.674765
0.674601
0.674930
0.675258
0.675751
0.675094
0.675751
0.674437
0.702197
0.675587
0.675422

Kurve 4

0.003418
0.003911
0.004897
-0.000031
0.008018
0.002268
0.004568
0.002597
0.002104
0.002268
-0.000031
0.004404
0.003911
0.004404
0.000133
0.002104
0.002597
0.002433
0.002104
0.002433
-0.003481
0.001611
0.002925
0.003254
0.002925
0.002925
0.002761
0.002268
0.004404
0.004075
0.004075
0.004075
0.004404
0.013274
0.001940
0.005061
0.004897
0.005389
0.002433
0.002433
0.002268
0.002761
0.005389
0.002597
-0.021386
0.004404
0.003911
0.003747
0.004239
0.004404
0.004075
-0.044383
-0.034034
0.005061
0.005061
0.005061
0.005225
0.005061
0.004568
0.005882
0.005225
0.005061
0.004732
0.005389
0.049412
0.037421
0.037421
0.006868
0.002761
0.002761
0.002597
0.002761
0.001940
-0.005124
0.002597
0.002925
0.002104
0.003254
0.003254
0.002925
0.003911
0.003747
-0.021057
0.003582
0.004075
0.004239
0.004897
0.004239
0.004075
0.004075
0.004732
0.002925
0.002761
0.002268
0.002761
0.003582
0.004404
0.003911
0.006046
0.003418
0.003911
0.003747
0.002433
0.002433
-0.006273
0.003911
0.003747
0.003747
0.004897
0.004404
0.004732
0.004897
0.005389
0.005061
0.004732
0.003582
0.004075
0.004075
0.003747
0.002925
0.008182
0.002761
0.007361
0.006211
0.005225
0.008510
0.001776
0.004897
0.002268
0.001611
0.003090
0.004075
0.003747
0.002761
0.002761
-0.003481
0.009824
0.000133
0.001611
0.000133
0.004404
0.003418
0.003090
0.004239
0.004239
0.002104
0.002268
0.005389
0.005389
0.005389
0.004732
0.028551
0.002433
0.002761
0.002925
0.002597
0.005389
0.001940
0.005882
0.003747
0.003254
0.026908
0.002268
0.001776
0.001447
0.001776
-0.000360
0.002104
-0.000360
0.001118
0.000954
-0.032720
-0.004631
0.002597
0.002597
0.002761
-0.007752
0.012288
0.007689
0.007361
0.007525
0.007196
0.007361
0.001118
0.001940
0.000297
0.000461
0.044156
0.001940
0.001283
0.001611
0.001447
0.030357
0.000790
0.000954
0.001611
0.000954
0.001611
0.001118
0.007361
0.007525
0.006539
0.006046
-0.000524
0.000461
0.002268
0.001776
-0.009559
0.001283
0.000790
0.001118
0.000790
0.001118
0.001118
0.001940
0.001447
0.001118
0.001611
0.001118
0.001776
0.000297
0.000461
0.000954
0.002104
0.000626
0.002268
0.000790
0.000461
0.000790
-0.002331
0.002761
-0.001181
-0.001510
-0.001346
-0.001346
0.002925
-0.001674
-0.000031
-0.000688
0.001940
-0.004302
-0.002495
-0.002167
-0.002331
-0.002495
0.005061
0.001447
0.001118
0.001283
0.000461
0.003090
0.013110
0.028551
0.044484
0.059761
0.074380
0.093435
0.106083
0.120374
0.133680
0.129737
0.120046
0.130887
0.145342
0.157991
0.168175
0.196921
0.231417
0.237330
0.249157
0.258356
0.266405
0.276918
0.286281
0.295316
0.304679
0.321105
0.362171
0.368906
0.398145
0.342459
0.350673
0.357736
0.364635
0.371534
0.378597
0.385825
0.391903
0.397324
0.384182
0.390096
0.396338
0.398966
0.413093
0.419828
0.424263
0.428369
0.433133
0.432640
0.441511
0.446274
0.447096
0.456294
0.458923
0.462865
0.467793
0.471899
0.476827
0.531199
0.486026
0.491611
0.491940
0.499496
0.503274
0.506723
0.510009
0.513294
0.521836
0.517729
0.520686
0.523807
0.526928
0.529392
0.517565
0.529063
0.528242
0.530706
0.533991
0.521836
0.525614
0.535962
0.539740
0.541219
0.545654
0.543683
0.545982
0.548446
0.550910
0.552717
0.558467
0.555838
0.557974
0.560766
0.561916
0.563887
0.566023
0.568322
0.569801
0.618751
0.609388
0.609881
0.569636
0.556167
0.556824
0.557317
0.562080
0.563394
0.565530
0.567501
0.567994
0.570294
0.572429
0.570458
0.563723
0.578178
0.579821
0.581792
0.583435
0.585077
0.558302
0.569472
0.563066
0.565201
0.568487
0.570458
0.572593
0.575221
0.577193
0.578999
0.625322
0.618094
0.622037
0.623187
0.585077
0.586556
0.588198
0.588855
0.601011
0.601504
0.601996
0.603311
0.604625
0.605939
0.603311
0.602161
0.604132
0.600518
0.603475
0.605282
0.606267
0.607417
0.608731
0.650290
0.611359
0.612838
0.613988
0.614152
0.615138
0.616123
0.617437
0.620887
0.619244
0.620230
0.621872
0.622529
0.623351
0.624501
0.603639
0.588527
0.589512
0.611688
0.630250
0.630907
0.631728
0.632057
0.628279
0.635178
0.635014
0.635342
0.636163
0.636820
0.637149
0.637806
0.715010
0.638463
0.638463
0.639284
0.639613
0.639777
0.640270
0.640434
0.647990
0.635999
0.640763
0.640270
0.640763
0.641256
0.641420
0.642241
0.644212
0.644377
0.645198
0.645526
0.645691
0.646183
0.646841
0.647005
0.646676
0.646841
0.650783
0.650290
0.650290
0.650619
0.650947
0.651276
0.648483
0.653411
0.652261
0.651933
0.652261
0.651933
0.652097
0.661296
0.650290
0.651111
0.651604
0.651440
0.651768
0.652425
0.652425
0.651604
0.652590
0.654725
0.654397
0.654397
0.654725
0.654889
0.655054
0.655054
0.655218
0.658503
0.659489
0.659653
0.659982
0.659817
0.660146
0.659160
0.656204
0.655546
0.656039
0.656204
0.656204
0.656368
0.656204
0.711560
0.699241
0.695298
0.694641
0.693491
0.693163
0.692506
0.651111
0.652590
0.652590
0.652754
0.653740
0.653904
0.654232
0.654889
0.608074
0.654232
0.656368
0.657353
0.657353
0.657518
0.658010
0.692013
0.658339
0.658339
0.659160
0.658996
0.658996
0.652754
0.639449
0.639120
0.670495
0.639777
0.640598
0.641420
0.641748
0.642405
0.643555
0.642241
0.644869
0.640434
0.642077
0.643555
0.644048
0.644048
0.628279
0.649962
0.645526
0.649304
0.649304
0.649797
0.650290
0.650783
0.673451
0.650947
0.651440
0.652097
0.652918
0.653247
0.653740
0.654232
0.654561
0.654889
0.656861
0.656039
0.654725
0.654725
0.654889
0.655875
0.654232
0.658010
0.651604
0.653575
0.655382
0.655546
0.655054
0.628771
0.659489
0.659817
0.659982
0.656204
0.657682
0.659325
0.659817
0.661131
0.660803
0.662446
0.664910
0.662117
0.666388
0.665731
0.665731
0.665567
0.665895
0.664417
0.663595
0.663267
0.662774
0.663103
0.663924
0.664417
0.664088
0.664910
0.665238
0.665731
0.665567
0.664910
0.616287
0.630086
0.667373
0.665895
0.676408
0.672466
0.672466
0.673123
0.672958
0.667866
0.667866
0.668031
0.667702
0.668523
0.667209
0.667209
0.666552
0.667045
0.699898
0.668195
0.667866
0.668523
0.667702
0.668195
0.669016
0.668523
0.668195
0.668688
0.668688
0.669016
0.668688
0.670330
0.669180
0.669509
0.669016
0.646019
0.641913
0.644212
0.645526
0.645855
0.648483
0.648155
0.647826
0.648647
0.648319
0.649633
0.649140
0.649469
0.649304
0.650947
0.649304
0.652261
0.650454
0.650290
0.651276
0.652097
0.650947
0.652754
0.653740
0.654232
0.654889
0.645526
0.656204
0.656532
0.658010
0.659160
0.657682
0.657846
0.658175
0.658339
0.659160
0.696941
0.692342
0.696120
0.694641
0.692506
0.657846
0.658503
0.658503
0.659160
0.659325
0.659653
0.659653
0.659489
0.659489
0.659653
0.660803
0.622365
0.661296
0.659817
0.661296
0.662774
0.617109
0.625815
0.624172
0.627293
0.630578
0.640763
0.669016
0.669673
0.669673
0.670166
0.687906
0.669837
0.670659
0.670659
0.670987
0.673780
0.671152
0.674437
0.672958
0.671973
0.677065
0.663267
0.668195
0.668688
0.668523
0.669180
0.666552
0.673616
0.670166
0.672301
0.672958
0.671973
0.671973
0.673123
0.673287
0.672958
0.668688
0.673616
0.673944
0.674437
0.675094
0.674273
0.672301
0.673944
0.673616
0.668688
0.663103
0.656368
0.655546
0.655054
0.655054
0.676244
0.689385
0.692834
0.690042
0.688071
0.687906
0.653904
0.642405
0.647333
0.648155
0.648155
0.646512
0.645855
0.646676
0.647169
0.648155
0.645362
0.649469
0.649304
0.650783
0.651933
0.651768
0.652425
0.652918
0.653411
0.653740
0.653575
0.654889
0.654068
0.655875
0.655546
0.656532
0.655382
0.656696
0.655382
0.655546
0.656696
0.657189
0.656039
0.658339
0.660803
0.647333
0.665567
0.662281
0.663924
0.665402
0.665895
0.666059
0.662610
0.657025
0.659489
0.660474
0.660639
0.667209
0.653411
0.659489
0.658832
0.658996
0.659817
0.678379
0.665074
0.665567
0.665895
0.665238
0.666881
0.665402
0.664910
0.664745
0.665731
0.663431
0.669345
0.666059
0.663924
0.668688
0.665074
0.666059
0.667045
0.667538
0.667702
0.669673
0.667702
0.668852
0.669016
0.669509
0.669509
0.669673
0.670659
0.670987
0.670659
0.670659
0.671644
0.674930
0.671973
0.673123
0.673780
0.671809
0.671644
0.671644
0.671809
0.671644
0.672630
0.672958
0.667373
0.618259
0.632385
0.657518
0.675258
0.675422
0.675422
0.674930
0.675258
0.675422
0.676408
0.676244
0.675751
0.675587
0.678215
0.676901
0.678051
0.677558
0.676901
0.677394
0.677886
0.676244
0.676079
0.682650
0.671644
0.674437
0.674930
0.674273
0.674437
0.674930
0.674437
0.675587
0.677558
0.679858
0.682157
0.682157
0.681500
0.681007
0.681172
0.670823
0.674437
0.676408
0.676901
0.677065
0.676572
0.686428
0.675094
0.675751
0.675915
0.676079
0.675915
0.676079
0.676244
0.674930
0.680515
0.675422
0.676408
0.675751
0.675422
0.675587
0.675915
0.667866
0.675587
0.677394
0.673616
0.676572
0.677065
0.676737
0.676079
0.676572
0.673780
0.682486
0.680186
0.679693
0.679693
0.679529
0.678872
0.675751
0.677722
0.677065
0.676572
0.677065
0.677558
0.677394
0.697927
0.678215
0.667209
0.669345
0.666881
0.666388
0.651768
0.652590
0.653083
0.653411
0.662446
0.660146
0.661953
0.662938
0.661953
0.661789
0.662117
0.656861
0.658503
0.660146
0.660146
0.660967
0.661131
0.661131
0.668688
0.656368
0.661789
0.661460
0.661131
0.662446
0.663431
0.663924
0.705154
0.665895
0.666224
0.666388
0.666716
0.667209
0.668195
0.669016
0.664417
0.668359
0.668523
0.669180
0.669345
0.669180
0.669509
0.670002
0.666224
0.670330
0.667045
0.667866
0.668852
0.668688
0.668852
0.669016
0.671644
0.673123
0.672630
0.672630
0.672958
0.673780
0.674437
0.674273
0.673123
0.673944
0.673780
0.671644
0.658996
0.657682
0.657846
0.652754
0.658339
0.658503
0.659817
0.660967
0.661296
0.660803
0.661953
0.654068
0.663103
0.661953
0.663103
0.664417
0.664417
0.664581
0.664910
0.666388
0.661953
0.664088
0.665402
0.666059
0.666388
0.666881
0.667702
0.670659
0.667538
0.668195
0.666881
0.667209
0.667702
0.667866
0.667045
0.665895
0.670166
0.671809
0.672301
0.672794
0.672958
0.673451
0.673451
0.673123
0.670823
0.672137
0.671809
0.672137
0.672137
0.672301
0.675422
0.673287
0.676244
0.677394
0.677394
0.677558
0.677558
0.684293
0.672466
0.676079
0.674437
0.674108
0.674273
0.674437
0.674601
0.672301
0.676408
0.675258
0.672137
0.673944
0.673944
0.672794
0.672794
0.673123
0.653247
0.674437
0.676901
0.676079
0.665402
0.664252
0.664581
0.665074
0.659653
0.659817
0.660474
0.660803
0.661131
0.661624
0.669180
0.661789
0.663595
0.662281
0.661953
0.662446
0.661789
0.662117
0.634849
0.663595
0.649140
0.671809
0.670002
0.671152
0.671480
0.672137
0.672137
0.661789
0.667866
0.666224
0.658010
0.658339
0.658832
0.658668
0.678215
0.659325
0.660146
0.660967
0.661296
0.662117
0.662446
0.665895
0.663431
0.663267
0.662774
0.665731
0.663267
0.661953
0.661789
0.654068
0.660803
0.656532
0.654232
0.662610
0.659489
0.659160
0.659325
0.660146
0.660310
0.660474
0.660474
0.660967
0.661131
0.661460
0.662117
0.663924
0.662446
0.663431
0.664252
0.664581
0.665402
0.665895
0.666059
0.666881
0.666552
0.668523
0.667702
0.667538
0.668359
0.668688
0.668688
0.671316
0.672630
0.674601
0.670002
0.670330
0.651111
0.652261
0.652918
0.653740
0.652425
0.658503
0.655711
0.655875
0.656696
0.657189
0.657682
0.658010
0.659817
0.658668
0.659982
0.660474
0.661131
0.661131
0.662610
0.662774
0.666224
0.663924
0.663760
0.664745
0.665238
0.665731
0.664417
0.665074
0.665074
0.663103
0.668523
0.668359
0.669016
0.669180
0.669345
0.658832
0.671152
0.667045
0.668688
0.670987
0.670987
0.671480
0.672301
0.672958
0.671316
0.672301
0.672630
0.680186
0.644212
0.647990
0.648976
0.650619
0.648976
0.655218
0.653411
0.653740
0.654725
0.651440
0.655054
0.656861
0.657189
0.642898
0.657846
0.658503
0.659160
0.659653
0.660639
0.662938
0.660310
0.661953
0.662774
0.663103
0.663431
0.665895
0.664581
0.664252
0.665402
0.666059

Kurve 5

0.030193
0.029700
0.033314
0.031179
0.028222
0.028058
0.071424
0.057954
0.000133
-0.002824
-0.002495
-0.011201
-0.038798
-0.039291
-0.034855
-0.033048
-0.031570
-0.065573
0.001776
0.002104
0.002433
0.001447
0.002268
0.004239
0.004568
0.005554
0.005061
0.006211
0.002104
0.003254
0.002761
0.003090
0.002925
0.001611
0.000954
0.000297
0.000461
0.016888
0.002597
0.002433
0.002268
0.002104
0.001940
0.002268
-0.001674
-0.000853
-0.000196
-0.000031
-0.000360
-0.000196
0.003090
0.003090
-0.011694
0.003582
0.003747
0.003747
0.004404
0.004239
0.003418
0.004075
-0.003481
-0.003152
0.003747
0.004897
0.002761
0.002761
0.001940
0.002268
0.018038
-0.009394
-0.003645
-0.004631
-0.004959
-0.004302
-0.026806
0.005554
0.005718
0.005554
0.005882
0.005389
0.004404
0.006703
0.003582
-0.006766
0.006211
0.000954
0.002268
0.003582
0.003254
0.002925
0.009003
0.005718
0.005718
0.043006
0.040542
0.003582
0.003254
0.003090
0.003090
0.003582
-0.006602
-0.003974
-0.004959
-0.003809
-0.003481
-0.010873
0.004568
0.004732
0.004404
0.005554
0.005225
0.004404
-0.030092
0.004732
0.004732
0.005554
0.005061
0.006868
0.007361
0.006868
0.006703
0.008182
0.003911
0.033150
0.004732
0.004732
0.004732
0.004404
0.004239
0.004732
0.014588
0.004404
0.006375
0.005225
0.004897
0.005061
0.005718
-0.043561
0.004404
0.007853
0.007525
0.008182
0.008018
0.007689
0.006703
0.007853
0.008510
0.007361
0.008510
0.008182
0.008182
0.007525
0.007689
0.010482
0.009660
0.007689
0.007853
0.007853
0.007361
0.008018
0.007689
0.017873
0.006539
0.009496
0.010646
0.009332
0.009332
0.009660
-0.003317
0.009660
0.009660
0.009332
0.009496
0.009167
0.009332
0.009332
0.009332
0.006868
0.017873
0.018202
0.018859
0.017873
0.017052
0.016395
0.045634
0.007361
0.001118
0.001447
0.001611
0.001776
0.002433
0.002597
0.004568
0.008182
0.008675
0.008839
0.007853
0.007853
0.008182
0.005389
-0.038469
0.004404
0.009332
0.009332
0.008675
0.008510
0.008839
0.008346
0.008675
0.007196
0.007853
0.008182
0.008346
0.008346
0.008018
0.008675
0.006375
0.014752
0.011303
0.010974
0.010974
0.010646
0.010153
0.009824
0.008839
0.002433
0.001283
0.002268
0.002268
0.002925
0.002925
0.006375
0.008182
0.008839
0.008510
0.008346
0.008510
0.008018
0.007853
0.001776
0.008018
0.007689
0.008018
0.007853
0.008182
0.008182
0.012945
0.007525
0.008839
0.005554
0.005882
0.017216
0.032493
0.048262
0.063703
0.131051
0.133515
0.143371
0.156184
0.168668
0.180002
0.190844
0.168504
0.182302
0.192815
0.205463
0.216304
0.226817
0.237166
0.247515
0.220411
0.266077
0.276589
0.286281
0.295151
0.304022
0.312728
0.321105
0.372848
0.336217
0.344266
0.351822
0.358229
0.357736
0.364963
0.371863
0.381718
0.385496
0.395188
0.396831
0.390096
0.396338
0.401430
0.407015
0.368906
0.378433
0.387796
0.394695
0.434447
0.440196
0.445617
0.448410
0.449724
0.466479
0.466150
0.472228
0.477813
0.481427
0.485533
0.534977
0.492432
0.494075
0.496210
0.499989
0.503110
0.506888
0.510501
0.514772
0.561095
0.561259
0.561588
0.562573
0.564873
0.566680
0.533006
0.536127
0.537769
0.541547
0.543683
0.546311
0.550089
0.552717
0.506066
0.521507
0.559945
0.561916
0.566187
0.566680
0.562902
0.562902
0.564380
0.566351
0.568979
0.560602
0.563230
0.566680
0.574564
0.578507
0.580149
0.583106
0.584749
0.584420
0.587213
0.589020
0.590662
0.592469
0.593783
0.591812
0.593290
0.593783
0.595590
0.596904
0.598054
0.605117
0.600190
0.602489
0.607581
0.606596
0.607417
0.609224
0.610702
0.658339
0.647498
0.648483
0.614973
0.616123
0.616944
0.617930
0.618751
0.619737
0.623187
0.612509
0.619244
0.620394
0.621215
0.622529
0.623515
0.625650
0.628279
0.626800
0.626800
0.627950
0.628607
0.607746
0.632714
0.633207
0.632714
0.646512
0.642734
0.644541
0.645526
0.646019
0.639941
0.637642
0.637970
0.640434
0.639120
0.642077
0.642077
0.641913
0.642241
0.642898
0.641748
0.641913
0.642570
0.642570
0.643227
0.643555
0.626143
0.644212
0.644869
0.644377
0.644705
0.645198
0.627129
0.646512
0.647333
0.647333
0.647662
0.644377
0.646019
0.646019
0.646676
0.668523
0.649633
0.650454
0.650783
0.651768
0.651933
0.650619
0.651768
0.651604
0.651933
0.652590
0.653247
0.650947
0.652425
0.652754
0.653083
0.639284
0.655218
0.655054
0.656696
0.657025
0.657025
0.616780
0.656204
0.656368
0.656696
0.656039
0.657025
0.657353
0.657518
0.657846
0.658175
0.657189
0.658832
0.656861
0.657025
0.657846
0.662610
0.661131
0.661953
0.661953
0.662774
0.657353
0.661953
0.662281
0.661953
0.641420
0.640270
0.640598
0.640270
0.641091
0.641748
0.642570
0.643884
0.639120
0.643062
0.643227
0.610702
0.646841
0.648155
0.649304
0.649633
0.649797
0.649797
0.650783
0.650454
0.651604
0.655875
0.650619
0.651440
0.652097
0.652261
0.657025
0.651768
0.653575
0.654232
0.654725
0.655218
0.655382
0.653904
0.656039
0.656696
0.656861
0.654561
0.658175
0.655218
0.648647
0.647498
0.648319
0.651440
0.650290
0.652590
0.653247
0.653904
0.662446
0.653740
0.653575
0.654397
0.654725
0.694313
0.687414
0.654889
0.652590
0.648155
0.649633
0.647826
0.646841
0.647005
0.647990
0.649304
0.646841
0.645034
0.645198
0.646019
0.644048
0.646841
0.647662
0.648155
0.648812
0.649304
0.650290
0.650290
0.652425
0.649962
0.650454
0.674108
0.649469
0.650290
0.650783
0.651768
0.652261
0.653575
0.654068
0.654397
0.654397
0.655382
0.656204
0.657353
0.657682
0.657353
0.658339
0.646841
0.658503
0.658503
0.659653
0.658503
0.653740
0.654232
0.654561
0.655054
0.655546
0.655546
0.657353
0.658339
0.658339
0.658503
0.659160
0.663267
0.659817
0.660310
0.659982
0.660639
0.661296
0.661460
0.661953
0.662281
0.664417
0.663431
0.666552
0.665895
0.665238
0.665731
0.666881
0.663595
0.665567
0.665895
0.666716
0.666059
0.667702
0.668031
0.668523
0.669016
0.658832
0.669180
0.668852
0.669016
0.669016
0.669016
0.672137
0.670166
0.669180
0.669345
0.669673
0.669837
0.675422
0.663103
0.668359
0.679036
0.665402
0.671644
0.670987
0.670659
0.670659
0.671316
0.670166
0.672958
0.663595
0.672466
0.671973
0.671480
0.672958
0.672958
0.672630
0.652097
0.672958
0.672958
0.674108
0.674765
0.674601
0.681500
0.672630
0.672958
0.673451
0.672137
0.673287
0.673780
0.717145
0.708111
0.705647
0.671152
0.671316
0.671644
0.671644
0.671809
0.672301
0.669673
0.675094
0.667045
0.672301
0.672137
0.672137
0.672630
0.672958
0.672466
0.667866
0.673451
0.672630
0.651604
0.650783
0.651276
0.650783
0.650783
0.651933
0.652261
0.652590
0.652918
0.654561
0.655382
0.668195
0.655546
0.670330
0.668359
0.666388
0.666552
0.666881
0.667209
0.667538
0.658503
0.656532
0.656039
0.641420
0.642241
0.642734
0.643555
0.644377
0.632714
0.646183
0.646676
0.648483
0.649633
0.650126
0.650290
0.652425
0.651276
0.650454
0.650619
0.651440
0.652425
0.654232
0.654561
0.655218
0.655054
0.647005
0.645691
0.646348
0.647826
0.650126
0.650947
0.658996
0.659160
0.668195
0.669180
0.670166
0.670166
0.669180
0.669509
0.662446
0.663760
0.662446
0.664252
0.665567
0.665567
0.665567
0.676572
0.706961
0.664088
0.663760
0.663924
0.664252
0.664417
0.664252
0.688892
0.665238
0.665402
0.666224
0.665402
0.664910
0.666224
0.667045
0.653575
0.667866
0.667045
0.667373
0.667866
0.667538
0.668195
0.668195
0.668359
0.669509
0.668359
0.668688
0.669837
0.670330
0.669673
0.669837
0.670659
0.670166
0.670002
0.670002
0.670166
0.671316
0.671973
0.671644
0.673944
0.671644
0.670166
0.670659
0.670166
0.671152
0.672301
0.662774
0.672958
0.672466
0.672630
0.672958
0.673123
0.673123
0.673451
0.674601
0.674273
0.673123
0.675258
0.675258
0.655218
0.655054
0.654889
0.666881
0.652590
0.661131
0.659653
0.659160
0.660474
0.661789
0.661953
0.667702
0.658832
0.659817
0.660474
0.660639
0.661296
0.662446
0.656204
0.659817
0.665731
0.661131
0.664088
0.665402
0.665074
0.664910
0.665402
0.661460
0.664417
0.665731
0.665567
0.665895
0.666059
0.666224
0.671152
0.666059
0.666881
0.667538
0.667209
0.668031
0.668852
0.669016
0.669509
0.670823
0.668688
0.668359
0.668688
0.668852
0.669837
0.669673
0.670659
0.666881
0.669180
0.670987
0.670495
0.670495
0.670166
0.670659
0.656368
0.671152
0.670659
0.670823
0.671480
0.671152
0.670987
0.671152
0.669673
0.674108
0.672630
0.671973
0.672630
0.672630
0.672630
0.671480
0.673451
0.667702
0.672794
0.670823
0.669673
0.670330
0.669345
0.662281
0.659489
0.663431
0.660803
0.663103
0.663595
0.663595
0.664088
0.665074
0.662610
0.662281
0.664745
0.665238
0.665895
0.665402
0.665402
0.664252
0.665895
0.663267
0.663595
0.663760
0.665074
0.666224
0.666059
0.667538
0.675258
0.664252
0.665402
0.666059
0.665895
0.666224
0.668359
0.669180
0.665567
0.671644
0.670659
0.670495
0.670823
0.671152
0.671316
0.661296
0.671480
0.672301
0.672958
0.673616
0.673451
0.673616
0.673123
0.673616
0.673123
0.672630
0.672958
0.673451
0.693656
0.673616
0.674273
0.675915
0.665074
0.670659
0.669837
0.669673
0.670330
0.674273
0.675915
0.676408
0.675587
0.678543
0.676408
0.676572
0.677065
0.677394
0.669180
0.677558
0.676901
0.677229
0.677722
0.677722
0.677558
0.679693
0.678215
0.678215
0.678215
0.678215
0.678872
0.717145
0.678708
0.678215
0.678379
0.674930
0.673944
0.672630
0.672137
0.672301
0.666716
0.682814
0.680186
0.680022
0.680679
0.678215
0.679036
0.679036
0.679693
0.679693
0.668852
0.677722
0.678379
0.679036
0.678872
0.678379
0.708604
0.716653
0.719938
0.715339
0.675915
0.675751
0.675587
0.675915
0.675915
0.675915
0.676408
0.676737
0.674765
0.674930
0.675094
0.668688
0.677722
0.676408
0.676408
0.665895
0.683800
0.680843
0.682814
0.683636
0.682322
0.674601
0.676079
0.676572
0.676737
0.676901
0.676737
0.677394
0.667209
0.652425
0.653575
0.653740
0.654889
0.654725
0.656532
0.656696
0.656532
0.662117
0.658175
0.658503
0.659489
0.659489
0.660474
0.660967
0.660310
0.661624
0.661953
0.656039
0.663431
0.662774
0.664417
0.666059
0.659160
0.664745
0.664745
0.665074
0.665731
0.665895
0.666224
0.665402
0.663924
0.663103
0.664088
0.676079
0.661624
0.668359
0.668688
0.669180
0.672466
0.667209
0.670823
0.669180
0.669180
0.668852
0.667866
0.663760
0.663267
0.663431
0.663431
0.662446
0.663103
0.663595
0.663595
0.664088
0.666224
0.664417
0.664417
0.664252
0.651768
0.647169
0.649962
0.647990
0.648976
0.649304
0.683800
0.649633
0.653411
0.653904
0.654725
0.655218
0.654232
0.654725
0.654889
0.655382
0.656204
0.653247
0.660803
0.656039
0.657189
0.657682
0.658175
0.661460
0.656861
0.659325
0.659653
0.656039
0.665895
0.666716
0.664581
0.664745
0.665238
0.698255
0.662281
0.662446
0.662938
0.663267
0.663760
0.663760
0.664088
0.664417
0.664581
0.666388
0.667209
0.668195
0.668852
0.669345
0.665402
0.668031
0.666224
0.666224
0.666388
0.666552
0.652590
0.667866
0.667538
0.667373
0.665731
0.666716
0.665567
0.665567
0.666716
0.668031
0.668031
0.668523
0.669180
0.668359
0.710411
0.670330
0.669180
0.668688
0.669180
0.669016
0.670659
0.669509
0.668523
0.668852
0.668359
0.669016
0.670002
0.669180
0.670330
0.669837
0.669837
0.670002
0.646183
0.671644
0.671644
0.668852
0.671973
0.672630
0.672794
0.672958
0.673287
0.673123
0.672794
0.672137
0.678215
0.671480
0.672137
0.672794
0.672301
0.672630
0.672630
0.674273
0.661296
0.651111
0.645198
0.644541
0.645526
0.618916
0.646019
0.646676
0.646676
0.647662
0.647333
0.647498
0.646841
0.647498
0.644048
0.654561
0.651604
0.652590
0.653083
0.653083
0.653247
0.665731
0.649633
0.652097
0.649962
0.650290
0.650454
0.650947
0.651440
0.651933
0.657353
0.648483
0.653083
0.653740
0.654232
0.654561
0.653411
0.660146
0.658996
0.660310
0.660474
0.660474
0.660639
0.659653
0.665074
0.666388
0.661624
0.661296
0.661789
0.662117
0.662446
0.663267
0.663595
0.662774
0.667538
0.652261

Kurve 6

0.660146
0.659160
0.660310
0.661953
0.662281
0.660967
0.663760
0.662610
0.661789
0.660146
0.661131
0.661460
0.662446
0.658175
0.659817
0.668359
0.664910
0.666716
0.666716
0.666059
0.665895
0.666881
0.667045
0.666716
0.667538
0.668359
0.669509
0.669180
0.669180
0.670823
0.671316
0.671316
0.671644
0.672137
0.672466
0.672630
0.674930
0.674273
0.671809
0.657189
0.658010
0.658503
0.659817
0.660803
0.660967
0.660639
0.661953
0.665238
0.667045
0.666224
0.666224
0.666059
0.667045
0.664252
0.665074
0.668031
0.668523
0.669673
0.669673
0.669837
0.680843
0.663103
0.668195
0.667702
0.667866
0.668523
0.670002
0.670823
0.681664
0.670330
0.670987
0.670987
0.669180
0.669673
0.670823
0.671809
0.668359
0.671644
0.672958
0.674273
0.675422
0.675094
0.675094
0.676079
0.674765
0.676244
0.676737
0.677229
0.677722
0.678215
0.677394
0.677886
0.678543
0.680515
0.678379
0.678215
0.679036
0.680186
0.680515
0.680843
0.682322
0.682322
0.682157
0.675587
0.671480
0.672301
0.672137
0.672466
0.675915
0.676572
0.679693
0.681172
0.680843
0.680186
0.680843
0.651440
0.676079
0.676244
0.676901
0.677065
0.677558
0.677886
0.678215
0.678708
0.682322
0.681664
0.681829
0.681993
0.682979
0.681172
0.691849
0.680350
0.680022
0.680515
0.680515
0.680515
0.681500
0.681664
0.679858
0.677558
0.685278
0.681336
0.682979
0.683143
0.682814
0.682650
0.683636
0.683964
0.682486
0.683143
0.684293
0.683964
0.683800
0.684128
0.685607
0.677886
0.679529
0.679858
0.680186
0.681336
0.681993
0.716160
0.686100
0.687249
0.687085
0.686757
0.686592
0.686592
0.687249
0.685278
0.687085
0.688071
0.687085
0.687578
0.688071
0.687742
0.687578
0.686921
0.669509
0.669016
0.670659
0.670987
0.671809
0.671316
0.670987
0.672630
0.672630
0.671809
0.671644
0.671809
0.673123
0.673616
0.679693
0.674437
0.676737
0.675258
0.675751
0.676737
0.676408
0.677065
0.674765
0.678379
0.674765
0.685443
0.676901
0.679036
0.679693
0.680186
0.680186
0.670002
0.683636
0.679365
0.681007
0.681664
0.681664
0.681500
0.703183
0.681993
0.682322
0.682486
0.682322
0.682814
0.684293
0.683143
0.684293
0.685114
0.682322
0.684785
0.684950
0.684293
0.684621
0.679201
0.686428
0.685443
0.681172
0.690535
0.686264
0.686592
0.687742
0.687742
0.687414
0.686921
0.685443
0.686264
0.686428
0.686428
0.686264
0.697927
0.684293
0.688235
0.686592
0.686757
0.687085
0.689549
0.685771
0.686757
0.686921
0.687578
0.689221
0.689221
0.689385
0.689549
0.689385
0.690042
0.683471
0.685771
0.686428
0.696777
0.695955
0.695134
0.694970
0.694313
0.684457
0.687414
0.689221
0.688399
0.688399
0.688564
0.688728
0.686100
0.689549
0.687249
0.687906
0.688071
0.694149
0.688235
0.692999
0.691028
0.691685
0.689221
0.689385
0.689878
0.689549
0.689549
0.689878
0.687578
0.690535
0.690042
0.691356
0.690042
0.690042
0.690535
0.690370
0.674273
0.690863
0.690535
0.689878
0.690370
0.690370
0.690042
0.690206
0.688892
0.688235
0.688728
0.688564
0.730779
0.688399
0.688399
0.688235
0.670166
0.668688
0.670002
0.670330
0.670823
0.668852
0.612838
0.616452
0.619901
0.621051
0.619737
0.627950
0.623351
0.626308
0.628771
0.630414
0.634192
0.632550
0.636820
0.638627
0.639613
0.640927
0.643719
0.643227
0.645526
0.647333
0.646676
0.650783
0.640434
0.641256
0.643391
0.644541
0.653083
0.654232
0.654725
0.655546
0.656532
0.620230
0.658010
0.659489
0.660146
0.660803
0.619408
0.630086
0.630250
0.633535
0.635671
0.667702
0.668852
0.669345
0.670330
0.670659
0.671152
0.675751
0.670330
0.672301
0.671809
0.672301
0.672301
0.673451
0.674273
0.674108
0.674765
0.685771
0.675258
0.675587
0.675751
0.676244
0.670002
0.677722
0.677722
0.678215
0.678543
0.678708
0.663267
0.674601
0.675094
0.674930
0.678708
0.681172
0.682157
0.681172
0.681993
0.682157
0.682322
0.681664
0.684293
0.682979
0.695298
0.683800
0.683800
0.684293
0.684621
0.684457
0.687578
0.684785
0.684621
0.686100
0.686100
0.685935
0.686100
0.682814
0.684293
0.683964
0.684293
0.684785
0.689713
0.683636
0.687085
0.681500
0.691520
0.686757
0.688235
0.688892
0.688564
0.688564
0.688892
0.688235
0.688235
0.691356
0.675751
0.679036
0.679858
0.680186
0.680350
0.691356
0.720924
0.722073
0.719938
0.718624
0.717638
0.685607
0.687249
0.687742
0.687249
0.687906
0.687414
0.662774
0.688071
0.688071
0.688235
0.691685
0.689878
0.691685
0.691520
0.691685
0.691356
0.691028
0.689385
0.687578
0.688892
0.690370
0.688892
0.689549
0.689713
0.689713
0.689713
0.689221
0.689878
0.690206
0.690699
0.690699
0.678708
0.691520
0.689878
0.690863
0.690863
0.690863
0.691192
0.674930
0.691192
0.691192
0.693491
0.699733
0.691192
0.691356
0.691192
0.691849
0.695463
0.691192
0.691685
0.690535
0.695955
0.694149
0.693984
0.694149
0.693984
0.696612
0.694641
0.691356
0.690863
0.691028
0.691356
0.690863
0.690863
0.689878
0.691192
0.690535
0.690370
0.690206
0.690535
0.690535
0.690206
0.689385
0.673616
0.670659
0.669837
0.669837
0.668852
0.669509
0.669509
0.672301
0.669509
0.673780
0.673287
0.673287
0.673780
0.674273
0.676079
0.672137
0.675094
0.675094
0.675587
0.676408
0.676408
0.666059
0.675422
0.676079
0.676737
0.676901
0.677394
0.677558
0.677886
0.679036
0.676901
0.677722
0.677394
0.676901
0.677558
0.677722
0.678379
0.720759
0.682814
0.681500
0.681664
0.682650
0.682486
0.682650
0.682979
0.683143
0.682322
0.683964
0.682979
0.682979
0.683471
0.683964
0.680843
0.683964
0.683636
0.684785
0.684457
0.684950
0.684950
0.685114
0.681007
0.683307
0.685771
0.686100
0.685935
0.685607
0.686264
0.686264
0.686921
0.686921
0.686757
0.686921
0.686592
0.686921
0.686921
0.686757
0.686921
0.687085
0.687249
0.686264
0.686264
0.685771
0.686921
0.687249
0.683307
0.687578
0.688892
0.689056
0.689878
0.689549
0.689221
0.689385
0.662446
0.689385
0.688892
0.688892
0.688892
0.688728
0.688892
0.689221
0.689878
0.689878
0.689878
0.689878
0.690042
0.691028
0.691520
0.691356
0.695791
0.690699
0.690535
0.690863
0.690370
0.691028
0.691685
0.687906
0.683964
0.681007
0.683471
0.684785
0.684457
0.684128
0.683964
0.680350
0.681007
0.679036
0.677722
0.677065
0.677558
0.677065
0.676737
0.681500
0.677558
0.676901
0.675587
0.675422
0.676737
0.677886
0.678051
0.685278
0.679529
0.680022
0.680515
0.679858
0.680679
0.681500
0.682157
0.682157
0.681993
0.682650
0.683143
0.683143
0.683143
0.682814
0.668852
0.682814
0.692670
0.687414
0.689713
0.690699
0.689878
0.689385
0.684293
0.686264
0.683800
0.684621
0.684457
0.684950
0.685771
0.685607
0.685607
0.734722
0.730122
0.727166
0.724209
0.722895
0.683307
0.683143
0.682979
0.682650
0.684785
0.686100
0.686592
0.685771
0.685935
0.682157
0.684950
0.685443
0.685278
0.685771
0.686264
0.686428
0.685443
0.686428
0.689385
0.682814
0.679036
0.677558
0.678051
0.678872
0.679693
0.679858
0.690206
0.688892
0.688235
0.688071
0.687906
0.687906
0.688728
0.633535
0.662610
0.664417
0.665402
0.666552
0.666388
0.666716
0.618259
0.633371
0.670495
0.684128
0.680843
0.681007
0.682157
0.682322
0.725523
0.717145
0.684457
0.674437
0.674930
0.675258
0.675422
0.676244
0.676901
0.680843
0.674601
0.681336
0.680022
0.679529
0.680515
0.681336
0.668688
0.680515
0.680843
0.681829
0.682157
0.681664
0.681500
0.683307
0.678379
0.671152
0.685114
0.684293
0.686100
0.687085
0.687249
0.721745
0.721745
0.725687
0.687578
0.683964
0.683636
0.683964
0.683964
0.684128
0.684293
0.682814
0.688071
0.685278
0.683143
0.683800
0.684457
0.651440
0.684785
0.684785
0.684950
0.685278
0.685278
0.681172
0.686757
0.686264
0.686100
0.686757
0.667373
0.668852
0.669837
0.670987
0.684128
0.671152
0.672630
0.672794
0.673451
0.674930
0.672958
0.673780
0.673944
0.674437
0.727658
0.677394
0.676737
0.677394
0.677886
0.678051
0.669673
0.640434
0.640598
0.681172
0.681993
0.682157
0.681007
0.688892
0.685114
0.686757
0.643391
0.651604
0.685443
0.686428
0.686428
0.686921
0.686100
0.689713
0.688235
0.688564
0.686921
0.688071
0.688235
0.688235
0.688564
0.690370
0.688399
0.685443
0.671809
0.671809
0.671152
0.668688
0.670495
0.669509
0.668359
0.668359
0.668523
0.622858
0.635506
0.637149
0.639284
0.630250
0.666388
0.666552
0.665074
0.654561
0.655546
0.691028
0.658010
0.658503
0.659817
0.661624
0.661460
0.662774
0.662446
0.661789
0.664088
0.664745
0.670330
0.668359
0.668359
0.669345
0.670330
0.619901
0.669837
0.672794
0.673616
0.674601
0.673780
0.669180
0.671973
0.672301
0.668031
0.667045
0.662938
0.665074
0.666716
0.666881
0.711232
0.668852
0.669016
0.670166
0.670002
0.718295
0.671973
0.671973
0.672630
0.672630
0.724045
0.714846
0.673451
0.673123
0.673287
0.674601
0.634192
0.643555
0.641256
0.677558
0.672301
0.686921
0.683636
0.685935
0.687414
0.687085
0.679693
0.680350
0.681500
0.681664
0.682157
0.701048
0.681336
0.688728
0.686921
0.686428
0.686921
0.733572
0.724866
0.721745
0.719117
0.751312
0.680515
0.680186
0.680679
0.680515
0.680843
0.672466
0.642077
0.682157
0.682650
0.681007
0.688564
0.683800
0.684621
0.686264
0.686264
0.682486
0.694477
0.691192
0.691356
0.692177
0.691520
0.685114
0.691356
0.690370
0.690206
0.689713
0.694806
0.685935
0.686757
0.687249
0.692177
0.685443
0.688399
0.687906
0.686592
0.687085
0.688071
0.687906
0.695134
0.696120
0.647498
0.676244
0.689385
0.688728
0.689549
0.689713
0.659982
0.654725
0.690535
0.691028
0.690699
0.690699
0.692342
0.691356
0.690863
0.691192
0.691192
0.691520
0.693327
0.688071
0.692670
0.707618
0.690699
0.691356
0.691192
0.690370
0.690535
0.691028
0.646019
0.656532
0.654725
0.693820
0.693327
0.693491
0.694149
0.693984
0.693984
0.693327
0.694970
0.693984
0.693820
0.694970
0.694806
0.718131
0.733079
0.736036
0.692506
0.691849
0.692177
0.692342
0.739485
0.691849
0.690863
0.732586
0.729958
0.690370
0.689713
0.688399
0.687906
0.674108
0.685935
0.670495
0.648155
0.647990
0.662446
0.686100
0.686428
0.686264
0.684785
0.688892
0.687578
0.688728
0.686264
0.684950
0.684293
0.680843
0.681500
0.681993
0.681664
0.682322
0.683636
0.684293
0.683307
0.684621
0.684457
0.687578
0.685607
0.685607
0.685935
0.686428
0.686428
0.636328
0.630907
0.688235
0.684950
0.686100
0.686757
0.686428
0.687085
0.679036
0.690206
0.683964
0.686100
0.686428
0.685771
0.685607
0.698091
0.689549
0.688399
0.688235
0.687906
0.688399
0.688728
0.690535
0.689549
0.690370
0.690535
0.689878
0.689713
0.690370
0.690370
0.690042
0.685935
0.684785
0.698091
0.694970
0.693491
0.693327
0.692670
0.692999
0.691028
0.695627
0.696777
0.697762
0.697434
0.696777
0.696612
0.704333
0.688728
0.689221
0.689549
0.689385
0.689549
0.689713
0.689713
0.692013
0.693984
0.684293
0.687906
0.688728
0.688399
0.688235
0.688728
0.679858
0.684950
0.693656
0.695463
0.695298
0.694806
0.695134
0.694970
0.694970
0.691520
0.688728
0.690042
0.689713
0.689878
0.689713
0.689878
0.693163
0.691849
0.691356
0.691192
0.690863
0.674273
0.670659
0.671316
0.687085
0.672137
0.674108
0.674930
0.674930
0.675258
0.675587
0.676408
0.676572
0.670495
0.674108
0.674601
0.675258
0.676408
0.677229
0.678543
0.680186
0.676737
0.677229
0.677394
0.677722
0.678051
0.679036
0.685935
0.681993
0.688399
0.687085
0.687414
0.688235
0.688728
0.688728
0.692342
0.680843
0.686757
0.686592
0.686264
0.686757
0.687414
0.687414
0.684293
0.693820
0.691520
0.692013
0.692506
0.692670
0.692834
0.692670
0.654889
0.687906
0.689549
0.689056
0.688728
0.689056
0.688564
0.688235
0.686921
0.687742
0.688071
0.687578
0.688235
0.688564
0.688564
0.708439
0.688892
0.687906
0.688071
0.688071
0.687414
0.687578
0.687742
0.689221
0.684950
0.688235
0.688564
0.688071
0.688071
0.688564
0.688892
0.683636
0.691849
0.684950
0.687085
0.687742
0.687906
0.688564
0.688728
0.689056
0.689878

Kurve 7

0.008346
0.006046
0.004404
0.004239
0.004404
0.031179
0.002925
0.003254
0.005225
-0.006438
-0.004138
-0.004138
-0.004467
-0.003809
0.004732
0.003747
0.004075
0.005718
-0.000853
0.000954
0.001611
0.001776
0.001447
0.001940
0.004075
0.004732
0.004732
0.004404
0.004404
0.004239
0.051383
0.005061
0.004075
0.003747
0.003582
0.004404
0.005225
0.003911
0.003582
0.013767
-0.006109
-0.000031
-0.000853
-0.001674
-0.001017
0.003582
0.008018
0.005882
-0.007752
0.004897
0.002597
0.002925
0.004404
0.004239
-0.006109
0.005389
0.004404
0.004732
0.005225
0.004732
0.004075
0.007525
0.004075
0.003418
0.003418
0.003090
0.003582
0.004239
0.005225
0.004897
0.004404
0.045963
0.043991
0.005554
0.002761
0.002761
0.000790
0.002761
0.003582
0.003090
0.001283
0.002761
0.003911
0.004404
0.005225
0.004732
0.002761
0.003582
0.005882
0.006211
0.006046
0.005225
0.009003
0.004239
0.004239
0.004075
0.004075
0.006211
0.003747
0.004075
0.003090
0.002433
0.004568
0.004732
0.004404
0.004075
0.004239
-0.002495
0.004897
0.004404
0.003911
0.004897
0.005061
0.003582
0.004568
0.003911
0.003418
-0.000853
0.001447
-0.000360
0.000297
0.000954
0.000461
0.011467
0.002597
0.003254
0.003582
0.002433
0.039556
0.009496
0.002925
0.002761
0.002761
0.004897
-0.008080
-0.004302
-0.004302
-0.004631
-0.003809
0.004897
0.004239
0.004404
0.004075
0.001283
0.005554
0.001611
0.004239
0.004897
0.001447
0.005389
0.002433
0.004239
0.005389
0.004568
0.003747
0.004075
0.004897
0.004404
0.003582
0.003582
0.003582
0.002761
0.002761
0.001776
0.023130
0.002925
0.003582
0.003911
0.002761
0.003582
0.003418
0.003418
0.004404
0.003747
0.004404
0.001940
0.003747
0.003911
0.003911
0.000954
0.005554
0.003747
0.005225
0.006868
0.006703
0.005718
0.006046
0.006046
0.004732
0.004897
0.003911
0.006211
0.004568
0.004732
0.004732
0.004897
0.001940
0.008182
0.006211
0.005554
0.005882
0.001447
0.004732
0.004732
0.004568
0.005554
0.004568
0.003090
0.003090
0.005225
0.005225
0.003911
0.009167
0.010482
0.010153
0.009003
0.007525
0.007853
0.004404
0.004075
0.008018
0.003911
0.004897
0.003418
0.002925
0.002597
0.002761
0.006539
0.008182
0.006211
0.005718
0.005554
0.001283
0.008510
0.003254
0.005718
0.006211
0.006539
0.005389
0.006703
0.005718
0.005718
0.004732
0.009824
0.008675
0.008675
0.009167
0.008675
0.007525
0.004239
0.005554
0.044320
0.031672
0.047112
0.062225
0.077009
0.091464
0.105755
0.123495
0.132694
0.145671
0.158155
0.170146
0.182466
0.155527
0.205135
0.215155
0.222382
0.232567
0.242094
0.232402
0.262298
0.271990
0.279382
0.293509
0.299094
0.307143
0.316341
0.324226
0.331782
0.339831
0.347059
0.356586
0.349851
0.358886
0.366278
0.373012
0.379747
0.386646
0.439539
0.407508
0.412929
0.418842
0.424427
0.430012
0.428534
0.440853
0.442003
0.447096
0.452023
0.457116
0.461222
0.466643
0.474035
0.476499
0.482577
0.486847
0.490133
0.494239
0.498182
0.501795
0.538919
0.508695
0.511651
0.512965
0.515758
0.519536
0.522328
0.525449
0.528406
0.535141
0.535798
0.538262
0.541547
0.544176
0.546639
0.544504
0.534484
0.535470
0.537769
0.538098
0.539083
0.540233
0.541712
0.542533
0.540397
0.554031
0.551567
0.553539
0.554853
0.556167
0.557481
0.559288
0.556167
0.555510
0.554196
0.554688
0.557152
0.559452
0.561916
0.567994
0.575386
0.575878
0.580971
0.583435
0.584584
0.586227
0.587705
0.585077
0.587213
0.589020
0.590662
0.592141
0.593783
0.595097
0.596904
0.598711
0.602654
0.604789
0.607910
0.610210
0.611195
0.611852
0.612674
0.611688
0.608567
0.610210
0.611031
0.612345
0.613166
0.613823
0.615138
0.621708
0.616780
0.617766
0.619408
0.620558
0.621544
0.622365
0.609553
0.624501
0.624008
0.624829
0.625650
0.626143
0.626636
0.627293
0.617273
0.635671
0.636328
0.639284
0.640270
0.640598
0.640927
0.641091
0.637642
0.633864
0.634356
0.636492
0.636328
0.636656
0.636985
0.637477
0.646676
0.637477
0.638792
0.639449
0.639941
0.640763
0.640763
0.641584
0.633207
0.645526
0.644048
0.643555
0.643719
0.643884
0.644212
0.644212
0.642241
0.644048
0.641913
0.642241
0.643062
0.643884
0.644377
0.688235
0.648155
0.648483
0.648647
0.648812
0.648812
0.648976
0.649304
0.651933
0.649469
0.650454
0.650783
0.651111
0.651440
0.651768
0.652097
0.649962
0.652261
0.653411
0.652754
0.652754
0.652754
0.652590
0.653411
0.654889
0.655054
0.653904
0.654561
0.655218
0.655711
0.655546
0.657682
0.658339
0.649633
0.633535
0.630414
0.630578
0.631400
0.633535
0.634028
0.636985
0.636492
0.635999
0.637477
0.637642
0.636820
0.636985
0.632550
0.637642
0.638463
0.637970
0.639120
0.639284
0.639449
0.638627
0.642077
0.639449
0.653575
0.649962
0.650126
0.650783
0.650947
0.678215
0.643391
0.648812
0.635506
0.638463
0.639941
0.640106
0.640598
0.641256
0.668031
0.648319
0.648812
0.649633
0.650126
0.650619
0.651111
0.625979
0.616123
0.652425
0.652097
0.648812
0.644377
0.642405
0.635999
0.643884
0.637642
0.646676
0.641748
0.643555
0.644048
0.644212
0.653247
0.644212
0.644869
0.643227
0.639941
0.638792
0.639613
0.639941
0.640106
0.640434
0.647005
0.647990
0.648319
0.649140
0.641748
0.635342
0.633864
0.639941
0.637806
0.639941
0.640270
0.640270
0.640927
0.632550
0.639777
0.642077
0.641420
0.648483
0.649633
0.649304
0.649633
0.650126
0.693327
0.660146
0.662610
0.676901
0.644377
0.641913
0.642077
0.642405
0.643227
0.690863
0.679201
0.677886
0.677558
0.677065
0.675751
0.643062
0.644869
0.642734
0.644377
0.644869
0.645362
0.645526
0.596247
0.610702
0.612674
0.629100
0.651111
0.651933
0.652261
0.652754
0.653247
0.653904
0.654561
0.654397
0.655711
0.655875
0.654725
0.655382
0.655382
0.655711
0.680843
0.657353
0.657518
0.657518
0.657846
0.658175
0.659160
0.605939
0.620394
0.621708
0.622365
0.624336
0.665074
0.666388
0.665731
0.666059
0.661624
0.668852
0.665895
0.667209
0.667866
0.667866
0.670002
0.667702
0.667538
0.667702
0.668031
0.668523
0.666224
0.666388
0.666059
0.666881
0.711232
0.677229
0.667538
0.667209
0.668195
0.668359
0.665731
0.667702
0.668195
0.668359
0.668688
0.663431
0.675751
0.672630
0.673451
0.674108
0.668523
0.667702
0.668195
0.668688
0.668688
0.673123
0.668523
0.669509
0.668359
0.667866
0.667702
0.671973
0.670330
0.669509
0.669509
0.669837
0.670002
0.667866
0.667538
0.656861
0.654889
0.629921
0.656368
0.656039
0.656696
0.657682
0.649304
0.657518
0.657682
0.658503
0.658832
0.608238
0.621051
0.650619
0.662446
0.663431
0.666881
0.705318
0.703676
0.662938
0.662774
0.666881
0.662774
0.663267
0.663760
0.662610
0.667209
0.654232
0.659160
0.659982
0.659653
0.661131
0.661789
0.620887
0.623679
0.627622
0.630578
0.649797
0.671316
0.671973
0.672958
0.673451
0.639284
0.633864
0.630907
0.634028
0.636163
0.636985
0.692013
0.684128
0.683471
0.682979
0.682322
0.680350
0.677558
0.677229
0.676901
0.682650
0.676901
0.677065
0.675751
0.674601
0.674930
0.676079
0.677229
0.677229
0.677558
0.677558
0.680350
0.680022
0.681500
0.682157
0.682486
0.675751
0.677886
0.676901
0.674273
0.673616
0.673780
0.680022
0.665402
0.669345
0.670002
0.666059
0.666716
0.668195
0.670659
0.670166
0.670166
0.667866
0.669509
0.669180
0.669673
0.669673
0.670495
0.667209
0.670495
0.670987
0.664581
0.673616
0.666881
0.668031
0.669345
0.670002
0.669673
0.673944
0.677394
0.679036
0.679529
0.678872
0.697270
0.671973
0.672466
0.672630
0.672958
0.671973
0.660474
0.644705
0.651111
0.649797
0.647990
0.649304
0.649304
0.649140
0.649797
0.650947
0.644048
0.658010
0.651440
0.652754
0.654889
0.655875
0.656204
0.657846
0.658503
0.658832
0.657189
0.658339
0.660803
0.660967
0.661789
0.661953
0.661624
0.662610
0.662446
0.662610
0.663103
0.664088
0.698584
0.664252
0.664417
0.665238
0.665074
0.665402
0.656861
0.657682
0.658503
0.659489
0.659817
0.659653
0.615138
0.627622
0.662610
0.662938
0.663431
0.664088
0.664252
0.622037
0.665238
0.666224
0.666716
0.666881
0.666881
0.672301
0.668195
0.667045
0.667209
0.667045
0.667866
0.668195
0.671316
0.670495
0.676737
0.658832
0.662446
0.663103
0.663103
0.663924
0.665238
0.659160
0.673123
0.673616
0.672958
0.673616
0.673944
0.673616
0.673451
0.674108
0.673123
0.674273
0.674601
0.674601
0.675094
0.674930
0.685443
0.674108
0.678708
0.676901
0.676244
0.676408
0.677722
0.677722
0.674930
0.677558
0.671644
0.675915
0.674601
0.674601
0.675094
0.675422
0.669016
0.677065
0.676901
0.676737
0.677065
0.676901
0.676737
0.676408
0.676901
0.628607
0.663103
0.678543
0.678872
0.678708
0.678708
0.678872
0.692670
0.679036
0.678215
0.678379
0.678379
0.679201
0.668523
0.675751
0.718624
0.667209
0.667866
0.665402
0.666059
0.666881
0.668359
0.667702
0.663431
0.657682
0.654889
0.655218
0.657189
0.657025
0.657353
0.658339
0.655054
0.658339
0.659982
0.660803
0.662117
0.662281
0.661953
0.693163
0.701048
0.704333
0.661624
0.661953
0.662446
0.663595
0.663924
0.666059
0.662938
0.664252
0.663431
0.662446
0.663103
0.664745
0.665402
0.662610
0.667209
0.667866
0.669345
0.672301
0.671973
0.671316
0.671644
0.637477
0.670330
0.670495
0.670659
0.671152
0.671316
0.670659
0.661460
0.710411
0.661460
0.661624
0.661953
0.662610
0.664088
0.664910
0.664910
0.665074
0.665402
0.664910
0.665074
0.665731
0.666059
0.666224
0.665074
0.667373
0.664745
0.668031
0.670166
0.669837
0.669180
0.660146
0.642734
0.655218
0.647498
0.649797
0.651604
0.652261
0.652261
0.652754
0.657518
0.656696
0.656861
0.657353
0.657518
0.658996
0.660146
0.660639
0.660474
0.659982
0.661460
0.661953
0.661131
0.662281
0.663431
0.626800
0.661789
0.673287
0.670659
0.672466
0.673287
0.672301
0.672466
0.673287
0.667866
0.663760
0.665074
0.666388
0.667209
0.667209
0.667373
0.675258
0.670659
0.670330
0.670659
0.670166
0.671316
0.671973
0.673944
0.671316
0.672794
0.673287
0.672630
0.672630
0.672630
0.673780
0.656532
0.674273
0.674601
0.670987
0.673123
0.673287
0.673616
0.673451
0.674273
0.671973
0.675751
0.677065
0.676737
0.677229
0.676079
0.659160
0.670330
0.660310
0.660967
0.662117
0.661789
0.662610
0.664252
0.689549
0.662938
0.688071
0.654561
0.655218
0.656204
0.656204
0.656861
0.651440
0.660803
0.654889
0.660474
0.659817
0.660639
0.661131
0.661460
0.661953
0.658832
0.669180
0.661953
0.664088
0.665567
0.665895
0.665567
0.682322
0.665567
0.666552
0.666881
0.667209
0.667702
0.668523
0.670495
0.668852
0.667702
0.666059
0.663103
0.661624
0.662117
0.664088
0.664417
0.671809
0.671152
0.669673
0.685278
0.681336
0.681664
0.681829
0.681500
0.681336
0.670002
0.671644
0.671973
0.672137
0.672630
0.672466
0.672958
0.671480
0.679201
0.677229
0.676737
0.677229
0.677722
0.674601
0.675094
0.672958
0.675751
0.674930
0.674437
0.674601
0.673944
0.674273
0.675422
0.675094
0.675587
0.674601
0.666059
0.667373
0.666881
0.667866
0.668031
0.666059
0.669345
0.670166
0.669673
0.670495
0.670330
0.670987
0.670495
0.672137
0.670166
0.670659
0.655382
0.654232
0.655218
0.656532
0.657353
0.660474
0.658668
0.661789
0.661460
0.661789
0.662610
0.660310
0.661789
0.663924
0.663103
0.666881
0.662774
0.664745
0.661789
0.662117
0.652425
0.666224
0.663760
0.665731
0.666224
0.666552
0.666881
0.669837
0.666552
0.665074
0.666224
0.666388
0.684950
0.668031
0.668688
0.666716
0.667209
0.667045
0.668359
0.667702
0.667702
0.668195
0.667702
0.670002
0.670659
0.670330
0.666224
0.682979
0.670166
0.671152
0.671809
0.672301
0.623515
0.672958
0.673780
0.673616
0.673451
0.674273
0.710903
0.674601
0.673616
0.673616
0.666224
0.697105
0.668523
0.667373
0.668031
0.667866
0.670823
0.671644
0.672301
0.672466
0.672137
0.655875
0.672137
0.672466
0.673287
0.673287
0.672630
0.672958
0.674273
0.674273
0.674601
0.673451
0.674273
0.674930
0.675258
0.675258
0.675751
0.687414
0.712382

Kurve 8

0.684785
0.691520
0.689385
0.706140
0.685935
0.685771
0.686100
0.686100
0.686264
0.688235
0.686592
0.687414
0.686921
0.686264
0.686757
0.686921
0.686757
0.687249
0.687742
0.687578
0.687414
0.686757
0.693656
0.692177
0.662774
0.688564
0.688564
0.689056
0.690370
0.690206
0.689385
0.688399
0.688728
0.686100
0.687742
0.688728
0.686757
0.687085
0.686264
0.686592
0.707947
0.723059
0.726016
0.692670
0.687414
0.687742
0.651604
0.687578
0.687742
0.687742
0.688071
0.687906
0.687249
0.689221
0.685771
0.682322
0.691028
0.685278
0.686921
0.687906
0.688235
0.687742
0.716817
0.689713
0.692999
0.696612
0.697105
0.695298
0.694149
0.694313
0.694149
0.701869
0.688728
0.692342
0.691520
0.690535
0.690863
0.687906
0.688399
0.683800
0.680843
0.671973
0.667373
0.667373
0.664581
0.669016
0.668688
0.670987
0.674437
0.674930
0.674601
0.674273
0.674273
0.674601
0.669509
0.673780
0.662774
0.666716
0.665895
0.665895
0.666388
0.667866
0.683143
0.710575
0.712546
0.710903
0.709097
0.708932
0.708439
0.655711
0.665567
0.664417
0.665238
0.666059
0.666388
0.666224
0.670330
0.675915
0.676901
0.676901
0.677558
0.678051
0.678543
0.678708
0.678872
0.680350
0.682157
0.680515
0.680186
0.679693
0.679693
0.680679
0.680679
0.688071
0.682322
0.683307
0.682814
0.658668
0.658010
0.658668
0.656532
0.659489
0.651440
0.652261
0.653575
0.654068
0.653904
0.654068
0.653740
0.654068
0.656039
0.660146
0.661460
0.638627
0.637477
0.638627
0.666881
0.639941
0.641091
0.642241
0.643391
0.644377
0.646512
0.647333
0.647662
0.673287
0.671644
0.670495
0.655054
0.651111
0.652097
0.652754
0.653740
0.654561
0.657189
0.658010
0.658832
0.659160
0.659489
0.660803
0.659982
0.662446
0.664581
0.665731
0.667702
0.667209
0.667209
0.668523
0.644869
0.647826
0.644541
0.645034
0.645855
0.647990
0.649469
0.650126
0.655546
0.657189
0.658010
0.657846
0.658668
0.660146
0.661131
0.629100
0.662610
0.663924
0.664417
0.665238
0.665731
0.666552
0.667209
0.655546
0.669509
0.669345
0.669837
0.670166
0.670987
0.670330
0.674601
0.672794
0.673287
0.673287
0.673123
0.673616
0.675258
0.675587
0.675258
0.678051
0.670987
0.673287
0.673616
0.673780
0.674930
0.675587
0.675422
0.680350
0.673944
0.676244
0.677394
0.677229
0.676901
0.677394
0.648976
0.682322
0.684128
0.682814
0.684293
0.684950
0.684457
0.684621
0.683471
0.681664
0.678379
0.675587
0.675258
0.676244
0.677229
0.677394
0.694313
0.686757
0.693656
0.692670
0.691685
0.691685
0.692834
0.692670
0.647990
0.650947
0.666224
0.691192
0.690863
0.689878
0.690206
0.690042
0.687249
0.691849
0.690370
0.664088
0.665731
0.666224
0.666388
0.715503
0.703512
0.667538
0.667373
0.666881
0.667209
0.667866
0.668852
0.668688
0.718131
0.712218
0.672958
0.671809
0.672137
0.673616
0.674273
0.673780
0.673616
0.675094
0.676244
0.676244
0.676079
0.675422
0.671152
0.663431
0.663431
0.663431
0.666388
0.667209
0.667702
0.668195
0.667373
0.667702
0.668523
0.668688
0.668688
0.669345
0.669673
0.670002
0.670495
0.719445
0.709754
0.672137
0.671809
0.672301
0.672630
0.673287
0.619901
0.636163
0.636820
0.677065
0.677722
0.678215
0.678215
0.681500
0.675422
0.677558
0.680679
0.676901
0.677229
0.678215
0.678708
0.684785
0.682650
0.685607
0.728972
0.715831
0.682322
0.682650
0.682814
0.682979
0.689549
0.677394
0.682157
0.681500
0.681993
0.681993
0.682650
0.683471
0.685114
0.683143
0.682650
0.679858
0.680515
0.667209
0.681664
0.681664
0.678708
0.682650
0.682814
0.682979
0.683471
0.683471
0.685771
0.683964
0.685771
0.692670
0.674930
0.678872
0.678215
0.678379
0.679036
0.679365
0.685443
0.687906
0.686757
0.687085
0.687742
0.687578
0.680515
0.688071
0.688399
0.688399
0.668359
0.663431
0.661953
0.665567
0.666224
0.666881
0.667209
0.667702
0.668523
0.669837
0.670495
0.687249
0.670330
0.671809
0.670987
0.674601
0.669180
0.672958
0.673616
0.673944
0.669345
0.692506
0.671809
0.672466
0.672794
0.673123
0.673780
0.664252
0.675587
0.674930
0.675915
0.676079
0.676572
0.674930
0.677229
0.678379
0.678051
0.656861
0.678379
0.678708
0.678708
0.679036
0.679365
0.724045
0.717638
0.713860
0.712382
0.677394
0.679365
0.678708
0.678708
0.678872
0.712218
0.714189
0.717145
0.715996
0.714682
0.711889
0.711068
0.676572
0.671973
0.673780
0.674273
0.674765
0.634028
0.641748
0.679529
0.680022
0.679201
0.683307
0.678543
0.680350
0.680186
0.680679
0.682979
0.682650
0.681993
0.682814
0.683964
0.681500
0.686428
0.684785
0.684950
0.686921
0.679036
0.686757
0.684621
0.684950
0.685443
0.685607
0.682486
0.686428
0.687249
0.686757
0.680186
0.688071
0.687906
0.688071
0.688071
0.686757
0.686757
0.686264
0.686757
0.687085
0.687085
0.689878
0.687414
0.686757
0.686921
0.687414
0.691520
0.687578
0.688399
0.687906
0.688071
0.688399
0.691685
0.689878
0.690206
0.690535
0.690535
0.685771
0.689878
0.690535
0.668852
0.661296
0.666224
0.663595
0.664581
0.665238
0.666881
0.674108
0.670166
0.670495
0.671644
0.674930
0.690535
0.675915
0.676737
0.677394
0.677558
0.677886
0.680843
0.679201
0.679036
0.679693
0.682322
0.681007
0.680843
0.671316
0.661789
0.662774
0.657025
0.666059
0.666059
0.666716
0.667209
0.668359
0.668688
0.669837
0.670659
0.671316
0.666881
0.672137
0.673616
0.673780
0.674601
0.675094
0.674930
0.677886
0.677065
0.678215
0.678379
0.678872
0.672466
0.677065
0.676408
0.677886
0.674601
0.675422
0.675751
0.676408
0.676901
0.677558
0.677886
0.678051
0.678543
0.682486
0.684950
0.684950
0.684950
0.685114
0.685114
0.673123
0.681336
0.681336
0.680186
0.680186
0.680350
0.682322
0.678215
0.668195
0.662117
0.661131
0.661460
0.663103
0.662117
0.664581
0.671480
0.654561
0.658668
0.658832
0.659653
0.660803
0.661624
0.667209
0.671973
0.655382
0.673616
0.673780
0.674273
0.674930
0.675258
0.675751
0.656696
0.675587
0.675751
0.676079
0.676901
0.677558
0.665567
0.662117
0.663760
0.663924
0.665074
0.665402
0.666059
0.692177
0.666881
0.667373
0.666881
0.671152
0.670002
0.670987
0.671644
0.672301
0.660803
0.673123
0.671152
0.673944
0.674273
0.674930
0.675258
0.675258
0.676244
0.669180
0.681007
0.677065
0.678215
0.678215
0.678379
0.679365
0.680186
0.680843
0.679201
0.679858
0.680679
0.680679
0.681172
0.683800
0.681829
0.678379
0.673944
0.674273
0.681664
0.682979
0.683143
0.683307
0.684785
0.682814
0.683800
0.682157
0.681829
0.682322
0.682814
0.683143
0.670659
0.686757
0.686264
0.686592
0.672466
0.670987
0.670987
0.693491
0.671973
0.672958
0.672958
0.672630
0.673287
0.674437
0.674765
0.673944
0.675258
0.675751
0.676079
0.676572
0.676901
0.676901
0.676901
0.674601
0.677886
0.681172
0.682814
0.684128
0.683964
0.683307
0.683471
0.681172
0.681007
0.680186
0.682157
0.683471
0.683636
0.683471
0.687578
0.682157
0.682979
0.681500
0.681007
0.681664
0.682322
0.683143
0.682979
0.680679
0.659817
0.661296
0.660967
0.661789
0.663103
0.664745
0.659489
0.667373
0.665731
0.670495
0.672630
0.672958
0.672137
0.673287
0.673944
0.671973
0.670659
0.672137
0.672958
0.673287
0.673944
0.674273
0.677394
0.674930
0.679201
0.679036
0.678872
0.679858
0.680515
0.676572
0.678872
0.672137
0.681993
0.680515
0.678872
0.679529
0.680679
0.668852
0.677065
0.675915
0.659817
0.659160
0.659325
0.659325
0.659817
0.661131
0.661296
0.661789
0.662774
0.663760
0.664581
0.664417
0.664581
0.679201
0.665074
0.672301
0.671316
0.671152
0.671644
0.672958
0.672958
0.673616
0.671809
0.671480
0.670166
0.669180
0.669837
0.670823
0.664745
0.660803
0.672466
0.672137
0.672630
0.673123
0.673287
0.673123
0.674108
0.667866
0.675587
0.676737
0.677722
0.679201
0.679036
0.678872
0.686921
0.677065
0.678708
0.678872
0.678708
0.679201
0.679693
0.680515
0.682650
0.690042
0.674930
0.682486
0.680843
0.680515
0.681500
0.681500
0.684293
0.679529
0.694149
0.691520
0.692013
0.691849
0.691192
0.691028
0.691356
0.683800
0.681664
0.683800
0.684621
0.685443
0.684785
0.684950
0.683964
0.684785
0.684785
0.684457
0.684950
0.685935
0.686100
0.685278
0.685771
0.684950
0.686100
0.683964
0.684457
0.685278
0.685771
0.687742
0.691520
0.687085
0.686428
0.687906
0.687578
0.687085
0.687249
0.687249
0.683800
0.685278
0.684621
0.684950
0.685607
0.685935
0.685607
0.688071
0.689549
0.688892
0.688892
0.689056
0.689385
0.690042
0.687414
0.689713
0.692342
0.690370
0.690042
0.690042
0.690206
0.690699
0.689056
0.689385
0.691685
0.692342
0.689878
0.691356
0.692177
0.692670
0.692177
0.665895
0.691192
0.691356
0.691520
0.691356
0.691520
0.691356
0.693163
0.693984
0.694313
0.692177
0.691849
0.692506
0.697598
0.688071
0.692999
0.698091
0.691356
0.692506
0.692013
0.691028
0.691849
0.689713
0.684293
0.676901
0.653083
0.673944
0.673780
0.670330
0.669837
0.670495
0.670166
0.671316
0.671316
0.671973
0.673616
0.673780
0.673944
0.676572
0.675094
0.675258
0.675915
0.676244
0.677394
0.680186
0.673123
0.675587
0.675422
0.678379
0.679201
0.679365
0.679858
0.680350
0.677394
0.681829
0.676737
0.677886
0.630907
0.644869
0.679858
0.684457
0.684785
0.685114
0.684621
0.685114
0.686100
0.686592
0.686757
0.686921
0.690699
0.685607
0.692506
0.690863
0.689878
0.689878
0.688564
0.680350
0.679693
0.679858
0.692177
0.689713
0.688235
0.688071
0.687578
0.684293
0.691192
0.690042
0.690042
0.690863
0.691685
0.689056
0.691028
0.691685
0.691685
0.688564
0.691356
0.691849
0.691520
0.692177
0.692013
0.692013
0.691028
0.692670
0.692834
0.691685
0.692342
0.688071
0.687742
0.685771
0.685114
0.707947
0.692834
0.693327
0.693163
0.692342
0.692670
0.646348
0.655218
0.656861
0.694970
0.694641
0.696612
0.695134
0.695791
0.696120
0.685278
0.696120
0.695134
0.696941
0.698255
0.697762
0.697270
0.695463
0.695627
0.695298
0.694970
0.698912
0.692670
0.692506
0.692670
0.691520
0.693163
0.731601
0.730451
0.726837
0.709754
0.691356
0.674765
0.690370
0.690535
0.690863
0.691356
0.647990
0.656532
0.656532
0.692999
0.693163
0.695627
0.695298
0.697434
0.698091
0.697927
0.697270
0.696777
0.694313
0.697270
0.696941
0.695627
0.693984
0.693491
0.693327
0.692177
0.692834
0.693163
0.696777
0.694641
0.693820
0.694477
0.681336
0.692834
0.692834
0.692342
0.692342
0.692342
0.690699
0.691849
0.692506
0.692342
0.689385
0.699241
0.698255
0.697927
0.685114
0.684785
0.693984
0.678215
0.679201
0.679201
0.679529
0.680186
0.679365
0.679529
0.679036
0.679529
0.701212
0.681336
0.681172
0.681500
0.681664
0.682322
0.683636
0.677065
0.678872
0.679858
0.680186
0.680022
0.684293
0.678215
0.681007
0.681993
0.683143
0.682814
0.683143
0.684457
0.684457
0.683964
0.731436
0.725194
0.722566
0.682322
0.683143
0.682814
0.682322
0.681993
0.682486
0.701212
0.683800
0.683636
0.684293
0.684128
0.684293
0.681336
0.687742
0.686428
0.686757
0.687085
0.686757
0.669345
0.685443
0.685114
0.682157
0.685607
0.685771
0.685771
0.686757
0.687085
0.686757
0.688071
0.686592
0.689385
0.685607
0.686757
0.686757
0.686921
0.686921
0.687414
0.699733
0.687085
0.686921
0.686100
0.674930
0.666059
0.636656
0.629264
0.628936
0.669345
0.670166
0.670987
0.671316
0.668852
0.683143
0.668523
0.673451
0.670659
0.671152
0.671973
0.672958
0.673123
0.696941
0.672630
0.678051
0.665074
0.669016
0.669345
0.669673
0.670330
0.669345
0.703019
0.704004
0.706633
0.705647
0.704826
0.704004
0.703347
0.656532
0.663267
0.665402
0.665895
0.667373
0.668195
0.668359
0.675258
0.674765
0.676901
0.676079
0.677558
0.678051
0.678215
0.678379
0.678543
0.677722
0.679858
0.677886
0.668523
0.668688
0.668688
0.669673
0.670166
0.681007
0.659982
0.664417
0.665238
0.668031
0.668195
0.666881
0.623022
0.629757
0.629264
0.630907
0.632714
0.672466
0.673780
0.674108
0.676244
0.675915
0.676408
0.676572
0.677394
0.678215
0.678543
0.678872

Kurve 9

0.005061
0.009824
0.004075
0.008675
0.008346
0.006868
0.007689
0.008018
0.007853
0.002433
0.044977
0.034628
0.004732
0.004404
0.004239
0.005061
-0.014979
0.004568
0.004075
0.004075
0.004568
0.004568
0.004897
0.004239
0.004897
-0.000853
0.005389
0.004897
0.004897
0.005882
0.006211
0.005389
0.035450
0.005389
0.005061
0.005225
0.005225
0.005554
0.006375
0.021980
0.004732
0.007196
0.005225
0.005718
0.005718
0.005718
0.005882
-0.002495
0.008839
0.002761
0.013931
0.014752
0.016559
0.016231
0.015574
0.015245
0.014917
0.006868
0.006375
0.007525
0.008510
0.007853
0.007525
0.017545
0.005882
0.006375
0.006703
0.005389
0.005718
0.006539
0.042677
0.005718
0.005882
0.005554
0.006375
0.005882
0.005554
0.005061
0.005554
0.006868
0.005554
0.001611
0.006375
0.005882
0.005882
0.006539
0.006375
0.006375
-0.042740
-0.030913
-0.030420
-0.007752
0.009167
0.009003
0.009332
0.007196
0.008182
0.006211
0.005389
0.005554
0.005882
0.009660
0.009167
0.009496
0.009496
0.008510
0.006539
0.006375
0.005554
0.005389
-0.046025
-0.035020
0.008510
0.007525
0.008839
0.008510
0.008839
0.008675
0.008182
-0.024671
0.008510
0.009167
0.008675
0.009167
0.008346
0.007853
0.057461
0.009332
0.007361
0.007196
0.006868
0.007361
0.052205
0.043334
0.037914
0.008182
-0.006766
-0.002167
-0.003809
-0.004959
-0.004138
0.002433
0.003747
0.005061
0.005554
0.005061
-0.000196
0.001118
0.001776
0.002268
0.001940
0.005882
0.004075
0.006868
0.007032
0.006211
0.006046
0.008182
0.006211
0.007361
0.006868
0.006046
0.017545
0.001940
0.006211
0.003582
0.002597
0.005389
0.006375
0.003911
0.003254
0.003254
-0.029106
-0.027792
-0.031570
-0.029763
-0.042247
0.009660
0.009496
0.009824
0.009989
0.010153
0.009824
0.009660
0.011303
0.011631
0.012453
0.011796
0.013931
0.010153
0.010317
0.010153
0.009989
0.011960
0.009989
0.010810
0.009332
0.008346
0.014752
-0.001017
0.000954
0.000461
0.000626
-0.008245
0.010482
0.009332
0.009824
0.010482
-0.025657
0.009989
0.010646
0.010153
0.011467
-0.023685
0.010153
0.009824
0.009824
0.009824
0.009332
0.011139
0.008839
0.009332
0.009660
0.009496
0.009332
0.009167
0.008839
0.008675
0.008510
0.015902
-0.003645
0.001611
0.000626
-0.000360
0.000626
0.005882
0.008675
0.008675
0.008675
0.008675
0.007525
0.007689
0.008182
0.008346
-0.011858
0.008346
0.008182
0.007689
0.008839
0.008346
0.007853
0.019023
0.035121
0.050562
0.065017
0.079801
0.094749
0.108547
0.121853
0.134008
0.158484
0.160290
0.173432
0.185259
0.196757
0.208420
0.217454
0.228789
0.236180
0.246201
0.257042
0.266405
0.229610
0.244722
0.299422
0.308785
0.308457
0.314370
0.324719
0.333589
0.341309
0.348373
0.357736
0.362335
0.367920
0.383361
0.381883
0.389439
0.395845
0.401759
0.408001
0.414078
0.419006
0.426398
0.429684
0.434447
0.440196
0.438882
0.453995
0.456294
0.462044
0.467957
0.472064
0.453995
0.443317
0.446274
0.470750
0.494568
0.498182
0.502124
0.506231
0.510009
0.512801
0.526928
0.516743
0.526435
0.560602
0.529063
0.531363
0.534320
0.536784
0.539412
0.541876
0.546804
0.547461
0.549925
0.552060
0.554688
0.557481
0.559945
0.561588
0.563887
0.566844
0.568651
0.570458
0.530706
0.539740
0.539740
0.576043
0.581956
0.584420
0.586391
0.587870
0.589348
0.591155
0.612181
0.607417
0.610538
0.596576
0.597726
0.599040
0.600025
0.601339
0.602982
0.605775
0.596411
0.598711
0.600682
0.606924
0.610867
0.609553
0.617602
0.605117
0.601175
0.601668
0.602489
0.603475
0.556003
0.571772
0.586391
0.606596
0.608074
0.609060
0.610538
0.611524
0.612674
0.615630
0.601832
0.651933
0.642734
0.641420
0.641420
0.641748
0.640598
0.640434
0.619408
0.618094
0.618916
0.619244
0.620230
0.621051
0.614809
0.623679
0.624008
0.625322
0.625979
0.626965
0.627786
0.628771
0.581135
0.561752
0.632221
0.633535
0.634028
0.634849
0.635999
0.636492
0.642077
0.633042
0.638135
0.639284
0.640106
0.640434
0.640927
0.641748
0.641748
0.643555
0.642898
0.643227
0.644869
0.645034
0.645855
0.646183
0.595262
0.605610
0.608238
0.649633
0.649962
0.650619
0.650783
0.646348
0.649469
0.652261
0.653083
0.652918
0.653740
0.654068
0.654397
0.654232
0.657025
0.655875
0.655546
0.655218
0.655711
0.655711
0.656039
0.656039
0.698748
0.658503
0.660146
0.661460
0.661460
0.661953
0.661953
0.638299
0.670166
0.666552
0.666059
0.662117
0.660474
0.660474
0.660803
0.657846
0.664417
0.660146
0.662610
0.664088
0.663924
0.664252
0.664417
0.665731
0.664088
0.669345
0.670002
0.669180
0.669016
0.668852
0.668852
0.654397
0.644377
0.644705
0.644869
0.644212
0.644048
0.644869
0.645034
0.615302
0.627293
0.626143
0.626636
0.627129
0.628279
0.628771
0.629429
0.630250
0.630907
0.632878
0.632057
0.632385
0.623187
0.619573
0.649962
0.617437
0.617766
0.618259
0.618587
0.619244
0.620230
0.620887
0.640927
0.657518
0.661131
0.623515
0.624172
0.624829
0.626472
0.627457
0.626636
0.627129
0.625979
0.626143
0.627129
0.628279
0.629264
0.630086
0.636985
0.637477
0.636820
0.639120
0.640270
0.640763
0.641256
0.686757
0.686100
0.641420
0.641091
0.641748
0.641913
0.642898
0.643555
0.643884
0.644377
0.645362
0.645691
0.646676
0.647169
0.647662
0.648976
0.646183
0.651440
0.649633
0.650454
0.650783
0.650947
0.651440
0.648647
0.653740
0.650783
0.651768
0.655546
0.656039
0.641420
0.641584
0.680515
0.640434
0.640270
0.645526
0.644541
0.645526
0.646348
0.646348
0.640927
0.676079
0.672466
0.674930
0.636492
0.633864
0.634521
0.635506
0.628936
0.636820
0.637642
0.638463
0.639284
0.639284
0.639777
0.624665
0.643227
0.632550
0.636492
0.631728
0.623515
0.623844
0.625486
0.632878
0.628771
0.631728
0.630250
0.632221
0.633535
0.634192
0.635342
0.635835
0.639613
0.635506
0.643062
0.642570
0.641584
0.641584
0.642241
0.636163
0.644212
0.639120
0.640927
0.641584
0.642734
0.643062
0.646183
0.659653
0.657189
0.650126
0.649633
0.649962
0.650783
0.651440
0.652918
0.651933
0.653247
0.659817
0.653575
0.653904
0.654397
0.654561
0.655382
0.655218
0.656368
0.647005
0.628771
0.630414
0.631235
0.630907
0.628771
0.632550
0.633699
0.636492
0.637477
0.637642
0.638463
0.635178
0.635178
0.637477
0.637149
0.638463
0.640763
0.640927
0.642077
0.642898
0.643062
0.644705
0.643555
0.646841
0.645691
0.646841
0.647826
0.648155
0.649140
0.677558
0.650454
0.652918
0.653904
0.654397
0.654725
0.655382
0.653904
0.654068
0.654889
0.655546
0.655546
0.655382
0.661953
0.661624
0.664088
0.650619
0.659325
0.659489
0.659489
0.660639
0.661131
0.662281
0.661789
0.661953
0.662446
0.662117
0.662610
0.663103
0.663267
0.663760
0.667209
0.660803
0.666716
0.665895
0.665567
0.666224
0.667045
0.665074
0.666059
0.668688
0.668195
0.669016
0.662610
0.668852
0.668852
0.669509
0.670166
0.670002
0.669345
0.669345
0.669673
0.664581
0.665402
0.646512
0.646676
0.643391
0.671316
0.652590
0.653247
0.653904
0.653083
0.653904
0.653904
0.654725
0.655382
0.655546
0.656696
0.657518
0.655054
0.658503
0.656039
0.657518
0.659160
0.659160
0.659982
0.658996
0.659489
0.660474
0.662938
0.663103
0.663760
0.664417
0.664581
0.668031
0.657189
0.663595
0.643884
0.643391
0.646348
0.642405
0.639613
0.639777
0.627457
0.630743
0.631071
0.630743
0.631564
0.632714
0.634521
0.621708
0.638956
0.639449
0.642241
0.644048
0.642898
0.646019
0.647169
0.648812
0.648155
0.641256
0.645691
0.646676
0.647333
0.648155
0.648976
0.648647
0.650290
0.650947
0.651604
0.617602
0.619737
0.621380
0.620065
0.621051
0.629921
0.623022
0.629757
0.629921
0.629921
0.631564
0.633207
0.635178
0.634521
0.630414
0.631892
0.593126
0.634356
0.635506
0.637642
0.639120
0.630907
0.640927
0.641091
0.642077
0.642734
0.643719
0.645855
0.646348
0.646183
0.646841
0.647005
0.650454
0.643227
0.643884
0.644541
0.653247
0.650619
0.655218
0.653904
0.653247
0.653740
0.655546
0.607417
0.656204
0.656861
0.633699
0.658668
0.656204
0.658010
0.659325
0.660310
0.659653
0.661624
0.657682
0.660474
0.661131
0.661460
0.699733
0.664417
0.664581
0.665074
0.665238
0.665895
0.667702
0.662774
0.667538
0.666552
0.663595
0.661789
0.660310
0.660474
0.660474
0.661460
0.650947
0.670166
0.670495
0.668031
0.670987
0.669673
0.669837
0.671152
0.671480
0.671480
0.672794
0.671152
0.673780
0.674273
0.674273
0.676244
0.671973
0.672137
0.669345
0.667373
0.666552
0.666388
0.666881
0.664252
0.662610
0.661624
0.657518
0.647498
0.647005
0.647169
0.647990
0.648647
0.649962
0.650290
0.650126
0.650126
0.652754
0.653247
0.654397
0.654725
0.655711
0.654232
0.654889
0.658175
0.658503
0.659325
0.659160
0.658832
0.659160
0.659489
0.659982
0.660310
0.660639
0.661624
0.661460
0.662117
0.664417
0.663103
0.662938
0.663595
0.663431
0.664417
0.664581
0.664088
0.665402
0.666552
0.666224
0.666552
0.667209
0.667209
0.667373
0.668031
0.668195
0.668359
0.670166
0.670495
0.671152
0.670987
0.690535
0.670659
0.670823
0.670659
0.670330
0.671152
0.671973
0.677394
0.671973
0.674108
0.669345
0.672630
0.672958
0.672958
0.673780
0.673616
0.667866
0.673123
0.676408
0.669673
0.673287
0.674108
0.673944
0.673616
0.674273
0.675094
0.674930
0.676901
0.676901
0.676408
0.675258
0.673944
0.671644
0.672794
0.671973
0.671644
0.671480
0.653904
0.648319
0.645855
0.644048
0.640763
0.642077
0.642734
0.643062
0.643391
0.644377
0.645034
0.642405
0.651440
0.647826
0.649797
0.651933
0.652261
0.651933
0.653411
0.649962
0.652097
0.654397
0.654889
0.656368
0.656039
0.656861
0.660310
0.658010
0.658339
0.659160
0.659489
0.660803
0.661624
0.661296
0.673780
0.661624
0.662938
0.663431
0.664088
0.664745
0.665731
0.666552
0.662446
0.666059
0.667209
0.667702
0.669180
0.668688
0.668523
0.669509
0.665895
0.669180
0.670002
0.670002
0.670495
0.670823
0.670987
0.671973
0.670823
0.672301
0.669345
0.666716
0.664252
0.665074
0.665731
0.666388
0.665567
0.671152
0.667702
0.666552
0.666716
0.667866
0.668688
0.605775
0.670166
0.670495
0.670987
0.671316
0.671316
0.671644
0.672466
0.666388
0.672958
0.673123
0.672958
0.674273
0.674437
0.673780
0.673944
0.674930
0.677065
0.672958
0.673123
0.673616
0.674437
0.675258
0.675422
0.679858
0.676244
0.678215
0.676572
0.675422
0.676408
0.677229
0.675258
0.671152
0.680022
0.679529
0.679693
0.678215
0.677558
0.678215
0.678708
0.679693
0.678543
0.679201
0.679529
0.679858
0.679529
0.679365
0.681664
0.680350
0.680022
0.680350
0.679693
0.680679
0.681500
0.689713
0.679858
0.679858
0.680679
0.680515
0.679858
0.680022
0.681007
0.678543
0.694149
0.679201
0.651440
0.654889
0.656368
0.655054
0.655382
0.656696
0.657025
0.656696
0.655382
0.656368
0.657353
0.658010
0.658175
0.670330
0.663924
0.663924
0.664088
0.664745
0.665731
0.666881
0.671809
0.666224
0.668359
0.667373
0.665731
0.666388
0.666059
0.666881
0.635835
0.633699
0.600025
0.671973
0.672630
0.672630
0.673287
0.673451
0.674108
0.647005
0.636985
0.641584
0.676572
0.676901
0.677065
0.676737
0.685607
0.677229
0.678051
0.678379
0.677886
0.678379
0.679036
0.681007
0.679365
0.683471
0.670495
0.679365
0.678379
0.677886
0.678051
0.670987
0.682322
0.676079
0.629264
0.681172
0.681664
0.681664
0.681829
0.681993
0.681993
0.682486
0.682322
0.684128
0.684457
0.683964
0.683636
0.686100
0.685771
0.688071
0.685771
0.685278
0.685278
0.686264
0.690535
0.681993
0.681829
0.681500
0.682157
0.681993
0.682322
0.681993
0.682486
0.682979
0.682486
0.682650
0.683800
0.682322
0.682814
0.683800
0.683471
0.683636
0.632714
0.645691
0.648647
0.684785
0.685114
0.684785
0.684293
0.684457
0.684785
0.684621
0.684457
0.684785
0.685114
0.677886
0.676408
0.684293
0.685607
0.682157
0.684621
0.684621
0.684128
0.683964
0.682157
0.681664
0.683143
0.674601
0.683636
0.681007
0.682157
0.682650
0.682814
0.676079
0.682322
0.681664
0.682157
0.682486
0.682650

Kurve 10

0.005225
0.004568
0.006868
0.005061
0.000954
0.000954
0.000790
0.005554
0.005882
0.006211
0.006539
0.006539
0.007525
0.007196
0.006703
0.007032
0.008018
0.008018
0.001118
0.009167
-0.001346
0.002925
0.004897
0.004568
0.003418
0.003747
0.002268
0.008182
0.007525
0.007689
0.008018
0.007853
0.007525
0.007032
0.046127
0.007853
0.007525
0.007525
0.007196
0.007853
0.008346
0.008182
0.010482
0.005718
0.011139
0.008839
0.007032
0.007361
0.008018
-0.022864
0.006375
0.006375
0.008510
0.009496
0.009989
0.008839
0.008675
0.009824
0.006375
0.008510
0.008675
0.008839
0.008675
0.008182
0.007525
0.027565
0.006703
0.006703
0.006703
0.006868
0.007361
0.008182
0.007853
0.009003
0.007853
0.007032
0.006539
0.006539
0.006375
0.007196
-0.012023
0.007196
0.007689
0.002433
0.006046
0.006375
0.005718
0.005554
0.005718
0.000297
0.010317
0.005225
0.005225
0.006211
0.005718
0.005389
0.022637
0.006211
0.006539
0.007196
0.006375
0.006703
0.007196
0.007032
0.005718
0.007853
0.005389
0.005554
0.006046
0.006375
0.006539
0.004568
0.007032
-0.013008
0.006703
0.006539
0.006703
0.006703
0.006703
0.006703
0.005718
0.007689
0.006539
0.007853
0.008510
0.008346
0.007689
0.007361
0.006046
0.007196
0.006211
0.005554
0.005718
0.006868
0.017052
0.041856
0.006703
0.005718
0.006539
0.006703
0.006046
0.005882
0.006046
-0.043069
0.006211
0.006211
0.007361
0.007525
0.007196
0.007361
0.007525
0.007689
0.006211
0.006046
0.005718
0.005718
0.007525
0.007196
0.007032
0.006868
0.008510
0.007196
0.007032
0.005389
0.005554
0.011467
-0.004631
0.004568
0.010974
-0.002495
0.000626
0.000461
0.000461
0.000790
0.006211
0.006375
0.007689
0.007689
0.005061
0.006539
0.006868
0.007361
0.007196
0.004075
0.009989
0.004239
0.004897
0.006046
0.005389
0.005389
0.007689
0.008018
0.007196
0.007032
0.006539
0.007196
0.052862
0.039721
0.039556
0.011303
0.005061
0.005225
0.005225
0.005389
0.005061
0.002761
0.005225
0.006211
0.001283
0.007196
0.004732
0.005554
0.006375
0.006868
0.003747
0.006375
0.006046
0.006211
0.006375
0.006211
0.005554
0.009824
0.006539
0.004404
0.004239
0.003418
0.004239
0.006868
0.006539
0.006375
0.006375
0.006211
0.006868
0.006539
0.005882
0.006375
0.001447
0.017709
0.011467
0.012453
-0.029270
-0.019743
-0.023193
-0.021714
-0.019907
0.008675
0.009003
0.007853
0.011139
0.011303
0.010974
0.021980
0.044648
0.049741
0.070766
0.083908
0.097706
0.112161
0.123331
0.137458
0.150435
0.163247
0.176388
0.189201
0.200207
0.211048
0.221725
0.228953
0.243572
0.253264
0.263284
0.273797
0.282831
0.290388
0.301558
0.310428
0.319462
0.282339
0.334082
0.341967
0.349523
0.357407
0.364471
0.371863
0.376955
0.381718
0.385004
0.390424
0.398638
0.401923
0.410957
0.414735
0.418678
0.457937
0.428862
0.434611
0.439704
0.444796
0.450381
0.404880
0.459251
0.465986
0.470585
0.475349
0.478963
0.482741
0.487012
0.490954
0.486519
0.503274
0.501795
0.506888
0.511487
0.514772
0.517072
0.520686
0.523807
0.526764
0.529720
0.534484
0.536291
0.537441
0.541547
0.543354
0.555510
0.538591
0.552224
0.554031
0.557152
0.560109
0.560438
0.564216
0.562573
0.565366
0.568322
0.562245
0.576043
0.577028
0.580478
0.581135
0.575714
0.567994
0.572265
0.570951
0.573086
0.574236
0.579328
0.579492
0.580971
0.563230
0.566515
0.560930
0.563723
0.565530
0.567830
0.570786
0.578999
0.583763
0.583763
0.584913
0.587377
0.562245
0.591812
0.593783
0.594769
0.597561
0.598711
0.596904
0.601011
0.603803
0.604296
0.605939
0.605610
0.609224
0.610867
0.612509
0.613002
0.622694
0.612838
0.616287
0.616287
0.616287
0.619737
0.619408
0.619901
0.620723
0.621872
0.625486
0.625322
0.626308
0.626965
0.627786
0.629100
0.629921
0.630414
0.631400
0.632385
0.633042
0.633699
0.634521
0.630907
0.632221
0.632714
0.633535
0.635506
0.636328
0.637970
0.637970
0.638627
0.637970
0.639284
0.643391
0.635506
0.640434
0.640270
0.641091
0.641420
0.642077
0.646676
0.644541
0.643719
0.645362
0.645691
0.646183
0.644377
0.646183
0.646183
0.648647
0.649140
0.649304
0.649797
0.653411
0.648483
0.648812
0.651440
0.650947
0.650947
0.651604
0.651933
0.652590
0.703183
0.666552
0.661953
0.658010
0.661131
0.661296
0.661789
0.660967
0.661789
0.682979
0.655054
0.655218
0.655382
0.656039
0.656368
0.629757
0.619901
0.617602
0.659653
0.659817
0.660146
0.660803
0.658339
0.661460
0.658339
0.663267
0.658503
0.660146
0.662446
0.662774
0.662938
0.683964
0.699405
0.663103
0.664088
0.664088
0.664910
0.664910
0.665238
0.665402
0.665731
0.662774
0.666224
0.666881
0.666552
0.666224
0.666552
0.663924
0.663431
0.664910
0.664417
0.664745
0.665074
0.665074
0.663924
0.663267
0.665895
0.665238
0.665567
0.665895
0.665895
0.666388
0.666388
0.665238
0.673780
0.664417
0.663431
0.664417
0.664745
0.665074
0.665074
0.674108
0.649304
0.646348
0.647498
0.647826
0.648647
0.648976
0.647169
0.654725
0.651933
0.652097
0.652754
0.653740
0.654068
0.654725
0.607910
0.656039
0.656368
0.656696
0.657025
0.657353
0.657518
0.657846
0.660967
0.658668
0.659817
0.660474
0.660146
0.660803
0.660967
0.661131
0.683143
0.660967
0.661789
0.661460
0.661460
0.661624
0.662281
0.652425
0.663924
0.663595
0.663760
0.664417
0.664417
0.664581
0.664745
0.665238
0.666059
0.665567
0.665731
0.666552
0.666388
0.666388
0.666552
0.675422
0.663595
0.668688
0.667373
0.667373
0.667209
0.667538
0.667538
0.676079
0.667373
0.668195
0.669016
0.668688
0.669180
0.669016
0.669345
0.666716
0.669180
0.669345
0.669673
0.669837
0.670002
0.670002
0.670002
0.667209
0.670659
0.670987
0.671152
0.671316
0.671644
0.671316
0.676079
0.671644
0.671973
0.672137
0.671973
0.671973
0.671973
0.671973
0.672301
0.721088
0.713203
0.671316
0.670823
0.670987
0.670987
0.671316
0.669180
0.678872
0.674765
0.674437
0.674930
0.674765
0.674601
0.674765
0.624172
0.625979
0.669345
0.669509
0.669016
0.668852
0.667702
0.670823
0.667866
0.707782
0.660967
0.654889
0.654561
0.653083
0.653247
0.653740
0.703347
0.654232
0.654561
0.655218
0.655546
0.656204
0.656368
0.654561
0.663760
0.659653
0.660474
0.660803
0.661460
0.661624
0.662117
0.662117
0.659160
0.661953
0.663595
0.664088
0.664417
0.665074
0.672301
0.663760
0.667373
0.658996
0.662938
0.663595
0.663760
0.663760
0.663924
0.672958
0.707125
0.707125
0.705154
0.704169
0.702033
0.665238
0.649962
0.627950
0.626965
0.630250
0.631892
0.633207
0.634356
0.625486
0.673780
0.673616
0.674601
0.673944
0.674437
0.674601
0.674765
0.675587
0.667538
0.666552
0.673287
0.668031
0.664252
0.662774
0.660967
0.659982
0.659489
0.659817
0.659653
0.659489
0.659653
0.659653
0.660639
0.660803
0.664088
0.663760
0.665567
0.666059
0.665731
0.666388
0.660146
0.664088
0.664745
0.663760
0.664910
0.665238
0.665895
0.666224
0.666552
0.665731
0.669509
0.668852
0.666881
0.668195
0.668523
0.668852
0.668852
0.669180
0.675587
0.661624
0.666716
0.667045
0.667373
0.667702
0.668688
0.669509
0.667045
0.668195
0.667866
0.668195
0.668359
0.621215
0.635178
0.636492
0.604953
0.677229
0.677229
0.677394
0.677722
0.677558
0.678215
0.678379
0.677229
0.679693
0.677394
0.677394
0.677558
0.677065
0.677229
0.685278
0.677065
0.677558
0.677229
0.677722
0.677722
0.678215
0.676244
0.675422
0.675094
0.675094
0.675587
0.675258
0.679529
0.678872
0.679036
0.679365
0.679858
0.679201
0.680515
0.680186
0.680186
0.701212
0.679529
0.679529
0.679693
0.681664
0.669016
0.671809
0.671809
0.671480
0.672301
0.680350
0.683800
0.681993
0.681336
0.681829
0.681664
0.677394
0.679693
0.680679
0.681007
0.681993
0.673451
0.680186
0.679036
0.680022
0.681336
0.678708
0.676572
0.676079
0.676572
0.677229
0.702855
0.679529
0.679529
0.679693
0.680022
0.678872
0.683143
0.682322
0.681172
0.681007
0.681993
0.679858
0.679036
0.678872
0.678379
0.678543
0.657846
0.677229
0.677229
0.678708
0.679693
0.656696
0.677394
0.677558
0.677722
0.679036
0.673616
0.678215
0.678543
0.678379
0.678543
0.678708
0.722895
0.720266
0.717638
0.715667
0.724373
0.674930
0.675258
0.675094
0.675094
0.676408
0.673780
0.679201
0.677722
0.676572
0.677394
0.678051
0.633371
0.675258
0.678051
0.679036
0.629100
0.677065
0.677394
0.677558
0.677722
0.670987
0.683964
0.677229
0.679693
0.680350
0.679858
0.729137
0.717310
0.716981
0.676079
0.676244
0.678708
0.667538
0.672137
0.670987
0.673287
0.676244
0.681007
0.679036
0.677558
0.678215
0.678872
0.627457
0.640927
0.640927
0.645362
0.680843
0.681007
0.682157
0.682814
0.683471
0.682814
0.641420
0.645855
0.649140
0.683307
0.683307
0.688399
0.676572
0.680843
0.680679
0.679529
0.679036
0.686264
0.673123
0.674601
0.674765
0.683471
0.687742
0.686100
0.685114
0.684950
0.685114
0.647333
0.647333
0.643555
0.624665
0.685935
0.685935
0.685935
0.686428
0.686757
0.686100
0.685278
0.685278
0.681336
0.666388
0.665731
0.675094
0.665402
0.666388
0.666881
0.666388
0.667045
0.667866
0.716324
0.706140
0.702033
0.667209
0.666881
0.667045
0.666881
0.667538
0.668031
0.666881
0.668852
0.668523
0.666059
0.683143
0.678215
0.678379
0.679365
0.679365
0.679201
0.651933
0.668852
0.669509
0.670002
0.669673
0.670002
0.670166
0.671316
0.669345
0.669509
0.669673
0.670659
0.673780
0.703840
0.672137
0.673944
0.671973
0.671809
0.672137
0.671973
0.672466
0.671644
0.671973
0.671644
0.670330
0.682322
0.680843
0.679858
0.679529
0.679529
0.678872
0.633207
0.639613
0.638627
0.622529
0.624665
0.649633
0.687906
0.669673
0.673451
0.671644
0.635835
0.636985
0.638463
0.645198
0.638956
0.641420
0.640927
0.641256
0.643062
0.643555
0.644377
0.645691
0.643555
0.652590
0.599861
0.611195
0.651276
0.628771
0.630086
0.630414
0.632221
0.630578
0.632878
0.635835
0.637313
0.638792
0.639449
0.643227
0.638956
0.642077
0.641256
0.641584
0.642734
0.644541
0.646019
0.693163
0.692834
0.647333
0.648319
0.648812
0.649633
0.650619
0.651604
0.651933
0.652754
0.653740
0.653575
0.655054
0.655382
0.656368
0.656532
0.657189
0.656204
0.657846
0.658668
0.658996
0.660146
0.660310
0.660146
0.663103
0.661460
0.661624
0.661624
0.661789
0.662610
0.663431
0.663924
0.672137
0.663431
0.664252
0.664252
0.663267
0.664088
0.664910
0.665402
0.660967
0.665567
0.666388
0.666552
0.666716
0.666716
0.667373
0.667866
0.662774
0.671480
0.665731
0.666552
0.667702
0.667702
0.667373
0.677886
0.669016
0.668688
0.666059
0.666059
0.666388
0.667373
0.668195
0.668359
0.668031
0.669673
0.669837
0.669509
0.670166
0.670987
0.671316
0.664745
0.670987
0.671644
0.671973
0.672137
0.671809
0.671316
0.672137
0.662281
0.673944
0.673616
0.673780
0.674765
0.675094
0.674601
0.674437
0.675587
0.675422
0.674930
0.669180
0.658668
0.656696
0.657353
0.657682
0.659160
0.658010
0.658175
0.658339
0.657846
0.659489
0.660146
0.658339
0.660803
0.659325
0.638299
0.640763
0.641748
0.641748
0.642241
0.644212
0.644869
0.645362
0.646019
0.647005
0.646512
0.646841
0.647169
0.650126
0.649469
0.627129
0.629100
0.630414
0.632221
0.634028
0.635506
0.638135
0.638135
0.639777
0.638135
0.638463
0.639777
0.641748
0.636656
0.645691
0.650126
0.647990
0.651933
0.653247
0.653411
0.653904
0.654725
0.651440
0.652590
0.655218
0.655546
0.656861
0.656861
0.656532
0.658503
0.657518
0.662610
0.662446
0.662281
0.662774
0.663595
0.666881
0.705647
0.660803
0.660474
0.660474
0.661296
0.661296
0.662281
0.655711
0.663267
0.661624
0.663760
0.664910
0.665238
0.665731
0.666224
0.666552
0.661296
0.667866
0.665895
0.667209
0.669016
0.668852
0.668688
0.696612
0.669345
0.670002
0.670330
0.670659
0.671152
0.671644
0.676572
0.671316
0.679036
0.671316
0.672630
0.672630
0.672958
0.673287
0.661789
0.633699
0.632550
0.676572
0.676737
0.677558
0.677722
0.678215
0.677394
0.677722
0.679036
0.680022
0.681336
0.681500

