Ladekurvenmessung
Zeit: 2018_05_04 09.55.14
Info: FVA3, v = 0.248, T = 23, F = 20, h = 198.9
Ladewiderstand[Ohm]: 1012700
Störkapazität[pF]: 0.000000
Entladezeit[ms]: 200
Abtastrate[Hz]: 250000
Anzahl der Messwerte: 2500.000000
Verzögerung[ms]: 3
Ladespannung[V]: 0.200000
	Kurve_1	Kurve_2	Kurve_3	Kurve_4	Kurve_5
0	-0.000183	0.004255	0.000967	0.002282	0.003761
1	0.003926	0.004583	0.006227	0.003433	-0.000512
2	0.002775	0.00031	0.00409	0.005405	0.000146
3	0.002447	0.001789	0.003926	0.004419	0.002118
4	0.008199	0.001625	0.00409	0.00146	0.00294
5	0.006556	0.002282	0.002447	0.00146	0.000967
6	0.004419	0.005241	0.003268	0.001954	0.003926
7	0.003433	0.00409	-1.9e-05	0.000803	0.003926
8	0.006227	0.003597	-1.9e-05	0.002118	0.005898
9	0.00294	0.003597	0.001132	0.002282	0.00294
10	0.002118	0.001296	-0.000183	-0.000183	0.003597
11	0.003268	0.003597	0.00294	0.002775	0.004419
12	0.004583	0.002118	0.001296	0.00146	0.00294
13	0.000146	0.002118	0.000967	0.005405	0.002775
14	0.00294	-0.001991	0.001132	0.001789	0.002447
15	0.001625	0.001132	0.002282	0.00409	0.004583
16	0.001954	0.002282	-0.001991	0.005569	0.001954
17	0.001132	0.00294	0.001625	0.003926	0.003761
18	0.000146	0.001296	0.003761	0.002447	0.000639
19	0.003433	0.003433	-1.9e-05	0.003104	0.002447
20	0.00031	0.002282	0.001296	0.003104	0.001954
21	0.00146	0.003104	-0.000183	0.001954	-0.000347
22	0.003761	0.003104	0.003597	0.002611	0.002447
23	0.003926	0.003268	-0.00347	0.000474	0.000639
24	0.000967	0.002118	0.000146	0.002611	-0.001991
25	0.00294	0.001132	0.001296	-0.000512	0.003104
26	-0.000512	0.003268	-0.000676	0.00031	0.001625
27	0.001954	0.00294	0.00031	-0.002155	0.000803
28	-0.001169	0.005076	0.005076	0.002282	0.00146
29	0.000146	0.004912	-0.000347	-0.003306	0.000474
30	-0.002484	0.00146	-0.000512	0.00031	-0.001662
31	0.002118	-1.9e-05	-0.000183	-0.000676	0.003104
32	-0.00347	0.001954	0.004583	0.004912	0.003268
33	-0.000841	-1.9e-05	0.002775	0.005241	0.000146
34	0.00146	0.001625	0.000474	0.006391	0.000474
35	0.000474	-0.003306	0.002775	0.007049	0.000146
36	-1.9e-05	-0.001991	-0.001662	0.002447	0.003104
37	0.002118	0.001132	0.000474	0.002118	0.001789
38	0.00294	0.002775	0.001132	-0.000841	0.000474
39	0.000803	0.001954	0.002611	0.000639	-0.000676
40	0.002118	-0.000512	-0.000512	0.000967	0.003926
41	-0.000676	0.001132	-0.000183	0.001789	-0.000183
42	-0.001005	0.000803	0.002611	-0.000347	0.001296
43	-0.002484	0.003926	0.002118	0.001296	0.001625
44	-0.001005	-0.003963	0.004748	-0.00347	0.00146
45	-0.00232	0.002118	0.004748	-0.000676	0.00146
46	0.00031	0.000146	0.001296	-1.9e-05	0.00031
47	-0.000512	0.001625	0.004255	-0.003799	0.001296
48	-0.002484	0.000146	0.002611	-0.002977	0.002611
49	-0.002155	0.001789	0.00031	-0.000676	0.003268
50	-0.002813	-0.000512	0.00409	0.001132	0.001954
51	0.000803	-0.000841	0.000146	0.001954	0.003597
52	-0.001005	-0.001662	0.002611	0.000474	0.005405
53	-0.000347	-0.000183	0.000967	0.00146	0.003268
54	-0.001169	0.00031	0.002447	0.002282	0.000967
55	0.005898	-1.9e-05	0.002282	-0.000347	0.002611
56	-0.003142	0.00146	0.001296	0.002282	-1.9e-05
57	-0.002155	0.003104	0.000474	-0.000676	0.000967
58	-0.000183	0.002118	0.002611	0.000967	-0.004128
59	0.001296	0.003926	0.000146	-0.000676	-0.00347
60	-0.000183	0.001132	-0.000347	-0.000347	0.001132
61	-0.000183	0.000146	-0.000512	-0.001005	-0.00232
62	-0.000841	0.001789	-0.002813	-0.000347	0.003268
63	-0.000183	0.000146	-0.001991	-0.003635	0.001296
64	0.000146	0.00031	-0.002155	-0.004128	0.001789
65	-0.001169	0.000803	-0.001169	-0.002648	-0.000347
66	0.00146	0.00031	-0.000676	-0.002155	0.00146
67	0.000146	-0.001334	0.00031	0.000146	0.000967
68	0.00146	0.002775	-0.003963	-0.000183	0.000474
69	0.000474	-0.001662	-0.000183	-0.000512	-1.9e-05
70	0.001789	-0.000183	-0.003635	-0.000183	0.001132
71	-0.000183	-0.000676	-0.003306	0.00294	-0.000347
72	0.002447	-0.000183	-0.004456	-0.001498	0.000474
73	-0.001334	-1.9e-05	0.000639	0.001625	0.00031
74	0.003926	0.000146	-0.001334	-0.000676	-1.9e-05
75	-0.00232	-0.001005	-0.000841	0.001296	0.000639
76	-0.000183	-0.00232	-0.000841	0.001789	-0.000183
77	0.002775	0.00031	0.000639	-0.000841	0.000146
78	-0.001498	-0.000183	0.004748	-0.000676	-0.000512
79	0.002282	0.003268	0.004748	0.000803	0.002775
80	-0.002155	0.003597	0.006556	0.000803	-0.000512
81	0.00146	0.005076	0.000639	-1.9e-05	0.001132
82	-0.002484	0.003433	-1.9e-05	-0.001005	0.003104
83	0.000967	0.002118	0.002282	-0.001334	0.002775
84	-0.001334	0.001132	0.00031	0.00031	0.000146
85	0.002447	0.001296	-0.001005	-0.004128	-0.001991
86	-0.002648	-0.003635	0.000803	0.001789	0.001625
87	-0.004785	-0.000676	-1.9e-05	0.001789	0.00146
88	0.000639	-0.000676	0.000474	0.003597	-0.000183
89	0.00146	0.00146	0.000474	0.002611	0.00031
90	0.000803	0.00409	-0.000183	0.005241	-0.000183
91	0.006391	0.003268	-0.002813	-0.002155	0.000474
92	0.006391	0.001625	-0.000512	0.001296	0.000474
93	0.001132	0.003597	-0.000347	-0.004785	0.000803
94	0.002118	0.008692	-0.000183	0.001296	0.000803
95	0.002775	0.003433	0.000146	-0.003306	0.000146
96	-0.000183	0.008857	0.005569	-0.001991	0.001954
97	0.000146	0.004419	0.004583	0.000474	0.001625
98	-0.000512	0.005569	-0.000183	-1.9e-05	0.002611
99	0.000146	0.007542	0.001954	0.000146	0.002447
100	-0.000676	0.002775	0.000146	-0.001334	0.000474
101	-0.003142	-0.002155	0.002775	0.004419	0.00294
102	0.001625	0.003268	-0.000841	-0.000841	0.004748
103	-0.001334	0.001954	0.000146	0.000803	0.001625
104	-0.002484	0.002775	-0.000512	-0.000512	0.002447
105	-0.002977	0.00294	-0.000183	0.002447	0.003597
106	0.002282	0.003926	0.000146	0.00031	0.000474
107	0.010993	0.004748	0.000474	0.001789	0.001132
108	0.003104	0.000639	0.000474	0.002282	0.001789
109	0.001132	0.00294	0.000146	0.002611	0.00031
110	0.005076	-0.004292	0.000474	0.002447	0.00294
111	0.001954	0.002775	0.000146	0.000639	0.000474
112	0.00031	0.000803	-0.000183	0.004255	0.00031
113	0.000639	0.002775	-0.000512	0.001296	0.002447
114	0.00146	0.003597	-0.000347	0.001954	-0.001169
115	-1.9e-05	0.00409	-0.000183	0.00294	0.000474
116	0.001132	-0.000183	0.00031	0.002447	-0.000347
117	0.005734	0.004255	-0.000841	-0.001334	0.001625
118	0.001789	0.002447	0.000146	0.000967	0.00146
119	0.004583	0.001625	0.00031	-0.001005	0.001789
120	-0.001334	0.004255	0.00031	0.001789	0.001132
121	0.001789	0.000967	0.000146	0.00146	0.002775
122	0.000639	0.002611	-1.9e-05	-0.001005	0.002118
123	0.000967	-0.00232	-0.000183	0.004583	-0.000512
124	0.002447	0.001625	-0.000347	0.002775	0.000803
125	0.000967	0.002611	-0.000347	-0.000183	0.000803
126	-0.000841	0.000639	-0.000347	0.001625	-0.000183
127	0.001789	-0.001991	-1.9e-05	0.001954	-0.000512
128	0.003597	0.001296	-1.9e-05	-0.001498	0.002447
129	0.001789	0.00146	0.00031	0.00146	0.00146
130	0.002447	0.001954	0.00031	0.001625	0.00294
131	-0.000347	0.001789	0.000639	0.000967	-0.001991
132	0.002775	0.003104	0.000474	-0.002977	0.004255
133	-0.003306	0.002282	0.000474	0.001296	-0.001334
134	-0.003306	0.002611	-0.000347	0.000803	0.000146
135	0.000146	0.001132	0.000474	0.001954	-0.001991
136	0.002282	-0.000676	-0.001991	0.001954	-0.002813
137	-0.000841	-0.001498	-0.000183	-0.000841	0.00031
138	-0.001169	-0.001334	-0.000183	-0.000512	0.00031
139	0.00031	0.000803	-0.005771	0.000967	0.001132
140	0.000146	-0.004128	0.005734	-0.000512	0.000639
141	0.00031	0.00146	0.001132	0.00294	-0.000183
142	0.002282	-0.002484	0.002775	-0.002155	-0.000512
143	-0.000183	-0.001334	0.001789	0.000146	0.005898
144	0.000803	0.000474	-0.000183	0.002118	0.001132
145	0.001954	0.001625	-1.9e-05	-0.00347	-0.00232
146	-0.003306	0.002118	-0.000512	-0.003142	-0.000841
147	-0.002813	0.003268	-0.001662	-0.000512	0.001789
148	-0.006922	0.002118	0.002611	0.002118	-1.9e-05
149	-0.002648	0.00409	-0.002484	-0.000676	-0.002813
150	-0.001991	0.001296	-0.003142	-0.000841	0.000146
151	-0.001827	-0.002977	-0.002977	-0.000841	0.002775
152	-0.004292	0.00031	0.001954	0.001625	-0.000676
153	0.000146	-0.000512	-0.002484	0.000474	0.000639
154	0.000639	-0.000183	-0.000183	-0.001498	0.001789
155	-0.000347	-0.002155	0.001296	0.000639	0.000967
156	0.000803	-0.001498	-0.001827	0.000474	0.000639
157	-0.000183	-0.000183	0.000474	-0.000347	0.00146
158	0.002447	0.003761	-0.000512	0.00294	0.000474
159	0.001625	-0.000676	0.00031	-1.9e-05	0.003926
160	-0.001169	-0.001827	0.000803	0.000967	0.00294
161	0.001132	0.004748	-0.002648	0.001625	0.001789
162	0.001789	0.001132	-0.001827	-0.002648	0.001625
163	-0.001498	0.000146	0.000474	0.00294	-0.000347
164	0.002118	0.003433	-0.000347	0.000967	0.001132
165	-0.000676	0.003268	0.000967	-0.000183	-0.001334
166	0.003761	0.000474	-0.002484	0.002447	-0.000512
167	0.000474	0.002118	0.000639	0.000474	-0.000512
168	0.005241	0.000639	-0.000841	0.000639	-0.000512
169	0.002775	0.002611	-0.00347	0.000803	0.001132
170	0.002118	0.001132	-0.004785	-1.9e-05	-1.9e-05
171	0.00031	0.002447	-0.004785	0.000639	-0.000512
172	0.001132	-0.002484	-0.001005	-0.000347	0.00146
173	-0.000512	0.002118	-0.002977	-0.000512	0.002447
174	-0.001334	-0.002484	-0.004456	0.002775	-0.000183
175	0.000803	0.003597	-0.001991	0.001132	0.003597
176	0.001296	0.000803	0.00294	0.001789	-0.000676
177	0.000474	0.00031	0.00031	-0.001827	0.000474
178	-0.000183	-0.000676	0.000146	0.002775	-0.002648
179	0.004255	0.000639	-0.001334	-0.001334	-0.000183
180	-0.000512	0.00146	-1.9e-05	0.003268	-0.000183
181	0.001132	0.001789	-0.000512	-0.001498	-0.001662
182	-0.001498	0.000474	0.003433	0.002118	-0.002484
183	0.000967	-0.000183	-0.000183	0.003926	-0.000512
184	0.001954	0.007213	-0.000841	0.000146	0.000146
185	-0.000841	-0.004949	0.000803	0.001296	-0.001991
186	-0.000512	-0.000676	-0.003142	-0.001169	-1.9e-05
187	-0.001169	-0.002484	-0.001827	-0.004292	-0.001334
188	-0.000183	0.000146	-0.006757	-0.000512	-0.002977
189	-0.005114	0.001132	-0.002484	0.000803	-0.001169
190	0.000803	-1.9e-05	-0.000512	-0.003142	0.00294
191	-0.002155	-0.001991	-0.000676	0.001954	0.000474
192	0.001625	-0.000676	-0.000347	0.000474	0.002447
193	-0.001498	-0.002648	0.000803	0.000639	-0.001169
194	0.000474	-0.000183	0.00031	-1.9e-05	0.003433
195	-0.00347	0.000967	0.000146	0.000803	0.00294
196	0.000474	-0.004128	0.00031	0.00031	-0.002155
197	-0.001005	-0.000347	0.000474	0.005076	-0.000676
198	0.003597	-0.000841	0.00031	-0.001827	0.000146
199	0.001789	-0.001498	0.00031	-1.9e-05	-0.00347
200	-0.000841	0.001132	-0.000512	0.000639	0.000146
201	-0.000347	0.001625	-0.000841	-1.9e-05	0.003433
202	-0.004128	-0.001662	0.00146	-0.000676	-0.004949
203	-0.002484	0.003104	-0.00347	-0.002155	-0.001991
204	-0.001827	0.002282	0.00031	0.000474	0.00031
205	-0.002155	-0.001498	-0.000512	0.000803	-0.000347
206	-0.00232	0.002118	-0.001991	0.000639	0.000474
207	-0.00232	-0.000183	-0.001005	-1.9e-05	0.001132
208	-0.002648	-0.000841	-0.000841	0.002611	0.000967
209	0.000146	0.000146	-0.001991	0.001789	0.003926
210	-0.001498	-0.001005	-0.00232	0.00146	-0.002813
211	-0.000676	0.002447	-0.00232	0.006062	-0.000841
212	-0.000512	0.004255	-0.001827	0.003597	0.001625
213	0.000803	0.001132	-0.001334	0.001625	-0.002648
214	-0.001827	0.001625	0.000146	0.00294	0.00146
215	0.002447	-0.000512	0.000146	-0.001991	-0.000512
216	0.002118	0.002282	-0.000512	0.000803	0.000967
217	0.000474	-0.000347	-0.000676	-0.000676	0.00146
218	-0.000347	0.000803	-0.001005	0.002447	0.002118
219	-0.002648	0.001296	0.000803	0.001132	0.000146
220	-0.004949	0.001625	0.001625	0.001625	0.002775
221	-0.000347	0.000639	-0.001005	0.00146	-0.002484
222	-1.9e-05	-0.000183	-0.000347	0.00146	-0.000512
223	-0.002813	0.000803	0.001132	0.000474	-0.000183
224	0.000474	0.002118	-0.000183	-0.000841	0.000803
225	-0.003306	0.000474	-0.00232	-0.000183	0.00031
226	0.00031	0.003433	-0.004292	0.000146	0.00294
227	-0.000676	0.00031	0.001132	0.001789	0.00294
228	0.001132	-0.003142	-0.003963	-0.000183	-1.9e-05
229	0.000146	0.00031	-0.002977	0.002775	0.000967
230	-0.000183	-0.003799	-0.000347	0.001132	-0.000183
231	-0.000841	0.001789	-0.002155	0.005405	0.002447
232	0.001954	0.004583	0.00031	0.004583	-0.001991
233	-0.000347	-0.001005	0.00146	0.002775	0.00031
234	0.000639	-0.001827	-0.001827	0.001296	-1.9e-05
235	0.002447	-0.001334	0.000146	0.000474	0.000639
236	-0.001169	-0.002977	-0.002813	0.002447	-0.005114
237	-0.001005	0.002611	-0.004785	0.004419	0.000967
238	-0.002648	-0.000841	0.002282	0.003433	-0.001498
239	0.000803	0.001789	-0.003799	0.000803	-0.001334
240	-0.001169	-0.00232	-0.001991	0.004912	-0.001498
241	0.001954	-0.00232	-0.00232	0.000146	-0.000347
242	-0.001169	-0.000183	-0.005443	0.002447	0.000967
243	0.000803	-0.00232	-0.002977	-0.001498	0.001954
244	0.00294	-0.002813	-0.000183	0.000803	0.000803
245	-0.00232	-0.000183	-0.004292	-0.001169	0.001296
246	0.004419	0.001132	0.001789	0.000967	0.000146
247	0.001296	0.000146	0.00409	-0.001334	0.001296
248	-0.000183	0.002118	-0.002813	0.000803	0.003268
249	-0.001169	-0.001169	0.001625	0.002118	-0.002977
250	-0.005278	0.003597	-0.000512	0.002611	0.003268
251	-0.003799	0.00146	-0.003306	0.004419	0.003104
252	0.000639	0.000639	0.000146	0.003268	-0.000347
253	-0.000841	-0.002813	0.002282	0.002118	-0.001827
254	-0.000183	0.002447	-0.002648	0.001954	-1.9e-05
255	0.000967	0.00031	0.002611	0.003926	-0.002813
256	0.000803	-0.000841	-0.000347	-0.000347	-0.001169
257	0.000803	0.00409	0.00294	0.002611	-0.000676
258	-0.001005	-0.000183	-1.9e-05	0.001625	-0.000512
259	-0.001334	0.001789	0.000146	0.001954	0.001625
260	-0.000183	-0.001498	-0.000841	-0.002484	-0.001169
261	-0.001827	0.005076	-0.002977	-0.000347	0.00031
262	-0.001169	0.002611	-0.002648	0.005569	0.00146
263	-0.003635	0.000474	-0.001827	0.003268	0.003268
264	0.004583	-0.000676	-0.001662	0.002775	-1.9e-05
265	0.00031	0.001296	0.000803	0.003433	0.001954
266	-0.003306	-0.001498	0.003433	0.001132	-0.000183
267	-0.000183	-0.00232	-0.002484	-0.001334	0.001954
268	-0.000183	0.000967	0.000474	0.003104	0.001789
269	0.001954	0.002775	-0.001827	-0.000347	-0.000676
270	0.000967	0.000803	0.000474	0.003926	-0.00232
271	0.00146	0.004748	-0.000512	0.002447	-1.9e-05
272	-0.000183	0.000146	0.001789	0.000639	-0.001334
273	0.002611	-0.001498	-0.001169	0.002611	-0.001005
274	-1.9e-05	-1.9e-05	0.001789	0.00409	0.000146
275	0.000803	-0.001334	0.005898	0.001954	0.000146
276	-0.002813	0.000639	0.00031	0.002118	0.002118
277	-0.001169	-0.001991	0.00146	0.000146	0.001789
278	-0.002155	-0.000512	0.001954	-0.001005	0.001954
279	0.002447	0.003268	-0.002155	0.000474	0.000803
280	-0.001169	0.000474	-0.00232	0.000967	0.002118
281	-0.000841	-0.002484	0.00031	0.00146	-0.001005
282	0.000474	0.000639	-0.002977	0.000639	0.002282
283	-0.000841	0.00031	0.000803	-0.002813	0.000474
284	0.000474	-0.004621	-0.001005	0.001954	0.00146
285	-0.001334	-0.00232	-0.000676	0.001954	0.000803
286	0.001625	-0.001334	-0.002813	0.002611	-0.001498
287	-0.001827	0.002447	-0.001827	0.002447	0.000639
288	0.002775	-0.004949	-0.001005	-0.002648	-0.000183
289	0.000803	0.001954	-0.001005	-1.9e-05	-0.003799
290	0.001789	0.000967	0.000146	0.001296	-0.002484
291	0.001132	0.000146	-0.002648	-0.001005	-1.9e-05
292	-0.000183	-0.000347	0.007049	-0.001662	-1.9e-05
293	-1.9e-05	0.001625	-0.000676	0.001625	0.002447
294	-0.002648	0.001625	-0.000512	-0.004621	-1.9e-05
295	-0.00232	0.00146	0.000146	-0.000347	0.002775
296	-0.000676	0.000474	-0.001005	0.003104	0.000639
297	-0.001169	0.001954	-0.001498	0.000146	0.002447
298	0.003926	-0.002484	-0.001662	0.002282	-1.9e-05
299	0.002775	0.001132	-0.001827	0.002447	0.002775
300	-0.001169	0.001296	0.00031	0.00146	0.00146
301	0.002775	0.000967	-0.000841	0.001789	0.003761
302	-0.002155	0.003597	0.000474	0.006227	-1.9e-05
303	0.002118	0.000474	-1.9e-05	0.000803	0.00031
304	0.00031	0.003597	-1.9e-05	0.001954	0.001625
305	0.002282	0.000967	-0.000512	-0.000347	-0.000512
306	0.000803	0.00031	0.001132	0.004255	0.000474
307	0.001625	-0.000512	-0.000347	0.002775	0.000803
308	0.002611	0.002611	0.001954	0.003104	0.000803
309	0.000803	-0.001005	0.001954	0.001789	-0.002648
310	0.000474	0.002447	-0.001005	0.002611	0.001789
311	0.001296	-0.000676	0.002447	-0.000183	0.000146
312	0.000474	0.000967	-0.001005	0.00031	0.005734
313	-0.000841	-0.005771	0.001296	0.001132	0.000803
314	0.00294	0.00146	0.000146	-1.9e-05	0.001954
315	-0.003142	-0.001991	0.000146	0.004419	0.001132
316	0.001954	-0.002648	-0.001169	-0.000183	0.004583
317	-0.001498	-0.002155	0.001954	0.002282	-0.001169
318	0.000146	-0.001498	-0.001334	0.002611	0.003926
319	0.003761	-0.000676	-0.001498	-0.000512	0.001132
320	0.003433	0.00031	-0.004785	0.000967	-0.001334
321	-1.9e-05	0.003268	-0.000512	0.010993	-1.9e-05
322	0.00146	-0.001169	-0.001334	-0.000841	-0.000347
323	0.001625	-0.000183	0.000967	0.003433	-0.001169
324	0.00031	-0.002813	-0.000512	0.002775	0.000146
325	0.001296	-0.000347	0.001789	-0.000841	-0.004128
326	-1.9e-05	-1.9e-05	0.003761	0.002611	-1.9e-05
327	0.000474	-0.000183	-0.000183	-0.001498	0.003926
328	-0.000183	-0.001005	0.002118	0.001132	-0.001169
329	0.001789	-0.000841	-0.001662	-0.000183	0.001625
330	-0.000183	-0.001498	0.000474	0.000803	0.000639
331	0.002282	-1.9e-05	-0.001005	-0.001334	-0.002648
332	-0.001005	-0.000676	0.00146	0.003761	0.001625
333	-0.000676	-0.001334	-0.001334	-0.001827	0.001954
334	0.003104	-0.000512	0.000146	-0.000347	-0.000183
335	-1.9e-05	-0.000676	-0.001991	-0.00232	-0.000512
336	0.003433	0.004912	-0.003142	0.003433	0.001296
337	0.004255	-0.001498	-0.002813	0.000803	0.002118
338	0.003104	-0.000183	-0.000841	0.000803	0.002775
339	0.004748	-0.001991	-0.000183	0.005734	-1.9e-05
340	0.003268	-0.004621	-0.000347	0.004748	-1.9e-05
341	0.006062	-0.000512	0.002447	0.000967	-0.001169
342	0.00146	0.000639	0.003104	0.000146	-0.000183
343	-0.001498	-0.006264	0.003926	0.005734	-0.001169
344	-0.000347	0.003433	0.000474	-0.000841	0.000803
345	0.000967	0.000967	0.005405	-0.001498	-0.002813
346	-0.001498	0.001789	-0.000512	0.000803	-1.9e-05
347	-0.003142	0.000474	-0.001005	0.00146	-1.9e-05
348	-0.003306	-0.000183	-0.001662	0.000474	0.001954
349	-0.002813	0.000639	-0.004292	0.003104	0.000639
350	-0.001005	-0.00232	-0.001005	0.000146	0.002118
351	-0.003635	-0.000676	0.000146	0.003433	0.003926
352	0.000146	0.003104	-0.000841	0.001789	0.008035
353	0.001954	0.001789	-0.001169	0.003597	0.002118
354	-0.002648	-0.001498	0.000803	0.003597	-0.000183
355	-0.000183	0.001954	-0.000512	0.001789	0.001789
356	0.001789	0.002118	0.000967	0.001789	-0.002977
357	-0.001005	-0.001827	0.000146	0.001132	0.00031
358	-1.9e-05	-0.000512	0.001625	0.002775	-0.000347
359	0.004255	0.002282	-0.001005	0.001625	0.000474
360	-0.002155	0.000803	0.000474	0.00409	-0.000676
361	0.000639	0.001625	-0.001498	0.002118	0.002118
362	-0.002813	0.000639	0.001625	0.003597	0.003433
363	0.003104	-0.000512	0.000803	0.001296	-0.000676
364	-0.001991	-0.000841	0.001296	0.002118	-0.001005
365	0.002282	-0.000512	0.002775	-0.004128	0.000474
366	0.001132	0.000146	0.00031	0.00672	0.001296
367	0.003597	0.001625	-0.001498	-0.001498	0.000146
368	-0.00232	-1.9e-05	0.00146	0.001954	0.001296
369	-0.00347	-0.000347	0.003433	0.002611	-0.000512
370	-0.004128	0.000967	-0.001827	-0.001662	0.002775
371	-1.9e-05	-0.000347	-0.001169	0.004583	-0.000676
372	-1.9e-05	0.001625	-0.002648	0.004419	0.00146
373	-0.001005	-0.001169	0.000639	0.002611	-0.000841
374	0.003433	-0.001498	-0.002484	0.002118	-0.003635
375	-0.001005	-0.000841	-0.006757	0.001954	-0.003142
376	0.001954	0.001132	0.005405	-0.006757	-0.001662
377	-0.001005	-0.000183	-0.000512	-0.000183	-0.002155
378	0.002611	-0.000183	-0.003306	-0.000183	0.001132
379	-0.001334	-1.9e-05	-0.001991	-0.001827	-0.004785
380	0.000803	0.000803	0.003104	-0.001169	-0.000512
381	-0.001169	0.00146	-0.000841	-1.9e-05	-0.000512
382	-0.000183	0.000803	0.000146	-0.003799	-0.000347
383	-0.00232	-0.000183	-1.9e-05	0.002611	0.001132
384	-0.001005	0.000639	-0.001005	0.000474	-0.001169
385	-0.000676	0.005734	-0.002484	0.000639	0.00146
386	-0.001498	-0.000676	-0.001991	0.00031	0.002611
387	-0.001498	-1.9e-05	-0.001005	-0.011195	-0.000183
388	-0.000183	-0.001662	-0.000676	0.002447	-0.003142
389	0.00146	0.000146	-0.002648	0.003433	0.000146
390	-0.000676	-0.002648	0.00294	0.002447	-0.000183
391	0.000803	-0.000512	0.002282	0.000639	0.000146
392	0.003104	-0.001498	0.001296	0.004255	0.001954
393	-0.000841	0.000639	-0.001005	-0.001991	0.000803
394	0.001132	-0.002813	0.002775	0.001625	-0.000347
395	0.002282	0.001296	0.000803	0.001132	0.002447
396	0.00294	0.000474	0.000967	0.000474	0.000474
397	0.002447	-0.000512	-0.000183	-0.001498	-0.000841
398	-0.001827	0.006391	0.004912	-0.00873	0.000803
399	-0.001334	-0.002813	0.003104	-0.005114	-0.000676
400	-0.002813	0.002118	0.001625	0.001625	0.001954
401	-0.002977	-0.001662	0.001296	0.000803	0.001625
402	-0.004621	-0.002648	0.000967	-0.000347	0.004255
403	-0.000183	-0.000512	0.000474	0.001296	0.005569
404	0.00146	0.001132	-0.002155	0.000474	0.003433
405	-0.002155	-0.004128	0.001132	0.001789	0.00146
406	0.001625	-0.001334	-0.001662	0.002611	0.002118
407	0.000474	-0.001498	-0.000183	0.001789	0.003268
408	0.00294	-0.001005	-0.002977	0.000967	-0.000183
409	0.003104	0.000474	0.000474	-0.005771	0.00146
410	0.000967	-0.000841	-0.000347	-0.002648	0.000639
411	0.00409	-0.000183	0.000474	0.002118	-0.001005
412	0.002118	0.00146	0.000967	0.000146	0.003104
413	-0.000512	-0.002813	0.002611	0.002775	-0.005607
414	0.006884	0.003761	0.000967	0.001296	-0.002977
415	0.002118	0.005076	0.002447	0.004255	-0.000347
416	-1.9e-05	-1.9e-05	0.001625	0.006556	-0.000676
417	-0.002648	0.004912	-0.00232	0.00294	0.003104
418	-1.9e-05	0.00031	-0.001827	0.001132	0.00409
419	-0.000183	0.001789	-0.000183	0.002611	-0.002813
420	0.003104	-0.000183	0.00409	-0.001169	0.000474
421	0.004748	0.001296	-0.001827	-0.001169	-0.000183
422	0.002775	0.00294	0.000639	0.001954	-0.000347
423	0.003597	0.00146	-0.00232	0.00146	0.002775
424	-0.000512	-0.001169	-0.002155	0.000803	-0.000512
425	0.001296	0.000146	-0.003963	0.00031	0.000803
426	-0.000183	0.000639	-0.001827	0.003926	0.000967
427	0.002282	-0.000512	-0.000183	0.000803	0.000474
428	0.00031	-0.000841	0.000474	0.004748	-0.001005
429	0.003926	-0.00232	0.001132	-0.000347	0.003104
430	-0.000183	-0.000676	0.001625	0.002282	-0.001005
431	0.00146	0.000146	0.00146	-0.001498	-0.004621
432	0.002118	0.000474	0.00146	-0.002977	0.001789
433	0.00031	-1.9e-05	0.001789	0.001296	-1.9e-05
434	-0.001005	0.003104	0.00031	-0.003142	-0.002484
435	0.001296	-0.00232	0.001625	0.000803	-0.003142
436	-0.000841	-1.9e-05	-0.004128	0.002282	0.002118
437	-0.000512	0.002611	0.002118	0.000639	-0.002813
438	0.000639	-0.001498	-0.001334	0.001954	-0.000512
439	0.000474	-0.001334	-0.001991	0.000146	-0.00725
440	0.002611	0.001132	0.000967	-0.003306	0.007377
441	-0.001662	-0.002155	0.00031	-0.000512	-0.000676
442	0.002775	-0.003142	-0.001169	-0.000183	0.001625
443	-0.002648	-0.004456	-0.001991	-0.000512	0.000803
444	0.00146	-0.002484	0.00031	-0.000841	-0.000676
445	-0.002484	0.000967	0.000639	0.003597	0.003597
446	0.00146	-0.002484	0.001625	-0.001169	-0.001498
447	-0.000183	-0.000183	0.000146	-0.000841	0.002775
448	0.001132	0.003268	0.000639	0.002118	-0.000512
449	-0.000841	-0.002155	0.00146	0.001625	0.003761
450	-0.002977	0.00031	0.002447	-0.001662	-0.001005
451	0.001132	0.00294	-0.000512	0.001132	0.001789
452	-0.002648	0.000639	0.002447	0.001789	-0.004456
453	-0.006429	-0.002977	-0.001169	-0.000183	0.000474
454	0.000803	-0.002155	0.001789	-0.001991	0.002282
455	0.003597	0.000639	0.00031	-0.000841	0.001625
456	-0.003142	-0.001005	0.003597	0.003268	0.00146
457	0.002447	0.001132	0.00294	0.00294	0.00031
458	-0.000347	-0.001662	-0.001005	0.003104	0.002447
459	0.001132	0.003433	-0.001991	0.002775	0.001789
460	-1.9e-05	-0.002484	-0.001662	0.003268	0.002118
461	-0.000512	-0.00232	0.00031	0.003433	-0.000183
462	0.004419	0.000803	-0.001827	0.001954	0.003761
463	0.00031	-0.001169	-1.9e-05	0.002447	-0.005936
464	0.00146	0.002611	0.000967	0.003104	-0.001662
465	0.003433	0.001296	0.000639	0.001296	0.002282
466	-1.9e-05	0.00294	0.001296	0.00294	0.001789
467	-0.002813	0.001296	0.000474	0.002611	-0.001169
468	-0.000512	0.001132	-0.001334	0.00146	0.000967
469	-0.001498	0.005241	-0.000183	0.001296	-0.001334
470	-0.001005	-0.001827	-0.000841	0.004255	-0.000676
471	-0.00347	-0.003635	-0.001662	0.002447	0.000967
472	-0.001169	0.001296	-0.000676	-0.000841	0.001625
473	-0.000841	-0.001991	-0.000512	0.002775	-0.002648
474	0.001954	0.000803	-0.003306	0.00031	-0.001498
475	-0.002813	-0.000347	-0.001498	0.000639	0.000639
476	0.00146	-0.001498	0.000967	-0.000841	0.000967
477	0.00031	0.001296	-0.001334	0.000474	0.001132
478	0.000803	-0.001169	0.000803	0.00146	-0.000347
479	0.00146	0.001954	0.000639	0.000967	0.000967
480	-0.000183	-0.003306	0.001296	0.001296	0.001132
481	0.001296	0.001296	-0.00232	0.000803	0.000803
482	-0.001334	-0.001498	0.000803	0.003268	0.000967
483	-0.000676	0.000967	-0.000183	0.001625	0.001132
484	0.002447	-0.004128	0.000803	-0.001498	-0.010538
485	0.001296	-0.000183	-1.9e-05	0.000639	-0.000347
486	0.000146	0.000967	0.001789	0.003433	-0.007086
487	0.001789	-0.002155	-0.000512	-0.000676	-0.000841
488	0.001132	0.000639	0.001789	0.001954	-0.001334
489	0.001789	0.001296	0.000146	-1.9e-05	-0.006757
490	-0.00347	-0.002813	0.001789	-0.000183	0.00146
491	0.001296	-0.001498	-0.001334	-0.00725	0.000146
492	-0.000512	-0.000347	0.000803	0.001954	-0.000183
493	0.002447	-0.000841	-0.00347	0.001625	-0.001169
494	0.000803	0.000146	0.000146	-0.000512	0.00294
495	-0.001169	0.00031	0.000803	0.000639	-0.009551
496	0.001132	0.000803	-0.003142	0.000639	0.000967
497	-0.001498	0.000146	0.002775	0.00146	0.000639
498	-1.9e-05	0.000474	0.000146	0.000639	0.000803
499	0.003597	-0.000347	-0.001991	0.002447	0.000474
500	-0.001169	0.000146	-0.000183	0.00031	-1.9e-05
501	-0.001827	0.000803	0.001789	0.002775	-0.000183
502	0.003597	0.000146	-0.001005	-0.001005	0.000146
503	0.000639	0.000967	0.003268	0.003104	-0.004456
504	0.002447	0.000967	0.00146	0.00146	0.001296
505	0.002118	-0.000183	0.000639	0.003433	-0.003306
506	0.001789	0.001296	0.000967	0.000474	-0.00988
507	0.000474	0.001954	0.000146	0.004912	0.000474
508	-1.9e-05	-0.001498	0.00146	0.000639	0.000474
509	0.001132	-0.001334	-0.000512	-0.001169	0.001132
510	-0.003306	0.000639	-0.000183	-0.001334	0.000967
511	-0.001991	-0.000676	-0.000347	0.002447	0.001132
512	0.000967	-0.000512	0.001789	0.001132	0.000146
513	0.000803	0.000146	-0.003306	0.001296	0.003761
514	-0.000183	-0.004128	0.002775	0.003104	0.001296
515	-0.003142	-0.000183	-0.001662	0.004255	0.004748
516	-0.000183	-0.000512	0.001296	0.006227	0.003104
517	-0.000676	0.000474	0.002611	0.002775	-0.004949
518	-0.001169	-0.000183	0.003433	0.002118	-0.004949
519	0.002775	-1.9e-05	-0.000183	0.002611	0.00031
520	0.00146	0.000803	0.002282	0.00146	-0.002977
521	0.00146	0.000967	-0.000347	0.000474	-0.002977
522	0.001132	-0.000512	-0.000183	0.000146	0.001625
523	0.002611	-0.000347	0.000146	0.000146	0.000146
524	-1.9e-05	-0.000183	-0.002813	-0.002155	0.00409
525	-0.001005	-0.000676	-0.001498	0.001625	0.001132
526	0.000146	-0.000183	-0.003635	0.002775	0.000967
527	-0.000676	0.000146	-0.001334	-0.000183	0.002447
528	0.000639	0.000474	-0.002648	-0.000512	-0.000512
529	0.00146	0.000146	-0.000512	0.002447	-0.002484
530	0.001296	0.000474	-1.9e-05	-0.000183	0.002611
531	0.00031	0.000146	0.002118	-0.000512	-0.000183
532	0.004255	-0.000183	-0.000183	-0.00347	-0.000841
533	-0.001827	-0.000183	-0.003799	0.000474	0.000639
534	0.003104	-0.000347	-0.002155	-0.000841	0.001132
535	-0.001991	-0.000512	-0.002813	0.001296	0.001625
536	0.001132	-0.003142	-0.004785	0.001625	-1.9e-05
537	0.000474	0.000146	0.000474	0.002775	-0.000676
538	0.001132	0.000146	-0.001005	-0.000512	-0.000512
539	0.003761	0.000474	0.000474	0.002775	-0.002155
540	-0.000347	0.000474	0.003761	0.003597	-0.004128
541	-0.001498	0.00031	0.003433	0.001296	0.000474
542	-0.001334	0.000146	0.001132	0.000639	-0.001334
543	0.005076	0.000146	-0.000183	0.000146	0.000639
544	-0.001498	-0.000183	0.002118	0.000967	0.001789
545	-0.000512	-0.000347	0.000146	-0.005936	0.004748
546	-0.00347	-0.000841	-0.001005	0.00146	-0.001334
547	-0.000841	-0.001827	-0.001005	-0.000347	0.002611
548	-0.002977	-0.000183	0.000474	0.003597	0.001132
549	0.003268	0.00031	-0.002648	-0.001334	0.001296
550	-0.000512	0.00031	0.001132	0.003761	0.000146
551	-1.9e-05	0.00031	0.002611	0.00031	-0.002484
552	0.00031	0.000474	0.002775	0.002282	0.001789
553	0.002118	0.000474	0.000146	0.00146	0.001789
554	0.006391	-0.000183	0.000146	0.000967	-0.000841
555	-0.000183	-0.000183	0.00146	-0.001662	-0.00232
556	0.002775	-0.000183	0.001625	-0.003306	0.000803
557	0.000146	-0.000347	0.000639	-0.000347	0.00031
558	-0.000347	-0.000841	-0.000512	0.000146	0.001954
559	0.000146	-0.000183	0.002282	0.000803	0.000474
560	0.000146	0.000146	0.000803	-0.00347	0.000474
561	0.001789	0.000146	0.002282	0.003761	-0.001334
562	-0.001005	0.00031	0.000474	-0.000676	0.002118
563	0.004583	0.00031	0.00146	0.003104	-0.000347
564	0.000474	0.00031	0.001296	0.000474	0.001625
565	-0.005771	-0.000183	-1.9e-05	0.000146	0.004419
566	-0.003635	-0.000183	-0.00232	0.006062	0.005734
567	-0.001334	-0.000512	0.002118	-0.000676	0.003597
568	0.001789	-0.000347	-0.000347	0.000639	0.000967
569	-0.002155	-0.000841	-0.000183	0.00294	0.00146
570	0.002775	-0.000183	0.001789	0.000639	-0.000347
571	-0.000841	-1.9e-05	-0.001662	0.001789	-0.001498
572	0.006884	0.000146	-1.9e-05	0.002282	-0.001498
573	0.002118	0.00031	-0.000347	0.001296	0.002775
574	0.001132	0.000474	0.000474	0.000639	-0.005607
575	0.002282	0.00031	-0.002484	0.003104	0.003104
576	-0.004292	-1.9e-05	0.001132	0.000474	0.000639
577	-0.001334	-0.000347	0.000474	-0.001005	0.000803
578	0.000803	-0.000512	0.002282	0.000146	0.001296
579	0.000146	-0.000512	-0.000841	-0.001498	0.002118
580	-0.00232	-0.000512	0.00146	0.00146	0.001132
581	0.002611	-0.000183	-0.001169	-0.002977	0.000474
582	-0.003306	-1.9e-05	0.001132	-0.005443	0.001296
583	0.002118	0.00031	-0.001005	-0.001662	0.00031
584	0.000146	0.000474	-0.003142	0.000639	0.000639
585	0.002447	0.00031	-0.001827	-0.000841	0.000474
586	0.001625	0.00031	-0.002648	0.004255	0.000474
587	-0.00725	-0.000183	0.003104	0.000639	-0.00347
588	0.000474	-0.000347	-0.003799	0.000803	-0.00232
589	0.001132	-0.000347	0.001296	-0.000183	-0.001005
590	0.002611	-0.000512	-0.000676	-0.001991	0.002611
591	-0.003799	-0.000512	0.00409	0.003104	-0.001334
592	0.000803	-0.000347	0.000474	-0.000841	0.002282
593	-0.00347	0.000146	0.002611	-0.002155	-0.001498
594	-0.000347	0.000146	0.000803	-0.001334	0.00031
595	-1.9e-05	0.000146	0.000146	0.000146	-0.000183
596	0.001789	0.000474	0.002282	-0.003799	-0.001169
597	-0.000676	0.000474	0.000639	-0.001169	-1.9e-05
598	-0.008237	-1.9e-05	0.000967	-0.000841	0.000967
599	0.000967	-1.9e-05	-0.001169	-0.000676	-1.9e-05
600	0.000474	-0.000347	0.003268	-0.002977	0.001625
601	-0.000512	-0.000512	0.000803	0.001132	0.002282
602	0.000967	-0.000676	-0.000841	0.000639	0.001132
603	0.004255	-0.000183	-0.002155	-0.000512	0.008692
604	-0.002813	0.000146	0.002775	0.002118	0.001132
605	-0.000676	0.000146	0.000146	0.00294	0.001296
606	0.000803	0.00031	-0.001827	-0.002155	-0.000841
607	0.003268	0.000146	0.001296	-0.000841	-0.001169
608	0.000967	0.000146	-0.000841	0.003926	-0.001334
609	-0.004128	-0.000183	0.000803	-0.000512	0.00031
610	-0.002648	-0.000183	0.001789	0.000967	-0.001662
611	0.002282	-0.000347	0.000639	0.000639	0.000803
612	0.00294	-0.000512	0.001296	0.000146	0.001296
613	0.001789	-0.000676	0.00146	-0.001005	-0.001169
614	-0.002977	-0.000183	0.000803	0.000474	0.001132
615	-0.001334	0.000146	-0.002648	-0.003306	0.00409
616	-0.000841	0.000146	-0.002813	0.006556	0.002118
617	0.002282	0.000146	-0.002155	0.000146	-0.003142
618	0.001296	0.00031	-0.000512	0.002282	0.001625
619	0.000967	0.000474	-1.9e-05	0.005076	-0.001169
620	-0.004292	-0.000183	-0.002155	0.000146	-0.001005
621	-0.001827	-1.9e-05	0.000967	-0.001005	-0.004785
622	0.000639	-0.000183	-0.001662	0.000803	0.002282
623	-0.002648	-0.000347	0.000639	0.00409	0.001954
624	-0.001169	-0.000347	-0.001827	-0.000512	0.001789
625	-0.001334	-1.9e-05	-0.002813	-0.000183	-0.000183
626	0.003597	0.000146	0.000474	-1.9e-05	-1.9e-05
627	0.000474	0.00031	0.000474	0.002447	-0.000841
628	0.004255	0.000474	-0.000841	0.00031	0.001132
629	0.00146	0.000474	0.001625	-0.000512	-0.001005
630	0.001132	0.000146	0.003104	0.00031	-0.002155
631	-0.003142	-1.9e-05	-0.001169	-0.000676	-0.000841
632	-0.002648	-1.9e-05	0.000474	-0.004128	0.001625
633	0.000803	-0.000347	0.000639	-0.002813	0.004419
634	-0.001005	-0.000512	-0.001827	-0.001005	-0.002648
635	0.00031	-0.000512	-0.001334	-0.002977	-0.002648
636	-0.000347	-0.000512	-0.001498	-0.001169	-0.001662
637	0.00146	0.000146	-0.001991	0.001296	0.000146
638	0.002118	0.00031	0.000803	0.002118	-0.003635
639	0.002118	0.000474	-0.004949	0.001132	0.001625
640	0.001954	0.00031	-1.9e-05	0.001296	0.001296
641	0.003926	0.000474	0.003433	0.00146	-0.000347
642	0.00146	-1.9e-05	0.003597	0.000146	0.000146
643	0.001132	-1.9e-05	0.002447	-0.00725	0.000639
644	0.000474	-0.000512	0.005405	-0.002484	0.001625
645	0.00146	-0.000347	-0.000347	-0.001498	0.001625
646	0.001954	-0.000183	0.001625	-0.003142	0.001296
647	0.00146	-0.000512	0.00294	-0.005607	0.000474
648	0.001132	0.000146	-0.002813	-0.000347	0.001789
649	0.000803	0.00031	0.002282	-0.001827	-0.000183
650	0.003104	0.000639	-0.000183	-0.000347	0.002611
651	-1.9e-05	0.000146	0.000474	0.002447	-0.000347
652	0.001625	0.00031	-0.003963	0.001296	0.000639
653	-0.00347	-0.000183	0.000146	0.003597	-0.002155
654	-0.000676	-0.000183	-0.001827	0.003597	0.000803
655	0.000803	-0.000183	0.003926	0.000967	0.002447
656	0.000639	-0.000512	-0.00347	0.002611	-0.000183
657	0.000146	-0.000841	0.001296	0.002611	0.005569
658	0.002447	-0.000183	0.000146	-0.000676	0.001625
659	-0.000841	-1.9e-05	0.000639	0.003104	-0.001991
660	0.002775	0.00031	0.002282	0.001132	-0.000183
661	-0.000841	0.00031	0.000474	0.002118	0.002282
662	0.002447	0.000474	0.002611	0.00146	0.000967
663	0.00031	0.000146	0.000967	0.000967	-0.000183
664	-0.001498	-0.000183	0.004255	-0.000347	0.002118
665	-0.001498	-0.000183	-0.004621	0.002611	-0.000512
666	-0.002484	-0.000347	0.008528	0.000146	0.001625
667	-0.000676	-0.000676	-0.001662	-0.001662	0.001625
668	-0.000841	-0.000512	0.000474	0.000803	-0.002977
669	-0.001498	-0.000512	-0.000676	-0.003306	0.002611
670	-0.001005	0.000146	0.00031	0.001954	-0.004292
671	0.000967	0.00031	-0.002155	-0.000676	0.002447
672	-0.003142	-1.9e-05	-0.001169	-0.001991	0.002447
673	-0.003306	0.00031	-0.000512	0.001789	-1.9e-05
674	-0.001498	0.000803	-0.001827	0.004583	-0.000512
675	0.000146	-0.000841	0.000474	-0.000183	0.00031
676	-0.000183	-1.9e-05	-0.003799	0.004255	-1.9e-05
677	0.00031	-0.000512	0.008035	-0.000676	0.000639
678	0.001789	0.000146	0.000146	0.000639	0.00146
679	0.00031	-1.9e-05	0.00146	0.000474	-0.000347
680	0.000474	0.000967	0.00031	-0.002648	0.002447
681	0.000967	-0.000676	0.00146	0.003597	-0.001991
682	0.006227	0.003104	-0.002648	0.001789	0.000803
683	0.004912	0.000474	0.001132	-0.001498	0.00146
684	0.004255	0.00294	0.000474	-0.000347	0.000639
685	0.00294	0.003104	0.002118	0.00146	-0.000841
686	0.005405	0.001625	0.001296	-0.002155	0.00031
687	0.000967	0.000967	0.001132	0.001132	-0.000347
688	0.003926	0.000146	0.001132	-0.000676	0.004583
689	0.005076	-1.9e-05	-0.003799	-0.000183	0.002118
690	0.003926	-0.002977	-0.004621	-0.000512	0.003761
691	0.004912	-0.000512	-0.001334	-1.9e-05	0.001789
692	0.00787	-0.003142	0.001625	0.001625	0.000146
693	0.00409	0.003268	-0.000676	-0.001827	-1.9e-05
694	0.007049	0.00294	0.000474	-0.000841	0.000967
695	0.004912	0.00031	0.001296	0.001789	0.00031
696	0.005569	0.002611	0.000803	-1.9e-05	-0.000676
697	0.00294	0.004748	-0.000183	-0.000841	0.000803
698	-0.001334	0.00146	0.000803	0.000639	-0.001005
699	0.002775	0.003926	-0.003306	-0.000841	0.002447
700	0.002447	0.001132	-0.000347	0.00146	0.00031
701	0.001296	0.002282	-0.002977	0.001132	0.001132
702	0.002775	0.004419	-0.001662	-0.001334	0.000639
703	0.004255	0.00146	0.003268	0.000474	0.003433
704	0.000967	0.002118	0.000967	0.003926	0.000639
705	0.003104	0.003597	-0.001169	0.000146	0.003761
706	0.00146	0.001625	0.000474	0.001296	0.000967
707	0.000146	0.001625	0.001132	0.001789	0.000803
708	-0.000841	0.006062	0.000146	0.00031	0.000474
709	-0.000347	0.004583	0.00031	0.002118	0.00146
710	-0.001005	0.005076	-0.006757	-0.000841	0.001132
711	0.003104	0.002447	-0.000841	0.000146	-0.001662
712	0.00031	0.002775	0.00031	0.002775	0.001625
713	0.002118	0.001789	-0.002648	-0.001169	0.000474
714	-1.9e-05	0.00146	0.001132	0.000474	0.000803
715	-0.000183	0.000803	0.003268	0.001789	-0.000841
716	0.002611	0.003761	-1.9e-05	-0.003306	-0.000841
717	-0.001005	0.00146	0.00409	-0.000676	-0.001662
718	0.000639	0.002611	0.001132	0.00031	0.001296
719	0.00146	0.005241	0.000639	-0.001005	-0.002648
720	-0.000841	0.002118	0.000967	-0.004456	0.001789
721	-0.003142	0.00294	-0.010209	0.000639	0.003761
722	0.000967	0.000639	-0.004456	-0.000841	0.002447
723	-0.002155	0.000474	0.00031	-1.9e-05	0.000146
724	0.003104	0.000639	-1.9e-05	-0.00232	0.000146
725	0.005076	0.001625	-0.000841	-0.001498	0.001954
726	0.004583	-0.001991	0.003104	0.000803	0.001296
727	0.003268	0.002775	-0.003799	-0.001827	0.003104
728	0.001625	0.005405	0.002447	0.004255	0.000146
729	0.002118	0.002611	-0.001334	-0.001334	0.000474
730	0.00146	0.007542	0.003433	0.001296	-0.001498
731	0.000803	-0.000183	-0.000676	0.001625	-0.001991
732	-0.000347	0.003433	-0.011359	0.003433	-0.002648
733	-0.002484	0.004255	-0.000841	0.002775	-0.001498
734	-0.000512	0.000474	0.001132	0.000803	-0.001169
735	0.001625	0.002775	-0.001169	-0.000512	-0.000512
736	0.00031	0.001625	0.00031	0.002611	0.00031
737	0.002775	-0.000347	-0.000676	-0.000841	0.000639
738	0.001954	-0.000512	-0.004456	0.000967	0.003433
739	-0.001169	0.000474	0.00031	-0.001662	-0.002155
740	-0.002813	-0.001169	0.000474	0.000146	-0.003799
741	-0.001334	0.000803	-0.001334	-0.002813	-0.001498
742	0.000146	0.001625	0.001132	-0.003142	-0.00232
743	0.000474	-0.002484	-0.005607	0.002118	-0.002484
744	0.002282	0.002775	-0.004785	0.00294	0.002447
745	0.000474	-0.000183	0.001132	0.001625	-0.001662
746	-0.000841	0.001296	-0.001334	-0.001498	0.002118
747	0.00031	-0.001334	-0.000841	0.004583	0.000639
748	0.000803	0.001625	-0.000183	0.001296	0.000146
749	-0.001498	-1.9e-05	-0.001498	0.002775	0.001789
750	0.003433	0.001954	0.001954	-1.9e-05	0.000474
751	0.002282	0.004419	0.004748	0.007377	0.003268
752	0.015595	0.015924	0.014609	0.011322	0.012308
753	0.020855	0.021841	0.023977	0.016417	0.01954
754	0.027265	0.028086	0.028086	0.025785	0.026114
755	0.033181	0.035975	0.033181	0.034989	0.034332
756	0.041564	0.039591	0.041892	0.039263	0.040084
757	0.047152	0.046494	0.045508	0.044193	0.044193
758	0.05274	0.051261	0.055698	0.054219	0.049124
759	0.061451	0.055205	0.055863	0.058657	0.061286
760	0.063094	0.061451	0.064245	0.067696	0.067861
761	0.072463	0.070162	0.068025	0.069504	0.073449
762	0.076243	0.074435	0.072956	0.078051	0.075914
763	0.079366	0.078544	0.074271	0.081174	0.082817
764	0.035811	0.084461	0.084461	0.085611	0.085776
765	0.040906	0.090378	0.089391	0.08972	0.089885
766	0.049288	0.096459	0.093007	0.097116	0.092679
767	0.058985	0.099746	0.099417	0.099746	0.098431
768	0.060793	0.105827	0.103197	0.102704	0.100403
769	0.069176	0.106156	0.10632	0.108621	0.104512
770	0.075257	0.11158	0.1101	0.111251	0.110429
771	0.077065	0.111251	0.114374	0.115031	0.113716
772	0.081667	-0.000512	0.117168	0.117496	0.117168
773	0.087419	0.005734	0.122098	0.121441	0.120948
774	0.091528	0.013294	0.124564	0.123249	0.125879
775	0.094815	0.020526	0.131631	0.126536	0.125386
776	0.097445	0.028251	0.129166	0.128508	0.129495
777	0.100732	0.035154	0.131631	0.131302	0.130974
778	0.106649	0.040742	0.132782	0.133439	0.134261
779	0.107142	0.045508	0.136398	0.139192	0.142479
780	0.115689	0.04896	0.138699	0.139192	0.144122
781	0.117332	0.056191	0.142807	0.143136	0.141
782	0.121605	0.067368	0.142807	0.146423	0.149875
783	0.122427	0.07049	0.147081	0.154148	0.146259
784	0.127851	0.075257	0.148231	0.153162	0.147245
785	0.129001	0.081995	0.14971	0.153819	0.148889
786	0.133768	0.085447	0.153984	0.15612	0.150204
787	0.135083	0.087419	0.152998	0.157271	0.151847
788	0.138041	0.094487	0.157435	0.1576	0.151518
789	0.140835	0.097938	0.155956	0.158257	0.158914
790	0.142479	0.103033	0.162366	0.159736	0.158093
791	0.144287	0.108786	0.1576	0.16138	0.161873
792	0.148067	0.109114	0.160558	0.163352	0.162859
793	0.148396	0.108293	0.163516	0.164174	0.166968
794	0.15119	0.118154	0.166146	0.167625	0.165817
795	0.153819	0.121112	0.166311	0.164996	0.171077
796	0.153162	0.121441	0.16894	0.164667	0.16894
797	0.154477	0.127358	0.169105	0.167132	0.170748
798	0.155134	0.130481	0.169926	0.170091	0.17535
799	0.159901	0.132617	0.171077	0.173378	0.170255
800	0.161544	0.136233	0.172556	0.175679	0.174857
801	0.161873	0.136726	0.175515	0.175843	0.175021
802	0.16401	0.141986	0.178144	0.176994	0.175679
803	0.166475	0.141328	0.178802	0.176336	0.176994
804	0.167297	0.146752	0.180774	0.176829	0.177322
805	0.117661	0.146259	0.180774	0.178637	0.175679
806	0.085611	0.15497	0.179295	0.177651	0.17913
807	0.086926	0.156778	0.180281	0.180281	0.178966
808	0.095144	0.15612	0.180445	0.18061	0.183075
809	0.097116	0.159408	0.181596	0.18176	0.184061
810	0.103691	0.154477	0.182582	0.180445	0.179952
811	0.104512	0.1576	0.182089	0.185376	0.180938
812	0.110265	0.160722	0.179295	0.182089	0.182911
813	0.112073	0.159901	0.181103	0.183568	0.184718
814	0.115031	0.160887	0.18554	0.184883	0.186526
815	0.115195	0.165489	0.183568	0.184883	0.18817
816	0.12177	0.16401	0.187348	0.186855	0.184061
817	0.125714	0.170748	0.186855	0.188006	0.187348
818	0.129001	0.167461	0.187019	0.18932	0.186691
819	0.134754	0.171241	0.186691	0.190142	0.188827
820	0.135083	0.169105	0.188499	0.188006	0.187841
821	0.137384	0.170913	0.186198	0.187184	0.186855
822	0.138699	0.171241	0.1908	0.189978	0.18817
823	0.142972	0.176829	0.188334	0.1908	0.189978
824	0.147081	0.175186	0.193429	0.191128	0.186526
825	0.146752	0.176172	0.191293	0.191128	0.191293
826	0.144451	0.173871	0.191293	0.191128	0.1908
827	0.149875	0.1742	0.193101	0.18932	0.192115
828	0.150697	0.178802	0.191457	0.192115	0.195073
829	0.153655	0.179623	0.19195	0.189485	0.193265
830	0.153162	0.181596	0.193265	0.191786	0.188663
831	0.1576	0.181267	0.191786	0.191786	0.191293
832	0.157764	0.183075	0.190471	0.188663	0.194087
833	0.159901	0.180281	0.193758	0.194251	0.191457
834	0.163681	0.185705	0.191293	0.193265	0.193758
835	0.162037	0.181596	0.193922	0.192443	0.194909
836	0.16516	0.183568	0.191457	0.197703	0.18932
837	0.168283	0.184883	0.19458	0.196059	0.193922
838	0.173378	0.183732	0.197045	0.193594	0.192772
839	0.171077	0.187019	0.192279	0.198689	0.191786
840	0.173049	0.187348	0.193758	0.193758	0.196223
841	0.174364	0.187513	0.193922	0.198524	0.192608
842	0.173542	0.186526	0.193101	0.194909	0.193758
843	0.171734	0.185212	0.193594	0.1908	0.194251
844	0.176008	0.188992	0.197538	0.192772	0.195895
845	0.17157	0.192279	0.193101	0.194416	0.196552
846	0.178309	0.187348	0.192115	0.188663	0.195566
847	0.175515	0.188334	0.197374	0.192936	0.197703
848	0.17798	0.190635	0.196059	0.195895	0.197538
849	0.182089	0.190471	0.197045	0.194909	0.197538
850	0.180938	0.18932	0.198031	0.198689	0.196223
851	0.180774	0.19195	0.195566	0.200168	0.198689
852	0.183239	0.190964	0.19721	0.198689	0.195402
853	0.184225	0.190635	0.197045	0.196881	0.199018
854	0.17913	0.191786	0.19721	0.198853	0.192443
855	0.183075	0.192115	0.192279	0.197703	0.198853
856	0.18176	0.191128	0.19573	0.198853	0.195073
857	0.187348	0.188663	0.196223	0.19836	0.196388
858	0.187677	0.190307	0.198196	0.199182	0.19458
859	0.185212	0.192936	0.198031	0.19836	0.197703
860	0.187677	0.197374	0.198853	0.197867	0.200825
861	0.185869	0.193429	0.200332	0.198031	0.197374
862	0.186691	0.186691	0.195895	0.19721	0.198031
863	0.188827	0.18554	0.200168	0.197703	0.19721
864	0.185376	0.190307	0.197374	0.197703	0.197867
865	0.182746	0.18554	0.198689	0.201976	0.197045
866	0.186691	0.189814	0.198196	0.199511	0.200332
867	0.187348	0.187348	0.200825	0.200497	0.198031
868	0.189649	0.187677	0.194909	0.200825	0.199675
869	0.18932	0.188006	0.199018	0.199182	0.196059
870	0.191128	0.188499	0.199346	0.196388	0.199511
871	0.189978	0.186198	0.197867	0.200168	0.197045
872	0.191786	0.192279	0.195402	0.195237	0.197045
873	0.190142	0.189649	0.201483	0.202305	0.197045
874	0.195895	0.191457	0.198196	0.197374	0.198196
875	0.189978	0.192443	0.197045	0.200332	0.199346
876	0.189814	0.190635	0.19836	0.198689	0.196059
877	0.194416	0.198031	0.198031	0.198031	0.199346
878	0.194087	0.191621	0.199346	0.19836	0.193594
879	0.191786	0.195073	0.198031	0.200332	0.199675
880	0.194744	0.190307	0.201319	0.198196	0.200332
881	0.192936	0.190142	0.198196	0.199018	0.201319
882	0.190307	0.190635	0.20099	0.198689	0.198689
883	0.192772	0.193101	0.201976	0.194416	0.202305
884	0.191457	0.191457	0.198689	0.19836	0.196552
885	0.193429	0.194909	0.198196	0.196717	0.199182
886	0.188006	0.191128	0.197703	0.199018	0.196552
887	0.192936	0.192115	0.196388	0.19836	0.196552
888	0.192772	0.192936	0.197045	0.200168	0.198031
889	0.19458	0.192443	0.197703	0.198524	0.19721
890	0.194909	0.192608	0.193922	0.199511	0.199018
891	0.195073	0.192936	0.201154	0.197374	0.197374
892	0.19458	0.198196	0.203784	0.196881	0.200661
893	0.195073	0.194416	0.201812	0.200168	0.198853
894	0.194744	0.19721	0.202305	0.197538	0.19836
895	0.194416	0.194744	0.203455	0.196223	0.19836
896	0.194416	0.198196	0.196717	0.192443	0.200004
897	0.191786	0.195566	0.20214	0.200661	0.198031
898	0.192443	0.197538	0.200168	0.200332	0.197867
899	0.197703	0.19573	0.201154	0.200332	0.199182
900	0.195566	0.197538	0.197538	0.198524	0.201154
901	0.19458	0.192115	0.197703	0.207071	0.199018
902	0.196881	0.199182	0.200825	0.203784	0.201154
903	0.195402	0.192115	0.197538	0.201319	0.198853
904	0.196388	0.199018	0.198524	0.201976	0.199839
905	0.195895	0.202305	0.197045	0.201319	0.200004
906	0.197538	0.195895	0.194909	0.199182	0.198524
907	0.197703	0.198689	0.197374	0.201483	0.201319
908	0.197867	0.19721	0.200004	0.199511	0.20214
909	0.19458	0.195073	0.199511	0.201319	0.197045
910	0.197867	0.193758	0.203455	0.201154	0.19721
911	0.194416	0.199018	0.200661	0.200332	0.196059
912	0.195895	0.19836	0.201319	0.201647	0.20099
913	0.197538	0.196717	0.200168	0.200497	0.19836
914	0.196388	0.198524	0.201812	0.202305	0.200004
915	0.195895	0.197538	0.201154	0.199018	0.198196
916	0.193594	0.198853	0.202305	0.20099	0.196059
917	0.196717	0.199182	0.200332	0.196717	0.199018
918	0.193594	0.198689	0.199839	0.199839	0.198689
919	0.19721	0.197538	0.198196	0.197374	0.200497
920	0.194251	0.194087	0.200497	0.199675	0.198196
921	0.196717	0.199182	0.196552	0.198524	0.202798
922	0.196717	0.195895	0.197374	0.199182	0.20099
923	0.197703	0.193758	0.198524	0.20362	0.199346
924	0.197374	0.198689	0.196059	0.202469	0.200004
925	0.198689	0.196388	0.198853	0.199511	0.200332
926	0.198031	0.200497	0.203455	0.199182	0.200332
927	0.200497	0.197867	0.198689	0.199839	0.195402
928	0.199182	0.198689	0.200825	0.197867	0.201647
929	0.19836	0.200004	0.200497	0.20362	0.198853
930	0.198031	0.199839	0.199018	0.199018	0.200497
931	0.196552	0.200168	0.203291	0.200332	0.19195
932	0.197374	0.20099	0.197374	0.201154	0.198524
933	0.195895	0.20099	0.200332	0.202469	0.198196
934	0.197045	0.199675	0.200332	0.201319	0.198196
935	0.194087	0.199182	0.198031	0.199675	0.197867
936	0.194416	0.197867	0.200168	0.199511	0.199675
937	0.193922	0.198196	0.198853	0.198689	0.198031
938	0.195895	0.197538	0.197538	0.201812	0.19836
939	0.195895	0.196223	0.196388	0.199839	0.19721
940	0.19836	0.194744	0.196717	0.199346	0.196717
941	0.193594	0.198689	0.194744	0.198689	0.201647
942	0.19836	0.197045	0.201319	0.200661	0.197703
943	0.196552	0.197045	0.200497	0.198689	0.200661
944	0.19195	0.196881	0.200661	0.197867	0.198524
945	0.193101	0.199511	0.200497	0.198853	0.199839
946	0.192443	0.195073	0.201483	0.200825	0.200332
947	0.190471	0.20099	0.200004	0.196717	0.004419
948	0.19195	0.196717	0.203455	0.202962	0.004748
949	0.193429	0.202962	0.200168	0.20099	0.00146
950	0.190635	0.201154	0.202305	0.19721	0.003597
951	0.19195	0.197867	0.198031	0.201812	0.001954
952	0.1908	0.20099	0.200004	0.197703	0.001296
953	0.195895	0.199346	0.201154	0.203784	0.003597
954	0.192772	0.196881	0.198853	0.196552	0.003268
955	0.192936	0.195895	0.196388	0.200004	0.004419
956	0.195237	0.197867	0.198853	0.200825	-0.000347
957	0.192443	0.19836	0.204277	0.200497	-0.000183
958	0.193758	0.201976	0.200004	0.199839	0.00146
959	0.197703	0.196223	0.203126	0.202305	0.000639
960	0.194416	0.199346	0.199511	0.201154	-0.000676
961	0.197045	0.19721	0.200661	0.200332	-1.9e-05
962	0.198524	0.196881	0.198689	0.199839	0.000474
963	0.194087	0.199839	-1.9e-05	0.201154	0.000474
964	0.195895	0.200661	-0.000347	0.197703	-0.000512
965	0.191621	0.200004	0.000146	0.198031	-0.000512
966	0.191128	0.200661	0.000474	0.199511	-1.9e-05
967	0.189978	0.200168	0.000146	0.199346	-0.000841
968	0.189485	0.201812	0.004419	0.199018	-0.000183
969	0.189485	0.198196	0.008363	0.200004	0.000146
970	0.1908	0.199018	0.01954	0.19836	0.00031
971	0.189156	0.199182	0.02447	0.199675	0.000474
972	0.191621	0.197703	0.03236	0.19836	0.000474
973	0.192772	0.199018	0.040249	0.199511	0.00031
974	0.191293	0.198031	0.048795	0.200497	0.00031
975	0.191621	0.199839	0.054055	0.199839	0.000474
976	0.19458	0.193265	0.057999	0.200168	-1.9e-05
977	0.195073	0.197538	0.063752	0.198031	-0.000347
978	0.197045	0.199346	0.06934	0.201319	-0.000512
979	0.193594	0.197374	0.073942	0.200332	-0.000347
980	0.192443	0.199675	0.079859	0.201976	-0.000183
981	0.19458	0.203126	0.085611	0.199346	0.00031
982	0.192443	0.196552	0.090706	0.200004	0.000146
983	0.194087	0.197867	0.093665	0.196223	0.000474
984	0.19458	0.201319	0.096294	0.201483	0.00031
985	0.194909	0.199346	0.101225	0.199511	0.000474
986	0.192115	0.200661	0.107142	0.200168	0.000146
987	0.195237	0.191621	0.109114	0.198689	-0.000183
988	0.194909	0.196223	0.110922	0.199182	-0.000183
989	0.193101	0.199018	0.113552	0.201319	-0.000347
990	0.193922	0.196717	0.122098	0.199018	-0.000347
991	0.195073	0.195237	0.123742	0.201812	-1.9e-05
992	0.196388	0.197703	0.125386	0.197867	-1.9e-05
993	0.194416	0.196552	0.126043	0.197703	0.000146
994	0.200004	0.198689	0.129659	0.199018	0.00031
995	0.194416	0.200332	0.135083	0.199182	0.00031
996	0.196223	0.200497	0.136069	0.19836	0.000474
997	0.197045	0.20214	0.143794	0.200332	0.00031
998	0.192772	0.199675	0.141821	0.200497	-0.000183
999	0.193594	0.202469	0.145766	0.199511	-0.000347
1000	0.196059	0.198031	0.147245	0.202469	-0.000512
1001	0.193265	0.202305	0.149382	0.200825	-0.000512
1002	0.195073	0.19836	0.152176	0.201976	-0.000347
1003	0.193758	0.201154	0.15234	0.200825	0.000146
1004	0.19836	0.199511	0.156449	0.202633	0.00031
1005	0.19573	0.196717	0.156285	0.195237	0.00031
1006	0.196223	0.198524	0.159736	0.20099	0.00031
1007	0.197374	0.199182	0.159572	0.196881	0.00031
1008	0.194909	0.195895	0.164338	0.199346	0.00031
1009	0.197374	0.201812	0.16401	0.200332	-0.000183
1010	0.196717	0.200825	0.168118	0.202305	-0.000183
1011	0.197374	0.197374	0.163516	0.200497	-0.000347
1012	0.195073	0.199182	0.167132	0.20099	-0.000676
1013	0.198031	0.197538	0.167625	0.201976	-0.000347
1014	0.197867	0.200004	0.171406	0.205427	-0.000183
1015	0.197045	0.197538	0.17157	0.20214	-1.9e-05
1016	0.200661	0.198031	0.172392	0.201976	0.00031
1017	0.20099	0.197867	0.174364	0.201647	0.00031
1018	0.198196	0.201154	0.175515	0.200004	0.000146
1019	0.199018	0.200168	0.176336	0.200332	0.000146
1020	0.197867	0.197867	0.175515	0.198524	-0.000183
1021	0.196059	0.197867	0.177487	0.200497	-0.000183
1022	0.197867	0.198853	0.176829	0.200497	-0.000347
1023	0.195566	0.19721	0.181267	0.199511	-0.000512
1024	0.199018	0.197867	0.177815	0.193265	-0.000183
1025	0.195237	0.194416	0.180116	0.199511	-1.9e-05
1026	0.197045	0.195566	0.179459	0.200332	-1.9e-05
1027	0.19836	0.199018	0.181103	0.197538	0.000474
1028	0.197045	0.194087	0.182089	0.200661	0.00031
1029	0.191621	0.200332	0.182417	0.199675	0.000639
1030	0.198196	0.199675	0.185705	0.199018	0.000474
1031	0.196388	0.196552	0.181596	0.200168	-1.9e-05
1032	0.197374	0.196881	0.18817	0.199675	-0.000512
1033	0.195895	0.19836	0.187677	0.202305	-0.000347
1034	0.199675	0.199182	0.187019	0.202305	-0.000512
1035	0.203126	0.198853	0.184883	0.199182	-0.000347
1036	0.198689	0.200168	0.188827	0.201154	0.000146
1037	0.198031	0.196717	0.185376	0.201319	0.000146
1038	0.19721	0.195895	0.185869	0.202962	0.00031
1039	0.195566	0.202469	0.18817	0.205427	0.000146
1040	0.196059	0.19836	0.18554	0.200004	0.00031
1041	0.198031	0.198031	0.191786	0.202469	0.000146
1042	0.195402	0.19721	0.189649	0.201319	-0.000183
1043	0.198196	0.198689	0.188827	0.198524	-0.000347
1044	0.197045	0.199346	0.186855	0.199675	-0.000347
1045	0.19721	0.197867	0.19195	0.198689	-0.000512
1046	0.197374	0.199511	0.193265	0.198196	-1.9e-05
1047	0.197045	0.199511	0.196223	0.199346	0.000146
1048	0.196059	0.201647	0.19195	0.201483	0.00031
1049	0.198196	0.200332	0.19195	0.200332	0.000146
1050	0.198196	0.200168	0.1908	0.200168	0.000474
1051	0.198031	0.197374	0.19195	0.201154	0.00031
1052	0.200825	0.201319	0.191786	0.198524	0.00031
1053	0.193101	0.200168	0.195237	0.202633	-0.000183
1054	0.198853	0.204606	0.191128	0.199675	-0.000347
1055	0.196717	0.199182	0.194416	0.199839	-0.000183
1056	0.197374	0.201483	0.193594	0.200332	-0.000512
1057	0.197867	0.201154	0.196223	0.200332	-0.000347
1058	0.195895	0.199839	0.195237	0.198689	-1.9e-05
1059	0.196881	0.200661	0.193265	0.201647	0.000146
1060	0.197538	0.199839	0.197703	0.201319	0.00031
1061	0.19721	0.202798	0.195402	0.198689	0.000474
1062	0.200004	0.200168	0.194744	0.201154	0.000639
1063	0.198524	0.199018	0.195237	0.203291	0.00031
1064	0.19721	0.199839	0.194087	0.202962	-0.000347
1065	0.196388	0.202305	0.191786	0.198031	-0.000183
1066	0.19458	0.197045	0.195895	0.200497	-0.000183
1067	0.196388	0.200661	0.191293	0.199018	-0.000347
1068	0.198853	0.198196	0.193922	0.207235	-0.000347
1069	0.194744	0.200332	0.188334	0.197374	-1.9e-05
1070	0.198031	0.198853	0.194744	0.201319	0.00031
1071	0.200332	0.199346	0.193594	0.199346	0.000474
1072	0.197703	0.199675	0.196881	0.200168	0.000146
1073	0.196552	0.199839	0.195237	0.201483	0.000639
1074	0.196717	0.200661	0.200004	0.200168	0.00031
1075	0.198196	0.199511	0.197045	0.198031	-0.000183
1076	0.19721	0.201812	0.195566	0.200004	-0.000512
1077	0.198524	0.20214	0.197045	0.198853	-0.000183
1078	0.195073	0.199018	0.196388	0.199675	-0.000347
1079	0.195402	0.201154	0.196717	0.199675	-0.000183
1080	0.193922	0.201154	0.195895	0.198853	0.000146
1081	0.197374	0.197374	0.196717	0.199839	-1.9e-05
1082	0.195237	0.200004	0.194909	0.198524	0.00031
1083	0.198031	0.204277	0.199182	0.200825	0.000474
1084	0.201812	0.199182	0.196059	0.200661	0.000474
1085	0.199839	0.201483	0.199346	0.201154	0.00031
1086	0.200004	0.198853	0.195073	0.198031	-1.9e-05
1087	0.198689	0.199511	0.196717	0.202798	-0.000347
1088	0.200004	0.199346	0.196717	0.20362	-0.000347
1089	0.196717	0.197867	0.197045	0.20362	-0.000512
1090	0.198853	0.199346	0.197374	0.201319	-0.000183
1091	0.197703	0.200332	0.19721	0.199511	-1.9e-05
1092	0.198853	0.202469	0.200168	0.195237	0.00031
1093	0.197374	0.199346	0.197374	0.197374	0.00031
1094	0.200004	0.199675	0.195895	0.196552	0.000639
1095	0.195895	0.200661	0.197045	0.200332	0.000474
1096	0.197703	0.20099	0.199839	0.199018	0.000146
1097	0.199675	0.201483	0.194744	0.198689	-0.000183
1098	0.20214	0.198689	0.197703	0.201319	-0.000183
1099	0.197867	0.200497	0.187019	0.199675	-0.000347
1100	0.196717	0.19836	0.198524	0.200825	-0.000676
1101	0.199182	0.195895	0.196388	0.201319	-0.000347
1102	0.196717	0.197703	0.196059	0.201647	-1.9e-05
1103	0.197703	0.19573	0.198196	0.201483	0.00031
1104	0.19721	0.198524	0.19836	0.201812	0.000474
1105	0.153162	0.200661	0.200661	0.200332	0.000474
1106	0.149875	0.200661	0.199346	0.200825	0.00031
1107	0.153326	0.199839	0.199675	0.20099	0.000146
1108	0.155134	0.201647	0.199018	0.199839	-0.000347
1109	0.159408	0.20099	0.203455	0.19721	-1.9e-05
1110	0.157764	0.201647	0.199346	0.197374	-0.000512
1111	0.160558	0.20214	0.199182	0.197867	-0.000512
1112	0.162695	0.201812	0.19721	0.199018	-0.000347
1113	0.153984	0.200661	0.20099	0.199346	-1.9e-05
1114	0.152505	0.200168	0.198524	0.200661	0.000146
1115	0.150039	0.198196	0.199182	0.201319	0.000146
1116	0.122427	0.202305	0.199511	0.199675	0.00031
1117	0.031209	0.198031	0.201319	0.199511	0.000474
1118	0.038276	0.199018	0.199182	0.199675	0.000146
1119	0.046166	0.199675	0.199839	0.20099	-0.000183
1120	0.052082	0.194416	0.198689	0.199675	-0.000183
1121	0.055863	0.198689	0.19836	0.199839	-0.000347
1122	0.066053	0.199839	0.200004	0.20214	-0.000512
1123	0.070162	0.199018	0.19721	0.201154	-0.000512
1124	0.077886	0.200332	0.200332	0.203126	-1.9e-05
1125	0.07049	0.20099	0.203948	0.19836	0.000146
1126	0.076079	0.203126	0.198031	0.200661	0.00031
1127	0.078708	0.203126	0.19836	0.199018	0.00031
1128	0.08331	0.200661	0.203948	0.199182	0.000474
1129	0.088898	0.202798	0.196881	0.199182	0.000146
1130	0.090378	0.199839	0.199675	0.199675	-0.000183
1131	0.099746	0.199675	0.198031	0.197867	-0.000347
1132	0.099582	0.198524	0.199346	0.201154	-0.000347
1133	0.101883	0.194909	0.198524	0.199346	-0.000512
1134	0.111087	0.19573	0.198031	0.200661	-0.000512
1135	0.113881	0.194416	0.197045	0.203291	0.000146
1136	0.11536	0.196717	0.198689	0.201319	0.000146
1137	0.122263	0.193101	0.19721	0.199346	0.000146
1138	0.12177	0.199018	0.196717	0.201812	0.00031
1139	0.127687	0.199511	0.200004	0.202798	0.000474
1140	0.127194	0.199839	0.20099	0.204113	0.00031
1141	0.131796	0.200825	0.198689	0.200825	-0.000183
1142	0.136233	0.205099	0.199839	0.195073	-0.000183
1143	0.134425	0.197045	0.200004	0.203126	-0.000512
1144	0.139685	0.202469	0.197867	0.195237	-0.000512
1145	0.14215	0.200168	0.201154	0.199018	-0.000183
1146	0.143629	0.200004	0.199839	0.199346	0.000146
1147	0.141493	0.197703	0.204606	0.20099	0.000146
1148	0.141493	0.198524	0.204934	0.198196	0.000474
1149	0.031045	0.199346	0.198853	0.200332	0.000474
1150	0.002611	0.19721	0.202798	0.199346	0.00031
1151	0.009678	0.20099	0.201319	0.199182	0.00031
1152	0.020197	0.19721	0.197703	0.203291	-1.9e-05
1153	0.028415	0.197045	0.199839	0.197538	-0.000512
1154	0.035482	0.198689	0.200004	0.201812	-0.000347
1155	0.042714	0.199018	0.197045	0.201647	-0.000512
1156	0.051754	0.199182	0.199346	0.203126	-0.000183
1157	0.054383	0.200168	0.19836	0.196881	-1.9e-05
1158	0.059972	0.199018	0.201319	0.201154	0.000146
1159	0.068025	0.19836	0.199511	0.201647	0.00031
1160	0.070162	0.201812	0.201976	0.200004	0.000474
1161	0.077229	0.204113	0.198853	0.202962	0.000474
1162	0.081502	0.199675	0.201647	0.201976	0.00031
1163	0.086433	0.201647	0.198689	0.200825	-1.9e-05
1164	0.088734	0.200004	0.200168	0.200168	-0.000347
1165	0.093993	0.201812	0.200661	0.199511	-0.000347
1166	0.093007	0.196552	0.20099	0.202469	-0.000676
1167	0.105334	0.200332	0.196717	0.198031	-1.9e-05
1168	0.105334	0.197374	0.193922	0.199839	-0.000183
1169	0.11158	0.199182	0.198689	0.201319	0.000146
1170	0.114702	0.197374	0.197045	0.199675	0.00031
1171	0.118154	0.19836	0.200825	0.199346	0.00031
1172	0.119797	0.201976	0.197045	0.200825	0.000474
1173	0.124235	0.198031	0.201647	0.200004	0.00031
1174	0.12818	0.199675	0.198031	0.199182	-1.9e-05
1175	0.130152	0.199346	0.198853	0.203126	-0.000347
1176	0.135411	0.208715	0.198689	0.197703	-0.000183
1177	0.13574	0.200332	0.200332	0.202962	-0.000512
1178	0.138041	0.200497	0.199675	0.202962	-0.000183
1179	0.141657	0.200332	0.199839	0.200825	0.00031
1180	0.144287	0.199839	0.198853	0.199511	0.000146
1181	0.143136	0.199675	0.202962	0.201647	0.00031
1182	0.148724	0.201483	0.204934	0.200004	0.00031
1183	0.143629	0.195402	0.196223	0.198524	0.00031
1184	0.151683	0.195566	0.202469	0.200332	0.00031
1185	0.150368	0.199839	0.198524	0.19836	-0.000183
1186	0.153984	0.198196	0.19836	0.197374	-0.000347
1187	0.156778	0.199839	0.197703	0.201154	-0.000347
1188	0.159079	0.19721	0.197867	0.200168	-0.000512
1189	0.16253	0.19836	0.197045	0.19721	-0.000183
1190	0.160394	0.194251	0.197703	0.194909	-1.9e-05
1191	0.164174	0.202798	0.196552	0.200332	0.000146
1192	0.165489	0.197867	0.19836	0.199675	0.000146
1193	0.169269	0.199675	0.19836	0.199346	0.00031
1194	0.166968	0.19721	0.200168	0.201647	0.00031
1195	0.168612	0.200825	0.200332	0.196059	0.00031
1196	0.171734	0.200497	0.199182	0.200332	-0.000183
1197	0.171406	0.201483	0.198689	0.19458	-0.000347
1198	0.169433	0.204606	0.199018	0.199675	-0.000676
1199	0.172392	0.196059	0.201319	0.199182	-0.000347
1200	0.173049	0.201647	0.198031	0.201319	-0.000676
1201	0.174035	0.20099	0.19836	0.200497	-0.000183
1202	0.173214	0.199346	0.199018	0.199018	0.000146
1203	0.175186	0.200168	0.199511	0.200332	0.00031
1204	0.179952	0.202962	0.202305	0.199182	0.000474
1205	0.177322	0.198689	0.200332	0.200332	0.000639
1206	0.178473	0.200661	0.200168	0.200004	0.00031
1207	0.175021	0.199511	0.19721	0.196717	0.000146
1208	0.18061	0.199182	0.199675	0.206085	-0.000183
1209	0.18176	0.198689	0.203948	0.202469	-0.000512
1210	0.181924	0.20099	0.196388	0.202798	-0.000512
1211	0.183568	0.201483	0.199346	0.20099	-0.000512
1212	0.186691	0.201319	0.199675	0.198196	-0.000183
1213	0.182417	0.199675	0.201483	0.204277	-1.9e-05
1214	0.187513	0.201319	0.201483	0.198853	0.000146
1215	0.183732	0.202305	0.201154	0.199839	0.00031
1216	0.186526	0.200004	0.203784	0.20099	0.000146
1217	0.186033	0.20214	0.197703	0.200168	0.000474
1218	0.186198	0.197374	0.197703	0.199346	-1.9e-05
1219	0.184061	0.200168	0.200004	0.199675	-0.000183
1220	0.186526	0.199018	0.200332	0.200825	-0.000347
1221	0.186033	0.199839	0.198031	0.197374	-0.000512
1222	0.194416	0.198853	0.201154	0.202469	-0.000512
1223	0.193101	0.198853	0.19573	0.199346	-1.9e-05
1224	0.189814	0.198689	0.197374	0.205756	0.000146
1225	0.189649	0.200168	0.200661	0.19836	0.00031
1226	0.192443	0.202633	0.196388	0.202469	0.000146
1227	0.191128	0.200825	0.199511	0.199346	0.000474
1228	0.191457	0.198524	0.200497	0.201319	0.000146
1229	0.193922	0.200332	0.201154	0.199018	0.000146
1230	0.1908	0.19836	0.200825	0.201319	-0.000347
1231	0.192279	0.19721	0.198853	0.204277	-0.000347
1232	0.191293	0.202633	0.199511	0.19836	-0.000347
1233	0.192772	0.19573	0.202469	0.202305	-0.000512
1234	0.191786	0.200004	0.199182	0.202469	-0.000183
1235	0.192443	0.200497	0.199182	0.207564	0.000146
1236	0.192115	0.201976	0.196881	0.199839	0.000639
1237	0.191293	0.198689	0.199839	0.203291	0.000474
1238	0.191457	0.198524	0.201154	0.199018	0.000474
1239	0.195895	0.199511	0.194744	0.20362	0.00031
1240	0.193429	0.198031	0.195237	0.198031	-0.000183
1241	0.18817	0.196552	0.200332	0.199675	-0.000183
1242	0.190635	0.198524	0.195895	0.199182	-1.9e-05
1243	0.196552	0.196059	0.198689	0.199511	-0.000512
1244	0.197045	0.198031	0.200661	0.200168	-0.000347
1245	0.192772	0.200332	0.20099	0.201154	-0.000183
1246	0.198689	0.200168	0.202633	0.206414	0.000146
1247	0.19573	0.200661	0.200168	0.198196	0.00031
1248	0.193922	0.202633	0.202469	0.20099	0.00031
1249	0.193594	0.199346	0.203455	0.20099	0.00031
1250	0.193922	0.197538	0.205099	0.201483	0.000146
1251	0.194416	0.203126	0.198853	0.200332	-0.000183
1252	0.192936	0.200168	0.205427	0.200825	-0.000347
1253	0.194416	0.200004	0.20099	0.202469	-0.000347
1254	0.193758	0.198031	0.200332	0.199511	-0.000512
1255	0.199346	0.200825	0.199182	0.200004	-0.000512
1256	0.194251	0.196881	0.199182	0.200661	-1.9e-05
1257	0.197374	0.198524	0.198524	0.202469	-1.9e-05
1258	0.196552	0.197374	0.200004	0.19836	0.000146
1259	0.196717	0.198196	0.19836	0.198196	0.000146
1260	0.196223	0.20099	0.201154	0.199675	0.000474
1261	0.198524	0.195402	0.202798	0.196552	0.000146
1262	0.197538	0.19573	0.199675	0.204934	-0.000183
1263	0.198031	0.194744	0.201647	0.195895	-0.000183
1264	0.19836	0.196388	0.194909	0.203948	-0.000347
1265	0.198196	0.195566	0.204113	0.202962	-0.000512
1266	0.198524	0.195895	0.197538	0.201154	-0.000347
1267	0.197703	0.195895	0.198853	0.201812	-1.9e-05
1268	0.198031	0.197538	0.200332	0.196388	0.000146
1269	0.198031	0.195402	0.19836	0.199182	0.00031
1270	0.196388	0.196059	0.198196	0.199839	0.000474
1271	0.196223	0.196552	0.199018	0.201154	0.000474
1272	0.200497	0.197374	0.201154	0.198196	0.000474
1273	0.195895	0.195073	0.197045	0.201976	-0.000183
1274	0.198853	0.19458	0.19836	0.196223	-0.000183
1275	0.196388	0.196059	0.199018	0.201812	-0.000183
1276	0.199182	0.196552	0.199018	0.200168	-0.000183
1277	0.197867	0.198689	0.199346	0.199182	-0.000347
1278	0.201154	0.195566	0.200004	0.202305	-0.000183
1279	0.19721	0.19836	0.197867	0.190964	0.00031
1280	0.198689	0.196223	0.202798	0.198689	0.000474
1281	0.201319	0.195402	0.20099	0.201154	0.000474
1282	0.197538	0.198524	0.200825	0.20362	0.000146
1283	0.19836	0.199182	0.199346	0.200332	0.00031
1284	0.196223	0.197045	0.201976	0.20362	-1.9e-05
1285	0.197703	0.201319	0.199839	0.19836	-0.000183
1286	0.197538	0.200168	0.199511	0.199018	-0.000347
1287	0.197538	0.199346	0.196717	0.197703	-0.000512
1288	0.198031	0.197045	0.199182	0.199675	-0.000347
1289	0.201976	0.195895	0.198196	0.201319	0.000146
1290	0.194909	0.197538	0.197538	0.191128	-1.9e-05
1291	0.196717	0.19721	0.198524	0.196059	0.000474
1292	0.198689	0.198853	0.200332	0.195566	0.00031
1293	0.19458	0.19721	0.198524	0.201483	0.000639
1294	0.195237	0.199675	0.200332	0.197867	0.000474
1295	0.198689	0.197867	0.199182	0.198524	-0.000347
1296	0.196223	0.200497	0.203455	0.195402	-0.000183
1297	0.19721	0.198031	0.201976	0.205263	-0.000183
1298	0.198524	0.197703	0.197045	0.198853	-0.000512
1299	0.196552	0.197703	0.20099	0.204934	-0.000841
1300	0.197045	0.196223	0.201319	0.20099	-1.9e-05
1301	0.197045	0.197045	0.202633	0.193758	0.000146
1302	0.199346	0.199182	0.199675	0.197867	0.00031
1303	0.200332	0.197867	0.201154	0.20099	0.000474
1304	0.199018	0.201976	0.199346	0.200661	0.00031
1305	0.196717	0.199839	0.199511	0.200332	0.000146
1306	0.195237	0.196717	0.198689	0.199675	0.000146
1307	0.199675	0.19836	0.199675	0.19573	-0.000183
1308	0.19836	0.193594	0.200168	0.196223	0.001132
1309	0.197538	0.199018	0.198196	0.204113	0.000967
1310	0.198853	0.200661	0.201647	0.200168	-0.002155
1311	0.201154	0.201647	0.199018	0.200332	0.003761
1312	0.198196	0.196388	0.200497	0.197538	-0.001334
1313	0.199511	0.19836	0.19836	0.198031	0.001789
1314	0.198689	0.200004	0.204441	0.201154	0.004748
1315	0.200497	0.198196	0.198689	0.200825	0.003926
1316	0.19836	0.199346	0.201319	0.200497	0.00294
1317	0.199839	0.201812	0.20099	0.200332	0.013294
1318	0.198689	0.199018	0.202305	0.201976	0.017074
1319	0.198524	0.198853	0.201154	0.201154	0.025292
1320	0.197538	0.199018	0.199018	0.201319	0.031045
1321	0.200661	0.199839	0.206578	0.202798	0.04255
1322	0.195895	0.198524	0.199675	0.199018	0.045344
1323	0.201976	0.196059	0.201483	0.197045	0.051918
1324	0.200332	0.199018	0.20099	0.198689	0.060465
1325	0.201812	0.19573	0.201483	0.199018	0.063752
1326	0.196223	0.19721	0.199839	0.198853	0.067696
1327	0.199839	0.200825	0.201154	0.199675	0.074435
1328	0.199182	0.200004	0.199675	0.19836	0.081831
1329	0.199839	0.197374	0.200332	0.200661	0.081667
1330	0.199346	0.201154	0.19836	0.20214	0.0935
1331	0.198031	0.194744	0.200168	0.201976	0.091199
1332	0.199182	0.199839	0.198689	0.199182	0.10517
1333	0.197703	0.199346	0.200004	0.201319	0.100239
1334	0.200332	0.199018	0.19836	0.200497	0.104677
1335	0.199182	0.196881	0.200004	0.201647	0.109607
1336	0.200332	0.195237	0.199018	0.200168	0.112566
1337	0.200332	0.193758	0.196717	0.201647	0.112566
1338	0.200497	0.19458	0.19721	0.198689	0.117661
1339	0.198853	0.196717	0.197867	0.198524	0.120948
1340	0.198196	0.196388	0.20477	0.203291	0.12292
1341	0.193265	0.198196	0.197867	0.205427	0.12933
1342	0.198853	0.19573	0.201976	0.197867	0.131467
1343	0.196223	0.200332	0.200497	0.20099	0.141
1344	0.201812	0.196881	0.199675	0.199675	0.135247
1345	0.199182	0.198689	0.199675	0.194087	0.140342
1346	0.200497	0.195237	0.201319	0.200332	0.140342
1347	0.199346	0.198031	0.197703	0.200497	0.146095
1348	0.197538	0.19836	0.198524	0.200004	0.145602
1349	0.196717	0.198853	0.197538	0.199511	0.147738
1350	0.197045	0.196223	0.195895	0.202305	0.152011
1351	0.199018	0.199018	0.19573	0.199182	0.156449
1352	0.194744	0.19836	0.196552	0.202469	0.153984
1353	0.199018	0.197045	0.197703	0.205427	0.159243
1354	0.199839	0.198524	0.180116	0.199182	0.162202
1355	0.20214	0.198031	0.164831	0.20099	0.158093
1356	0.200497	0.197867	0.155463	0.198689	0.161873
1357	0.197867	0.195895	0.144615	0.197538	0.160887
1358	0.093665	0.198524	0.131796	0.200004	0.164338
1359	0.032031	0.197867	0.123742	0.201483	0.165489
1360	0.03614	0.19836	0.112401	0.197703	0.16516
1361	0.044851	0.196388	0.102704	0.201319	0.168776
1362	0.050439	0.199182	0.096788	0.200661	0.170255
1363	0.052411	0.196552	0.090213	0.198689	0.170748
1364	0.061779	0.197045	0.084789	0.199675	0.171241
1365	0.067039	0.198524	0.081502	0.20099	0.169598
1366	0.073284	0.198689	0.078708	0.199018	0.175843
1367	0.079366	0.199018	0.077229	0.200168	0.176172
1368	0.081338	0.196223	0.072627	0.200004	0.17272
1369	0.083475	0.198689	0.066381	0.200332	0.176008
1370	0.095144	0.196717	0.069011	0.198689	0.17535
1371	0.09498	0.19721	0.067532	0.201319	0.175679
1372	0.096294	0.197703	0.061286	0.201319	0.179623
1373	0.001296	0.194744	0.063752	0.200497	0.180774
1374	0.00031	0.196717	0.063259	0.204277	0.178309
1375	0.00031	0.19458	0.066053	0.197374	0.182417
1376	0.001132	0.194251	0.07312	0.199182	0.170419
1377	0.002611	0.197538	0.071641	0.200497	0.178637
1378	0.00787	0.195895	0.070983	0.201154	0.182253
1379	0.016746	0.195566	0.070162	0.195402	0.187019
1380	0.025292	0.19721	0.070326	0.197703	0.182089
1381	0.032524	0.198689	0.068847	0.198524	0.185705
1382	0.037126	0.198031	0.070326	0.198524	0.184554
1383	0.042714	0.197374	0.066053	0.199675	0.188334
1384	0.050603	0.198524	0.065395	0.201154	0.187513
1385	0.058328	0.196552	0.066217	0.205592	0.186198
1386	0.061615	0.192772	0.061944	0.201483	0.188334
1387	0.070983	0.196059	0.061615	0.200825	0.167954
1388	0.073449	0.193758	0.058164	0.202469	0.185869
1389	0.079037	0.19721	0.059314	0.200825	0.186526
1390	0.084625	0.196388	0.056684	0.197867	0.187513
1391	0.092514	0.195895	0.05389	0.20362	0.188334
1392	0.092843	0.200661	0.050439	0.196717	0.191293
1393	0.096788	0.197867	0.058492	0.197538	0.187841
1394	0.101718	0.199675	0.052411	0.200661	0.191786
1395	0.10139	0.197538	0.054876	0.200825	0.191786
1396	0.107635	0.198689	0.04748	0.196552	0.190471
1397	0.107306	0.198524	0.049288	0.199018	0.192279
1398	0.115853	0.200825	0.044193	0.198689	0.184225
1399	0.11799	0.196717	0.039098	0.199182	0.189978
1400	0.118154	0.198689	0.037948	0.20099	0.191293
1401	0.123085	0.200168	0.037126	0.199839	0.192115
1402	0.130316	0.196717	0.037455	0.201319	0.193101
1403	0.13196	0.199839	0.040906	0.199346	0.195895
1404	0.136069	0.197538	0.043371	0.201319	0.191786
1405	0.135247	0.19836	0.04748	0.199182	0.195402
1406	0.140506	0.200004	0.04633	0.200004	0.193922
1407	0.142479	0.202469	0.047645	0.201154	0.193758
1408	0.141328	0.197045	0.050768	0.203455	0.188827
1409	0.15119	0.199018	0.049617	0.200825	0.18817
1410	0.146588	0.193265	0.049946	0.203291	0.19195
1411	0.151025	0.197538	0.054383	0.202633	0.192608
1412	0.151025	0.199346	0.049781	0.197045	0.191786
1413	0.156285	0.196717	0.046987	0.199839	0.19573
1414	0.152505	0.200825	0.04633	0.203126	0.194251
1415	0.1576	0.199346	0.040906	0.198689	0.194909
1416	0.158914	0.199018	0.040742	0.200497	0.198689
1417	0.159408	0.197538	0.034661	0.202305	0.196552
1418	0.161873	0.198031	0.033017	0.198031	0.199018
1419	0.164338	0.196881	0.035154	0.201319	0.194416
1420	0.168118	0.200004	0.028744	0.200661	0.193265
1421	0.167297	0.194416	0.028251	0.199182	0.188334
1422	0.169598	0.20099	0.028908	0.200497	0.197538
1423	0.169105	0.196059	0.02973	0.200825	0.196881
1424	0.170913	0.199675	0.028908	0.198031	0.195566
1425	0.169269	0.199675	0.032195	0.20214	0.196223
1426	0.17157	0.199182	0.030716	0.199839	0.195237
1427	0.169598	0.196717	0.016746	0.200332	0.191457
1428	0.171899	0.200168	0.013952	0.201812	0.194251
1429	0.175186	0.199675	0.007542	0.201483	0.197045
1430	0.174035	0.197045	0.012965	0.200168	0.195402
1431	0.175021	0.198524	0.00787	0.199511	0.195237
1432	0.177651	0.199346	0.005569	0.198689	0.194087
1433	0.176665	0.197867	0.007213	0.199675	0.196552
1434	0.180774	0.197374	0.006062	0.196388	0.196059
1435	0.180281	0.198689	0.005076	0.196223	0.20099
1436	0.178802	0.19573	0.002447	0.200661	0.196552
1437	0.180774	0.200168	0.001132	0.198853	0.193922
1438	0.181267	0.199511	0.004748	0.200004	0.196059
1439	0.182253	0.198031	0.005076	0.201647	0.198524
1440	0.186198	0.196059	0.006391	0.199839	0.19836
1441	0.185705	0.199675	0.005569	0.201483	0.198196
1442	0.185047	0.198031	0.005734	0.203291	0.196223
1443	0.183897	0.19836	0.003926	0.201812	0.194087
1444	0.179952	0.198689	0.008035	0.202798	0.194087
1445	0.186033	0.199511	0.0105	0.199182	0.198853
1446	0.188006	0.201154	0.011322	0.198196	0.196388
1447	0.184718	0.199182	0.013294	0.199018	0.19721
1448	0.185705	0.202798	0.003268	0.19836	0.199511
1449	0.184718	0.200004	0.005405	0.197045	0.200332
1450	0.187348	0.198524	0.00672	0.195895	0.198031
1451	0.186691	0.198853	0.004748	0.20214	0.196223
1452	0.186526	0.198196	0.005898	0.200004	0.199839
1453	0.187841	0.194416	0.000803	0.199182	0.195895
1454	0.19195	0.198524	0.00146	0.199346	0.198853
1455	0.193429	0.195895	0.004255	0.199839	0.198853
1456	0.18932	0.199182	-0.000841	0.201319	0.199675
1457	0.192772	0.19721	0.000967	0.205427	0.198524
1458	0.189814	0.200497	0.003433	0.202962	0.198524
1459	0.190471	0.197045	0.003268	0.202305	0.197867
1460	0.193265	0.202633	0.003104	0.202962	0.195402
1461	0.192115	0.200004	0.003761	0.198524	0.197538
1462	0.192936	0.199018	0.00146	0.204441	0.196881
1463	0.190964	0.200168	0.003926	0.204277	0.20099
1464	0.193265	0.201154	0.003597	0.201647	0.197867
1465	0.191786	0.199346	0.002282	0.199346	0.200332
1466	0.193101	0.197374	0.00031	0.199839	0.199675
1467	0.195402	0.199018	-0.000676	0.199839	0.199182
1468	0.192279	0.195073	0.002282	0.201812	0.198031
1469	0.188499	0.197867	0.000967	0.19573	0.196881
1470	0.193594	0.196223	0.004583	0.201976	0.198853
1471	0.194087	0.198031	0.000803	0.199018	0.202798
1472	0.195566	0.19721	0.00409	0.20099	0.195237
1473	0.198853	0.196223	-0.000841	0.201154	0.199839
1474	0.192115	0.196552	0.00031	0.202305	0.199182
1475	0.196552	0.197045	0.001625	0.200825	0.198524
1476	0.195073	0.204606	0.00146	0.201154	0.197867
1477	0.198031	0.204277	0.000803	0.20362	0.201154
1478	0.193758	0.198524	0.003761	0.200497	0.194744
1479	0.197045	0.199675	0.003597	0.199182	0.197867
1480	0.193594	0.038605	0.001132	0.198689	0.19836
1481	0.193594	-0.001662	0.007049	0.200825	0.196717
1482	0.195402	0.008363	0.002775	0.200497	0.200825
1483	0.19573	-0.000676	0.008035	0.206578	0.199511
1484	0.197703	-0.000512	0.003104	0.202469	0.201319
1485	0.192772	0.000146	0.005241	0.198853	0.198524
1486	0.194251	0.004419	0.002447	0.201647	0.201319
1487	0.195237	0.0105	0.001954	0.200004	0.194744
1488	0.200004	0.020033	-0.000183	0.197703	0.199182
1489	0.195895	0.018882	-0.000183	0.202798	0.202305
1490	0.194087	0.00294	-0.000183	0.196388	0.199018
1491	0.192115	-1.9e-05	-1.9e-05	0.196552	0.201154
1492	0.196059	0.000474	0.005241	0.200004	0.197538
1493	0.195402	-0.001169	-0.000512	0.197867	0.200168
1494	0.199839	0.003268	0.000639	0.200004	0.198689
1495	0.198689	0.002118	0.00031	0.201483	0.199346
1496	0.194087	0.00146	0.001132	0.202798	0.197703
1497	0.197867	0.003597	0.000803	0.199346	0.197867
1498	0.19573	0.002775	0.002775	0.200825	0.197867
1499	0.194909	0.010829	-0.000676	0.198689	0.199675
1500	0.194087	0.008692	0.000474	0.202798	0.199346
1501	0.19573	0.020362	-0.000841	0.200332	0.196717
1502	0.195237	0.007542	-0.001169	0.199346	0.198689
1503	0.194744	0.000146	0.001625	0.198524	0.200661
1504	0.197703	0.001954	0.000146	0.199511	0.200332
1505	0.201647	0.010336	0.000639	0.20099	0.201154
1506	0.191457	0.015431	0.000474	0.20099	0.200004
1507	0.197703	0.026771	-0.000347	0.206578	0.199511
1508	0.196717	0.033181	0.001296	0.201647	0.199839
1509	0.199511	0.038769	0.001296	0.201483	0.197867
1510	0.197703	0.032195	-0.000347	0.201319	0.199839
1511	0.198196	0.00409	0.000967	0.201976	0.197867
1512	0.199675	0.011815	0.001132	0.199018	0.202469
1513	0.196059	0.002118	-1.9e-05	0.20099	0.199675
1514	0.200332	0.008528	-0.001662	0.196223	0.200825
1515	0.196717	0.007542	0.001789	0.19836	0.200168
1516	0.196552	0.003926	-0.001005	0.196881	0.201319
1517	0.199675	0.004255	0.002447	0.199346	0.196717
1518	0.196881	0.011651	0.000967	0.200825	0.199675
1519	0.198853	0.017403	0.000639	0.200825	0.198524
1520	0.197703	0.025457	0.000639	0.200004	0.196388
1521	0.197045	0.03088	-1.9e-05	0.199839	0.196881
1522	0.196223	0.038934	-0.001498	0.200825	0.199018
1523	0.201976	0.04255	-0.000183	0.199182	0.201319
1524	0.199675	0.051754	-0.000841	0.199675	0.195566
1525	0.197538	0.059807	-0.00232	0.198524	0.203784
1526	0.196059	0.063094	0.001954	0.199346	0.200825
1527	0.201319	0.074106	-0.000676	0.199511	0.203948
1528	0.197538	0.075092	0.000967	0.200332	0.201812
1529	0.19573	0.081831	0.001132	0.198853	0.20099
1530	0.201319	0.082982	0.001132	0.200168	0.200004
1531	0.198524	0.091035	0.00031	0.198689	0.199675
1532	0.196717	0.089885	0.001296	0.200497	0.194416
1533	0.19836	0.098924	-0.000841	0.203948	0.202469
1534	0.204113	0.097938	0.000639	0.205756	0.198524
1535	0.196059	0.101225	-0.000512	0.197867	0.197703
1536	0.19458	0.11273	-0.001498	0.201812	0.19836
1537	0.198031	0.1101	0.001132	0.19836	0.198524
1538	0.193101	0.11273	0.002775	0.202305	0.202633
1539	0.193265	0.119797	0.003433	0.198031	0.200004
1540	0.189814	0.12292	0.001132	0.197045	0.197867
1541	0.196059	0.121277	0.002775	0.193265	0.199675
1542	0.198524	0.127851	0.00409	0.194251	0.200661
1543	0.194251	0.128673	0.005405	0.199675	0.198031
1544	0.196717	0.13459	0.002118	0.197867	0.199182
1545	0.200825	0.130974	0.003597	0.199346	0.199839
1546	0.1908	0.133603	0.001954	0.197374	0.200004
1547	0.189978	0.135247	0.004583	0.199346	0.203291
1548	0.19458	0.140506	0.002282	0.199675	0.204113
1549	0.18932	0.140342	0.006884	0.201812	0.200825
1550	0.191786	0.145108	0.006556	0.199675	0.200661
1551	0.166146	0.147738	0.003761	0.201976	0.198031
1552	0.168283	0.145273	0.003597	0.20099	0.199675
1553	0.167297	0.148067	0.004419	0.200004	0.200661
1554	0.165489	0.149382	0.005076	0.201647	0.197045
1555	0.166311	0.150368	0.000639	0.201976	0.198524
1556	0.171406	0.151518	0.002118	0.202469	0.197374
1557	0.165817	0.152669	-0.000512	0.201483	0.200168
1558	0.165653	0.154312	0.004912	0.200168	0.198689
1559	0.168447	0.156449	0.000146	0.198031	0.202469
1560	0.16894	0.151354	0.00031	0.201319	0.199839
1561	0.169926	0.159408	-0.000676	0.197867	0.205756
1562	0.169598	0.153162	0.001625	0.201483	0.200004
1563	0.170255	0.155956	0.000146	0.198524	0.201154
1564	0.168283	0.158586	-0.000183	0.202305	0.201319
1565	0.168612	0.162202	0.001132	0.20099	0.197538
1566	0.166475	0.164831	0.00031	0.207564	0.199346
1567	0.167954	0.163845	0.000639	0.200004	0.198853
1568	0.165489	0.164174	0.00294	0.199675	0.19836
1569	0.168118	0.168447	0.001296	0.202633	0.197045
1570	0.163845	0.167297	0.000803	0.201647	0.200661
1571	0.166475	0.167132	0.001296	0.196881	0.19836
1572	0.152669	0.170913	0.00031	0.199675	0.199182
1573	0.15119	0.163023	0.003268	0.199511	0.199346
1574	0.152669	0.170091	0.000639	0.195895	0.199346
1575	0.136726	0.170913	0.001132	0.198031	0.200825
1576	0.023977	0.170255	-1.9e-05	0.198031	0.198196
1577	0.019375	0.170255	0.000146	0.201154	0.199511
1578	0.01691	0.175021	-0.000841	0.195073	0.205592
1579	0.022498	0.174035	0.000146	0.197374	0.198689
1580	0.029566	0.175186	0.003268	0.198689	0.204441
1581	0.035154	0.178309	0.000146	0.198853	0.201812
1582	0.04633	0.179295	0.000146	0.196223	0.201976
1583	0.045508	0.177815	0.002282	0.19836	0.19836
1584	0.055863	0.173378	0.00031	0.197538	0.195566
1585	0.040249	0.177651	0.000474	0.20099	0.196717
1586	0.004748	0.178473	0.001954	0.200497	0.198196
1587	0.005569	0.182089	0.00031	0.197867	0.197374
1588	0.0105	0.184225	0.000146	0.20362	0.19573
1589	0.007049	0.175843	-0.000183	0.196881	0.19721
1590	0.018718	0.178966	-0.000347	0.200332	0.198524
1591	0.022169	0.182746	0.004912	0.195237	0.197703
1592	0.022498	0.179788	0.001789	0.195566	0.199675
1593	0.025785	0.181924	0.000639	0.196717	0.199839
1594	0.024306	0.001625	0.000146	0.194251	0.196223
1595	0.020197	0.002775	0.000639	0.196552	0.202962
1596	0.022005	0.009678	0.000803	0.197045	0.199675
1597	0.017732	0.018061	0.000639	0.196881	0.198853
1598	0.011979	0.027922	-1.9e-05	0.201154	0.199182
1599	0.012144	0.03614	0.000146	0.200661	0.200661
1600	0.003268	0.043371	-0.000183	0.197374	0.199346
1601	0.00935	0.04748	-0.000676	0.200497	0.19836
1602	0.009021	0.056027	0.006884	0.198196	0.200661
1603	0.011486	0.017239	0.000639	0.200332	0.201154
1604	0.009021	0.001625	0.000146	0.19721	0.196059
1605	0.008857	0.004255	0.001132	0.197045	0.199839
1606	0.010993	0.000474	0.00031	0.201319	0.198031
1607	0.007049	0.006227	0.001625	0.201319	0.199346
1608	0.002118	0.010993	0.000146	0.198031	0.201319
1609	0.003104	0.016253	0.000803	0.198689	0.197703
1610	0.004419	0.020033	0.00031	0.195895	0.203784
1611	-0.009387	-1.9e-05	0.000639	0.196223	0.196881
1612	0.002447	0.005405	-0.000676	0.196388	0.199182
1613	0.003433	0.017403	0.00672	0.197045	0.200332
1614	0.006556	0.02447	-0.001005	0.196717	0.199346
1615	0.005898	0.031209	0.00031	0.198853	0.20099
1616	0.002118	0.040084	-0.000347	0.197045	0.199182
1617	0.006556	0.039427	0.001296	0.197045	0.199182
1618	0.004255	0.050932	0.000803	0.198689	0.197538
1619	0.002611	0.057177	0.000803	0.19721	0.198524
1620	0.002775	0.065231	0.000639	0.199675	0.196059
1621	0.00294	0.070326	-0.000676	0.19458	0.196059
1622	-0.0061	0.069997	0.00146	0.196388	0.195073
1623	-0.002155	0.077886	-0.001334	0.192279	0.199182
1624	-0.001662	0.084132	0.004255	0.19573	0.197374
1625	0.002775	0.090542	0.000474	0.192279	0.198689
1626	0.00294	0.0935	0.000474	0.196059	0.199182
1627	0.004419	0.095144	-0.000347	0.18554	0.197867
1628	0.000146	0.087584	0.000639	0.192936	0.200332
1629	0.004583	0.100896	0.001625	0.189978	0.199018
1630	0.003104	0.105827	-0.000841	0.190635	0.198689
1631	0.00146	0.109443	0.004912	0.192279	0.199675
1632	0.00294	0.114374	0.003926	0.187184	0.200004
1633	-0.001991	0.117332	0.008857	0.189649	0.197374
1634	-0.000676	0.119797	0.008199	0.188006	0.195895
1635	0.004748	0.124564	0.004912	0.188827	0.198524
1636	0.002118	0.126865	0.011486	0.186691	0.199346
1637	0.005076	0.128673	0.013623	0.186198	0.194909
1638	0.00294	0.132617	0.012308	0.184061	0.199346
1639	0.006062	0.126207	0.010993	0.185869	0.197045
1640	0.001132	0.133439	0.013294	0.181431	0.196717
1641	0.001296	0.134754	0.012637	0.176008	0.194744
1642	-0.000183	0.144287	0.009678	0.179952	0.201483
1643	-0.000347	0.143794	0.015431	0.178637	0.197867
1644	-0.001334	0.144287	0.013952	0.175186	0.198689
1645	-0.000347	0.08709	0.014938	0.17272	0.199018
1646	0.000474	0.067203	0.009843	0.170748	0.199839
1647	0.000146	0.070326	0.012801	0.173542	0.197045
1648	0.000146	0.073778	0.017896	0.172556	0.199182
1649	0.00031	0.077722	0.022334	0.169762	0.200825
1650	0.000146	0.076079	0.03351	0.173378	0.197538
1651	-1.9e-05	0.089556	0.035647	0.172885	0.20099
1652	-1.9e-05	0.092514	0.042714	0.171406	0.200332
1653	-0.000512	0.098431	0.049781	0.170091	0.199511
1654	-0.000676	0.100568	0.055534	0.171734	0.198524
1655	-0.000676	0.103526	0.060793	0.164831	0.199182
1656	-0.000183	0.107306	0.06671	0.173049	0.197374
1657	-1.9e-05	0.11158	0.0603	0.169269	0.200332
1658	0.002611	0.076736	0.076243	0.166968	0.197703
1659	0.000146	0.007049	0.083146	0.166311	0.198689
1660	0.000474	0.005076	0.087255	0.163845	0.200332
1661	0.000803	0.00672	0.092186	0.160558	0.196552
1662	-0.000183	0.011815	0.096294	0.156613	0.199839
1663	-0.000347	0.017567	0.101225	0.156942	0.203126
1664	-0.000183	0.024635	0.103362	0.155956	0.19721
1665	-0.000512	0.030387	0.105992	0.157435	0.200004
1666	-0.000676	0.039591	0.10895	0.15234	0.201154
1667	-0.000183	0.043043	0.114702	0.152505	0.196388
1668	-1.9e-05	0.056849	0.107306	0.152833	0.199511
1669	0.000146	0.057177	0.118647	0.153984	0.199018
1670	0.00031	0.062601	0.124564	0.153162	0.200168
1671	0.00031	0.068682	0.123413	0.154312	0.200168
1672	0.00031	0.072463	0.128508	0.155792	0.197867
1673	-0.000183	0.077229	0.132289	0.15875	0.19836
1674	-0.000841	0.084954	0.134097	0.154806	0.201483
1675	-0.000347	0.088241	0.139192	0.156285	0.198853
1676	-0.000183	0.091199	0.140178	0.157107	0.198196
1677	-0.000347	0.096788	0.141657	0.153984	0.198196
1678	-0.000183	0.10517	0.150697	0.15497	0.195073
1679	0.00031	0.105663	0.140178	0.154641	0.198689
1680	-1.9e-05	0.108786	0.147903	0.154477	0.198689
1681	0.00031	0.112566	0.152505	0.154148	0.198031
1682	0.00031	0.114209	0.154312	0.157764	0.198196
1683	0.000474	0.114045	0.153655	0.152505	0.201647
1684	-1.9e-05	0.119633	0.155792	0.158093	0.197374
1685	-1.9e-05	0.125057	0.155956	0.152998	0.201483
1686	-0.000347	0.125057	0.161709	0.153984	0.196388
1687	-0.000512	0.128673	0.160394	0.154477	0.199675
1688	-0.000512	0.130809	0.160558	0.152505	0.196717
1689	-0.000347	0.135576	0.161873	0.152176	0.196223
1690	0.000146	0.135904	0.162037	0.148231	0.201483
1691	0.000146	0.138534	0.166311	0.147738	0.19573
1692	0.00031	0.146916	0.166146	0.148889	0.200168
1693	0.00031	0.147738	0.169762	0.150697	0.200004
1694	-1.9e-05	0.143465	0.171077	0.149546	0.198853
1695	-1.9e-05	0.146752	0.174364	0.151683	0.202633
1696	-0.000512	0.148724	0.172392	0.149382	0.198524
1697	-0.000183	0.150697	0.179459	0.151025	0.201319
1698	-0.000183	0.15234	0.176665	0.149382	0.198689
1699	-0.000676	0.153655	0.176665	0.153984	0.196223
1700	-1.9e-05	0.159079	0.18061	0.155299	0.198689
1701	0.00031	0.157764	0.176501	0.153162	0.199182
1702	0.00031	0.162366	0.177322	0.151025	0.200825
1703	0.000146	0.159572	0.177651	0.153655	0.199018
1704	0.000474	0.163681	0.178309	0.150204	0.200332
1705	0.000474	0.161873	0.17913	0.1576	0.200825
1706	0.000146	0.165982	0.179788	0.157107	0.198689
1707	-0.000183	0.169598	0.182089	0.159736	0.200332
1708	-0.000183	0.16779	0.186526	0.157764	0.198853
1709	-0.000512	0.169926	0.183404	0.15612	0.197703
1710	-0.000347	0.169433	0.18554	0.157435	0.197374
1711	-1.9e-05	0.17157	0.185869	0.152669	0.199511
1712	0.000146	0.173214	0.186198	0.15875	0.197045
1713	0.00031	0.17535	0.185212	0.156449	0.203126
1714	0.00031	0.17535	0.18817	0.1576	0.198853
1715	0.00031	0.176172	0.184225	0.155299	0.201647
1716	0.000474	0.173542	0.185212	0.160065	0.196881
1717	-1.9e-05	0.176501	0.189978	0.154148	0.198853
1718	-0.000347	0.177815	0.18817	0.160394	0.198031
1719	-0.000347	0.178637	0.186198	0.155299	0.199346
1720	-0.000347	0.178144	0.188992	0.158257	0.199346
1721	-0.000347	0.180774	0.188663	0.156942	0.197374
1722	-0.000183	0.180445	0.188499	0.153326	0.199182
1723	0.000146	0.181924	0.189814	0.156285	0.196881
1724	-1.9e-05	0.182253	0.187841	0.157928	0.197867
1725	0.000474	0.182417	0.190964	0.156613	0.199511
1726	0.00031	0.184225	0.188663	0.154312	0.199839
1727	0.00031	0.180774	0.192772	0.160229	0.201812
1728	-0.000183	0.181267	0.191293	0.155134	0.202798
1729	-0.000183	0.183897	0.194416	0.153819	0.19721
1730	-0.000183	0.187348	0.195402	0.153326	0.200661
1731	-0.000347	0.186033	0.194744	0.158914	0.197867
1732	-0.000512	0.188006	0.192608	0.156285	0.19721
1733	-0.000347	0.18932	0.193758	0.156449	0.197867
1734	0.00031	0.186855	0.192443	0.1576	0.199839
1735	0.000146	0.184883	0.188663	0.156778	0.199182
1736	0.000474	0.188992	0.192443	0.160558	0.199675
1737	0.000146	0.186526	0.190964	0.156942	0.199346
1738	0.001296	0.183568	0.191457	0.159736	0.201483
1739	0.00031	0.185376	0.189978	0.15875	0.201154
1740	-0.000347	0.188992	0.19836	0.156285	0.198196
1741	-0.000512	0.189156	0.194087	0.159408	0.197045
1742	-0.000512	0.176008	0.197703	0.159572	0.198689
1743	-0.000512	0.174035	0.196552	0.159572	0.200332
1744	-0.001169	0.183568	0.196059	0.160558	0.198853
1745	-0.000183	0.183897	0.194909	0.159243	0.204113
1746	0.000474	0.181103	0.195895	0.163352	0.197867
1747	0.002118	0.184883	0.195073	0.16253	0.199839
1748	0.001132	0.182582	0.197703	0.162859	0.197703
1749	0.000474	0.182417	0.198196	0.163516	0.197867
1750	0.000967	0.181267	0.199346	0.16253	0.197703
1751	0.000146	0.183404	0.194909	0.164174	0.200497
1752	-1.9e-05	0.177487	0.196881	0.164338	0.196223
1753	-0.000183	0.185212	0.196552	0.164174	0.204113
1754	-1.9e-05	0.187513	0.194416	0.16253	0.197867
1755	0.000146	0.187677	0.199675	0.165982	0.199511
1756	0.000639	0.186526	0.194251	0.163516	0.202469
1757	0.002775	0.188827	0.196388	0.173049	0.197703
1758	0.000146	0.184718	0.194909	0.165489	0.201319
1759	0.002775	0.186855	0.198196	0.168776	0.200004
1760	0.005241	0.187513	0.197703	0.166146	0.205592
1761	0.00787	0.186033	0.194087	0.169269	0.201154
1762	-0.002155	0.187677	0.198031	0.167954	0.201812
1763	0.003926	0.187348	0.201154	0.167625	0.199675
1764	0.003268	0.192772	0.197045	0.169762	0.198853
1765	-0.002977	0.188499	0.19721	0.168118	0.197374
1766	0.003104	0.192115	0.19573	0.168447	0.19836
1767	0.00672	0.191621	0.197374	0.169105	0.198196
1768	0.003926	0.190307	0.195895	0.176172	0.196388
1769	0.002775	0.188827	0.195895	0.168612	0.199675
1770	0.0105	0.187841	0.196717	0.169598	0.199182
1771	0.010171	0.18817	0.196881	0.170748	0.200825
1772	0.01954	0.187348	0.199018	0.170091	0.203126
1773	0.019704	0.186691	0.198196	-0.001498	0.200168
1774	-0.000183	0.190635	0.199182	-1.9e-05	0.195566
1775	-0.000512	0.191293	0.197538	0.000803	0.202305
1776	0.00031	0.189814	0.200004	0.003104	0.198524
1777	0.007049	0.190964	0.201812	0.011322	0.199839
1778	0.011979	0.191621	0.199346	0.020033	0.197703
1779	0.020855	0.192279	0.197374	-0.001662	0.19836
1780	0.025785	0.190635	0.199182	0.00935	0.199346
1781	0.030716	0.191457	0.198196	0.017239	0.198196
1782	0.036304	0.197703	0.199018	0.022991	0.19836
1783	0.041728	0.19458	0.199675	0.031373	0.198853
1784	-0.000183	0.189814	0.198031	0.037455	0.197045
1785	0.002775	0.189485	0.200332	0.043536	0.196717
1786	0.009021	0.187841	0.196717	0.05011	0.199511
1787	0.018389	0.189814	0.196059	0.054548	0.197045
1788	0.021512	0.189649	0.196059	0.061122	0.197867
1789	0.026278	0.186855	0.195237	0.064902	0.199675
1790	0.030387	0.191457	0.19573	0.071641	0.200497
1791	0.03614	0.191293	0.198196	0.075914	0.200004
1792	0.045179	0.192608	0.196717	0.076736	0.201319
1793	0.049946	0.192279	0.201483	0.084954	0.198689
1794	0.056027	0.191293	0.200825	0.088077	0.20099
1795	0.058985	0.191786	0.196717	0.090871	0.200825
1796	0.057835	0.193758	0.200497	0.095801	0.199182
1797	0.058985	0.192936	0.198853	0.096952	0.197045
1798	0.067861	0.193101	0.20099	0.103691	0.198031
1799	0.057999	0.194416	0.199511	0.107142	0.196881
1800	0.062601	0.196717	0.199839	0.102047	0.197703
1801	0.065231	0.192936	0.195073	0.072134	0.199018
1802	0.071148	0.190307	0.198031	0.056684	0.198689
1803	0.071477	0.18932	0.197045	0.061779	0.200004
1804	0.080845	0.188006	0.199511	0.068682	0.19836
1805	0.003926	0.189156	0.19836	0.072463	0.199511
1806	0.013294	0.188992	0.201154	0.079201	0.199675
1807	0.022005	0.193594	0.197703	0.081009	0.201812
1808	0.027429	0.189485	0.200332	0.08857	0.197538
1809	0.035811	0.194251	0.198524	0.089391	0.200168
1810	0.042714	0.191786	0.199346	0.09613	0.195895
1811	0.048138	0.193922	0.198853	0.097774	0.199182
1812	0.054548	0.192936	0.200004	0.10632	0.197867
1813	0.061944	0.197374	0.19836	0.103362	0.19836
1814	0.066546	0.191457	0.196717	0.10895	0.198689
1815	0.07197	0.193101	0.200004	0.052575	0.200332
1816	0.07197	0.192608	0.194909	0.01313	0.199511
1817	0.080845	0.19195	0.200004	0.020362	0.19836
1818	0.084954	0.191786	0.197538	0.023156	0.19836
1819	0.089227	0.187841	0.198524	0.031045	0.19836
1820	0.090706	0.189156	0.198689	0.035154	0.19721
1821	0.095801	0.188334	0.201976	0.04255	0.197045
1822	0.098102	0.188499	0.19836	0.038441	0.19836
1823	0.102704	0.184061	0.199839	0.04255	0.195895
1824	0.106649	0.187184	0.200497	0.037783	0.200168
1825	0.105827	0.183732	0.198689	0.022991	0.199839
1826	0.113223	0.186198	0.196717	0.020526	0.200661
1827	0.113552	0.183404	0.201812	0.021676	0.200332
1828	0.116182	0.186033	0.197867	0.004912	0.201154
1829	0.113059	0.183897	0.197538	0.003433	0.200004
1830	0.080352	0.188006	0.200661	0.00031	0.197045
1831	0.07953	0.184225	0.197374	0.00294	0.19836
1832	0.092514	0.187513	0.198031	0.006391	0.199018
1833	0.091035	0.188499	0.199018	0.012308	0.203784
1834	0.096623	0.184061	0.197867	0.001296	0.200004
1835	0.099582	0.18439	0.19573	0.005076	0.199182
1836	0.099417	0.183075	0.197374	0.01428	0.201319
1837	0.105498	0.184883	0.196881	-0.000183	0.198689
1838	0.10895	0.182417	0.197374	0.000803	0.19721
1839	0.115195	0.186033	0.196552	0.000146	0.19836
1840	0.111908	0.183732	0.196552	0.000803	0.198524
1841	0.11799	0.187348	0.199839	-0.001169	0.200004
1842	0.122592	0.186691	0.196881	0.001789	0.199182
1843	0.066875	0.190471	0.200825	0.005405	0.201483
1844	0.005076	0.189814	0.201154	0.007049	0.199346
1845	0.015102	0.187513	0.198853	0.00672	0.198031
1846	0.020362	0.187348	0.199182	0.000803	0.199511
1847	0.02973	0.191293	0.197703	-1.9e-05	0.199675
1848	0.034003	0.188827	0.196881	0.001296	0.202633
1849	0.039591	0.188827	0.196552	0.000474	0.198196
1850	0.046166	0.189485	0.195895	0.000639	0.200004
1851	0.052904	0.188006	0.200497	0.003761	0.200661
1852	0.058985	0.190471	0.196717	-0.000841	0.198689
1853	0.064902	0.19195	0.200497	0.003104	0.200661
1854	0.070162	0.196717	0.197703	0.002775	0.200168
1855	0.071312	0.193594	0.202305	0.000474	0.199346
1856	0.08216	0.194087	0.199182	0.000967	0.197703
1857	0.082982	0.191293	0.200168	0.001132	0.198031
1858	0.08709	0.188499	0.200004	0.000967	0.200168
1859	0.094158	0.188992	0.19836	0.00031	0.199182
1860	0.098924	0.189156	0.198853	-0.000347	0.199511
1861	0.100732	0.186033	0.200497	0.000639	0.203126
1862	0.106649	0.188663	0.200661	-0.000676	0.197045
1863	0.108457	0.191293	0.196388	0.000803	0.199839
1864	0.114045	0.180938	0.199675	0.000146	0.198524
1865	0.117496	0.186526	0.197374	-1.9e-05	0.200168
1866	0.118647	0.180116	0.199018	0.001296	0.19721
1867	0.121605	0.00787	0.194909	0.000967	0.196223
1868	0.124893	-0.000183	0.196881	0.001132	0.198196
1869	0.126865	0.005734	0.196388	-0.000676	0.20099
1870	0.129166	0.012308	0.199675	0.00031	0.196717
1871	0.130481	0.021348	0.19836	0.000967	0.199018
1872	0.134425	0.026936	0.202633	-0.000512	0.197703
1873	0.137219	0.03236	0.202469	-0.000841	0.197045
1874	0.140506	0.032853	0.198853	0.002611	0.19836
1875	0.137712	0.040577	0.200497	-0.000512	0.197703
1876	0.145108	0.021841	0.198853	-1.9e-05	0.199675
1877	0.145766	0.02332	0.200825	0.001296	0.198196
1878	0.144451	0.005898	0.197374	0.00031	0.196881
1879	0.149053	0.004255	0.195402	0.001625	0.199511
1880	0.150861	0.0105	0.195237	0.000967	0.199182
1881	0.151354	0.014609	0.196059	0.000146	0.199018
1882	0.15497	0.026607	0.196388	0.000146	0.202962
1883	0.158421	0.029401	0.20099	0.000146	0.201647
1884	0.159408	0.039756	0.197867	0.00031	0.197374
1885	0.159572	0.043043	0.198031	0.000639	0.197374
1886	0.164503	0.048795	0.199018	-1.9e-05	0.201812
1887	0.165489	0.053397	0.20099	0.000967	0.196059
1888	0.164831	0.053233	0.201319	-1.9e-05	0.199182
1889	0.168612	0.01313	0.198689	0.001132	0.194416
1890	0.166146	0.006227	0.197703	-0.000183	0.19836
1891	0.163845	-0.000183	0.19836	0.000639	0.201154
1892	0.169598	0.006556	0.200497	-0.000347	0.199182
1893	0.166475	0.012965	0.199511	-0.001005	0.199018
1894	0.171406	0.021019	0.204113	-0.000676	0.200825
1895	0.170584	0.027429	0.19836	-0.000676	0.199675
1896	0.168447	0.036469	0.20099	0.000639	0.199675
1897	0.172227	0.043865	0.199511	0.002447	0.199511
1898	0.176665	0.049288	0.197867	0.006062	0.198031
1899	0.173378	0.058492	0.193265	0.008035	0.201154
1900	0.1742	0.058657	0.200825	0.021841	0.197703
1901	0.178309	0.064245	0.196552	0.02595	0.201483
1902	0.179952	0.063259	0.198031	0.000474	0.199675
1903	0.181267	0.058985	0.198853	0.001789	0.198689
1904	0.177651	-0.040451	0.200661	0.001954	0.200004
1905	0.184883	-0.026973	0.202633	0.00294	0.200004
1906	0.182417	-0.014153	0.20099	0.011979	0.19721
1907	0.183404	-0.001991	0.199346	0.015924	0.197867
1908	0.181267	0.005076	0.20099	0.021019	0.197703
1909	0.185047	0.015431	0.200825	0.030223	0.196223
1910	0.181596	0.022991	0.200004	0.033181	0.199675
1911	0.183897	0.030223	0.202633	0.043207	0.197703
1912	0.18439	0.035811	0.19721	0.04896	0.198196
1913	0.178966	0.043371	0.199675	0.037126	0.200661
1914	0.187348	0.04107	0.197703	0.042221	0.201976
1915	0.183075	0.049124	0.199675	0.050439	0.196717
1916	0.188499	0.053726	0.201319	0.057013	0.203455
1917	0.187841	0.059643	0.201647	0.061451	0.199346
1918	0.18817	0.061779	0.197374	0.066217	0.19836
1919	0.18817	0.065724	0.201154	0.07312	0.200004
1920	0.192443	0.074764	0.199346	0.078708	0.198689
1921	0.187513	0.077229	0.197867	0.085611	0.197538
1922	0.191128	0.01691	0.201154	0.086104	0.197867
1923	0.187184	0.00146	0.199182	0.09613	0.199839
1924	0.187677	0.000639	0.199018	0.099089	0.196717
1925	0.191128	0.002775	0.198524	0.096459	0.196717
1926	0.187019	0.010336	0.200661	0.105334	0.197538
1927	0.190471	0.000474	0.197374	0.106156	0.199018
1928	0.191293	0.001625	0.197374	0.112894	0.197045
1929	0.1908	0.00031	0.194744	0.114538	0.198853
1930	0.191786	0.00031	0.202798	0.115524	0.198853
1931	0.193101	0.00031	0.19836	0.123085	0.200825
1932	0.033346	0.00031	0.198524	0.124235	0.200004
1933	0.000803	0.003926	0.199839	0.125714	0.201976
1934	0.006884	0.006062	0.194744	0.13196	0.19458
1935	0.015102	0.008528	0.19573	0.13311	0.197703
1936	0.023484	-0.000183	0.19721	0.137384	0.196388
1937	0.031373	0.008363	0.198031	0.140835	0.197374
1938	0.03729	0.001296	0.196388	0.142479	0.197045
1939	0.048467	0.00031	0.198196	0.143301	0.19573
1940	0.055041	0.001625	0.197703	0.141986	0.194744
1941	0.058985	0.00409	0.198524	0.147081	0.199675
1942	0.065724	0.013294	0.198853	0.147903	0.197045
1943	0.066053	0.01313	0.199346	0.150532	0.196881
1944	0.07575	0.017567	0.197703	0.151025	0.199839
1945	0.077065	-0.000347	0.198524	0.153819	0.199839
1946	0.081009	-0.000183	0.198689	0.155792	0.200825
1947	0.088734	-0.000676	0.200168	0.158586	0.197867
1948	0.089556	-1.9e-05	0.196881	0.158421	0.200168
1949	0.093336	-1.9e-05	0.199182	0.163516	0.198196
1950	0.101554	0.000146	0.200497	0.163516	0.199675
1951	0.108293	0.00031	0.198689	0.165653	0.199346
1952	0.109772	-0.003963	0.200332	0.166311	0.196388
1953	0.114538	0.007213	0.197538	0.166146	0.197374
1954	0.117168	0.01428	0.196717	0.173378	0.19836
1955	0.118318	0.024799	0.201976	0.16894	0.204606
1956	0.122756	0.033674	0.196881	0.17157	0.198524
1957	0.128344	0.03614	0.195566	0.175021	0.199182
1958	0.129988	0.0437	0.199018	0.175021	0.198031
1959	0.131302	0.031209	0.196223	0.174364	0.198031
1960	0.135411	0.034332	0.20099	0.178144	0.198031
1961	0.136233	0.040906	0.194416	0.179788	0.199675
1962	0.137384	0.045837	0.200825	0.179623	0.196388
1963	0.13952	0.053726	0.199346	0.17798	0.200168
1964	0.143136	0.057013	0.19836	0.18061	0.19836
1965	0.143465	0.063423	0.199675	0.177815	0.198853
1966	0.143794	0.066053	0.201319	0.183075	0.198853
1967	0.149546	0.074106	0.201647	0.180938	0.201483
1968	0.152505	0.079201	0.200497	0.18061	0.197538
1969	0.152833	0.077065	0.197045	0.184554	0.199839
1970	0.153162	0.020526	0.198853	0.185376	0.202469
1971	0.159736	0.00031	0.198689	0.190964	0.19721
1972	0.159572	-1.9e-05	0.196059	0.186526	0.199182
1973	0.159901	0.00031	0.200497	0.18817	0.195402
1974	0.160558	0.00031	0.196388	0.186526	0.198853
1975	0.165982	0.000474	0.199511	0.185869	0.197374
1976	0.165324	0.000146	0.196388	0.181267	0.198853
1977	0.16516	0.004748	0.201647	0.184718	0.196223
1978	0.167954	0.013952	0.195402	0.187677	0.199018
1979	0.16779	0.019868	0.200004	0.188992	0.195895
1980	0.169433	0.029566	0.201976	0.188334	0.199675
1981	0.168447	0.038441	0.200497	0.188334	0.198853
1982	0.173378	0.040249	0.200497	0.187513	0.197374
1983	0.170091	0.046166	0.197867	0.190964	0.201647
1984	0.173871	0.05011	0.199182	0.19195	0.202633
1985	0.173049	0.05274	0.192936	0.186855	0.201154
1986	0.175843	0.062437	0.196881	0.197374	0.195402
1987	0.177322	0.067861	0.195402	0.186198	0.199182
1988	0.17798	0.072134	0.193922	0.193101	0.19721
1989	0.180445	0.079366	0.195566	0.189814	0.198031
1990	0.185376	0.08594	0.200497	0.193429	0.196552
1991	0.180938	0.090049	0.194909	0.193594	0.197703
1992	0.182746	0.097609	0.198031	0.192279	0.199511
1993	0.185705	0.097938	0.197703	0.189814	0.20214
1994	0.183239	0.097774	0.197538	0.008363	0.197703
1995	0.182417	0.109114	0.198853	0.013787	0.197867
1996	0.182089	0.107635	0.199182	0.021841	0.197045
1997	0.182253	0.114209	0.198689	0.030552	0.198524
1998	0.18176	0.115195	0.20214	0.038276	0.201319
1999	0.183897	0.120619	0.202469	0.044686	0.195566
2000	0.179459	0.122263	0.196717	0.050274	0.20099
2001	0.190142	0.123249	0.199182	0.056356	0.199182
2002	0.182911	0.12818	0.198524	0.062108	0.201154
2003	0.18554	0.133275	0.198524	0.068354	0.204277
2004	0.188992	0.135411	0.19721	0.072134	0.202962
2005	0.18932	0.136398	0.198853	0.078215	0.196059
2006	0.190142	0.139685	0.196552	0.081995	0.197538
2007	0.190471	0.138863	0.19836	0.086269	0.197703
2008	0.193101	0.143958	0.198524	0.096952	0.198853
2009	0.190635	0.143958	0.197538	0.09991	0.19836
2010	0.194087	0.15119	0.199346	0.102376	0.199346
2011	0.191621	0.148067	0.198689	0.107306	0.198196
2012	0.191786	0.150532	0.200168	0.109772	0.199675
2013	0.187184	0.149217	0.199675	0.113552	0.199675
2014	0.192115	0.158421	0.198524	0.118154	0.198524
2015	0.192279	0.156778	0.197867	0.119633	0.198853
2016	0.191786	0.157435	0.199018	0.123249	0.19836
2017	0.1908	0.158586	0.19721	0.122756	0.200004
2018	0.192115	0.160558	0.199018	0.128015	0.199346
2019	0.193265	0.160722	0.197867	0.131302	0.19836
2020	0.190471	0.161709	0.198524	0.133439	0.198031
2021	0.188334	0.163516	0.198689	0.137055	0.197703
2022	0.18932	0.164503	0.199182	0.141657	0.196881
2023	0.182746	0.166804	0.196223	0.138534	0.202469
2024	0.002118	0.165489	0.198031	0.139356	0.197045
2025	0.00031	0.17272	0.197045	0.146259	0.19836
2026	0.008692	0.167461	0.197374	0.148889	0.200168
2027	0.018554	0.172063	0.196717	0.148231	0.19836
2028	-0.000183	0.172227	0.198524	0.152669	0.198524
2029	0.003597	0.173542	0.201483	0.153655	0.19836
2030	-0.000676	0.173542	0.203455	0.15612	0.197867
2031	0.004583	0.174693	0.202962	0.158914	0.199018
2032	-0.000183	0.178144	0.198853	0.156613	0.199018
2033	0.00146	0.176665	0.201976	0.16253	0.196388
2034	-0.000183	0.179623	0.195073	0.162366	0.196223
2035	0.003104	0.176501	0.192115	0.16516	0.197703
2036	0.003268	0.178473	0.199018	0.164503	0.201812
2037	0.015595	0.177158	0.198196	0.168612	0.195402
2038	0.02069	0.176665	0.196388	0.164831	0.199511
2039	0.024142	0.176665	0.195073	0.170091	0.196388
2040	0.034496	0.182746	0.200004	0.169926	0.201483
2041	0.0437	0.18176	0.192115	0.168776	0.199675
2042	0.048467	0.18176	0.198689	0.172392	0.199511
2043	0.052247	0.182582	0.198524	0.170091	0.200168
2044	0.062108	0.184718	0.198853	0.173049	0.199839
2045	0.065724	0.184554	0.194909	0.175021	0.199018
2046	0.071148	0.186691	0.201319	0.174693	0.202469
2047	0.074435	0.188499	0.19721	0.179788	0.199511
2048	0.079366	0.187019	0.197867	0.180774	0.196388
2049	0.085118	0.187513	0.194087	0.178966	0.199839
2050	0.090542	0.18439	0.200004	0.181596	0.196717
2051	0.090378	0.18932	0.198524	0.180116	0.199018
2052	0.094487	0.190471	0.20099	0.181924	0.200497
2053	0.096788	0.189649	0.199182	0.180445	0.197045
2054	0.103362	0.189156	0.201976	0.183239	0.196881
2055	0.109114	0.193265	0.198524	0.181267	0.198853
2056	0.112401	0.183239	0.198524	0.183897	0.201647
2057	0.120291	0.18932	0.196388	0.182253	0.201647
2058	0.115524	0.18932	0.198853	0.181267	0.201483
2059	0.124564	0.186362	0.19721	0.185705	0.201647
2060	0.129988	0.190142	0.196881	0.185047	0.200661
2061	0.133768	0.192115	0.199839	0.187019	0.197703
2062	0.133768	0.192608	0.197045	0.189814	0.200332
2063	0.027922	0.194744	0.201483	0.187513	0.200004
2064	0.021019	0.190307	0.19836	0.189156	0.19836
2065	0.027758	0.193922	0.201483	0.1908	0.199511
2066	0.027593	0.198524	0.196223	0.186691	0.199839
2067	0.034825	0.190142	0.201812	0.1908	0.19721
2068	0.0105	0.191457	0.199675	0.188992	0.199018
2069	0.000146	0.191786	0.197374	0.190635	0.197045
2070	-0.000183	0.193101	0.199675	0.190471	0.199182
2071	-0.000347	0.190142	0.195402	0.192279	0.196881
2072	0.004912	0.194087	0.200497	0.192115	0.197867
2073	0.007542	0.192279	0.19836	0.187677	0.198031
2074	0.001296	0.193429	0.19721	0.186691	0.199839
2075	0.006884	0.190471	0.197703	0.186033	0.200332
2076	0.012801	0.193101	0.199182	0.189485	0.200497
2077	0.013952	0.193429	0.195073	0.190635	0.200661
2078	0.025621	0.194744	0.19836	0.192443	0.199511
2079	0.028579	0.193429	0.197703	0.192279	0.194416
2080	0.038441	0.192443	0.201154	0.192608	0.20099
2081	0.04633	0.194087	0.197703	0.194744	0.204277
2082	0.052247	0.193265	0.19458	0.195402	0.199675
2083	0.057671	0.193429	0.199346	0.195237	0.200332
2084	0.062273	0.193265	0.202798	0.195237	0.19573
2085	0.067368	0.20099	0.199675	0.193594	0.19458
2086	0.071312	0.190307	0.197538	0.194087	0.196552
2087	0.07838	0.19573	0.200661	0.193429	0.197538
2088	0.080845	0.196059	0.19836	0.193922	0.197374
2089	0.086433	0.196881	0.195895	0.193594	0.197867
2090	0.068189	0.192608	0.195566	0.195566	0.200168
2091	0.00031	0.197045	0.198196	0.194744	0.200332
2092	0.000474	0.193922	0.198196	0.193101	0.201812
2093	-0.000841	0.192936	0.197703	0.197045	0.199675
2094	0.007049	0.194251	0.197538	0.192936	0.201319
2095	0.016253	0.194909	0.200825	0.193594	0.201319
2096	0.011158	0.196223	0.195073	0.195895	0.199839
2097	0.00146	0.196223	0.199346	0.19573	0.197045
2098	0.000639	0.196881	0.19721	0.196388	0.201154
2099	0.006556	0.196552	0.200497	0.196388	0.199346
2100	0.014609	0.200004	0.199346	0.195402	0.200004
2101	0.018554	0.199182	0.199018	0.198196	0.196552
2102	0.027593	0.201483	0.19721	0.196059	0.196059
2103	0.031867	0.195073	0.20099	0.199346	0.196552
2104	0.042878	0.19836	0.196717	0.196223	0.195895
2105	0.049946	0.196059	0.200332	0.198853	0.197538
2106	0.05537	0.196388	0.200004	0.19573	0.20099
2107	0.060136	0.197703	0.198524	0.196059	0.198524
2108	0.06671	0.19458	0.200332	0.195566	0.197703
2109	0.064245	0.192936	0.199182	0.198689	0.199346
2110	0.077393	0.197045	0.199182	0.198196	0.199182
2111	0.079694	0.088734	0.197374	0.195402	0.200004
2112	0.086433	0.055041	0.199346	0.198853	0.199839
2113	0.089885	0.066546	0.197867	0.196881	0.202469
2114	0.095473	0.069669	0.198524	0.199182	0.200168
2115	0.103855	0.075914	0.195895	0.195402	0.199675
2116	0.101883	0.077722	0.198853	0.202305	0.196881
2117	0.109772	0.086433	0.199839	0.196059	0.198196
2118	0.109607	0.087748	0.204113	0.19836	0.196223
2119	0.10895	0.093172	0.199018	0.196717	0.196388
2120	0.113059	0.097938	0.197045	0.199511	0.197374
2121	0.05011	0.099089	0.199182	0.199182	0.198031
2122	0.014445	0.106156	0.19721	0.200332	0.198524
2123	0.022169	0.10895	0.201976	0.202633	0.196059
2124	0.029237	0.109279	0.196552	0.200168	0.201154
2125	0.040249	0.113716	0.202962	0.199182	0.198689
2126	0.042878	0.116675	0.197703	0.195566	0.199346
2127	0.051261	0.119633	0.199346	0.197703	0.199346
2128	0.057342	0.125879	0.200497	0.195895	0.201647
2129	0.064245	0.129495	0.198853	0.198689	0.20099
2130	0.067532	0.130809	0.197703	0.195566	0.199182
2131	0.075092	0.134425	0.198196	0.198031	0.194416
2132	0.079366	0.136398	0.193101	0.197538	0.199675
2133	0.083639	0.136069	0.19836	0.196059	0.197374
2134	0.089391	0.141164	0.198031	0.194416	0.197045
2135	0.091692	0.143465	0.196881	0.194416	0.195237
2136	0.099417	0.148067	0.199182	0.197538	0.192443
2137	0.102376	0.144122	0.196552	0.196223	0.19458
2138	0.106485	0.148724	0.197374	0.198689	0.196388
2139	0.108457	0.146752	0.199182	0.197045	0.19573
2140	0.116346	0.140671	0.200825	0.196223	0.19458
2141	0.113388	0.118483	0.198689	0.196552	0.198689
2142	0.118483	0.123085	0.198853	0.197867	0.19836
2143	0.120784	0.125386	0.195237	0.19721	0.199675
2144	0.123578	0.126865	0.206907	0.196717	0.200004
2145	0.126043	0.130974	0.201976	0.194087	0.200168
2146	0.127194	0.133275	0.200004	0.203784	0.200168
2147	0.133439	0.13837	0.199675	0.197538	0.200168
2148	0.135904	0.137548	0.199675	0.197374	0.197374
2149	0.137548	0.140835	0.197867	0.200168	0.198196
2150	0.139356	0.146259	0.200825	0.200004	0.199511
2151	0.143136	0.14856	0.196388	0.196717	0.196388
2152	0.142643	0.145602	0.197374	0.198689	0.193429
2153	0.148231	0.15119	0.20099	0.198524	0.197703
2154	0.14971	0.149875	0.197703	0.200004	0.200168
2155	0.15497	0.152505	0.199182	0.198524	0.197374
2156	0.15612	0.153819	0.199346	0.199511	0.196388
2157	0.153984	0.155463	0.199018	0.196388	0.196388
2158	0.153819	0.151683	0.19836	0.201319	0.203948
2159	0.154806	0.156613	0.203126	0.199346	0.19836
2160	0.156778	0.158586	0.198524	0.199839	0.198031
2161	0.158257	0.15119	0.202469	0.199511	0.200332
2162	0.162859	0.153819	0.198689	0.195895	0.201483
2163	0.165817	0.150697	0.199675	0.199346	0.200497
2164	0.164503	0.158914	0.199839	0.196388	0.198689
2165	0.165982	0.157928	0.199018	0.196223	0.199182
2166	0.165982	0.156942	0.198031	0.196552	0.200004
2167	0.168283	0.162202	0.197538	0.198853	0.199018
2168	0.000803	0.162859	0.197374	0.19836	0.198689
2169	-0.001662	0.162859	0.195895	0.199511	0.19836
2170	0.009843	0.165982	0.19836	0.199018	0.19836
2171	0.01576	0.165489	0.19836	0.205263	0.196388
2172	0.02069	0.164996	0.200825	0.199675	0.194251
2173	0.030552	0.168612	0.206414	0.197538	0.200004
2174	0.037455	0.169598	0.201647	0.201976	0.196717
2175	0.042221	0.171899	0.201812	0.197703	0.199018
2176	0.006227	0.169598	0.199511	0.199018	0.199018
2177	-0.001991	0.175186	0.199018	0.19721	0.199839
2178	-0.003142	0.169926	0.201812	0.202305	0.199182
2179	0.010664	0.175679	0.198689	0.197374	0.201812
2180	0.015595	0.174364	0.202633	0.198524	0.201319
2181	0.024964	0.176829	0.194416	0.196388	0.199182
2182	0.029894	0.178144	0.201483	0.203126	0.197867
2183	0.03614	0.177322	0.196881	0.197045	0.199182
2184	0.043536	0.179623	0.196059	0.19721	0.196717
2185	0.049946	0.179623	0.194744	0.201319	0.193922
2186	0.054712	0.18176	0.193758	0.19836	0.197045
2187	0.065231	0.181103	0.191293	0.201483	0.19573
2188	0.066546	0.180938	0.189978	0.19836	0.19836
2189	0.008035	0.182746	0.194251	0.201319	0.197374
2190	0.015431	0.184061	0.193758	0.198689	0.198853
2191	0.001296	0.181924	0.195402	0.201976	0.201976
2192	0.010171	0.18176	0.196223	0.199018	0.197703
2193	0.014773	0.184554	0.199839	0.206578	0.19721
2194	0.004912	0.188334	0.189814	0.196552	0.196388
2195	0.008528	0.184225	0.196552	0.198689	0.196717
2196	0.007706	0.186362	0.197538	0.197374	0.200497
2197	0.006884	0.187513	0.197045	0.197045	0.196881
2198	0.020197	0.189156	0.196388	0.194744	0.200332
2199	0.025292	0.185869	0.196223	0.194416	0.199018
2200	0.031867	0.190635	0.196717	0.198853	0.200004
2201	0.037455	0.190307	0.194416	0.198031	0.201483
2202	0.050603	0.186691	0.19836	0.201319	0.201483
2203	0.053233	0.190142	0.19458	0.198853	0.20099
2204	0.050439	0.189156	0.19721	0.203784	0.19721
2205	0.036633	0.18932	0.19721	0.196388	0.200661
2206	0.040742	0.189649	0.197045	0.199511	0.199839
2207	0.044358	0.192936	0.197045	0.201647	0.200004
2208	-0.000841	0.188334	0.199018	0.200825	0.201812
2209	0.002611	0.194251	0.196552	0.199839	0.201483
2210	0.000474	0.192115	0.198689	0.198853	0.197867
2211	0.005405	0.192443	0.199018	0.201319	0.198524
2212	0.011322	0.195073	0.199018	0.202633	0.200004
2213	0.022663	0.191621	0.201154	0.199511	0.201319
2214	0.023649	0.189156	0.19721	0.201154	0.201154
2215	0.034661	0.193758	0.199182	0.202962	0.198524
2216	0.03729	0.191293	0.202305	0.197045	0.198031
2217	0.049124	0.191621	0.196223	0.200661	0.199182
2218	0.051425	0.191786	0.195566	0.197867	0.199839
2219	0.057835	0.192608	0.197374	0.200004	0.196717
2220	0.060793	0.194416	0.194251	0.198031	0.200497
2221	0.070162	0.192279	0.198031	0.198853	0.200004
2222	0.074271	0.192772	0.192115	0.200661	0.198689
2223	0.071312	0.193594	0.192608	0.200168	0.199018
2224	0.008363	0.196059	0.193922	0.200004	0.20214
2225	-0.000347	0.195237	0.19836	0.202469	0.196059
2226	0.004583	0.19573	0.196552	0.19573	0.199839
2227	0.008363	0.195402	0.198853	0.199839	0.19573
2228	0.010007	0.192443	0.200497	0.200661	0.19721
2229	0.003433	0.195073	0.197703	0.196552	0.197703
2230	0.006391	0.196717	0.200497	0.198031	0.19836
2231	0.005734	0.190635	0.197538	0.19721	0.201647
2232	0.000474	0.197045	0.198853	0.198853	0.198853
2233	-0.000183	0.193265	0.194416	0.201319	0.201154
2234	0.003433	0.192279	0.200497	0.202798	0.198853
2235	0.011815	0.189485	0.194744	0.200168	0.203948
2236	0.00935	0.19458	0.194744	0.199839	0.197867
2237	0.002775	0.198689	0.19836	0.186691	0.197538
2238	0.007377	0.193594	0.196388	0.196552	0.197374
2239	0.015266	0.194416	0.194909	0.198196	0.198853
2240	0.021512	0.19721	0.197045	0.199346	0.193594
2241	0.028251	0.199182	0.197867	0.200168	0.199346
2242	0.023156	0.196552	0.196388	0.198196	0.198196
2243	0.013952	0.196881	0.194744	0.197374	0.198196
2244	0.009678	0.197045	0.201647	0.201319	0.196223
2245	0.000803	0.199346	0.201319	0.196881	0.197703
2246	0.003926	0.196223	0.199018	0.196717	0.198196
2247	0.000639	0.197374	0.201319	0.19836	0.196552
2248	0.001132	0.199182	0.19721	0.186198	0.19836
2249	0.009021	0.198031	0.199675	0.197538	0.200168
2250	0.016581	0.193758	0.196881	0.197045	0.197867
2251	0.01954	0.197867	0.199511	0.199511	0.200004
2252	0.029401	0.194744	0.195237	0.197867	0.204934
2253	0.037126	0.195237	0.197867	0.199675	0.200825
2254	0.045015	0.196059	0.198689	0.198689	0.201976
2255	0.05274	0.19721	0.19836	0.198689	0.198524
2256	0.057177	0.198031	0.194744	0.199839	0.200497
2257	0.06293	0.19721	0.19836	0.198031	0.201976
2258	0.066217	0.199346	0.199675	0.200004	0.19836
2259	0.070162	0.200661	0.198031	0.191128	0.194087
2260	0.074271	0.20362	0.20214	0.197045	0.196223
2261	0.074106	0.197703	0.200332	0.197538	0.195237
2262	0.076407	0.202633	0.200168	0.197703	0.195237
2263	0.074271	0.198031	0.19836	0.196388	0.199182
2264	0.07838	0.197045	0.200004	0.19458	0.198196
2265	0.040577	0.196881	0.19721	0.197703	0.200497
2266	0.003926	0.197867	0.200004	0.200661	0.197867
2267	0.001789	0.196552	0.197867	0.196881	0.200825
2268	0.013787	0.194416	0.198689	0.197703	0.198031
2269	0.020362	0.196717	0.197703	0.198524	0.198689
2270	0.022827	0.193265	0.199018	0.191293	0.201483
2271	0.034496	0.197867	0.198196	0.193594	0.199511
2272	0.040906	0.196059	0.200825	0.201319	0.197867
2273	0.046659	0.197703	0.200497	0.19836	0.200825
2274	0.052411	0.19721	0.198689	0.197703	0.199346
2275	0.061944	0.20099	0.196223	0.19836	0.201647
2276	0.060793	0.198689	0.198689	0.20099	0.195895
2277	0.076079	0.20477	0.19836	0.201154	0.196552
2278	0.072791	0.199018	0.198689	0.200004	0.198031
2279	0.062601	0.199018	0.198524	0.199346	0.193265
2280	0.045015	0.200004	0.197538	0.196552	0.195895
2281	0.050768	0.195895	0.200004	0.197045	0.197045
2282	0.053069	0.19721	0.19721	0.195895	0.198196
2283	0.057342	0.193101	0.200825	0.197045	0.197045
2284	0.065724	0.193265	0.19836	0.196552	0.198689
2285	0.01313	0.196552	0.200497	0.195402	0.195073
2286	0.007049	0.194416	0.197703	0.196552	0.202962
2287	0.016417	0.195566	0.19721	0.20099	0.198853
2288	0.01954	0.200497	0.198031	0.198524	0.199839
2289	0.02595	0.196881	0.197703	0.198689	0.198689
2290	0.034003	0.198031	0.19721	0.198196	0.200004
2291	0.038934	0.19836	0.195895	0.197374	0.198853
2292	0.044193	0.200332	0.19836	0.19721	0.197045
2293	0.024799	0.197374	0.202633	0.193594	0.197867
2294	0.034825	0.198853	0.200825	0.197374	0.195402
2295	0.040084	0.199839	0.192443	0.197374	0.198031
2296	0.043865	0.200825	0.199346	0.200661	0.195073
2297	0.050439	0.20099	0.195895	0.198031	0.198689
2298	0.054548	0.19721	0.198524	0.201812	0.199346
2299	0.060793	0.19836	0.197703	0.200497	0.199346
2300	0.066053	0.196223	0.200661	0.200332	0.198853
2301	0.071148	0.196552	0.198196	0.199675	0.201647
2302	0.07197	0.196388	0.199675	0.198853	0.198853
2303	0.014116	0.197538	0.200661	0.198689	0.199675
2304	0.002118	0.19573	0.197867	0.197703	0.199018
2305	0.011979	0.199839	0.198031	0.196388	0.20099
2306	0.013459	0.193922	0.198689	0.19836	0.198031
2307	0.023813	0.201647	0.19836	0.198853	0.19573
2308	0.030716	0.197045	0.198524	0.197703	0.198689
2309	0.037948	0.20099	0.197703	0.200825	0.194251
2310	0.042714	0.200168	0.196059	0.199839	0.200497
2311	0.050932	0.197703	0.198689	0.200497	0.198524
2312	0.054548	0.199675	0.19721	0.202633	0.203291
2313	0.056191	0.197867	0.200332	0.201812	0.197374
2314	0.059807	0.197374	0.198524	0.199182	0.198524
2315	0.067203	0.196388	0.200332	0.199182	0.197867
2316	0.074435	0.198031	0.198853	0.193922	0.199511
2317	0.067039	0.196388	0.199839	0.198689	0.197374
2318	0.075092	0.198031	0.197703	0.197867	0.196717
2319	0.070326	0.196881	0.198524	0.19836	0.199346
2320	0.017074	0.196717	0.199839	0.198031	0.199675
2321	0.006556	0.195073	0.197045	0.202469	0.199346
2322	0.00146	0.199839	0.195237	0.196552	0.199675
2323	0.005241	0.196223	0.196881	0.19836	0.204277
2324	0.014773	0.19721	0.202962	0.200825	0.197703
2325	0.021348	0.195895	0.198689	0.195237	0.198853
2326	0.028415	0.197374	0.198853	0.196552	0.197703
2327	0.041399	0.200825	0.197703	0.196059	0.200497
2328	0.042385	0.200004	0.198853	0.197538	0.198031
2329	0.04896	0.200497	0.196223	0.199839	0.198196
2330	0.054712	0.199182	0.196223	0.201154	0.19836
2331	0.060958	0.198524	0.201154	0.19836	0.201647
2332	0.063094	0.195237	0.198524	0.200332	0.201319
2333	0.069997	0.200168	0.198196	0.197045	0.197538
2334	0.07197	0.192772	0.198196	0.201647	0.202798
2335	0.079859	0.194909	0.197538	0.20214	0.196223
2336	0.078215	0.195895	0.198853	0.202962	0.199346
2337	0.079859	0.197374	0.19836	0.19836	0.200497
2338	0.087748	0.193265	0.197703	0.198524	0.197703
2339	0.055863	0.199839	0.200661	0.201154	0.197374
2340	0.016746	0.198524	0.198853	0.197374	0.199346
2341	0.00672	0.197045	0.20099	0.195237	0.198853
2342	0.015102	0.199675	0.201154	0.194087	0.200661
2343	0.022169	0.197867	0.198031	0.199675	0.198689
2344	0.028415	0.200825	0.198524	0.19573	0.19836
2345	0.035975	0.198689	0.203784	0.198689	0.202633
2346	0.013623	0.19721	0.198524	0.198196	0.198853
2347	0.00787	0.198689	0.200661	0.201319	0.198689
2348	0.00672	0.199018	0.199511	0.197538	0.199675
2349	0.008528	0.194251	0.199346	0.200497	0.197045
2350	0.021676	0.20099	0.20099	0.199511	0.19836
2351	0.022663	0.200004	0.199346	0.200004	0.201154
2352	0.033839	0.196881	0.198853	0.201154	0.199346
2353	0.038276	0.198031	0.199182	0.200661	0.200825
2354	0.045344	0.199511	0.201154	0.201319	0.198853
2355	0.049946	0.196717	0.200004	0.198853	0.199346
2356	0.036797	0.197045	0.201319	0.200661	0.198853
2357	0.043371	0.197045	0.197703	0.196881	0.196881
2358	0.047645	0.197538	0.201647	0.198689	0.198853
2359	0.04107	0.197538	0.199182	0.196552	0.198689
2360	0.034989	0.196223	0.198853	0.196059	0.201812
2361	0.017567	0.19195	0.19721	0.19573	0.20214
2362	0.014938	0.198524	0.198853	0.198689	0.199675
2363	0.004748	0.195895	0.197538	0.198031	0.203126
2364	0.010829	0.198853	0.194744	0.203948	0.199675
2365	0.002611	0.199346	0.200497	0.205592	0.200168
2366	0.001625	0.196717	0.198689	0.202305	0.198524
2367	0.007377	0.197538	0.199511	0.200497	0.193922
2368	0.001625	0.196881	0.198196	0.201812	0.196388
2369	0.00787	0.197538	0.197703	0.202469	0.196717
2370	0.012637	0.198196	0.201154	0.197374	0.198196
2371	0.00146	0.197703	0.204934	0.199182	0.196717
2372	-1.9e-05	0.193594	0.199675	0.200332	0.198196
2373	0.006884	0.197374	0.20099	0.197045	0.197045
2374	0.000803	0.197703	0.196717	0.197374	0.198853
2375	0.000803	0.196059	0.203455	0.20099	0.198689
2376	0.005076	0.195895	0.199346	0.198524	0.199511
2377	0.001789	0.195895	0.197538	0.200168	0.198689
2378	0.005569	0.19573	0.19836	0.193758	0.194909
2379	0.008199	0.194744	0.197045	0.198689	0.198853
2380	0.00672	0.197045	0.197538	0.196717	0.199839
2381	0.003268	0.196059	0.198196	0.197867	0.199675
2382	-0.017934	0.198524	0.197703	0.200661	0.195566
2383	-0.009387	0.193265	0.196717	0.203291	0.196552
2384	0.005405	0.196717	0.199346	0.20099	0.198689
2385	0.005569	0.195566	0.196223	0.200497	0.19573
2386	0.001789	0.199182	0.197867	0.198853	0.199675
2387	0.011322	0.196881	0.197045	0.200661	0.203126
2388	0.009514	0.195566	0.200661	0.199182	0.194251
2389	0.018882	0.196881	0.180774	0.197374	0.18817
2390	0.024964	0.197867	0.01691	0.199675	0.197045
2391	0.02595	0.197045	-0.000183	0.197374	0.197045
2392	0.028744	0.19721	-0.001827	0.196388	0.199511
2393	0.028744	0.19721	-0.000347	0.195402	0.200004
2394	0.002118	0.194416	0.00146	0.197374	0.20099
2395	0.012144	0.199182	0.011815	0.196223	0.200004
2396	0.006884	0.196059	0.011815	0.197374	0.201154
2397	0.012472	0.199182	0.023977	0.20214	0.200661
2398	0.022334	0.194416	0.031045	0.200825	0.200661
2399	0.026607	0.199839	0.035482	0.20099	0.199182
2400	0.028251	0.199675	0.042714	0.199675	0.188827
2401	0.029894	0.201976	0.050932	0.199346	0.200168
2402	0.007213	0.197374	0.057671	0.201319	0.198031
2403	0.001625	0.197867	0.064902	0.200825	0.19721
2404	-0.000347	0.198196	0.069176	0.199018	0.198031
2405	0.012637	0.195073	0.077886	0.199839	0.196717
2406	0.000639	0.199839	0.08216	0.197045	0.199675
2407	0.001625	0.196552	0.084789	0.199182	0.198524
2408	0.004912	0.199182	0.088405	0.200825	0.199839
2409	0.011322	0.196552	0.093665	0.201647	0.201976
2410	0.01691	0.19573	0.098102	0.199018	0.200168
2411	0.026443	0.196059	0.104677	0.201319	0.188663
2412	0.034003	0.199018	0.105005	0.19721	0.197538
2413	0.034825	0.186855	0.108128	0.198524	0.199675
2414	0.043371	0.188827	0.111087	0.199018	0.197374
2415	0.051261	0.187841	0.116346	0.195895	0.200497
2416	0.056684	0.187184	0.119797	0.203455	0.200004
2417	0.05652	0.188006	0.122263	0.200004	0.200004
2418	0.064738	0.192279	0.126372	0.200004	0.200004
2419	0.017732	0.18817	0.12818	0.202469	0.199675
2420	0.012637	0.189485	0.128673	0.201154	0.196223
2421	0.013952	0.193922	0.131302	0.197703	0.197374
2422	0.020855	0.188006	0.135247	0.200004	0.190471
2423	0.008035	0.190471	0.138041	0.197538	0.199018
2424	0.00672	0.19195	0.139192	0.198524	0.197045
2425	0.011322	0.193101	0.140178	0.199182	0.198031
2426	0.012144	0.190964	0.144451	0.197045	0.197374
2427	0.014445	0.1908	0.148724	0.19836	0.194909
2428	0.010171	0.189978	0.150532	0.199346	0.200004
2429	0.015431	0.191457	0.151683	0.19721	0.200661
2430	0.016417	0.191128	0.152998	0.198031	0.199675
2431	0.020362	0.190964	0.15234	0.201976	0.200497
2432	0.027429	0.194251	0.157107	0.200332	0.199018
2433	0.0271	0.192279	0.160722	0.198031	0.194251
2434	0.014609	0.188992	0.158093	0.199018	0.195566
2435	0.018554	0.168118	0.163845	0.199511	0.197045
2436	0.022334	0.17157	0.161873	0.200497	0.201319
2437	0.018554	0.169926	0.16401	0.202633	0.199182
2438	0.007213	0.171734	0.165653	0.200168	0.19721
2439	0.012472	0.17272	0.16779	0.200825	0.202469
2440	0.020362	0.174035	0.167297	0.199018	0.197374
2441	0.023484	0.172885	0.165489	0.200168	0.198196
2442	0.028415	0.174857	0.165817	0.197374	0.201483
2443	0.037455	0.176501	0.172556	0.197045	0.199511
2444	0.040906	0.176336	0.174364	0.197045	0.195895
2445	0.038441	0.175186	0.170419	0.196552	0.20099
2446	0.045179	0.176008	0.182582	0.197374	0.19836
2447	0.040249	0.169926	0.177815	0.198853	0.199346
2448	0.038112	0.170913	0.17913	0.19573	0.200168
2449	0.039756	0.170913	0.178966	0.197374	0.199346
2450	0.047152	0.179295	0.179788	0.200004	0.20099
2451	0.052411	0.175843	0.179295	0.194744	0.203948
2452	0.061615	0.178637	0.180774	0.201319	0.197374
2453	0.067532	0.178802	0.180774	0.196717	0.198853
2454	0.071312	0.177158	0.180445	0.200168	0.198689
2455	0.079859	0.178309	0.183732	0.198524	0.197867
2456	0.080023	0.178802	0.181924	0.201647	0.195073
2457	0.090049	0.18061	0.182911	0.200004	0.19836
2458	0.08857	0.175843	0.187019	0.20214	0.196552
2459	0.097281	0.178144	0.184883	0.199511	0.198031
2460	0.097281	0.17798	0.186198	0.197867	0.198031
2461	0.101225	0.18176	0.186691	0.200825	0.197374
2462	0.095966	0.174035	0.186198	0.199018	0.200004
2463	0.094322	0.173871	0.189978	0.200497	0.202469
2464	0.093336	0.172556	0.187677	0.198689	0.198853
2465	0.097445	0.174857	0.1908	0.196223	0.20362
2466	0.10139	0.173871	0.18817	0.19458	0.200497
2467	0.109279	0.174693	0.187019	0.19836	0.19836
2468	0.108621	0.176994	0.187677	0.195566	0.199839
2469	0.116346	0.176008	0.190471	0.200004	0.195402
2470	0.121112	0.179952	0.192772	0.196388	0.199346
2471	0.120948	0.17798	0.187513	0.200497	0.198853
2472	0.126207	0.185047	0.188334	0.19836	0.199675
2473	0.128508	0.182417	0.188499	0.199675	0.199018
2474	0.126865	0.184883	0.193758	0.198853	0.199346
2475	0.127851	0.181924	0.1908	0.198689	0.198031
2476	0.129495	0.183568	0.19195	0.200497	0.197867
2477	0.13574	0.183568	0.192936	0.196059	0.195566
2478	0.135576	0.184061	0.192443	0.199346	0.196059
2479	0.138534	0.18176	0.19195	0.19836	0.198031
2480	0.140671	0.183732	0.195895	0.200004	0.198196
2481	0.141657	0.182253	0.192772	0.19573	0.199182
2482	0.142972	0.182582	0.193758	0.197703	0.198689
2483	0.145602	0.181924	0.193265	0.19458	0.20214
2484	0.149217	0.185212	0.194744	0.198853	0.199018
2485	0.152011	0.18817	0.189978	0.194087	0.20099
2486	0.153984	0.187841	0.192936	0.195895	0.20099
2487	0.154148	0.187677	0.193265	0.200497	0.199675
2488	0.15875	0.188499	0.190635	0.193101	0.198031
2489	0.160887	0.190142	0.190964	0.19721	0.199018
2490	0.159736	0.185376	0.190471	0.197867	0.195237
2491	0.164996	0.18932	0.196881	0.197538	0.196059
2492	0.165489	0.186198	0.197538	0.196223	0.196717
2493	0.162037	0.185047	0.19721	0.19836	0.197703
2494	0.165489	0.18817	0.19721	0.196717	0.196717
2495	0.165653	0.188499	0.197374	0.199839	0.199839
2496	0.165489	0.186691	0.194909	0.198853	0.200825
2497	0.170091	0.188006	0.197538	0.199346	0.199182
2498	0.173707	0.186691	0.192443	0.19836	0.201319
2499	0.171406	0.186526	0.194416	0.198524	0.197538
