Ladekurvenmessung
Zeit: 2018_05_03 14.06.06
Info: FVA3, v = 0.382, T = 40, F = 10, h =???
Ladewiderstand[Ohm]: 1012700
Störkapazität[pF]: 0.000000
Entladezeit[ms]: 200
Abtastrate[Hz]: 250000
Anzahl der Messwerte: 2500.000000
Verzögerung[ms]: 3
Ladespannung[V]: 0.200000
	Kurve_1	Kurve_2	Kurve_3	Kurve_4	Kurve_5	Kurve_6	Kurve_7	Kurve_8
0	0.002282	0.003433	-0.005607	-0.001334	-0.00347	-0.005278	0.007542	-0.001005
1	0.003597	0.003104	-0.003963	-0.005278	-0.001991	-0.00347	0.007706	0.005405
2	0.004748	0.002282	-0.001662	0.001132	-0.001005	-0.003306	0.010336	-1.9e-05
3	0.002775	0.004255	0.002447	0.001296	-0.004785	-0.002648	0.013952	0.005734
4	-0.001169	0.005076	-0.003799	-0.000841	-0.002813	-0.004621	0.005734	0.001954
5	0.002447	0.006062	-0.000676	-0.004292	0.000146	-0.004621	0.00672	0.000639
6	0.000146	0.004748	-0.00232	-0.002648	-1.9e-05	-0.004292	0.008035	0.000474
7	0.000967	0.003433	-0.001498	0.00031	0.00294	-0.002648	0.007377	-0.002155
8	0.002118	0.004255	-0.001662	0.00409	0.000474	-0.005607	0.008857	-0.001334
9	0.001132	0.003268	-0.003799	-0.001005	0.002118	-0.002155	0.006391	-0.000347
10	0.002282	0.007706	-0.000841	0.000639	0.00031	-0.004621	0.008035	-0.00347
11	0.001954	0.002775	-0.004292	0.003761	-0.003306	-0.001991	0.003926	-1.9e-05
12	-1.9e-05	0.005734	-0.003635	-0.00232	0.001132	-0.000183	0.007542	0.001789
13	0.005076	0.00031	-0.001005	-0.005278	0.001625	-0.001334	0.009021	-0.003635
14	0.00294	0.002447	-0.001334	0.00031	0.000474	-0.005114	0.007542	-0.001334
15	0.001789	0.001789	-0.000183	-0.001991	-0.004128	0.002282	0.008363	0.001296
16	-0.001991	0.002118	0.000639	-0.001334	-0.001991	-0.008072	0.0105	-0.001169
17	0.003926	0.000639	-0.004456	-0.000183	0.00146	-0.002977	0.008035	0.001296
18	0.00409	-1.9e-05	0.00294	-0.000347	-0.000347	-0.001169	0.007049	-0.000183
19	0.003104	0.005241	-0.001991	0.001132	0.000639	-0.004128	0.009514	-0.002155
20	-0.002484	0.001296	-0.001827	-0.001169	-1.9e-05	-0.001169	0.009185	0.001132
21	0.001625	0.005241	-0.003306	-1.9e-05	0.001132	-0.007579	0.004583	-0.001005
22	0.001132	0.007377	-0.001827	-0.010866	0.001625	-0.00347	0.007377	-0.000841
23	-0.002155	0.011322	-0.002648	-0.002484	0.002775	-0.003635	0.011322	0.00031
24	0.001954	0.005241	-0.003963	-0.003306	0.000639	-0.004785	0.006391	0.002611
25	0.004419	0.006062	-0.000347	-0.001498	0.003433	-0.003635	0.006227	-0.002155
26	0.003926	0.003926	-0.001005	-0.00232	0.000639	0.000967	0.005076	0.001132
27	-0.000347	0.001789	-0.002155	-0.001498	0.004419	-0.001827	0.005569	-0.003635
28	-0.000512	0.003104	0.000146	-0.007744	0.003104	-0.001827	0.002775	-0.00232
29	0.001625	0.002118	-0.001005	-0.001827	0.003268	-0.001005	0.003761	-0.005443
30	0.003104	0.005076	-0.00347	-0.003142	0.003104	-0.003142	0.005241	0.000146
31	0.004583	0.003268	0.001296	-0.005771	0.002775	0.001625	0.012308	-0.000676
32	0.001954	0.004419	-0.007579	-0.001498	-1.9e-05	-0.004292	0.003761	-0.00232
33	0.004419	0.00409	-0.004785	-0.006593	0.000967	-0.000676	0.010007	-0.001005
34	0.004748	0.002775	-0.004128	-0.003306	-1.9e-05	-0.000841	0.008692	-0.002813
35	0.004912	0.006391	-0.006264	-0.006264	0.001132	-1.9e-05	0.009185	-0.002155
36	0.00409	0.00294	-0.002155	-0.002977	0.002282	-0.004292	0.010336	-0.001662
37	0.002611	0.006391	-0.001498	-0.005607	0.001789	0.006391	0.007377	0.000146
38	0.000639	0.001954	-0.003306	-0.00347	0.004912	-0.004785	0.009185	-0.001827
39	0.007213	0.005569	-0.004621	-0.00347	0.002611	-0.000512	0.008692	0.000474
40	0.005076	0.005405	-0.002484	-0.000512	0.001789	0.000474	0.009021	-0.006264
41	0.004419	0.00672	-0.004456	-0.004128	0.000474	0.000803	0.005898	-0.002484
42	0.003268	0.006062	-0.005114	-0.001991	0.004748	-0.001334	0.008363	-0.003306
43	0.003597	0.003104	-0.003963	-0.00725	0.001625	0.001789	0.009843	-0.001169
44	0.002447	0.006062	-0.004456	-0.003306	0.003104	0.001954	0.010171	-0.00347
45	0.003761	0.006062	-0.004621	-0.003963	0.001954	0.002775	0.008035	-0.000841
46	0.002282	0.005734	-0.005443	-0.004128	0.001625	0.002611	0.006884	-0.001827
47	0.008199	0.001954	-0.006429	-0.002813	0.001954	0.000146	0.008199	-0.002648
48	0.003268	0.002447	-0.007086	-0.004456	0.001789	0.003761	0.011815	-0.001662
49	0.003761	-0.001334	-0.004292	-0.005936	0.001954	0.000474	0.007542	-0.000841
50	0.006227	0.000967	-0.004456	-0.004292	0.001789	0.003268	0.006884	-0.001827
51	0.003104	0.003268	-0.002648	-0.000183	0.001132	0.002118	0.006556	-1.9e-05
52	0.003433	0.002282	-0.004128	-0.00232	0.001296	0.001625	0.008363	0.00294
53	0.004419	0.00294	-0.002813	-0.001498	0.00146	0.00031	0.008692	0.001296
54	0.003926	0.004583	-0.004128	-0.004128	-0.001005	0.003104	0.009185	0.002282
55	0.004255	0.00409	-0.002977	-0.000841	0.003597	0.000803	0.011486	-0.001005
56	0.007213	0.003268	-0.003142	-0.00347	0.001625	0.002611	0.008692	-0.001169
57	0.005076	0.002447	-0.002813	-0.000183	0.004583	0.002447	0.009843	-0.000512
58	0.00409	0.007213	-0.001498	-0.002813	-0.001662	0.00294	0.007542	-0.00232
59	0.005076	0.003597	-0.002484	-0.001498	0.000474	0.004419	0.008363	-0.004949
60	0.00409	0.005405	-0.001005	-0.001169	-0.000347	0.001789	0.006884	-0.005278
61	0.002775	0.006884	0.00146	0.000639	0.004583	0.003104	0.006062	-0.005936
62	0.008199	0.001625	-0.00232	-0.001334	0.00146	0.003597	0.004912	-0.001498
63	0.004419	0.005569	-0.00347	-0.001662	0.00146	0.003433	0.006391	-0.002813
64	0.003104	-0.001498	-0.003963	0.000146	0.006884	0.003268	0.006556	-0.001662
65	0.00409	0.00409	-0.00232	-0.004949	0.003433	0.002447	0.005898	-0.000183
66	0.005569	0.000474	-0.002813	-0.003799	0.002282	0.005734	0.011979	0.002447
67	0.003433	0.006556	0.000639	0.001296	0.001789	-0.001005	0.006884	0.002447
68	0.008199	-0.001334	-0.007744	0.000474	0.00031	0.004419	0.008035	-0.000676
69	0.010007	-0.000841	0.000967	-0.000841	0.002611	0.003433	0.008528	-0.002484
70	0.005734	0.004748	-0.001498	0.001132	0.00294	0.005898	0.012144	-0.002648
71	-0.001169	0.003433	-0.001827	-0.001498	-0.000676	0.005241	0.004748	0.000803
72	0.007213	0.00294	-0.001498	0.004748	0.005734	-0.002484	0.006227	-0.00232
73	0.005076	0.002118	-0.009551	-0.004949	0.004912	0.003597	0.004419	0.002118
74	0.000639	0.006227	-0.00347	0.001625	0.003926	0.005405	0.007377	-0.000183
75	0.002447	0.002447	-0.004456	-1.9e-05	0.003104	0.004748	0.002611	0.001132
76	0.005569	0.004419	-0.000841	0.00294	0.003761	0.000639	0.003268	0.00146
77	0.004419	0.002118	-0.001662	-1.9e-05	0.002447	0.00787	-0.000347	-0.001169
78	0.004912	0.004748	-0.000841	0.000474	0.005076	0.005241	0.007049	-0.003799
79	0.007706	0.003268	-0.007744	-0.001827	0.004912	0.005734	0.000639	-0.003963
80	0.003926	0.002118	-0.001991	-1.9e-05	0.005405	0.007706	0.005734	-0.001991
81	0.00787	0.000967	-0.005771	-0.001498	0.004748	-0.000676	-0.004621	-0.000183
82	0.007377	0.000803	-0.002977	-0.000676	0.005405	0.003104	0.006556	-0.001827
83	0.006391	0.004255	-1.9e-05	-0.000347	0.004583	0.00672	0.002447	-0.000183
84	0.007706	0.000146	0.000967	-0.004292	0.001132	0.006556	0.003926	-0.002155
85	0.007213	0.003268	-0.001827	-0.000347	0.004255	0.006884	0.005076	-0.002648
86	0.002775	0.001132	-1.9e-05	-0.001662	0.005569	0.009843	0.005734	0.003761
87	0.00672	0.00146	-0.000512	-0.000183	0.002775	0.003597	0.005076	-0.001169
88	0.006884	0.00409	0.000146	-0.001169	0.002611	0.009678	0.004748	0.001132
89	0.009678	0.005898	-0.001498	0.003104	0.005241	0.010171	0.007213	0.001296
90	0.006062	0.004583	-0.001991	-0.000676	0.003761	0.006227	0.005076	-0.003306
91	0.006556	0.00031	0.004748	0.002611	0.003926	0.007706	0.004583	-0.000183
92	0.005076	0.002611	-0.004128	0.001296	0.00146	0.007377	0.003268	-0.004456
93	0.006062	0.004583	0.001789	0.002118	0.007213	0.00146	0.003597	-0.002977
94	0.008692	0.002282	-0.001991	-0.001334	0.003268	0.00672	0.004748	-0.005607
95	0.006884	-0.000841	0.000803	-0.004949	0.005241	0.006391	0.007049	-0.004128
96	0.00146	0.008035	-0.00347	0.000803	0.006062	0.004419	0.000967	-0.001005
97	0.005076	0.001789	-0.002484	-0.000347	0.004748	0.008035	0.00409	-0.002977
98	0.007542	-0.001169	-0.001827	0.00031	0.004419	0.005734	0.001789	-0.000183
99	0.006062	0.002611	-0.003963	-0.004621	-0.000676	0.007706	0.00294	-0.001169
100	0.005405	-0.005936	0.000967	-0.000676	0.00294	0.006884	0.008199	0.001789
101	0.004583	0.001789	-0.000841	-0.003635	0.002447	0.00672	0.008035	0.000146
102	0.011815	0.00294	0.000146	-0.000512	0.001954	0.005734	0.006062	-0.000676
103	0.004419	0.001625	0.000967	-0.003963	-1.9e-05	0.005898	0.007542	0.002775
104	0.011815	0.002775	0.00146	-0.004949	0.001625	0.003104	0.005405	0.000967
105	0.007049	0.003597	-0.002484	-0.00232	0.000967	0.005734	0.001296	-0.001334
106	0.008692	0.005241	-0.002977	-0.000347	0.003433	0.004583	0.00409	-0.004785
107	0.008035	0.001625	-0.001334	-0.000183	0.001954	0.004583	0.003597	-0.001827
108	0.003761	0.006391	-0.001662	0.002118	-1.9e-05	0.005076	0.004912	-0.003963
109	0.009843	0.002282	-0.000841	0.001789	-0.002648	0.008199	0.001132	-1.9e-05
110	0.010336	0.006062	-0.002484	0.001954	0.002447	0.004912	0.003926	-0.005771
111	0.009185	0.002447	0.001954	0.002447	0.000967	0.007049	0.002118	0.00409
112	0.005734	-0.001827	0.005405	0.00146	0.003926	0.006556	0.004419	-0.003963
113	0.003761	0.002611	-0.001169	-1.9e-05	0.001789	0.008035	0.001954	-0.00873
114	0.006227	0.000803	0.002611	-0.001005	0.002118	0.008692	0.002611	-0.003963
115	0.007706	0.003268	-0.000183	-0.000512	0.004419	0.003104	0.002447	0.001954
116	0.004583	0.002447	0.001954	-0.002813	0.000146	0.007542	0.000474	0.00146
117	0.007213	0.000967	-0.001005	-0.002813	0.005076	0.006884	0.003268	-0.000347
118	0.001296	0.003104	0.003104	-0.001334	-0.002155	0.005405	0.006391	0.005898
119	0.005734	0.001625	0.000146	-0.000183	0.004419	0.003597	0.002118	0.000803
120	0.009185	0.00409	0.002611	0.000474	-0.000183	0.006391	0.004748	0.001132
121	0.008857	0.003926	0.001132	0.000146	0.001954	0.00294	0.002611	0.00031
122	0.007049	0.002775	-0.00232	-0.001005	0.002282	0.007213	0.00294	-0.008237
123	0.009678	-0.001498	0.002447	0.002611	0.003926	0.004912	0.006556	-0.003963
124	0.005734	0.000967	-0.003635	-0.001334	-0.000183	0.004912	0.00146	-0.001498
125	0.006391	0.004419	-0.001005	0.004748	0.002611	0.00146	0.003104	-0.001169
126	0.008857	0.001132	0.002118	-0.002155	0.00294	0.00294	0.003104	-0.001005
127	0.010993	0.005898	-0.001662	0.000967	0.004255	0.003926	0.001954	-0.003963
128	0.003761	0.002775	-0.001991	0.00146	0.003926	0.004912	0.001625	-0.001662
129	0.004419	0.002611	0.003268	-0.000183	0.005241	0.006884	0.002447	-0.001169
130	0.011979	0.002611	0.000639	0.002447	-0.001005	0.000639	0.00146	-0.001169
131	0.006556	0.005405	-0.000183	0.000474	0.003926	0.008692	0.004583	0.000474
132	0.01313	-0.000841	-0.002155	-1.9e-05	0.006556	0.004912	0.00031	-0.000676
133	0.004419	0.002611	0.00787	-0.002484	0.003926	0.005898	0.005405	-0.000841
134	0.00294	0.00294	0.001132	0.000639	0.004583	0.008363	0.003926	-0.00232
135	0.004912	0.001625	0.000639	-0.001827	0.00409	0.003597	0.00409	-0.001169
136	0.007213	0.001132	0.002775	0.001625	0.002611	0.004255	0.00672	0.002282
137	0.004912	0.003268	0.003433	-0.001169	0.006556	0.009021	0.006062	0.00146
138	0.008035	0.001625	-0.000183	0.002447	0.005405	0.000474	0.004748	-0.001662
139	0.005569	-0.001005	0.000639	0.001132	0.002611	0.00409	0.00294	0.001954
140	0.005734	0.001132	0.002775	0.00409	0.006391	0.000474	0.004419	0.001296
141	0.009678	0.000639	0.000639	0.004748	-0.001169	0.005076	0.001132	0.003761
142	0.006391	0.005076	0.000146	0.007377	0.003761	0.003926	0.004419	0.00146
143	0.00787	0.000803	0.000146	0.005076	0.003761	0.002611	0.002447	-0.002155
144	0.003268	0.004255	0.00031	0.006391	0.002775	0.004583	0.004419	-0.001662
145	0.007213	0.005076	-0.003142	0.00294	0.006062	0.008035	0.008857	-0.003306
146	0.005405	0.00294	0.004419	0.001132	0.00409	0.002611	0.003597	-0.00347
147	0.005241	0.004255	-0.001005	0.000474	0.008363	0.008528	0.001954	-0.00347
148	0.004419	0.004255	0.002775	0.000803	0.008528	0.004419	0.005405	-0.001498
149	0.007542	0.000639	0.00031	0.002282	0.010007	0.004912	0.005241	-0.001827
150	0.005734	0.007706	0.002118	-0.001334	0.003433	0.005734	0.006227	-1.9e-05
151	0.004419	-0.000347	-0.001498	0.002611	0.005241	0.003926	0.005898	0.004255
152	0.007706	-0.000183	0.00031	0.000803	0.007377	0.004583	0.004583	-0.000183
153	0.003761	0.004419	0.000639	0.000967	0.00294	0.002118	0.001296	0.002282
154	0.005241	0.005241	-0.00347	-0.002155	0.003761	0.002447	-0.000512	0.000474
155	0.005569	-1.9e-05	0.001789	0.003597	0.007213	0.000146	0.001789	-0.004128
156	0.002447	0.003268	-0.000841	0.00031	0.004419	0.00409	0.003597	-1.9e-05
157	0.007542	0.003926	-0.001005	0.001789	0.008199	0.000803	0.006391	-0.004128
158	0.00787	0.002611	0.000474	0.001954	0.005076	-0.000347	0.00294	-0.002977
159	0.004419	-0.000841	-1.9e-05	0.005076	0.003926	0.005569	0.007542	-0.004128
160	0.00294	0.001625	-0.000676	0.00294	0.00409	0.001789	0.001132	-0.004949
161	0.003926	0.003761	-0.000512	0.001132	0.005898	0.002447	0.002775	-0.003142
162	0.005076	-0.000676	0.005405	0.005734	0.005569	0.002447	0.001789	-0.001827
163	0.005734	0.005076	0.002447	0.000639	0.008035	0.00294	0.004255	-0.003635
164	0.001132	0.002282	0.002282	0.00409	0.00672	0.004583	0.000474	0.00031
165	0.004419	0.004255	0.001296	0.004912	0.003597	0.005076	0.001132	-0.000841
166	0.003104	0.00146	0.002447	0.00409	0.003761	0.000639	0.004748	-0.000676
167	0.004419	0.005898	-0.000676	-0.001169	0.002611	0.007542	0.004583	0.003104
168	0.00294	0.000474	0.001954	-0.000676	0.001954	0.004419	0.004255	0.000639
169	0.006062	-0.000183	0.003104	-0.002648	0.002775	0.004419	0.004419	0.001296
170	0.002775	-0.001334	-1.9e-05	0.003926	0.00294	-0.000676	0.006391	-0.00347
171	-0.001005	-0.002813	0.003104	0.00031	0.004583	0.000639	0.003926	0.002118
172	0.003268	0.000474	0.001789	0.001625	0.005734	-0.000183	0.005076	-0.00232
173	0.004912	-0.000841	0.000639	0.000803	0.00672	-0.001169	0.00294	-0.004949
174	0.006556	0.003104	0.00031	0.003104	0.006391	-0.003142	0.006391	0.005076
175	0.006556	0.003761	-0.00232	0.001132	0.007542	-0.000183	0.004583	-0.001005
176	0.001789	0.003268	0.002447	0.000639	0.007542	0.000474	0.001789	0.001954
177	0.005734	0.002282	-0.000676	0.002775	0.003926	0.002775	0.005569	-0.001334
178	0.004583	0.004748	0.001625	0.006227	0.006884	0.001625	0.004583	-0.000183
179	0.008035	0.003268	-0.000841	0.002118	0.003433	0.00294	0.000803	-0.001005
180	0.004912	0.003597	0.003104	0.002447	0.008528	0.001954	0.004419	-0.001991
181	0.005734	0.001296	0.002118	0.000146	0.003761	0.003597	0.00146	-0.001498
182	0.003104	0.002775	0.002775	0.001132	0.011158	0.001954	0.003268	0.00031
183	0.00031	0.001625	-0.000183	-0.001991	0.011651	-0.001169	0.00409	-0.00347
184	0.004912	0.003268	0.000146	-0.000183	0.007049	0.000474	0.005734	-0.002813
185	0.005405	0.002611	0.000474	0.001789	0.008199	-0.001991	0.010829	-0.001334
186	0.007377	0.00409	-0.00232	-0.001005	0.008528	0.001132	0.010171	0.003926
187	0.008692	0.001789	-0.000183	0.002447	0.006884	0.000967	0.005898	-0.001662
188	0.004255	0.003761	0.00146	0.004748	0.005405	0.00031	0.007706	0.001296
189	0.007542	-1.9e-05	-0.000347	0.000474	0.006556	-0.003306	0.008528	-0.000183
190	0.003926	0.000803	0.000639	0.001625	0.004912	0.002611	0.007049	-0.000347
191	0.006391	0.003597	0.003104	0.002447	0.007213	-0.002484	0.007542	-0.005607
192	0.003268	0.00146	-1.9e-05	0.000639	0.001296	0.000146	0.008857	-0.00347
193	0.003268	0.003104	0.000474	0.002775	0.00146	-0.002813	0.005405	-0.001334
194	0.003597	-0.000512	0.002447	0.002775	0.006062	0.000474	0.006062	-0.002648
195	0.002118	0.006227	0.002118	0.004912	0.006227	-0.002813	0.007049	-0.005114
196	0.002118	0.000803	-0.006264	0.006884	0.005569	-0.000676	0.003268	-0.001498
197	0.003104	0.004583	0.000474	0.00146	0.009678	-0.003142	0.007706	-0.004292
198	0.003104	0.004912	-0.001991	0.000146	0.006391	-0.001005	0.003761	-0.00232
199	0.00409	0.002775	-0.003963	-0.008072	0.005734	0.000146	0.006556	0.000639
200	0.004748	0.008857	0.000803	-0.002813	0.008857	0.000967	0.007706	-0.003635
201	0.00146	0.000146	0.001789	-0.002155	0.006391	-0.004292	0.007542	-0.001005
202	0.002118	-0.000183	-0.001169	0.002775	0.007706	0.000639	0.004583	-0.002648
203	-0.000183	0.000639	0.005241	-0.001662	0.001954	-0.000841	0.007542	-0.001334
204	0.001296	0.001132	0.001625	0.000639	0.00787	-0.00347	0.00672	-0.001498
205	-0.000183	0.002611	0.001296	-0.001169	0.006556	-0.002648	0.005076	-0.000676
206	0.002775	-0.000841	0.005405	0.007049	0.005734	-0.005607	0.012637	-0.007908
207	-1.9e-05	0.00409	0.001132	0.005898	0.010171	-0.001662	0.00935	-0.001334
208	-0.000347	0.005241	0.001625	0.005734	0.009678	-0.005443	0.010993	-0.000512
209	0.003104	0.001789	0.001789	0.00294	0.003104	-0.005278	0.004583	-0.004456
210	0.00294	0.002775	0.004255	0.004255	0.004419	-0.003799	0.009021	-0.003142
211	0.001789	0.00672	-0.002484	0.001296	0.004912	-0.002484	0.007377	-0.002648
212	0.000967	0.004419	-0.004128	0.004419	0.006062	-0.003142	0.007542	-0.007415
213	0.003761	0.002282	0.001132	0.003433	0.008528	-0.000183	0.006391	-0.003963
214	-0.000841	0.003761	0.004255	0.003761	0.006884	-0.001005	0.009843	-0.002648
215	0.002775	0.004748	-0.000512	0.007542	0.00787	-0.003963	0.003597	-0.003635
216	-0.001662	0.00294	0.002447	0.002775	0.005076	-0.001169	0.007542	-0.002977
217	0.003268	0.000474	0.005405	0.005898	0.008363	-0.007415	0.006556	-0.002648
218	0.000639	0.006062	-0.001991	0.002447	0.00672	-0.003799	0.007049	0.000474
219	0.001954	-0.003963	-0.000841	0.003926	0.008035	-0.004128	0.008528	-0.002813
220	0.002118	-0.000183	0.00409	0.002118	0.007706	-0.003799	0.007213	-0.001498
221	0.004419	0.000803	0.000967	0.005405	0.005076	-0.006922	0.007377	-0.002977
222	-1.9e-05	0.003597	0.000967	0.001789	0.006062	-0.005443	0.00935	0.001954
223	-1.9e-05	0.004748	0.003761	0.003597	0.005898	-0.005607	0.011486	-0.004949
224	0.00409	0.002611	0.000146	0.003597	0.008363	-0.003799	0.005898	-0.001169
225	0.003597	0.003761	0.000474	0.002447	0.007542	-0.005936	0.009185	-0.003799
226	0.003268	0.003268	0.006062	0.005241	0.005241	-0.005278	0.004748	-0.001169
227	0.002447	0.004748	-0.000183	0.009021	0.006884	-0.004949	0.009514	-0.002648
228	-0.002155	0.000803	0.009678	0.009021	0.005405	-0.004292	0.009678	-0.005114
229	0.00146	0.004912	0.001132	0.003597	0.005076	-0.003306	0.00672	-0.001334
230	0.001132	0.003433	-0.000347	0.004255	0.007049	-0.003963	0.008363	-0.005278
231	0.002775	0.004748	0.001789	0.003597	0.005898	-0.003963	0.007377	-0.003799
232	0.002775	0.004912	0.001625	0.004583	0.004419	-0.00232	0.007706	-0.00347
233	0.00031	0.004255	-0.000183	0.005405	0.007049	-0.001662	0.008692	-0.001991
234	0.005076	0.001625	-0.005936	0.002611	0.007706	-0.004292	0.007542	-0.004292
235	0.000146	0.00031	0.003926	0.00409	0.006227	0.000967	0.008692	-0.00347
236	0.000474	0.000474	0.000967	0.002611	0.006391	-0.001169	0.012637	-0.001662
237	0.000967	0.00294	0.00409	0.002282	0.005405	-0.004621	0.011651	-0.002484
238	0.001789	0.003433	0.002611	0.001625	0.00672	-0.003799	0.009514	-0.006429
239	0.002447	0.002118	0.007213	0.004419	0.004255	0.000803	0.009514	-0.001827
240	0.003597	0.003268	0.000146	0.008363	0.006062	-0.008565	0.012472	-0.000841
241	0.001625	0.00031	-0.002813	0.002118	0.005569	-0.005607	0.009678	0.001625
242	0.006062	0.001789	0.003433	0.005734	0.002775	-0.007908	0.009843	-0.000183
243	0.00294	0.00409	0.002611	0.001789	0.000803	-0.004949	0.011815	-0.003799
244	0.002447	0.002118	-0.000841	0.004255	0.00409	-0.00725	0.010664	-0.003142
245	0.00409	-1.9e-05	-0.000347	0.003597	0.005734	-0.002977	0.012965	-0.004785
246	0.003268	0.003597	0.000639	0.004255	0.003761	-0.004621	0.011158	-0.004785
247	0.001789	0.000639	-0.003963	0.005076	0.005734	-0.001991	0.009021	-0.004128
248	-0.000841	0.003926	0.002282	0.002118	0.004748	-0.007908	0.009021	-0.003799
249	0.000146	0.001954	-0.001005	0.007213	0.004912	-0.004785	0.007377	-0.004785
250	0.001132	0.002282	-0.00988	0.002118	0.00409	-0.002977	0.001296	-0.004456
251	0.002282	-0.003142	-0.003963	0.003104	0.005734	-0.005936	0.008199	-0.003142
252	-0.002155	-0.000676	-1.9e-05	0.002775	0.00146	-0.003963	0.007213	-0.001827
253	0.000639	0.001296	0.001625	0.006062	0.002611	-0.008565	0.006391	-0.003142
254	0.00146	-0.000512	-1.9e-05	0.003433	0.00031	-0.005443	0.010336	-0.002813
255	0.003104	0.004583	-0.002484	0.012637	0.002611	-0.008565	0.00787	-0.0061
256	0.000967	0.00031	-0.002813	0.007377	0.00146	-0.009058	0.011651	-0.000183
257	0.002775	0.003268	0.001132	0.00294	0.002447	-0.009716	0.008035	-0.004621
258	-0.000512	0.003268	0.002118	0.00672	0.00146	-1.9e-05	0.001625	-0.003306
259	0.003104	0.001789	0.001132	0.007213	0.007706	-0.010373	0.007213	-0.004949
260	0.002447	0.002775	0.001954	0.005076	-0.001498	-0.009058	0.005734	-0.002648
261	0.003433	0.003268	0.000803	0.003597	0.000803	-0.007908	0.010829	-0.0061
262	0.002118	0.003597	-0.004621	0.00672	0.001296	-0.003963	0.004255	-0.003799
263	-0.001498	0.003104	-0.002484	0.005569	0.003268	-0.0061	0.009514	-0.006593
264	-0.000183	0.005405	-0.002484	0.005734	0.002282	-0.00725	0.005405	-0.001169
265	0.002118	0.00409	0.003433	0.011322	0.000967	-0.004128	0.009678	-0.004292
266	0.000967	0.006556	-0.004128	0.00935	0.003433	-0.004621	0.007706	0.000474
267	-0.000512	0.00031	-0.000183	0.007049	-0.000841	-0.004949	0.008528	-0.004621
268	0.004583	-0.004456	0.00031	0.006227	0.000639	-0.009551	0.009678	-0.004456
269	-0.001169	-0.002484	0.000967	0.006884	-0.001991	-0.019249	0.00672	-0.003963
270	-0.003963	0.001789	0.002611	0.008035	0.005734	-0.009223	0.008857	-0.003963
271	-0.002484	-0.001169	0.002118	0.005569	-0.001498	-0.008237	0.009021	-0.004456
272	-0.001827	-0.000512	-0.000841	0.006391	0.000639	-0.008565	0.008035	-0.007086
273	-0.000841	0.003104	-0.001827	0.003926	0.00146	-0.006429	0.00935	-0.000676
274	-0.001498	0.001132	0.00146	0.008363	-0.001991	-0.010209	0.009678	-0.005607
275	0.00146	0.002775	-0.000676	0.007706	-0.00232	-0.008237	0.004419	-0.000841
276	0.00294	0.004255	-1.9e-05	0.009021	0.000146	-0.007744	0.00787	-0.00232
277	-1.9e-05	0.008199	-1.9e-05	0.006556	-0.001827	-0.004785	0.004912	-0.000512
278	0.001296	0.002282	0.008035	0.005734	-0.002155	-0.006593	0.009678	-0.004128
279	0.004255	0.002282	-0.000841	0.005898	-0.000347	-0.004949	0.007049	-0.002813
280	0.001132	0.006227	0.000967	0.008857	-1.9e-05	-0.005607	0.008363	-0.004621
281	0.000967	0.003268	-0.001498	0.010664	-0.003142	-0.004621	0.006884	-0.000183
282	0.00146	0.003926	-0.002813	0.007542	-0.000183	-0.003963	0.008692	-0.002648
283	-0.001498	0.004419	-0.00232	0.005241	-0.000183	-0.005278	0.003597	-0.004128
284	-0.002484	0.003761	-0.001827	0.006556	-0.000347	-0.000183	0.00294	-0.002977
285	0.000474	0.002118	0.000803	0.00672	0.001132	-0.007086	0.004912	-0.004456
286	0.001625	0.002611	-0.001498	0.007542	-0.001827	-0.005278	0.009021	0.001132
287	0.001954	0.00294	-0.000512	0.008363	-0.000183	-0.001334	0.00935	-0.007744
288	0.000146	-0.006264	-1.9e-05	0.00787	-0.001662	-0.003306	0.010171	0.002282
289	0.004419	-1.9e-05	-0.002813	0.007542	-0.003142	-0.005607	0.007377	-0.005443
290	0.005076	0.003597	0.004912	0.008528	-0.003963	-0.005607	0.007706	-0.00347
291	0.003104	0.004912	-0.000841	0.007542	-0.002484	-0.004128	0.009514	-0.003799
292	0.001625	0.003926	-0.000347	0.009843	-0.001334	-0.002155	0.006391	-0.000183
293	0.002118	0.004255	0.002118	0.00935	0.001296	-0.004621	0.008857	-0.003635
294	0.00294	0.002118	-0.001991	0.008035	-0.002484	-0.001498	0.005569	-0.003306
295	0.002282	0.007213	-0.000841	0.009843	-0.001662	-0.002484	0.008528	-0.000183
296	0.003433	0.004748	-0.00347	0.006062	-0.000512	-0.002648	0.005241	0.00031
297	0.005405	0.005569	-0.001498	0.013952	-0.004456	0.003597	0.008035	-0.001991
298	0.003104	0.003926	-0.006922	0.009185	-0.003142	-0.000183	0.004583	-0.002977
299	0.005241	0.005898	-0.003142	0.006884	-0.004292	-0.000512	0.001625	-0.011524
300	0.005898	0.002611	-0.003306	0.010664	-0.003142	-0.001334	0.003761	-0.006264
301	-0.01251	-0.000512	-0.006429	0.00672	-0.004292	-0.002648	0.009021	-0.003799
302	0.004255	-0.001498	-0.004456	0.009843	-0.003963	-0.000347	0.00294	-0.005278
303	-0.000183	0.002447	0.00031	0.008857	-0.003635	-0.000512	0.008363	-0.003635
304	0.000803	0.000474	-0.001169	0.011158	-0.003635	-0.003142	0.004912	-0.004456
305	0.000967	0.002447	-0.001005	0.005734	-0.004785	-0.000841	0.005405	-0.004785
306	0.003104	0.003268	0.003761	0.010993	-0.002977	-0.003142	0.00031	-0.004456
307	0.004748	0.00409	-0.001991	0.014116	-0.007744	-1.9e-05	0.004583	-0.004292
308	0.005241	0.005405	0.000474	0.009021	-0.005607	-0.001005	0.007377	-0.004949
309	0.003597	0.00146	-0.001991	0.00787	-0.003142	-0.001005	0.001789	-0.002813
310	0.003433	0.005405	-0.000347	0.011651	-0.001827	-0.003799	0.00672	-0.004621
311	0.004583	0.000639	-0.003963	0.00672	-0.005771	0.001789	0.003926	-0.002648
312	0.002282	0.003268	-0.003142	0.008528	-0.004292	-0.004785	0.003104	-0.004785
313	0.001954	0.003268	-0.000676	0.011158	-0.007908	-0.001169	0.00409	-0.003963
314	0.002118	0.003268	-0.002155	0.012308	-0.003635	0.000474	0.006227	-0.001991
315	0.003268	0.000803	-0.005771	0.013459	-0.006593	-0.001498	-0.001827	-0.002813
316	0.001132	0.008528	0.000474	0.010664	-0.005936	-1.9e-05	0.000967	-0.004292
317	0.003433	-0.000676	-0.001334	0.014773	-0.005936	0.000474	0.002118	-0.005443
318	0.000146	0.001954	-0.001662	0.011486	-0.008072	0.000146	-0.000183	-0.002155
319	0.001625	0.004912	-0.003142	0.013952	-0.006757	-0.001991	0.001132	-0.000512
320	0.001132	-0.000676	-0.00347	0.012472	-0.003799	-0.001334	0.002611	-0.000347
321	-1.9e-05	0.004255	-0.002155	0.010664	-0.005443	-0.00347	0.00146	-0.003635
322	0.000639	-0.002484	0.000967	0.008035	-0.00725	-0.002977	0.002282	-0.004949
323	0.001296	-1.9e-05	-0.001169	0.012144	-0.004785	-0.002813	0.001954	-0.002648
324	0.002118	0.00031	-0.001498	0.010664	-0.003799	0.000146	0.001789	-0.002155
325	0.007706	0.004419	-1.9e-05	0.009021	-0.002484	-0.004621	0.00409	-0.004292
326	0.002447	0.000803	-0.003142	0.008692	-0.005771	-0.00347	-0.00232	-0.000676
327	0.004912	0.003597	0.002775	0.011158	-0.004292	-0.003142	0.000146	-0.004785
328	0.003597	0.001296	0.00146	0.011651	-0.003799	-0.003306	-0.001827	0.000803
329	0.004255	0.00409	-0.001662	0.014116	-0.003306	-1.9e-05	-0.000841	-0.003635
330	0.002611	0.005569	-0.005443	0.015595	-0.005443	-0.001991	-0.002648	-1.9e-05
331	0.002118	0.004748	-0.00347	0.011815	-0.007908	0.000146	-0.003306	-0.003635
332	0.001625	-1.9e-05	-0.004621	0.01576	-0.003799	-0.003799	-0.001827	-0.004128
333	0.000803	0.007049	-0.001991	0.010829	-0.004785	0.000803	0.000803	-0.001662
334	0.00409	0.002282	-0.005607	0.011158	-0.006429	-0.001662	-0.005114	-0.002813
335	-0.000841	0.002611	-0.002977	0.012801	-0.001169	-0.003799	-0.003799	-0.004456
336	0.000803	0.003268	-0.004785	0.011979	-0.001334	-0.002484	-0.001334	-0.003963
337	0.001789	0.003104	-0.003963	0.009514	-0.003142	-0.000841	-0.003963	-0.002648
338	0.000639	0.000967	0.000967	0.010336	-0.002648	-0.004292	-1.9e-05	-0.001334
339	0.000146	-0.002813	0.000146	0.011486	-0.001498	0.000146	-0.001827	-0.002155
340	0.000146	0.003433	-0.000512	0.011815	0.000803	0.000967	-0.001662	-0.00347
341	-0.000841	0.002775	-0.000183	0.011322	-0.001498	0.001132	0.000967	-0.001827
342	0.003597	0.004255	-0.000676	0.011322	-0.001991	-0.004292	-0.000841	-0.007086
343	0.001625	0.004255	-0.00232	0.012965	-0.006264	-1.9e-05	-0.003306	-0.004128
344	-0.001169	0.00672	-0.000676	0.014609	-0.002813	-0.001662	0.000639	0.00146
345	0.005405	0.004255	-0.002977	0.012965	-0.00232	-0.001827	-0.003799	-0.005114
346	0.003761	0.005734	-0.001334	0.015924	-0.002484	-0.001334	-0.001334	-0.003799
347	0.00409	0.003268	-0.000841	0.012308	-0.002484	0.002775	-0.00232	-0.000676
348	0.000474	0.006391	-0.004949	0.013294	-0.003799	-0.00347	-0.004785	-0.000841
349	0.001954	0.004419	-0.005771	0.011651	-0.001005	-0.002155	-0.006593	-0.000347
350	0.002118	0.004583	-0.001334	0.01428	-0.003306	-0.002648	-0.002155	-0.003963
351	0.00294	0.005241	-0.006593	0.013787	-0.002155	-0.001498	-0.002155	-0.004128
352	0.00031	0.004748	-0.005607	0.011486	-0.003799	-0.001498	-0.007579	-0.004456
353	0.001789	0.005076	-0.004292	0.008692	-0.001498	-0.002648	-0.006429	-0.003142
354	0.001132	0.005405	0.003926	0.00935	-0.005936	-0.000183	-0.003142	-0.001662
355	0.00294	0.004419	-0.001005	0.011979	-0.00232	-0.00232	-0.004292	-0.001498
356	0.000474	-0.001498	-0.000512	0.010171	-0.004621	-0.000347	-0.002977	-0.004456
357	0.007377	0.002775	-0.001991	0.0105	-0.001498	-0.001334	-1.9e-05	-0.006264
358	-0.000512	0.001954	0.001132	0.005241	-0.007086	-0.001498	-0.005114	-0.003799
359	0.005241	0.00409	-0.001169	0.010007	-0.005936	-0.005114	-0.003963	-0.003963
360	0.003433	0.003761	-0.001005	0.009843	-0.001991	0.001132	-0.008401	-0.002155
361	0.00294	0.003597	0.004255	0.013787	-0.002484	-0.003306	-0.003306	-0.004621
362	0.004748	0.004419	-0.005443	0.012308	-0.003306	-0.00232	-0.00725	-0.003963
363	0.002282	0.007213	-0.002484	0.011979	-0.000347	-0.000841	-0.005771	-0.004128
364	0.005076	0.003926	-0.005607	0.012637	-0.004949	-0.003306	-0.00873	-0.003799
365	0.002775	0.009021	-0.001827	0.019047	-0.006757	0.000967	-0.0061	-0.002648
366	0.003926	0.003926	-0.002648	0.010993	-0.00347	-0.003142	-0.00873	-1.9e-05
367	0.003926	0.002447	-0.002648	0.013787	-0.003142	-0.000183	-0.007086	-0.003963
368	0.001789	-1.9e-05	-0.004621	0.013294	-0.003306	0.000639	-0.007086	-0.000676
369	-0.001827	0.00294	-0.003306	0.009678	-0.010209	0.004255	-0.008072	-0.009223
370	0.002775	0.000967	0.002447	0.013623	0.001296	-0.004456	-0.010209	-0.003635
371	-0.00232	0.002611	-0.000183	0.010664	-0.0061	0.000474	-0.009716	-0.002155
372	-0.000512	0.003761	-0.000676	0.014116	-0.003799	-0.004292	-0.008401	-0.007579
373	-1.9e-05	-0.000183	-0.000183	0.010336	-0.002813	-0.00347	-0.008401	-0.001991
374	-0.001334	0.004748	-0.001498	0.011979	-0.001827	-0.004128	-0.009551	-0.001991
375	-0.000676	0.00031	-0.001662	0.0105	-0.005278	-0.003635	-0.006264	-0.000512
376	0.001132	0.006556	-0.000183	0.009021	-0.001662	-0.005114	-0.007579	-0.002977
377	0.003268	0.001789	0.000639	0.013294	-0.00232	-0.002648	-0.008237	0.001625
378	0.001954	0.005076	-0.004292	0.010829	0.001789	-0.00347	-0.007415	-0.003963
379	0.003926	0.002775	-0.002648	0.012637	-0.004785	-0.002813	-0.012017	-0.001334
380	0.000474	0.003926	-0.000512	0.014445	-0.004949	-0.001005	-0.011195	-0.000841
381	0.002447	0.00409	-0.002977	0.012144	-0.000841	-0.002648	-0.012674	-0.00232
382	-0.000841	0.004748	-0.003963	0.010336	-0.00232	-0.002648	-0.014318	-0.002813
383	0.001789	0.003761	-0.001334	0.015102	0.000639	-0.004785	-0.013332	-0.004621
384	0.000146	0.005241	-0.002648	0.011651	-0.002977	-0.007579	-0.012017	-0.001991
385	-0.000512	0.005569	-0.005443	0.010829	-0.000676	-0.003963	-0.016948	-0.004128
386	-0.000676	0.00146	-0.002648	0.0105	-0.002813	0.000967	-0.015797	-0.003142
387	0.003761	0.004419	0.002447	0.010171	-0.000676	-0.001991	-0.014153	-0.002155
388	-0.004456	0.003761	-0.001991	0.009678	-0.002648	-0.001169	-0.013496	-0.001334
389	0.000146	-0.000183	0.001625	0.011158	-0.001498	-0.00347	-0.01251	-0.004949
390	-0.002648	-0.001005	0.001296	0.009843	-0.000676	-0.002484	-0.013989	-0.002648
391	-0.000512	0.003597	0.000146	0.00935	-0.001334	-0.004949	-0.009551	-0.002813
392	-0.000183	0.002282	0.000803	0.012308	-0.000676	-0.006593	-0.014647	-0.001169
393	0.000639	0.00409	0.004748	0.010829	0.000639	-0.007579	-0.011852	-0.003306
394	0.005241	0.001789	-0.004949	0.011979	-0.002977	-0.00347	-0.01514	-0.001662
395	0.000146	0.005076	0.002447	0.011651	-0.002155	-0.004949	-0.011359	-0.003799
396	0.00146	0.003926	0.00294	0.01313	-0.004785	-0.005771	-0.019413	-0.003306
397	0.000146	0.004583	0.00294	0.014773	-0.00232	-0.0061	-0.014153	-0.004949
398	0.001296	0.004748	-0.000183	0.013787	-0.002155	-0.002484	-0.012017	-0.002648
399	0.000474	0.005076	-0.001991	0.010664	-0.001662	-1.9e-05	-0.010866	-0.002155
400	0.00294	0.003433	-0.004456	0.017567	0.000639	-0.004292	-0.017441	-0.002155
401	0.001132	0.00672	-0.001334	0.010336	-0.004292	-0.00347	-0.013167	-0.004456
402	-0.000183	0.002611	-0.001991	0.012801	-0.001662	-0.001662	-0.018098	-0.002484
403	-0.002155	0.006391	-0.003635	0.007213	-1.9e-05	-0.000512	-0.016454	-0.002484
404	0.000803	0.003433	-1.9e-05	0.010993	0.00031	-0.006429	-0.01514	-0.003306
405	-0.001827	0.004583	0.004583	0.012144	-0.001498	-0.003306	-0.018427	-0.001662
406	-0.001169	0.00294	-1.9e-05	0.010993	-0.000183	-0.004785	-0.013989	-0.001498
407	-0.001169	0.002447	0.00146	0.006556	-0.001991	-0.002484	-0.020399	-0.002648
408	-0.000183	0.004912	0.002118	0.009678	0.001625	-0.006429	-0.022371	-0.002977
409	0.002775	0.003761	0.002118	0.008857	-0.002813	-0.001991	-0.018427	0.000146
410	-1.9e-05	0.00787	0.001625	0.010993	-0.005114	-0.004785	-0.018098	-0.00347
411	-0.001991	0.001954	0.001954	0.010664	-0.002648	-0.001169	-0.019413	-0.001005
412	0.001132	0.003597	0.005076	0.010993	-0.002155	-0.003799	-0.016619	-0.001169
413	-0.000347	0.004748	-0.001498	0.011979	-0.002648	-0.005607	-0.017276	0.001296
414	-0.001662	0.009843	0.002447	0.011486	-1.9e-05	-0.003963	-0.015961	0.000803
415	0.003268	0.008528	0.002611	0.012965	0.00031	-0.004949	-0.019249	-0.001498
416	-0.001827	0.003926	0.005569	0.011486	-0.004456	-0.005771	-0.016783	0.00031
417	0.000146	0.004419	-0.000512	0.012801	-0.00232	-0.003799	-0.019742	0.00409
418	-0.001169	0.005569	0.00672	0.011979	0.00146	-0.001334	-0.016454	-0.003142
419	-0.000347	0.002775	-0.003963	0.010829	-0.001991	-0.001334	-0.020892	-0.005278
420	-0.003799	0.001789	0.001789	0.011651	-0.004128	-0.002155	-0.018427	-0.001005
421	-0.001005	0.004255	0.001296	0.010664	-0.003799	-0.002155	-0.018755	-0.000512
422	-0.003963	0.001789	0.00294	0.010171	-0.004949	-0.002648	-0.019577	-0.001334
423	-0.000841	0.003433	0.001789	0.009185	0.002282	-0.005278	-0.017769	-0.001991
424	-1.9e-05	0.000474	0.00294	0.00935	-0.002484	-0.000676	-0.020728	0.005898
425	0.00146	0.003104	0.003926	0.007049	0.002447	-0.003799	-0.023851	-0.005936
426	-0.001827	0.002611	0.002611	0.0105	0.002118	-0.003635	-0.024015	-0.000512
427	-0.000183	0.007049	0.008035	0.010336	-0.001991	-0.005114	-0.020235	-0.001991
428	-0.001827	0.000146	-0.001827	0.00935	0.003104	-0.002977	-0.023851	0.003433
429	0.000146	0.004583	0.000146	0.009843	0.001296	-0.004456	-0.019906	0.000639
430	0.003104	0.006391	-0.001662	0.010007	-0.000512	-0.006264	-0.02007	0.00146
431	0.000803	0.003268	0.00146	0.010664	-0.001827	-0.001334	-0.017112	-0.002155
432	0.005076	0.003433	-0.000347	0.012637	-0.000841	-0.00232	-0.020399	-0.001498
433	0.00031	0.002611	0.000474	0.005898	-0.002155	-0.00347	-0.017112	-0.001334
434	0.003761	0.003433	0.002611	0.009678	0.000146	-0.004128	-0.014811	-0.000512
435	0.000146	0.005241	0.002118	0.005898	-0.001827	0.000146	-0.014153	-0.001005
436	0.000474	0.003433	0.003597	0.007542	0.001132	-1.9e-05	-0.018098	-0.001991
437	-0.000676	0.003104	0.006062	0.008199	-0.001662	-0.001827	-0.020399	-0.001169
438	0.000474	0.000639	-0.004949	0.007213	0.001625	-0.001169	-0.019906	-0.002155
439	-0.000512	0.00409	-0.000512	0.007213	-0.001334	0.00031	-0.021714	0.00146
440	-0.003306	0.003926	0.003761	0.008363	0.003268	-0.004785	-0.019413	-0.001662
441	0.001296	0.001954	0.004748	0.006391	-0.003635	-0.002648	-0.021714	-0.001334
442	-0.000512	0.004419	0.00294	0.008363	-0.002155	-0.003635	-0.018262	-0.001498
443	0.00031	0.001954	0.003104	0.008035	0.00031	0.00031	-0.01892	0.005076
444	-0.001005	-0.002484	0.004748	0.008692	-0.000512	-0.001169	-0.018755	-0.002813
445	-0.002813	-0.00232	0.001954	0.009514	-0.001334	-0.001827	-0.020892	0.003597
446	-0.003799	0.002282	0.003268	0.005076	-1.9e-05	0.003433	-0.028946	0.000803
447	-0.000183	0.000474	0.001296	0.004748	-0.000183	-0.00725	-0.022536	-0.000841
448	0.000146	0.005569	0.004419	0.00294	-0.003142	-0.005114	-0.017605	-0.004128
449	0.002118	0.001132	-0.001662	0.003926	-0.000347	-0.002484	-0.017769	-0.00232
450	-1.9e-05	0.005734	0.002118	0.004255	-0.002977	-0.001662	-0.017441	-0.001169
451	-0.005443	0.000967	0.005405	0.008035	-0.000676	-0.002484	-0.023522	-0.00232
452	0.00146	0.003761	0.001132	0.006062	-0.000841	-0.003142	-0.016948	-0.003306
453	0.001132	0.004255	0.004912	0.007049	-0.003306	-0.002648	-0.020892	-0.001169
454	-0.004456	0.007049	0.001296	0.00935	-0.001991	-0.002155	-0.020728	-0.001827
455	0.001132	0.00294	0.00409	0.001954	0.001296	-0.004128	-0.019906	-0.002813
456	-0.001169	0.000803	0.006884	0.006227	-0.000841	-0.001169	-0.021056	0.000967
457	-0.001827	0.001296	0.005734	0.003926	0.001954	-0.01514	-0.019742	-0.005278
458	-0.002155	0.00146	0.008363	0.004255	0.000474	-0.004292	-0.02648	-0.00725
459	-0.001498	0.002611	0.006062	0.004419	0.000967	-0.00347	-0.020892	-0.003142
460	0.000474	-0.001334	0.008199	0.00146	0.003433	-0.010045	-0.022371	-1.9e-05
461	-0.000183	0.005569	0.005076	0.005076	-0.001662	-0.002813	-0.021878	-0.001827
462	-0.002155	0.000803	0.005405	0.003433	0.001296	-0.001498	-0.022207	-1.9e-05
463	-1.9e-05	0.00409	0.005076	0.005076	-0.003799	-0.004292	-0.017441	-0.002155
464	0.002282	-0.000183	0.003597	0.004419	-0.00347	-0.000676	-0.02155	0.001789
465	-0.001498	0.000967	0.006227	0.005569	-0.001827	-0.002977	-0.021714	0.007049
466	0.002282	0.004583	0.006227	0.002282	-0.002155	-0.002977	-0.019906	-0.004292
467	0.006062	0.00409	0.00672	0.003597	-0.004128	-0.003142	-0.021221	-0.003142
468	-0.001827	0.00031	0.005405	0.003104	-0.003142	-0.001991	-0.020235	-0.000512
469	-0.001827	0.002775	0.00672	0.003761	-0.001334	-0.000676	-0.024344	0.000967
470	-0.002484	0.002775	0.003268	0.006062	-0.002813	-0.00232	-0.02155	-0.000676
471	-0.005936	0.000967	0.005405	-1.9e-05	-0.001991	-0.002484	-0.021714	0.000803
472	-0.003635	0.00146	0.006062	0.005569	-1.9e-05	-0.004292	-0.022207	-0.001498
473	-0.00725	0.000803	0.001954	-1.9e-05	0.003761	-0.005443	-0.022371	0.00146
474	-0.002648	0.002447	0.006556	0.002611	0.002282	-0.001005	-0.016619	-0.002155
475	0.000639	0.000803	0.007213	0.00031	-0.003306	-0.001005	-0.026645	-1.9e-05
476	-1.9e-05	-0.001827	0.005734	0.004419	0.000639	-0.001169	-0.023686	-0.010209
477	0.001625	-0.002484	0.010336	0.002775	-0.002648	-0.001662	-0.022536	-0.001498
478	-0.006593	0.002447	0.004255	0.001296	0.00031	-0.004949	-0.019413	0.00031
479	-0.001662	-0.003963	0.004419	0.004255	-0.004456	-0.000676	-0.021878	-0.004128
480	-0.003142	0.001789	0.007377	0.002611	-0.001662	-0.006757	-0.017441	-1.9e-05
481	0.001789	0.001954	0.00294	0.001296	-0.000347	-0.002813	-0.019742	-0.000512
482	-0.001005	0.004583	0.006556	0.005076	0.000474	-0.003306	-0.018427	-0.00232
483	0.001132	0.002282	0.005076	-0.001498	-0.002484	-0.00347	-0.017934	0.001296
484	-0.000676	0.00409	0.007377	0.006062	-0.004949	-0.002977	-0.013825	-0.000183
485	0.002775	0.003433	0.001625	0.003761	-0.000347	0.001789	-0.016783	-0.000512
486	-0.000676	0.001132	0.007213	-0.001991	-0.003142	-0.002155	-0.019084	0.000803
487	0.001625	0.008857	0.003268	0.001789	0.001625	-0.000512	-0.018262	-0.001005
488	-0.002484	0.000967	0.003104	-0.000676	-0.005114	0.000474	-0.016619	-0.001498
489	-0.001169	0.000146	0.002447	-0.000841	-0.002813	-0.002648	-0.016454	-0.004128
490	-0.002648	0.003597	0.00672	0.002282	-0.004128	-0.000512	-0.019742	0.001296
491	-0.001169	0.002775	0.004419	0.000146	0.00294	-0.000512	-0.014811	-0.003306
492	-0.00347	0.001789	0.004583	0.000146	-0.001991	0.000639	-0.018755	-0.000347
493	-0.004456	0.005898	0.006391	0.001954	0.001625	-0.000512	-0.017276	-0.000183
494	-0.000512	0.001296	0.007542	-0.000676	-0.003635	-0.00232	-0.018591	-0.000841
495	0.002118	0.007706	0.006556	0.001625	-0.0061	-0.004292	-0.014975	-0.005278
496	0.00787	0.00146	0.003926	0.001132	-0.004949	-0.002155	-0.016619	0.001954
497	0.001625	0.002447	0.003433	-0.000841	-0.001827	-0.004621	-0.016948	0.00146
498	0.000803	-0.000676	0.00409	0.000967	-0.003142	-0.002484	-0.015468	0.004419
499	0.000474	0.000639	0.005569	-0.000183	-0.003142	0.00031	-0.011688	0.003926
500	0.002447	0.001789	-0.000512	-0.00232	-0.002484	-0.002484	-0.011195	0.000803
501	-0.003799	0.002447	0.006884	-0.001498	-0.004949	0.002775	-0.015304	0.000967
502	-0.002155	0.00031	0.006391	-0.001334	0.001296	-0.000512	-0.013332	-0.001169
503	-0.000676	0.001954	0.007542	-0.000512	0.001625	-0.000512	-0.014975	0.00031
504	-0.002648	0.001954	0.005405	0.001625	-0.003306	-0.001334	-0.015468	0.001132
505	-0.001662	-0.001498	0.008035	-0.002155	0.00146	-0.001334	-0.019413	0.001625
506	0.00031	0.001625	0.006391	0.003268	0.000146	-0.002648	-0.013332	-0.00347
507	-0.00347	0.000146	0.002447	0.001789	-0.004621	0.00031	-0.016454	-0.000512
508	-0.000512	0.002118	0.004583	0.000803	0.003268	-0.003635	-0.018262	-0.001991
509	-0.001334	0.000639	0.007706	0.002611	-0.002484	0.000803	-0.013496	-0.001662
510	-0.002648	0.005076	0.003433	0.000967	-0.001662	-0.004949	-0.011195	-0.004128
511	-0.000347	-1.9e-05	0.000967	-0.001662	0.000146	-0.001662	-0.016783	0.00146
512	-0.001662	0.003433	0.006556	0.000474	0.002447	-0.004292	-0.010045	0.000639
513	-0.000841	-0.001827	0.003926	-0.001498	0.001625	0.000803	-0.014811	0.001296
514	0.000474	0.002118	0.008035	0.000967	-0.001827	-0.002648	-0.011688	0.00031
515	-0.001498	0.002447	0.005076	0.00031	-0.002813	-0.005936	-0.014647	0.000967
516	-0.001334	-0.004128	0.007706	0.001296	-0.003799	-0.002813	-0.012674	0.002775
517	0.000967	0.002118	0.005241	0.001789	0.001954	-0.003799	-0.013496	0.001296
518	-0.008894	0.003597	0.005241	0.001296	-0.005443	-0.00232	-0.013167	0.004419
519	0.000146	-0.000183	0.006062	0.002775	0.00146	0.00146	-0.013989	-0.000841
520	-0.001662	0.001296	0.006556	0.000146	-0.002484	0.000967	-0.012674	-0.001991
521	0.000146	0.005569	0.00409	-0.00232	0.001296	-0.003963	-0.011688	-0.000512
522	-0.000676	-0.000347	0.006227	0.001625	0.000146	-0.003306	-0.013332	-0.000512
523	-0.000347	0.001132	0.006884	0.002118	0.005241	-0.002977	-0.011688	-0.000676
524	-0.000841	0.000474	0.006391	0.001625	0.004912	-0.000347	-0.010373	0.002282
525	-0.003963	0.002611	0.008692	0.002447	0.004255	-0.005278	-0.009058	-0.001827
526	-0.000841	0.001789	0.005405	0.000639	0.000803	-0.004785	-0.013332	0.001625
527	-0.001005	0.002447	0.012801	0.002118	-0.003142	-0.003635	-0.011524	-0.001827
528	0.001132	0.00409	0.005898	-0.000347	0.001625	-0.003635	-0.012839	0.00146
529	-0.002484	0.002447	0.00409	0.001954	-0.000347	-0.002484	-0.009223	0.002118
530	0.00146	0.001132	0.005569	0.000146	0.001132	-0.005771	-0.013332	0.003761
531	-0.000183	0.00294	0.008035	0.001954	0.001132	-0.00347	-0.007744	0.00146
532	-0.001991	0.005405	0.00409	0.000803	0.000474	-0.00232	-0.009223	0.003268
533	-0.001169	0.003104	0.006884	-0.000512	-1.9e-05	-0.004621	-0.006593	0.001132
534	0.003433	0.003597	0.007049	-0.000183	0.000146	-0.0061	-0.003142	0.004255
535	-0.001827	0.005898	0.005405	-0.001169	0.000146	0.000967	-0.006429	0.002447
536	0.000803	0.006227	0.005076	0.001296	0.001132	-0.00347	-0.006922	0.000639
537	0.000474	0.005734	0.003433	-0.001991	0.003268	-0.001827	-0.005607	0.002118
538	-0.001334	0.00672	0.003597	0.004419	-0.001005	-0.002813	-0.008072	-1.9e-05
539	-0.002484	0.002447	0.003597	0.001625	0.000146	-0.001827	-0.009058	0.002118
540	-0.002484	0.006062	0.005241	0.002447	0.004419	-0.005936	-0.006429	-0.000347
541	-0.001991	0.003597	0.002611	0.00146	-0.002155	-0.002977	-0.008401	0.001954
542	-0.001005	0.005076	0.000967	0.004255	0.003926	-0.003635	-0.001005	-0.00232
543	-0.001991	0.006227	-0.000512	-0.000512	-0.002155	-0.003799	-0.004456	0.004419
544	-0.000512	0.003268	-0.001498	-0.000183	0.001954	-0.006264	-0.004292	0.001954
545	0.000639	-0.001005	0.000474	-0.004456	0.002447	-0.004621	-0.004292	0.002118
546	-0.002813	0.007542	0.003268	0.000639	-0.000183	-0.003963	-0.000183	-0.000183
547	-0.001334	0.002447	-0.002977	-0.002155	0.002447	-0.001169	-0.003635	0.000474
548	-0.003306	0.006227	0.002775	-0.006429	0.00294	-0.004785	-0.002155	0.002775
549	0.001954	0.004419	-0.000841	-1.9e-05	0.000474	-0.000676	0.000639	0.00294
550	-0.002648	0.00672	-0.002484	0.003926	0.000803	-0.002813	0.002118	0.006227
551	0.003597	0.004912	-0.002484	0.000146	0.006556	-0.000183	0.002611	0.001789
552	-0.001005	0.005734	0.000146	-0.003142	-0.004128	-0.001498	-0.001169	0.002775
553	0.000639	0.005076	0.000146	-0.000512	0.001789	-0.001498	0.000639	-0.000347
554	0.00146	0.005405	0.000967	-0.002155	-0.000841	-0.001005	0.000146	0.00294
555	0.000803	0.005898	-0.001827	0.000967	0.003433	-0.001334	0.000803	0.001789
556	-0.000512	0.005405	-0.001169	-0.002648	0.00031	-0.001827	0.000639	0.000146
557	-0.000676	0.005076	0.00031	0.00031	0.001132	0.000639	0.003104	-0.004785
558	-0.004456	0.00409	0.000803	-0.002484	0.005898	0.001132	-0.002977	0.001625
559	-0.000347	0.005405	0.004748	-0.002977	0.002118	0.000474	0.004583	-0.003963
560	-0.001662	0.004419	0.00294	-0.001498	0.000967	0.000146	0.003926	-0.00347
561	-0.001005	0.006391	0.000474	-0.005936	0.001132	0.001296	-0.000347	0.000639
562	0.001132	0.002118	-0.00347	-0.004949	0.000639	0.001132	0.003104	0.004419
563	0.001625	0.00787	0.002775	-0.002813	0.00146	-0.001005	0.002611	0.001132
564	0.000967	0.005241	0.000146	-0.007415	-1.9e-05	0.000967	0.002447	0.002775
565	-0.000183	0.003597	0.002611	-0.003963	-0.000512	0.000146	0.006227	0.003104
566	0.003761	0.006391	0.000474	-0.000183	-0.003799	0.000474	0.004748	0.005076
567	0.000803	0.001132	0.005076	-0.003635	0.004583	-0.000347	0.007542	0.002447
568	-0.001662	0.003926	0.003268	-0.00232	-0.002155	0.003268	0.006391	0.002118
569	-0.000676	0.005241	0.003761	0.000146	-0.000841	0.002447	0.005405	0.001954
570	-0.002484	0.004583	0.002447	0.002118	0.003433	-0.001991	0.005898	-0.000512
571	-0.005278	0.003268	0.004912	0.005569	0.000967	-0.001334	0.004912	0.002118
572	-0.002648	0.00672	0.001789	0.003268	0.006062	-0.003799	0.003926	0.001625
573	-0.002648	0.005569	-0.003306	-0.000183	0.004748	-0.000183	0.006884	0.004748
574	0.000146	0.007706	0.001789	0.00146	0.005241	-0.001334	0.006884	0.002447
575	-0.000512	0.006227	0.000474	-0.001169	-0.001169	0.000474	0.005898	0.00031
576	-0.005443	0.00787	0.003597	-0.002155	0.003268	-0.000841	0.007377	0.000146
577	-1.9e-05	0.004255	0.004583	-0.002648	0.001789	0.001132	0.00409	-0.000676
578	-0.000841	0.00672	0.008035	-0.002648	0.00294	0.002775	0.010171	-0.000183
579	0.000146	-1.9e-05	0.004583	-0.00232	0.002118	0.001132	0.007542	-0.000183
580	-0.001662	0.005734	0.002447	-0.002155	0.003926	0.000146	0.007706	0.001132
581	0.001789	0.004255	0.003268	-0.001991	0.001625	0.001789	0.008528	0.001625
582	-0.001498	0.005076	0.005569	0.000474	0.000639	-0.001662	0.009514	-0.001991
583	0.002447	0.005898	0.002282	0.000146	0.005734	-0.004128	0.012144	0.001789
584	-0.001991	0.007049	0.004912	-1.9e-05	0.001132	-1.9e-05	0.01576	0.002611
585	0.005405	0.007706	0.006062	-0.000841	0.003597	0.001954	0.0105	0.00146
586	0.002611	0.007377	0.003433	-0.000512	0.00031	0.003268	0.013952	0.002775
587	0.00146	0.008035	0.001625	-0.002155	0.00031	0.00294	0.012637	0.001954
588	0.00409	0.00672	0.003761	-0.001662	-0.001827	-0.000183	0.012965	-0.002484
589	-0.000183	0.007049	0.006062	0.001625	-0.000183	0.003597	0.010664	0.00146
590	-0.001991	0.006556	0.005898	0.000146	0.001954	0.005241	0.011486	-0.000512
591	0.000474	0.008528	0.006062	0.00146	-0.001005	0.002118	0.012308	-0.001662
592	0.000474	0.00409	0.003268	0.00146	0.003104	0.003433	0.0105	-0.001334
593	0.003926	0.007049	0.007213	-0.002813	0.003926	-0.001005	0.014116	-0.005114
594	0.000967	0.008199	0.003597	0.001296	0.003104	0.002282	0.011651	0.000474
595	-0.000841	0.006227	0.003104	0.000474	0.006227	0.005241	0.013459	-0.000183
596	0.002775	0.003761	0.000967	-0.000512	0.000967	0.00294	0.012308	0.001789
597	0.001625	0.0105	0.004583	-0.003963	0.000474	0.003433	0.015431	0.00031
598	0.006556	0.00787	0.001954	-0.002484	0.001132	0.004419	0.011651	0.007049
599	0.002118	0.004748	-1.9e-05	-0.004456	0.003597	0.004255	0.015102	-0.004456
600	0.003104	0.008528	0.001296	-0.009223	0.00031	0.003104	0.018389	0.000146
601	-0.001169	0.007706	0.005241	-0.001827	0.000146	0.004583	0.021348	0.002447
602	0.003104	0.009678	0.005405	-0.001169	0.00146	0.002282	0.014116	-0.001662
603	0.000146	0.009678	0.005405	-0.001827	-0.001498	0.000639	0.016088	0.002118
604	0.001132	0.004419	0.00935	-0.000347	0.001954	0.001625	0.017567	-1.9e-05
605	0.001789	0.008857	0.005405	-0.000676	0.001132	0.006391	0.010007	0.00294
606	-0.003635	0.011651	0.003104	0.001954	0.004255	0.000803	0.016581	0.001296
607	0.000967	0.00672	0.003597	0.000146	-0.005771	0.002775	0.01313	-1.9e-05
608	-0.001005	0.010993	0.005898	0.001625	0.004748	0.003104	0.017567	-0.003306
609	-0.000676	0.009514	0.002447	0.000146	-0.001169	0.008528	0.014773	0.000803
610	0.00146	0.007213	0.00409	0.00031	0.001789	0.004583	0.014773	-0.001169
611	0.005405	0.007377	0.000474	-0.003142	-0.000183	0.008035	0.013294	-0.000676
612	-0.000676	0.008035	0.005734	-0.000841	-1.9e-05	0.009514	0.017732	0.000474
613	0.003433	0.004419	0.002118	-0.002813	0.001132	0.004419	0.016088	0.001625
614	-0.000347	0.003268	0.00672	-0.00232	-1.9e-05	0.006884	0.015266	-0.000841
615	0.000803	0.003597	-0.001662	-0.005607	-0.001005	0.006391	0.021019	0.003104
616	0.000967	0.007213	0.005898	-0.001334	-0.008237	0.004419	0.020855	0.002282
617	0.003926	0.000803	0.001789	0.002282	-0.002813	0.007377	0.018389	0.002282
618	0.000639	0.005241	0.003597	-0.002648	-0.00347	0.007706	0.019375	0.00409
619	0.003761	0.00787	0.005241	-0.000512	-0.00347	0.007377	0.021348	0.002447
620	0.002118	0.010171	0.000474	-0.002484	-0.003142	0.007377	0.019704	0.010007
621	0.002118	0.005405	0.000967	-0.005771	0.002282	0.005569	0.021512	-0.000841
622	-0.000183	0.005076	0.00294	-0.002977	-0.002977	0.004255	0.017567	-0.000512
623	-0.001827	0.011158	-0.000676	-0.001662	-0.003963	0.005734	0.024964	0.000474
624	0.003926	0.007049	0.001954	-0.003635	0.00146	0.006062	0.014609	0.001625
625	0.000639	0.009021	0.004912	-0.001334	0.000967	0.00409	0.019375	-0.000676
626	-0.001498	0.006062	-0.004456	-0.00347	-0.000183	0.007049	0.018718	0.002282
627	0.002611	0.010829	0.001954	-0.000841	0.001625	0.003433	0.01954	0.002775
628	0.00031	0.00935	0.005898	-0.004456	0.000967	0.006556	0.017074	0.003268
629	0.002611	0.009514	0.001789	-0.003635	0.000967	0.008857	0.020362	0.002611
630	0.003926	0.005734	0.000967	-0.004128	0.00031	0.00672	0.020197	0.00031
631	0.002118	0.010829	0.003104	-0.001334	0.003104	0.007377	0.020033	0.005405
632	0.002775	0.005569	0.000146	-0.003635	-0.000183	0.007377	0.01954	0.001954
633	0.004255	0.007213	0.005569	-0.004456	0.00031	0.006227	0.026936	0.002611
634	0.003268	0.007049	0.001625	-0.002155	-0.000676	0.009185	0.012965	0.003104
635	0.00146	0.007706	0.002611	-0.00347	-0.001498	0.002447	0.019211	0.004419
636	0.00409	0.008692	0.002775	-0.003306	-0.000841	0.004912	0.022005	0.002447
637	0.001625	0.005898	0.003597	-0.005114	-0.00347	0.006062	0.020362	0.002611
638	0.002611	0.010007	0.002118	0.000639	0.001132	0.006391	0.019375	0.00294
639	0.002447	0.008199	0.00409	-0.001498	-0.003306	0.006227	0.017567	0.002775
640	0.00409	0.011322	0.005076	0.000146	-0.000347	0.00672	0.020855	0.000639
641	0.002447	0.008528	0.003761	-0.000841	-0.000183	0.00935	0.022005	0.000803
642	0.003597	0.01576	0.005405	0.000967	0.001132	0.006391	0.02069	0.006391
643	0.006062	0.002447	0.003433	-0.003306	0.001954	0.009021	0.019868	-0.000183
644	0.001789	0.006884	0.003926	-0.002155	0.001789	0.00672	0.020526	-0.001498
645	0.000803	0.008363	0.004419	-0.001334	-0.000183	0.00146	0.019375	-0.001662
646	-0.003306	0.005734	0.006062	0.000474	0.00294	0.004912	0.019211	-0.000347
647	0.005405	0.007377	0.003761	-0.005278	0.006556	0.008857	0.019704	0.000474
648	0.000967	0.009514	0.004419	-0.00232	0.003268	0.005734	0.022498	-1.9e-05
649	-0.000347	0.008692	0.001789	-0.002155	0.000639	0.007542	0.018225	0.005569
650	-0.002977	0.008199	0.003433	-0.004949	0.007377	0.005569	0.019211	-0.002977
651	0.003761	0.009185	0.001625	-0.001827	-0.00232	0.009185	0.022498	0.002611
652	-0.000841	0.00787	0.003761	-0.003799	-0.000676	0.00672	0.02332	0.001132
653	0.003268	-0.00232	0.005734	-0.003142	0.000474	0.004255	0.023649	-0.012181
654	0.002611	0.004583	0.006556	-0.005443	0.000146	0.007213	0.021841	0.000146
655	0.005076	0.006062	0.004748	0.00146	-1.9e-05	0.004583	0.02332	-1.9e-05
656	0.000803	0.008199	0.005405	-0.002813	0.000474	0.005405	0.022334	0.000803
657	0.000639	0.008199	0.004255	0.000639	0.001954	-0.000512	0.020855	-0.005278
658	-0.001005	0.008199	0.004583	-0.001169	0.00146	0.006556	0.020033	-0.001991
659	0.003433	0.010664	0.005569	-0.001334	0.002282	0.007213	0.020526	-0.005114
660	0.00294	0.011158	0.004748	-0.001991	0.001625	0.00672	0.018718	0.000146
661	0.000474	0.00935	0.007542	-0.002648	-0.003963	0.006227	0.022169	-0.002155
662	0.000803	0.006884	0.004748	-0.002813	-0.000183	0.010664	0.022498	-0.002484
663	0.001132	0.00787	0.006062	-0.001005	0.00672	0.005734	0.022005	0.001132
664	0.002118	0.007542	0.003433	-0.002155	-0.000347	0.005405	0.022334	-0.002648
665	0.000639	0.007706	0.006062	-0.003963	0.00031	0.004912	0.023156	-0.003306
666	-0.006922	0.004748	0.002118	-0.003306	0.00409	0.006391	0.021348	-0.001991
667	-0.000841	0.005405	0.00672	-0.004292	-0.00347	0.006884	0.02332	0.00146
668	0.002447	0.013294	0.005569	-0.002484	0.001954	0.003268	0.022169	0.001625
669	-0.000676	0.008199	0.004419	-0.005936	0.000474	0.003597	0.022169	0.000639
670	0.003597	0.012144	0.006062	-0.003306	0.000639	0.001789	0.023484	-0.002484
671	0.001296	0.006391	0.00672	0.000474	-0.007744	0.004419	0.022169	-1.9e-05
672	0.005076	0.008857	0.004419	0.002118	0.003268	0.000474	0.021348	0.000967
673	0.003761	0.008035	0.004748	-0.001005	-0.001334	0.003433	0.01954	0.000967
674	-1.9e-05	0.008199	0.005569	0.001296	0.001789	0.001132	0.016581	0.000146
675	0.003268	0.003268	0.000639	-0.003963	0.002118	0.006556	0.018225	0.000146
676	0.001954	0.005405	0.004419	-0.000676	0.00146	0.006391	0.020197	-0.002648
677	0.001625	0.005898	-0.001169	-0.006429	0.000474	0.0105	0.016253	-1.9e-05
678	-0.001827	0.009185	0.004912	-0.004785	0.003926	0.003597	0.019868	-0.001498
679	0.005241	0.007706	-1.9e-05	-0.005114	0.006062	0.009678	0.020197	-0.004456
680	-0.001827	0.009678	0.006556	-0.005278	0.002118	0.007706	0.017403	-0.001005
681	0.00294	0.005076	0.003104	-0.006593	0.002775	0.007049	0.020855	0.000146
682	0.001132	0.005569	0.002447	-0.005607	0.003433	0.005569	0.022498	0.003104
683	0.004912	0.00672	0.003926	-0.004949	0.002118	0.011322	0.017074	0.000474
684	-0.000841	0.007213	0.004748	-0.006264	-0.001991	0.002611	0.01954	0.001132
685	0.003597	0.006884	0.002447	-0.004292	0.006062	-0.000512	0.017567	0.001296
686	0.003433	0.005734	0.003761	-0.005114	0.00146	0.005076	0.021841	0.001625
687	0.005076	0.007706	0.003104	-0.004785	-0.001334	0.005076	0.020362	-0.001827
688	0.002282	0.005569	0.002775	-0.006922	0.002611	0.004912	0.021183	0.002447
689	0.002447	0.005898	0.00409	-0.003799	0.004255	0.006227	0.021841	-0.000841
690	0.002775	0.004748	0.005405	-0.006429	0.002447	0.008199	0.021512	-0.001991
691	0.002118	0.009021	-0.000183	-0.003799	0.002447	0.005241	0.018225	-0.003963
692	0.005898	0.006884	0.000146	-0.006922	0.000639	0.007706	0.017732	-1.9e-05
693	-0.001005	0.005898	0.00409	-0.004949	0.002775	0.004583	0.021348	0.001954
694	0.001132	0.007377	-0.001169	-0.004785	0.001296	0.00672	0.015595	0.000803
695	-0.001991	0.008857	0.002447	-0.004785	0.008035	0.008035	0.018061	-0.001991
696	0.003268	0.00935	-0.002977	-0.005936	0.000803	0.00787	0.014938	-1.9e-05
697	0.001296	0.00672	0.002118	-0.011195	0.003104	0.005898	0.018554	-0.000347
698	0.00409	0.005734	0.001954	-0.015961	0.001789	0.006556	0.017074	0.003597
699	-0.002155	0.005405	0.000803	-0.008565	0.002775	0.004419	0.019704	0.00031
700	0.003268	0.003926	-0.000183	-0.008894	0.00146	0.003597	0.013294	0.001789
701	0.000639	0.003104	0.000803	-0.007086	0.002775	0.007049	0.020362	-0.002977
702	0.001296	0.000967	0.002611	-0.004128	0.003268	0.005076	0.013787	-0.001498
703	0.003597	0.003926	0.005241	-0.008072	0.001296	0.003926	0.014609	0.001296
704	0.002611	0.00294	0.003926	-0.005607	0.003597	0.001296	0.017239	-0.002977
705	0.004748	0.004583	0.000803	-0.008401	0.001625	0.005076	0.015102	0.00031
706	0.000474	0.002611	0.001789	-0.004949	0.005734	0.004255	0.016253	-0.004621
707	0.003926	0.005405	0.002775	-0.005278	-0.000183	0.002118	0.012637	-0.001498
708	0.000803	0.004255	-0.000676	-0.001169	0.001296	0.001625	0.016088	-0.005443
709	0.00787	0.006884	0.000474	-0.009058	0.000967	0.003268	0.013952	-0.004128
710	0.003104	0.00409	0.006227	-0.00347	0.002447	0.002611	0.014445	-0.004128
711	0.007706	0.002282	0.00294	-0.007086	0.006884	0.004912	0.013459	-0.001991
712	0.002611	0.003761	0.003104	-0.006429	0.004255	0.004419	0.017074	-0.006429
713	0.004255	0.003597	0.00031	-0.008401	0.005076	0.004419	0.013623	-0.002484
714	0.00031	0.006884	0.001954	-0.007908	0.005076	0.005241	0.012801	-0.00347
715	0.002447	0.004419	0.002775	-0.008237	0.00146	-0.001169	0.012965	-0.006757
716	0.00409	0.003433	0.001954	-0.008237	-0.000512	0.000803	0.01576	-0.000841
717	0.00031	0.00294	0.000639	-0.006922	0.007213	-0.000183	0.011815	-0.001169
718	-0.002155	0.005569	0.002447	-0.008237	0.001954	-0.003635	0.013787	-0.001827
719	-0.000347	0.000967	0.000474	-0.001662	-0.001005	0.000474	0.01428	-0.001827
720	0.004255	0.00146	0.003268	-0.00725	0.003104	0.001296	0.015924	-0.000841
721	0.002282	-0.000183	0.002118	-0.007744	0.003761	-0.002484	0.017239	-0.001827
722	0.003597	0.001132	0.001789	-0.00988	0.004419	-0.000183	0.012472	0.001132
723	0.004419	0.001296	0.001954	-0.007415	0.002447	-0.000676	0.011815	-0.003635
724	0.004255	-0.001498	0.00031	-0.00873	0.002611	0.000474	0.00935	-0.003142
725	0.006556	0.003268	0.000803	-0.008565	0.005241	-0.003306	0.00935	-0.004456
726	0.006227	0.003268	0.000803	-0.007579	0.00294	0.000967	0.008692	-0.005607
727	0.002447	0.005734	0.00031	-0.008237	0.005076	0.001132	0.009843	-0.003799
728	0.002447	0.002118	-0.003142	-0.004292	0.008528	0.002282	0.00672	-0.001169
729	0.004255	0.004912	-0.004292	-0.009058	0.005898	-0.002648	0.008692	-0.003635
730	0.004912	0.002775	-0.004292	-0.002977	0.004912	0.002611	0.008035	-0.00347
731	0.001296	0.00409	-0.001334	-0.010045	0.002775	0.002282	0.0105	-0.001498
732	0.005405	-0.000183	-0.004785	-0.009223	0.006227	-0.001662	0.007213	-0.003635
733	0.002775	0.00294	0.004255	-0.007086	0.003268	0.001625	0.008363	-0.001334
734	0.002118	0.00031	-0.008237	-0.007744	0.002118	0.003926	0.010664	-0.000676
735	0.004255	0.002118	0.003104	-0.011195	0.002775	0.000146	0.010993	-0.002484
736	0.003433	0.001789	0.002118	-0.010538	0.003926	-0.004292	0.006062	-0.002648
737	0.003926	0.000639	0.001789	-0.00725	0.005076	0.000967	0.011486	-0.002155
738	0.004419	0.003597	-0.000183	-0.004949	0.00146	-0.003635	0.008857	-0.003142
739	0.003926	0.000967	-0.000841	-0.00988	0.001625	-0.001005	0.009514	-0.002155
740	0.007049	0.002447	0.002775	-0.005936	0.004255	0.001789	0.011322	0.00031
741	0.007706	-0.001662	-0.005443	-0.017112	0.003104	-0.001991	0.008363	-0.002977
742	0.002282	0.00409	-0.003635	-0.007908	0.002775	0.001132	0.010336	-0.005114
743	0.002611	0.001789	-0.00347	-0.00988	0.004583	0.000474	0.006556	-0.004785
744	0.001625	0.002447	-0.000183	-0.007086	0.002118	0.003104	0.009514	-0.005443
745	0.003926	0.003104	-0.002813	-0.0061	0.001296	0.001132	0.006227	-0.003306
746	0.001625	0.003597	-0.000183	-0.008401	0.004419	-0.001662	0.008692	-0.003142
747	0.005734	0.007377	-0.00232	-0.007908	0.003104	-0.002648	0.005076	-0.003963
748	0.000639	0.00409	0.003268	-0.008401	0.005569	-0.002155	0.007377	-0.001169
749	0.006062	0.004583	-0.001498	-0.009551	0.005241	-0.000841	0.00935	0.002282
750	0.006556	0.002611	-0.000676	-0.009223	0.002611	-0.001662	0.008035	0.003761
751	0.009678	0.005734	0.005898	-0.00725	0.006556	0.001132	0.011979	0.003433
752	0.013787	0.013459	0.012965	0.000474	0.013294	0.013787	0.018882	0.011651
753	0.023484	0.019868	0.021348	0.011979	0.020033	0.016088	0.027593	0.019375
754	0.031045	0.025292	0.026936	0.017074	0.029401	0.027758	0.032853	0.026607
755	0.04107	0.035647	0.038112	0.028251	0.038769	0.033181	0.039263	0.027922
756	0.042878	0.041728	0.04255	0.029566	0.03992	0.043207	0.047809	0.038276
757	0.052082	0.046166	0.04896	0.040249	0.05011	0.043043	0.050274	0.043371
758	0.05652	0.055205	0.056027	0.045508	0.05652	0.050932	0.056027	0.050768
759	0.0603	0.060958	0.060136	0.055041	0.0603	0.055698	0.062601	0.054219
760	0.068682	0.066875	0.062766	0.056356	0.068354	0.065395	0.066875	0.063423
761	0.076079	0.074928	0.068189	0.060793	0.074435	0.069011	0.071805	0.068189
762	0.080845	0.079201	0.0769	0.071641	0.076407	0.075257	0.076243	0.075585
763	0.084132	0.084296	0.083639	0.074764	0.083146	0.080187	0.086597	0.079201
764	0.089556	0.091528	0.085611	0.076407	0.084296	0.088241	0.083968	0.084789
765	0.092514	0.090049	0.092843	0.084789	0.091857	0.086104	0.090542	0.087584
766	0.101718	0.09498	0.096294	0.086104	0.094651	0.094815	0.094487	0.0935
767	0.100896	0.098267	0.102376	0.089556	0.096788	0.095801	0.100403	0.098267
768	0.104019	0.097116	0.106485	0.098431	0.102047	0.101061	0.098267	0.100403
769	0.105827	0.104348	0.112566	0.097609	0.105498	0.104019	0.105498	0.10517
770	0.114867	0.1101	0.115031	0.105992	0.112566	0.106485	0.108621	0.105827
771	0.116675	0.109114	0.117496	0.104677	0.115689	0.112073	0.114374	0.114702
772	0.120619	0.119797	0.120455	0.111744	0.120619	0.111415	0.116017	0.111087
773	0.126207	0.122756	0.123742	0.116675	0.121112	0.117825	0.113716	0.111744
774	0.127029	0.124235	0.1267	0.120455	0.127522	0.122098	0.123413	0.117825
775	0.137548	0.130809	0.129659	0.119962	0.127358	0.125879	0.120291	0.122427
776	0.134425	0.130316	0.132289	0.125879	0.13196	0.128344	0.123413	0.123906
777	0.139685	0.135083	0.135904	0.126536	0.135247	0.131302	0.126043	0.127687
778	0.136562	0.140178	0.143794	0.130809	0.139356	0.132453	0.129495	0.129659
779	0.142479	0.138041	0.142643	0.132782	0.136891	0.137548	0.1267	0.134754
780	0.142314	0.142314	0.144615	0.136233	0.145273	0.134754	0.131138	0.133932
781	0.146752	0.140342	0.146916	0.136562	0.145602	0.141	0.13196	0.136562
782	0.146588	0.148396	0.147738	0.138041	0.14856	0.144451	0.135411	0.138041
783	0.151354	0.148231	0.150204	0.137219	0.151683	0.143301	0.143136	0.144122
784	0.15234	0.150697	0.154806	0.142479	0.151354	0.146259	0.140506	0.145602
785	0.155299	0.156285	0.156942	0.143465	0.155463	0.153162	0.142807	0.147738
786	0.157107	0.153655	0.159408	0.143794	0.155792	0.153326	0.146259	0.153162
787	0.159572	0.154806	0.159079	0.14971	0.154806	0.152011	0.145766	0.150368
788	0.162859	0.155627	0.162202	0.148396	0.160887	0.158257	0.147245	0.154148
789	0.162695	0.159243	0.165982	0.150204	0.16138	0.1576	0.151354	0.15497
790	0.166804	0.162202	0.165817	0.15234	0.159572	0.157764	0.148231	0.157928
791	0.167461	0.166639	0.161873	0.155956	0.163352	0.158421	0.152011	0.161051
792	0.168283	0.163352	0.171406	0.153984	0.163023	0.160229	0.147245	0.159736
793	0.164996	0.168283	0.170748	0.160229	0.169762	0.161544	0.155134	0.161709
794	0.168283	0.166146	0.168776	0.160887	0.166146	0.165653	0.153491	0.163352
795	0.170584	0.168283	0.172885	0.162695	0.166804	0.164174	0.152669	0.160394
796	0.173049	0.167954	0.16894	0.162037	0.168447	0.167954	0.154806	0.166968
797	0.172556	0.177487	0.172556	0.165817	0.170091	0.165489	0.1576	0.16401
798	0.17535	0.17272	0.171734	0.16138	0.16779	0.166475	0.159243	0.165489
799	0.177487	0.174035	0.175515	0.163516	0.170913	0.173378	0.159243	0.168776
800	0.175515	0.174035	0.17798	0.166475	0.173378	0.173049	0.161544	0.170091
801	0.173871	0.175021	0.181924	0.163188	0.172556	0.173049	0.160722	0.172227
802	0.175021	0.174035	0.183404	0.164174	0.1742	0.173049	0.160722	0.168118
803	0.178802	0.175186	0.172392	0.163188	0.1742	0.172556	0.164667	0.17157
804	0.180445	0.179295	0.182089	0.17272	0.176336	0.174364	0.164503	0.173871
805	0.18176	0.177651	0.183897	0.170748	0.180445	0.175515	0.164831	0.174035
806	0.182911	0.181267	0.184225	0.173707	0.179295	0.172556	0.163352	0.171077
807	0.185047	0.180281	0.183404	0.174693	0.176829	0.182746	0.167297	0.174364
808	0.183732	0.183239	0.187348	0.176994	0.17913	0.178802	0.166475	0.17913
809	0.186198	0.18061	0.185376	0.174857	0.179295	0.180116	0.165653	0.174528
810	0.187184	0.183732	0.188992	0.179295	0.178144	0.17913	0.167132	0.176172
811	0.186198	0.186198	0.188827	0.177815	0.181924	0.18817	0.15875	0.17913
812	0.185869	0.189156	0.191457	0.179623	0.183239	0.18061	0.164338	0.17913
813	0.185869	0.188992	0.187513	0.18176	0.184718	0.183075	0.16516	0.181267
814	0.187513	0.183404	0.192608	0.177651	0.184061	0.183732	0.165489	0.180116
815	0.187348	0.187513	0.188334	0.183897	0.186526	0.183732	0.160722	0.187184
816	0.188006	0.187513	0.191293	0.182089	0.184883	0.186198	0.165324	0.184718
817	0.192115	0.183897	0.190635	0.184554	0.188827	0.188006	0.165489	0.184718
818	0.187677	0.18817	0.196717	0.177487	0.184225	0.190471	0.161709	0.187513
819	0.188827	0.191786	0.193265	0.186033	0.186198	0.186691	0.163845	0.187348
820	0.188334	0.187184	0.193101	0.180445	0.185705	0.189814	0.164174	0.184883
821	0.190307	0.187513	0.196059	0.181924	0.187677	0.183239	0.16401	0.190635
822	0.190142	0.186198	0.195566	0.186033	0.187841	0.177158	0.159736	0.187677
823	0.189814	0.194744	0.19721	0.182582	0.191293	0.186033	0.157928	0.18554
824	0.190142	0.187513	0.195073	0.183075	0.18932	0.187184	0.156613	0.192115
825	0.195073	0.188827	0.195566	0.185705	0.193429	0.187184	0.152833	0.186855
826	0.197045	0.191786	0.193758	0.188827	0.18932	0.188334	0.151683	0.192443
827	0.18932	0.193594	0.196388	0.190307	0.197374	0.1908	0.14971	0.190964
828	0.195237	0.192279	0.19573	0.190307	0.190307	0.191621	0.148231	0.189978
829	0.194744	0.19573	0.194087	0.190964	0.192772	0.193101	0.153655	0.190307
830	0.196059	0.182911	0.195566	0.192279	0.193429	0.193101	0.144287	0.195073
831	0.193922	0.1908	0.200661	0.189978	0.194416	0.189485	0.146259	0.187841
832	0.200825	0.19573	0.196223	0.19195	0.194087	0.193429	0.146259	0.188663
833	0.190471	0.190635	0.198524	0.190471	0.195073	0.192443	0.141493	0.1908
834	0.197045	0.19573	0.197045	0.193101	0.200004	0.188992	0.143136	0.19195
835	0.193429	0.193922	0.200825	0.191293	0.197045	0.188992	0.141164	0.19195
836	0.19458	0.194087	0.197374	0.194087	0.197374	0.194416	0.140013	0.190307
837	0.196388	0.196223	0.20214	0.192608	0.200661	0.195402	0.140178	0.192115
838	0.191293	0.194909	0.198196	0.196552	0.191128	0.192443	0.137219	0.191293
839	0.199675	0.189485	0.200661	0.196881	0.194416	0.199182	0.137548	0.19573
840	0.19721	0.194251	0.201647	0.197045	0.19573	0.188827	0.135904	0.192443
841	0.199675	0.193758	0.200497	0.194416	0.198689	0.196881	0.130809	0.191128
842	0.195566	0.19573	0.20214	0.197538	0.198196	0.196059	0.129659	0.191293
843	0.183568	0.193922	0.204441	0.198524	0.195073	0.193922	0.123413	0.194744
844	0.191457	0.195566	0.202798	0.19836	0.196717	0.193101	0.123578	0.19573
845	0.197374	0.192772	0.196881	0.202798	0.198689	0.194744	0.120291	0.196059
846	0.195566	0.194416	0.199675	0.198853	0.198853	0.194416	0.120126	0.194251
847	0.198031	0.196552	0.196881	0.196388	0.197374	0.196059	0.118154	0.193758
848	0.197374	0.197867	0.201647	0.198689	0.200825	0.197045	0.116839	0.195895
849	0.201154	0.195895	0.198689	0.197374	0.200661	0.199839	0.112237	0.196388
850	0.195566	0.194909	0.200661	0.199675	0.197867	0.197703	0.110265	0.198031
851	0.195566	0.196059	0.202469	0.200825	0.199182	0.197374	0.095308	0.194744
852	0.19458	0.193922	0.202469	0.201812	0.199511	0.198031	0.094815	0.198031
853	0.198031	0.193101	0.206085	0.199346	0.200661	0.191786	0.086269	0.19573
854	0.199346	0.192772	0.199346	0.198524	0.198853	0.192772	0.070983	0.196717
855	0.195895	0.193922	0.201319	0.202305	0.199839	0.195566	0.062108	0.195237
856	0.199346	0.191786	0.204277	0.200825	0.201812	0.19458	0.054383	0.195237
857	0.197703	0.195237	0.203126	0.20362	0.202305	0.193758	0.043207	0.192443
858	0.197867	0.195402	0.201812	0.202305	0.198196	0.197045	0.03088	0.199182
859	0.199182	0.192936	0.2074	0.206578	0.201647	0.194087	0.020526	0.196223
860	0.20099	0.194744	0.202798	0.202798	0.199839	0.194251	0.009678	0.19721
861	0.197374	0.195895	0.202305	0.206249	0.198031	0.193922	0.011158	0.197538
862	0.200661	0.193594	0.197703	0.206414	0.19836	0.193594	0.011979	0.194909
863	0.195073	0.193758	0.20362	0.207564	0.200004	0.19721	0.018882	0.194087
864	0.199182	0.194909	0.199839	0.205756	0.200661	0.198524	0.018225	0.193758
865	0.198853	0.192443	0.201483	0.204934	0.20362	0.197045	0.024964	0.199182
866	0.195402	0.194744	0.202798	0.205592	0.201483	0.196717	0.030223	0.196717
867	0.196552	0.193265	0.198524	0.200825	0.198689	0.199511	0.035318	0.197045
868	0.195073	0.194087	0.206742	0.203948	0.205427	0.19458	0.028908	0.200661
869	0.195895	0.190142	0.200332	0.202962	0.199675	0.196717	0.028251	0.199511
870	0.194909	0.18554	0.203291	0.208715	0.205592	0.194744	0.03236	0.197374
871	0.198031	0.192279	0.201483	0.203455	0.19836	0.19721	0.032031	0.197703
872	0.194416	0.193265	0.200004	0.208386	0.199839	0.195237	0.034661	0.199346
873	0.195402	0.190635	0.203291	0.206249	0.199675	0.19573	0.029237	0.199675
874	0.198689	0.192936	0.202469	0.209372	0.202305	0.193758	0.032853	0.20477
875	0.201647	0.197703	0.201319	0.207564	0.198853	0.194744	0.028908	0.201319
876	0.199346	0.19573	0.20362	0.209865	0.199839	0.191621	0.027593	0.198524
877	0.202962	0.19573	0.199675	0.208222	0.198689	0.193758	0.022991	0.200497
878	0.196223	0.196223	0.204277	0.212002	0.201812	0.191128	0.02595	0.199511
879	0.199018	0.198853	0.197374	0.209865	0.199511	0.195237	0.023484	0.197045
880	0.197703	0.19721	0.197045	0.208715	0.201483	0.196552	0.023977	0.200332
881	0.199182	0.18817	0.197538	0.210687	0.201483	0.194416	0.022005	0.197045
882	0.19836	0.195566	0.200332	0.20855	0.200497	0.194416	0.026607	0.195566
883	0.195566	0.195895	0.197867	0.21118	0.203126	0.193594	0.030059	0.196059
884	0.197703	0.194087	0.199182	0.20855	0.20214	0.199675	0.03614	0.200004
885	0.200004	0.19836	0.200004	0.209043	0.200332	0.194909	0.046659	0.198031
886	0.196388	0.19573	0.200661	0.207071	0.199018	0.195566	0.051261	0.20099
887	0.199182	0.192115	0.19836	0.210194	0.200825	0.194087	0.057177	0.196552
888	0.197045	0.193429	0.20214	0.207728	0.198196	0.191621	0.065067	0.196881
889	0.198196	0.1908	0.200825	0.211509	0.202469	0.195237	0.069997	0.166968
890	0.197703	0.188663	0.201483	0.208222	0.200497	0.194416	0.072791	0.041728
891	0.198196	0.19195	0.201976	0.207071	0.200332	0.193922	0.078051	0.054055
892	0.194087	0.191128	0.199675	0.214303	0.198196	0.192936	0.081995	0.060465
893	0.194909	0.191786	0.204277	0.212824	0.202305	0.194251	0.089227	0.064245
894	0.197538	0.192608	0.200332	0.211016	0.204441	0.192443	0.090378	0.071148
895	0.197045	0.193265	0.20214	0.215125	0.201154	0.191621	0.094815	0.076079
896	0.199839	0.192115	0.199182	0.213974	0.197703	0.197703	0.102704	0.081338
897	0.199018	0.191786	0.198853	0.21496	0.202633	0.194744	0.105992	0.085447
898	0.199839	0.191457	0.193594	0.212824	0.201319	0.194087	0.108128	0.089885
899	0.201976	0.192115	0.199346	0.208386	0.201154	0.202305	0.112894	0.096294
900	0.198524	0.189814	0.191621	0.212988	0.201483	0.197045	0.115689	0.098595
901	0.196552	0.191293	0.200497	0.211344	0.20099	0.195402	0.121441	0.101718
902	0.202633	0.191786	0.196388	0.211673	0.204606	0.192772	0.12177	0.103362
903	0.197374	0.189978	0.197374	0.210029	0.19836	0.190635	0.125714	0.109772
904	0.196552	0.192115	0.197538	0.212166	0.203948	0.188663	0.133439	0.111908
905	0.197867	0.191621	0.196552	0.211509	0.203784	0.193922	0.131302	0.116182
906	0.197045	0.192608	0.197374	0.214796	0.202798	0.188334	0.132946	0.119469
907	0.197703	0.18932	0.199018	0.211673	0.200661	0.192279	0.137055	0.123249
908	0.198196	0.192115	0.199018	0.215453	0.203126	0.191786	0.141164	0.126043
909	0.199018	0.189814	0.19721	0.215289	0.198524	0.192608	0.139849	0.130316
910	0.196059	0.191786	0.200332	0.21496	0.202962	0.190635	0.14593	0.133439
911	0.195895	0.192772	0.201812	0.21381	0.199675	0.191786	0.145766	0.134918
912	0.19721	0.191786	0.200497	0.216275	0.202469	0.193594	0.148067	0.134918
913	0.196881	0.186198	0.201647	0.213317	0.202798	0.192443	0.148889	0.140835
914	0.196388	0.192772	0.201483	0.216932	0.199839	0.191128	0.152176	0.13952
915	0.196717	0.191128	0.196388	0.217426	0.201154	0.193265	0.149382	0.147738
916	0.194416	0.193758	0.200661	0.213317	0.201319	0.191293	0.159243	0.149053
917	0.193265	0.192608	0.194087	0.218083	0.197538	0.192279	0.156942	0.146916
918	0.191621	0.192279	0.200004	0.21759	0.197703	0.194251	0.157928	0.151025
919	0.196059	0.190142	0.198524	0.212988	0.203126	0.194251	0.160558	0.152176
920	0.193922	0.189649	0.196223	0.214796	0.200168	0.191293	0.161215	0.153984
921	0.191457	0.192936	0.199675	0.214138	0.205592	0.190964	0.163845	0.155134
922	0.195566	0.189156	0.200168	0.213317	0.200004	0.191128	0.165653	0.158257
923	0.194416	0.188827	0.199675	0.215289	0.202798	0.1908	0.165489	0.159243
924	0.197374	0.189814	0.202305	0.214138	0.20362	0.1908	0.165817	0.163516
925	0.199182	0.191786	0.199839	0.218576	0.202305	0.18817	0.165653	0.141986
926	0.197538	0.187677	0.197374	0.214303	0.19836	0.188499	0.170255	0.150039
927	0.197045	0.18932	0.20099	0.217097	0.205592	0.187019	0.168283	0.148724
928	0.198196	0.191621	0.198031	0.211837	0.199675	0.192115	0.171734	0.154312
929	0.197538	0.194744	0.198196	0.209865	0.201154	0.193265	0.170748	0.154477
930	0.199675	0.189978	0.196388	0.213152	0.201976	0.195402	0.172227	0.157764
931	0.198524	0.192936	0.193594	0.211016	0.201647	0.192936	0.17535	0.157271
932	0.194744	0.191621	0.201319	0.218083	0.203126	0.195402	0.174857	0.161215
933	0.191293	0.191786	0.200332	0.209043	0.199675	0.195566	0.176336	0.158914
934	0.192936	0.192936	0.19836	0.212659	0.197538	0.192936	0.17272	0.162859
935	0.194087	0.193594	0.192772	0.212988	0.202469	0.192936	0.17798	0.162366
936	0.193101	0.190471	0.196881	0.215453	0.202962	0.193265	0.175515	0.166968
937	0.192772	0.191786	0.196059	0.213152	0.19836	0.196059	0.176829	0.168776
938	0.191128	0.192608	0.197374	0.214467	0.205756	0.194251	0.17913	0.168118
939	0.193922	0.192443	0.199839	0.211673	0.200004	0.192443	0.176665	0.170584
940	0.193758	0.189485	0.199346	0.212166	0.201154	0.192443	0.178802	0.16779
941	0.197045	0.190307	0.199675	0.210194	0.198853	0.193265	0.182417	0.173542
942	0.192279	0.189978	0.199018	0.211837	0.201483	0.191128	0.18439	0.171899
943	0.191128	0.185705	0.199018	0.211344	0.198689	0.191293	0.179952	0.173542
944	0.189485	0.187513	0.201154	0.212166	0.199182	0.193101	0.185212	0.17272
945	0.19458	0.188006	0.198031	0.210851	0.198524	0.189978	0.181267	0.176501
946	0.191786	0.188827	0.199182	0.215289	0.200332	0.19195	0.183404	0.176994
947	0.195895	0.186033	0.19721	0.210851	0.201154	0.192115	0.181596	0.179788
948	0.195237	0.187677	0.197538	0.212166	0.201812	0.191457	0.182911	0.180774
949	0.196717	0.188827	0.19458	0.213317	0.197703	0.198524	0.178144	0.182089
950	0.195237	0.190142	0.195566	0.21233	0.19836	0.191293	0.181924	0.181431
951	0.195237	0.18817	0.193922	0.213317	0.20099	0.196881	0.184225	0.183404
952	0.196881	0.182582	0.197374	0.207564	0.199511	0.192115	0.182582	0.184061
953	0.193922	0.184718	0.198524	0.215618	0.201812	0.005734	0.183897	0.180774
954	0.195237	0.179623	0.196881	0.209372	0.197045	0.019704	0.182253	0.183239
955	0.192936	0.181924	0.20362	0.209865	0.20099	0.025457	0.187019	0.180938
956	0.192772	0.180774	0.201976	0.210194	0.202798	0.02973	0.187348	0.181924
957	0.193265	0.181596	0.200497	0.214796	0.199346	0.037619	0.186855	0.186198
958	0.195566	0.179459	0.202798	0.209536	0.201647	0.044029	0.183075	0.181431
959	0.194251	0.182417	0.200661	0.211837	0.201154	0.04748	0.179623	0.184883
960	0.195237	0.181103	0.195402	0.210851	0.202305	0.058657	0.183075	0.188663
961	0.196881	0.182911	0.201976	0.211673	0.200332	0.061779	0.186691	0.187841
962	0.198524	0.17798	0.199182	0.212166	0.198196	0.069997	0.182253	0.187841
963	0.193101	0.178966	0.201647	0.210523	0.202469	0.074106	0.186526	0.189978
964	0.196223	0.178144	0.198031	0.211837	0.199675	0.078708	0.185705	0.18817
965	0.199346	0.182746	0.201154	0.209701	0.199018	0.085118	0.186198	0.18554
966	0.195073	0.180445	0.198524	0.211344	0.199839	0.09235	0.185047	0.190964
967	0.193101	0.178966	0.198196	0.210358	0.202633	0.094815	0.18554	0.191457
968	0.191128	0.178309	0.200497	0.21381	0.198689	0.094815	0.183404	0.188334
969	0.1908	0.176501	0.205099	0.210358	0.199182	0.099253	0.184554	0.1908
970	0.190142	0.180445	0.197374	0.210851	0.202469	0.101883	0.184718	0.190307
971	0.185212	0.180116	0.199182	0.209701	0.199018	0.103691	0.182746	0.192936
972	0.195073	0.18061	0.20099	0.212166	0.203126	0.105992	0.183239	0.191128
973	0.193101	0.181924	0.198689	0.207071	0.200661	0.115195	0.185047	0.191621
974	0.191621	0.180116	0.201483	0.213152	0.202469	0.114702	0.185376	0.194909
975	0.196717	0.176994	0.195402	0.205921	0.201647	0.118976	0.179952	0.189649
976	0.194744	0.176994	0.203455	0.204606	0.200168	0.124893	0.188499	0.187841
977	0.191786	0.175186	0.200332	0.207728	0.199675	0.129823	0.187841	0.193922
978	0.193594	0.175679	0.202469	0.210851	0.203948	0.127029	0.183897	0.188992
979	0.195566	0.172227	0.199018	0.208222	0.202469	0.131467	0.182582	0.197045
980	0.193265	0.171899	0.198853	0.205921	0.200825	0.134261	0.182417	0.194744
981	0.195895	0.173707	0.197703	0.208222	0.204113	0.137548	0.18439	0.192772
982	0.194416	0.171734	0.200661	0.209043	0.20362	0.140178	0.18439	0.195237
983	0.194909	0.170748	0.196552	0.20855	0.199839	0.141821	0.180774	0.194744
984	0.196388	0.170748	0.199346	0.208386	0.200661	0.14478	0.186526	0.195237
985	0.196552	0.172885	0.20362	0.211509	0.204113	0.144451	0.184554	0.195895
986	0.193922	0.167954	0.201483	0.203948	0.201812	0.146423	0.184225	0.195073
987	0.197374	0.166968	0.200825	0.207564	0.203784	0.150204	0.183897	0.193922
988	0.19573	0.162202	0.201976	0.208222	0.200825	0.153162	0.190471	0.198689
989	0.193265	0.160394	0.202469	0.210194	0.20362	0.149546	0.182911	0.19195
990	0.194251	0.148067	0.201319	0.203455	0.197703	0.153819	0.185869	0.196059
991	0.196717	0.138699	0.197703	0.206085	0.201976	0.15234	0.183239	0.192936
992	0.19721	0.120784	0.198524	0.205592	0.202633	0.161215	0.184225	0.196059
993	0.191457	0.104841	0.202962	0.206249	0.202305	0.155627	0.186855	0.188663
994	0.197703	0.081174	0.201319	0.207728	0.200825	0.154312	0.184554	0.195895
995	0.198031	0.065724	0.199018	0.204606	0.201812	0.127851	0.188334	0.194251
996	0.199018	0.056356	0.200332	0.208222	0.200661	0.126536	0.184061	0.200497
997	0.198689	0.040577	0.20099	0.203948	0.201976	0.129659	0.184061	0.195895
998	0.203784	0.034661	0.202633	0.203948	0.203948	0.135247	0.183404	0.197374
999	0.198689	0.031045	0.198196	0.203291	0.198196	0.137219	0.17535	0.196881
1000	0.199182	0.023977	0.199182	0.207728	0.202962	0.130809	0.181103	0.194251
1001	0.197045	0.021019	0.202633	0.20362	0.199839	0.135247	0.18439	0.196717
1002	0.196717	0.018061	0.199018	0.203455	0.201483	0.137055	0.181267	0.193922
1003	0.195237	0.018882	0.199511	0.205756	0.200332	0.141	0.183897	0.198853
1004	0.195402	0.015431	0.201812	0.206414	0.206907	0.138205	0.183404	0.194909
1005	0.199018	0.014609	0.20362	0.204277	0.199675	0.147409	0.185047	0.196552
1006	0.19721	0.011651	0.196388	0.205427	0.199346	0.144451	0.186691	0.196552
1007	0.199839	0.011486	0.202798	0.204277	0.200497	0.147409	0.179459	0.198196
1008	0.199675	0.017896	0.205921	0.204606	0.203784	0.146423	0.185705	0.193429
1009	0.206085	0.017567	0.20099	0.204277	0.201319	0.152669	0.183732	0.195402
1010	0.197703	0.029237	0.203948	0.201154	0.202469	0.14478	0.186033	0.195895
1011	0.199511	0.030716	0.202305	0.202633	0.198689	0.150039	0.182253	0.200332
1012	0.199839	0.040577	0.204113	0.204441	0.197045	0.157764	0.184718	0.194416
1013	0.20099	0.043207	0.202305	0.202962	0.196881	0.161051	0.182911	0.19836
1014	0.198853	0.053069	0.20214	0.205099	0.201976	0.161215	0.185212	0.196059
1015	0.203455	0.0603	0.199018	0.204934	0.189978	0.163352	0.187348	0.195895
1016	0.203291	0.066217	0.203784	0.20477	0.196059	0.166146	0.190142	0.198524
1017	0.203784	0.069833	0.199511	0.206578	0.204113	0.168118	0.182253	0.198196
1018	0.200168	0.071148	0.202633	0.206907	0.199839	0.166311	0.183404	0.195566
1019	0.19836	0.076079	0.200825	0.205921	0.199182	0.169926	0.184225	0.196881
1020	0.191128	0.08216	0.201483	0.204934	0.198524	0.166475	0.185376	0.197867
1021	0.197374	0.08709	0.203455	0.205592	0.200332	0.166146	0.183404	0.197045
1022	0.198196	0.08594	0.201647	0.202798	0.200497	0.168283	0.181103	0.198031
1023	0.196717	0.095308	0.203784	0.203455	0.20477	0.166804	0.18061	0.197703
1024	0.199839	0.103691	0.203948	0.200332	0.202633	0.172885	0.183075	0.194416
1025	0.19836	0.104677	0.20214	0.202798	0.204113	0.174693	0.183404	0.197374
1026	0.201154	0.105827	0.204606	0.201483	0.201647	0.175515	0.180774	0.197703
1027	0.196717	0.111908	0.202305	0.203948	0.201319	0.177158	0.181431	0.199182
1028	0.200004	0.113552	0.203291	0.205592	0.202305	0.176829	0.182911	0.200004
1029	0.203291	0.117496	0.203455	0.202633	0.203948	0.17798	0.188006	0.193265
1030	0.202962	0.117496	0.199511	0.204277	0.200168	0.181103	0.182746	0.199018
1031	0.199182	0.120948	0.199346	0.202962	0.201976	0.183404	0.189978	0.198524
1032	0.200497	0.124728	0.202633	0.203291	0.199511	0.179623	0.188006	0.195237
1033	0.199511	0.12933	0.205263	0.203126	0.204113	0.181596	0.187513	0.200661
1034	0.201812	0.129495	0.19721	0.204113	0.206414	0.183897	0.185869	0.199346
1035	0.201812	0.133768	0.200004	0.201319	0.202798	0.185047	0.185376	0.196223
1036	0.200332	0.136398	0.203784	0.205099	0.205921	0.186855	0.185376	0.199675
1037	0.202798	0.13311	0.200825	0.205099	0.204606	0.188006	0.184883	0.20099
1038	0.202798	0.136069	0.203948	0.20214	0.206578	0.183897	0.184225	0.196059
1039	0.196881	0.135083	0.200825	0.202305	0.200661	0.184225	0.182746	0.199675
1040	0.199839	0.139685	0.204441	0.203455	0.203784	0.188499	0.186362	0.196223
1041	0.20099	0.140835	0.202798	0.201812	0.204606	0.195073	0.187348	0.19573
1042	0.201812	0.136891	0.200497	0.201976	0.206742	0.191293	0.188663	0.197538
1043	0.199675	0.138205	0.204606	0.202798	0.204277	0.192115	0.187184	0.197867
1044	0.198196	0.13952	0.202962	0.187348	0.205756	0.192115	0.190142	0.193758
1045	0.201154	0.139685	0.201319	0.175515	0.203784	0.190142	0.184554	0.195566
1046	0.20099	0.142314	0.20214	0.175186	0.205756	0.190635	0.188663	0.199182
1047	0.199346	0.137712	0.203948	0.179952	0.202798	0.192772	0.185869	0.198689
1048	0.203948	0.144615	0.201319	0.179952	0.203455	0.188992	0.189814	0.196881
1049	0.202962	0.144615	0.200004	0.180281	0.204277	0.199839	0.18817	0.192443
1050	0.200825	0.146916	0.202633	0.180445	0.202305	0.186033	0.185047	0.192936
1051	0.202798	0.149053	0.20214	0.186526	0.204606	0.195566	0.187677	0.196717
1052	0.201319	0.151518	0.202633	0.185869	0.202305	0.196388	0.186855	0.193265
1053	0.199839	0.15234	0.20362	0.187841	0.204441	0.194087	0.187019	0.192772
1054	0.202633	0.149382	0.205263	0.184061	0.202469	0.196059	0.190471	0.193429
1055	0.201483	0.15497	0.20362	0.188006	0.208715	0.194087	0.189814	0.189156
1056	0.197867	0.155627	0.205427	0.186526	0.204277	0.199182	0.18817	0.191457
1057	0.200004	0.156449	0.207071	0.186198	0.207893	0.195895	0.185047	0.191128
1058	0.200168	0.154312	0.207564	0.187348	0.20477	0.196881	0.185869	0.191786
1059	0.200004	0.156942	0.201647	0.188827	0.2074	0.197374	0.186691	0.190635
1060	0.198853	0.160722	0.204934	0.18932	0.207071	0.197374	0.185705	0.193922
1061	0.202469	0.162037	0.201154	0.189156	0.208386	0.192279	0.188499	0.190964
1062	0.201812	0.160887	0.20362	0.19195	0.207235	0.205592	0.189814	0.193758
1063	0.163188	0.16253	0.203291	0.188827	0.204934	0.194251	0.18932	0.194909
1064	0.163516	0.159901	0.202633	0.191457	0.201319	0.196552	0.190307	0.194087
1065	0.170255	0.167297	0.206085	0.194087	0.202798	0.198689	0.189485	0.188663
1066	0.170584	0.168447	0.202633	0.18817	0.202305	0.201976	0.189814	0.192772
1067	0.169433	0.171734	0.202305	0.194909	0.20362	0.202469	0.186691	0.192936
1068	0.171241	0.164831	0.202633	0.195073	0.208386	0.200825	0.181267	0.191293
1069	0.170913	0.168612	0.202633	0.195073	0.205263	0.202633	0.191128	0.188499
1070	0.171734	0.169926	0.200497	0.197045	0.200661	0.20099	0.188663	0.186855
1071	0.170419	0.171241	0.202962	0.193758	0.204934	0.200004	0.183568	0.190471
1072	0.175679	0.170091	0.202962	0.197045	0.207893	0.203784	0.191128	0.187513
1073	0.174857	0.172227	0.203784	0.194416	0.205921	0.202798	0.186198	0.191786
1074	0.176665	0.174364	0.206907	0.194416	0.206578	0.199839	0.188827	0.190307
1075	0.176008	0.174528	0.20362	0.193758	0.205263	0.202962	0.186033	0.189156
1076	0.180281	0.176008	0.207564	0.195566	0.208715	0.202469	0.185212	0.189156
1077	0.181924	0.174364	0.205921	0.199346	0.205921	0.205592	0.18817	0.195895
1078	0.178802	0.179459	0.205756	0.196552	0.206742	0.201976	0.190307	0.192115
1079	0.183568	0.17535	0.203291	0.193429	0.205592	0.205099	0.188334	0.1908
1080	0.182911	0.179788	0.208715	0.197045	0.206249	0.200825	0.193758	0.188663
1081	0.185705	0.178309	0.202469	0.196552	0.205263	0.201319	0.187348	0.192443
1082	0.181103	0.180116	0.201483	0.196717	0.204277	0.203455	0.190635	0.188499
1083	0.190964	0.182253	0.203784	0.19721	0.207071	0.201319	0.190307	0.186362
1084	0.185212	0.181924	0.207893	0.199839	0.207564	0.205427	0.190964	0.17272
1085	0.18817	0.183732	0.201647	0.197374	0.206742	0.205099	0.190307	0.137877
1086	0.186033	0.184061	0.202798	0.193758	0.204441	0.201319	0.18817	0.095308
1087	0.187677	0.186198	0.203784	0.196388	0.20855	0.202962	0.188827	0.066217
1088	0.187841	0.184883	0.204934	0.196059	0.205263	0.208057	0.190307	0.057013
1089	0.186526	0.182089	0.20362	0.197045	0.207893	0.203784	0.188992	0.022334
1090	0.187677	0.182582	0.20477	0.195895	0.207728	0.203455	0.186855	0.00935
1091	0.186526	0.18554	0.209536	0.198524	0.210194	0.20362	0.19195	0.010664
1092	0.187677	0.184883	0.201976	0.19458	0.207071	0.204277	0.1908	0.018061
1093	0.191128	0.188827	0.207564	0.198689	0.206085	0.202469	0.185869	0.021183
1094	0.190964	0.185376	0.205427	0.19836	0.209865	0.203948	0.18932	0.032195
1095	0.186198	0.187348	0.206085	0.198853	0.206414	0.20362	0.193101	0.034989
1096	0.18932	0.186691	0.203291	0.192608	0.206907	0.202633	0.192279	0.042714
1097	0.189649	0.185869	0.204606	0.19195	0.208057	0.204277	0.19195	0.045837
1098	0.191621	0.186362	0.206907	0.198524	0.207235	0.203784	0.191128	0.046494
1099	0.188334	0.189485	0.20477	0.195402	0.202633	0.206085	0.192936	0.054876
1100	0.190142	0.187184	0.202305	0.198031	0.208715	0.202469	0.191293	0.059314
1101	0.187841	0.189485	0.209208	0.196552	0.204441	0.204113	0.190964	0.065724
1102	0.191293	0.188663	0.204934	0.206414	0.207728	0.203126	0.190964	0.068025
1103	0.193429	0.193101	0.206414	0.197045	0.206578	0.201154	0.189978	0.065395
1104	0.189485	0.192936	0.200168	0.20099	0.20855	0.207564	0.186362	0.069011
1105	0.195237	0.190307	0.204934	0.198853	0.207235	0.20477	0.188827	0.07312
1106	0.193101	0.192936	0.206085	0.204277	0.209208	0.205099	0.192772	0.075585
1107	0.191128	0.190471	0.199675	0.197867	0.207564	0.207893	0.19195	0.080352
1108	0.191457	0.193594	0.2074	0.198524	0.210687	0.202633	0.192772	0.078873
1109	0.193758	0.194909	0.206742	0.19573	0.206907	0.206085	0.188334	0.084789
1110	0.189485	0.195237	0.209865	0.198853	0.20855	0.2074	0.196388	0.087255
1111	0.192936	0.190471	0.207071	0.196881	0.209865	0.206907	0.193265	0.09613
1112	0.16894	0.191457	0.211837	0.19836	0.210194	0.20477	0.193429	0.097774
1113	0.169433	0.187019	0.208057	0.203784	0.209865	0.210194	0.192443	0.101718
1114	0.169269	0.192772	0.208879	0.197538	0.205427	0.206414	0.193922	0.102704
1115	0.17157	0.193922	0.205263	0.201154	0.206414	0.205756	0.192279	0.108621
1116	0.172556	0.195073	0.208386	0.197867	0.20477	0.203291	0.194909	0.106485
1117	0.172063	0.194416	0.206907	0.190964	0.205756	0.207564	0.194416	0.101718
1118	0.173214	0.197867	0.208057	0.19721	0.20855	0.205756	0.196223	0.108457
1119	0.177158	0.192443	0.204934	0.20214	0.20855	0.20362	0.196881	0.102704
1120	0.175679	0.196059	0.207893	0.196223	0.206578	0.207235	0.188992	0.106485
1121	0.176008	0.196059	0.208057	0.202962	0.210194	0.206907	0.196059	0.108786
1122	0.178966	0.190307	0.206742	0.200168	0.207564	0.208057	0.192936	0.111744
1123	0.181431	0.201647	0.205921	0.197538	0.211016	0.207728	0.193265	0.1101
1124	0.180774	0.192608	0.207893	0.201812	0.208386	0.208222	0.19195	0.115031
1125	0.179623	0.198031	0.206578	0.199675	0.210851	0.203455	0.197374	0.109443
1126	0.182253	0.197045	0.209043	0.196059	0.211016	0.207893	0.197538	0.100239
1127	0.185212	0.198031	0.20477	0.200661	0.206742	0.206085	0.188827	0.098267
1128	0.186033	0.195895	0.206249	0.195402	0.206907	0.205099	0.196388	0.09876
1129	0.184554	0.196881	0.20855	0.194744	0.207564	0.205263	0.197703	0.09876
1130	0.187348	0.196388	0.203126	0.197703	0.208386	0.207893	0.194251	0.099582
1131	0.186198	0.19721	0.20855	0.193265	0.207564	0.207235	0.19573	0.098924
1132	0.189156	0.197045	0.206742	0.193429	0.204934	0.208222	0.195895	0.100403
1133	0.185212	0.196717	0.207728	0.192608	0.209701	0.206085	0.198031	0.093829
1134	0.191128	0.197045	0.205263	0.195402	0.211016	0.206578	0.197045	0.091035
1135	0.189156	0.200332	0.210029	0.192443	0.209043	0.205427	0.196717	0.089885
1136	0.189649	0.198853	0.206085	0.194416	0.210851	0.209536	0.196059	0.081502
1137	0.189814	0.197867	0.205592	0.194416	0.209043	0.206907	0.196717	0.085776
1138	0.193101	0.200661	0.203948	0.197045	0.207893	0.206578	0.195895	0.091035
1139	0.192443	0.196717	0.203948	0.196388	0.20855	0.209372	0.196881	0.09498
1140	0.189814	0.201976	0.202469	0.195402	0.209372	0.206742	0.198524	0.093993
1141	0.191786	0.195402	0.205263	0.192608	0.206414	0.209208	0.19721	0.100732
1142	0.192772	0.197045	0.206085	0.191786	0.213152	0.20855	0.198196	0.097281
1143	0.194744	0.195895	0.204441	0.191786	0.205592	0.210851	0.199346	0.100403
1144	0.191293	0.196881	0.205921	0.195073	0.209865	0.2074	0.197703	0.103033
1145	0.195402	0.194416	0.20477	0.19458	0.209208	0.207564	0.196881	0.108293
1146	0.192772	0.200497	0.20855	0.195895	0.20855	0.205427	0.199346	0.103526
1147	0.192608	0.196388	0.202305	0.196552	0.2074	0.206578	0.196388	0.1101
1148	0.192115	0.196388	0.206249	0.19573	0.205427	0.205263	0.202305	0.114538
1149	0.196388	0.199018	0.200332	0.199511	0.203455	0.205921	0.19458	0.116182
1150	0.197374	0.197703	0.201976	0.195073	0.207564	0.206578	0.200825	0.118647
1151	0.196223	0.199675	0.203455	0.198853	0.207564	0.207071	0.198853	0.116346
1152	0.193429	0.197538	0.199839	0.198031	0.204606	0.207893	0.197703	0.117168
1153	0.198689	0.200168	0.200004	0.193594	0.209208	0.207728	0.19721	0.120126
1154	0.195237	0.196223	0.203291	0.194909	0.205756	0.209372	0.201647	0.124235
1155	0.198689	0.199018	0.207564	0.197538	0.211016	0.205592	0.199346	0.125879
1156	0.191786	0.197538	0.204934	0.199346	0.209043	0.208057	0.19836	0.130481
1157	0.19458	0.199675	0.212166	0.197538	0.210523	0.205427	0.197045	0.13196
1158	0.192772	0.198524	0.203784	0.199018	0.208222	0.206907	0.200825	0.135411
1159	0.193594	0.200004	0.203455	0.202305	0.210851	0.207235	0.201154	0.139685
1160	0.200332	0.198524	0.203948	0.197703	0.208222	0.205756	0.198524	0.143465
1161	0.196059	0.199018	0.20099	0.198031	0.210029	0.208879	0.200332	0.142643
1162	0.198031	0.197374	0.201647	0.201812	0.211344	0.208057	0.197867	0.146752
1163	0.19458	0.196388	0.203784	0.19721	0.207235	0.198031	0.199018	0.144615
1164	0.196059	0.194416	0.202633	0.200661	0.206249	0.209372	0.198196	0.145108
1165	0.195073	0.198196	0.204441	0.197538	0.204934	0.20477	0.203784	0.144615
1166	0.191128	0.197703	0.201647	0.200497	0.20855	0.201647	0.197374	0.15497
1167	0.193594	0.197867	0.206249	0.19836	0.207235	0.204441	0.200497	0.15119
1168	0.196223	0.199839	0.190307	0.197867	0.21233	0.204277	0.19721	0.148396
1169	0.195566	0.200168	0.200004	0.203948	0.207564	0.206578	0.19836	0.152833
1170	0.19573	0.197867	0.199675	0.203784	0.213152	0.201647	0.196059	0.152011
1171	0.196717	0.19836	0.20214	0.201154	0.209701	0.200497	0.196717	0.155627
1172	0.196717	0.202469	0.199346	0.204934	0.210523	0.205921	0.200168	0.15497
1173	0.20099	0.198196	0.199511	0.200497	0.210851	0.202962	0.197538	0.164996
1174	0.198689	0.200825	0.203455	0.199182	0.211016	0.204113	0.19721	0.155463
1175	0.202305	0.196552	0.199511	0.201976	0.209372	0.207728	0.197374	0.161544
1176	0.196881	0.200332	0.202305	0.201812	0.210687	0.209372	0.190142	0.160065
1177	0.197703	0.201976	0.199839	0.196059	0.211837	0.204934	0.19195	0.168612
1178	0.195402	0.200497	0.200168	0.199839	0.212002	0.20362	0.200332	0.163023
1179	0.199182	0.201812	0.199018	0.19836	0.211509	0.204934	0.196388	0.163681
1180	0.19573	0.197703	0.197538	0.20099	0.210687	0.201812	0.197703	0.169269
1181	0.196388	0.198689	0.197045	0.200332	0.212988	0.203291	0.196717	0.165489
1182	0.198196	0.201154	0.19836	0.20099	0.206414	0.203291	0.201647	0.169762
1183	0.199346	0.201812	0.199018	0.20214	0.209865	0.201319	0.201976	0.168283
1184	0.199018	0.196881	0.200332	0.202305	0.212659	0.202962	0.197045	0.169598
1185	0.20099	0.195895	0.201647	0.202633	0.209701	0.203948	0.200825	0.166475
1186	0.202962	0.200497	0.199839	0.200497	0.210194	0.204934	0.19721	0.164338
1187	0.198524	0.199675	0.19573	0.202633	0.20855	0.193594	0.196388	0.162695
1188	0.198196	0.200497	0.201483	0.202633	0.210029	0.202633	0.196552	0.165489
1189	0.198853	0.202633	0.197538	0.202469	0.209536	0.203455	0.196223	0.167461
1190	0.196881	0.198031	0.19836	0.201154	0.209701	0.203455	0.195237	0.167297
1191	0.200661	0.201976	0.194909	0.203455	0.211344	0.201976	0.197867	0.169105
1192	0.19573	0.200332	0.194251	0.201647	0.197703	0.205099	0.196059	0.174364
1193	0.193758	0.203291	0.198031	0.201647	0.208386	0.204934	0.201319	0.167954
1194	0.199511	0.200168	0.194416	0.200497	0.208879	0.210358	0.197538	0.175679
1195	0.198689	0.201154	0.195566	0.202469	0.208715	0.202305	0.197045	0.180281
1196	0.201319	0.195237	0.198031	0.199839	0.21233	0.202962	0.196552	0.176336
1197	0.194251	0.198524	0.191621	0.199675	0.20855	0.200825	0.198689	0.175843
1198	0.196059	0.196881	0.193758	0.19721	0.20855	0.201812	0.197538	0.180938
1199	0.198524	0.19836	0.200004	0.199018	0.210194	0.201483	0.196552	0.176172
1200	0.198196	0.199839	0.196223	0.201319	0.207235	0.200661	0.195073	0.17798
1201	0.197374	0.199839	0.199346	0.197045	0.2074	0.200661	0.197045	0.180445
1202	0.200661	0.20362	0.201154	0.19836	0.208386	0.201647	0.195402	0.180774
1203	0.198031	0.19836	0.199675	0.199839	0.207893	0.202305	0.189978	0.183239
1204	0.201812	0.200661	0.195073	0.204277	0.207564	0.203291	0.197538	0.179788
1205	0.201154	0.197867	0.196717	0.200825	0.205921	0.200661	0.191786	0.18554
1206	0.195073	0.198853	0.195895	0.204113	0.208057	0.201976	0.195402	0.175186
1207	0.19836	0.197703	0.194909	0.200661	0.206085	0.203784	0.193429	0.181267
1208	0.196388	0.201976	0.187348	0.204606	0.211837	0.200661	0.191786	0.179952
1209	0.196388	0.198031	0.194744	0.200168	0.204934	0.205263	0.19195	0.183239
1210	0.197045	0.201319	0.200497	0.200825	0.210029	0.201976	0.195073	0.185212
1211	0.199839	0.201154	0.19458	0.201483	0.208222	0.202798	0.193429	0.188499
1212	0.199182	0.200168	0.19836	0.201154	0.208879	0.200332	0.193101	0.18932
1213	0.200168	0.201812	0.197867	0.201483	0.210687	0.203291	0.195237	0.191786
1214	0.200168	0.199511	0.198689	0.200661	0.206742	0.202633	0.194087	0.191293
1215	0.200332	0.198031	0.196388	0.202798	0.203291	0.202633	0.191457	0.188006
1216	0.197703	0.198853	0.198689	0.198689	0.204934	0.196223	0.195073	0.189485
1217	0.125057	0.197867	0.196881	0.201976	0.2074	0.202633	0.192279	0.1908
1218	0.117168	0.19573	0.199182	0.196717	0.207564	0.202798	0.195073	0.191128
1219	0.118976	0.199675	0.196552	0.199839	0.205099	0.197374	0.193101	0.189978
1220	0.120948	0.198524	0.195566	0.201483	0.201812	0.199675	0.191621	0.191128
1221	0.103691	0.19836	0.197538	0.198853	0.209208	0.198689	0.194416	0.19458
1222	0.097774	0.198524	0.197045	0.199675	0.205592	0.201154	0.192443	0.190471
1223	0.103526	0.203948	0.196881	0.201319	0.206907	0.196881	0.191128	0.194087
1224	0.110758	0.198196	0.197703	0.202798	0.207235	0.200497	0.190142	0.195566
1225	0.102704	0.198853	0.197867	0.202962	0.208386	0.197703	0.187677	0.192443
1226	0.021019	0.200661	0.198196	0.199675	0.207235	0.201154	0.186033	0.195895
1227	0.027265	0.202798	0.197703	0.200004	0.204606	0.197538	0.187348	0.19458
1228	0.03614	0.200332	0.196388	0.200168	0.207564	0.201812	0.186855	0.193429
1229	0.040577	0.201319	0.195566	0.196717	0.205099	0.200168	0.190471	0.188663
1230	0.050274	0.201319	0.194744	0.201812	0.205099	0.200661	0.191786	0.197045
1231	0.049781	0.20099	0.202633	0.199511	0.201812	0.198524	0.193429	0.193594
1232	0.058328	0.198689	0.196059	0.203784	0.205099	0.201647	0.189978	0.195895
1233	0.060958	0.201976	0.199182	0.198689	0.201647	0.199018	0.19836	0.197538
1234	0.070819	0.203455	0.196059	0.200332	0.205263	0.198689	0.190471	0.201319
1235	0.075421	0.197703	0.199346	0.199182	0.204441	0.199675	0.193101	0.197867
1236	0.079694	0.199018	0.195566	0.198689	0.203126	0.199511	0.192608	0.195566
1237	0.083639	0.200497	0.195895	0.200168	0.203291	0.200661	0.191786	0.201319
1238	0.090871	0.202798	0.196223	0.200332	0.205427	0.197867	0.186362	0.194909
1239	0.096623	0.203126	0.197045	0.200497	0.201483	0.201319	0.191128	0.195895
1240	0.096623	0.208222	0.196388	0.202962	0.203291	0.202962	0.195073	0.198524
1241	0.102376	0.201154	0.196717	0.199018	0.206085	0.202305	0.190471	0.197045
1242	0.107142	0.202798	0.199182	0.202305	0.201812	0.198196	0.19195	0.193922
1243	0.108786	0.201976	0.19836	0.199182	0.205592	0.205592	0.189814	0.198689
1244	0.106978	0.202469	0.197703	0.199182	0.208879	0.198196	0.192443	0.198196
1245	0.112237	0.200497	0.194744	0.196717	0.205756	0.202469	0.188992	0.194251
1246	0.118154	0.197703	0.19836	0.19721	0.202469	0.199018	0.193265	0.197538
1247	0.121277	0.20362	0.196059	0.197867	0.205756	0.198196	0.188499	0.197374
1248	0.117003	0.202305	0.199839	0.197045	0.203784	0.198524	0.1908	0.197538
1249	0.129001	0.202305	0.19573	0.196717	0.204113	0.203126	0.190635	0.194416
1250	0.130152	0.201319	0.201812	0.199346	0.201483	0.198853	0.192279	0.199839
1251	0.133275	0.203291	0.196717	0.19573	0.201154	0.201319	0.192279	0.19836
1252	0.13459	0.201319	0.200168	0.196059	0.20214	0.201483	0.19195	0.200332
1253	0.143794	0.201976	0.197538	0.196059	0.204934	0.200661	0.194251	0.202633
1254	0.139849	0.200004	0.196717	0.19836	0.201319	0.203455	0.194251	0.200497
1255	0.142972	0.202305	0.199018	0.198524	0.206578	0.197867	0.193429	0.19573
1256	0.143301	0.202305	0.196388	0.196059	0.202305	0.199839	0.192443	0.198196
1257	0.144451	0.204441	0.196717	0.201647	0.205921	0.200661	0.192115	0.19458
1258	0.150368	0.203784	0.198524	0.198031	0.208715	0.201319	0.19458	0.198689
1259	0.147738	0.206414	0.20099	0.199675	0.205592	0.198689	0.188499	0.197703
1260	0.151354	0.203784	0.19721	0.197374	0.206414	0.196717	0.188827	0.200497
1261	0.153162	0.204441	0.20099	0.199018	0.205263	0.200332	0.194744	0.195402
1262	0.011651	0.203126	0.198853	0.196388	0.205099	0.200497	0.188499	0.203784
1263	0.018389	0.203126	0.199675	0.198196	0.206578	0.198853	0.189156	0.196717
1264	0.027265	0.201976	0.200332	0.195895	0.205756	0.197374	0.1908	0.202469
1265	0.032853	0.202633	0.204113	0.197538	0.204934	0.197867	0.193758	0.202798
1266	0.039427	0.20214	0.200661	0.19458	0.204441	0.198031	0.191457	0.199839
1267	0.045179	0.200004	0.202469	0.198196	0.208715	0.199018	0.192279	0.197703
1268	0.051096	0.199346	0.20214	0.198031	0.206249	0.200004	0.191457	0.189649
1269	0.052411	0.197538	0.201154	0.193758	0.201647	0.20099	0.193265	0.199839
1270	0.060465	0.201647	0.201976	0.196552	0.203126	0.200661	0.191293	0.1908
1271	0.064738	0.200332	0.198524	0.195566	0.200825	0.19836	0.190307	0.19573
1272	0.066217	0.199675	0.201812	0.198524	0.205921	0.201647	0.191786	0.19458
1273	0.067861	0.200168	0.201154	0.195237	0.204441	0.199839	0.190635	0.195566
1274	0.06934	0.201647	0.199018	0.202633	0.204277	0.201647	0.189814	0.193922
1275	0.080845	0.200004	0.201154	0.196552	0.205263	0.200825	0.190142	0.194416
1276	0.074271	0.205427	0.203948	0.198689	0.20362	0.200661	0.192279	0.19458
1277	0.074764	0.202798	0.199675	0.198196	0.205921	0.201154	0.18554	0.192443
1278	0.073613	0.20477	0.201976	0.195402	0.207728	0.195566	0.193758	0.195402
1279	0.076079	0.202962	0.203126	0.198689	0.202633	0.205099	0.190635	0.195237
1280	0.073942	0.203784	0.201483	0.201647	0.207893	0.200168	0.192772	0.196059
1281	0.077558	0.201812	0.202962	0.19836	0.206742	0.199839	0.19195	0.198196
1282	0.077722	0.201319	0.205921	0.195237	0.204441	0.196717	0.192443	0.196059
1283	0.078708	0.203291	0.202962	0.201154	0.202798	0.200332	0.192608	0.199675
1284	0.079201	0.204277	0.204277	0.192608	0.201647	0.199182	0.192936	0.201154
1285	0.087584	0.202305	0.204113	0.196388	0.205099	0.199675	0.192772	0.19836
1286	0.088077	0.199018	0.207235	0.195566	0.204441	0.201154	0.193758	0.202633
1287	0.089556	0.202469	0.202633	0.196388	0.204934	0.198196	0.195566	0.196059
1288	0.091528	0.199839	0.204934	0.192279	0.20362	0.20099	0.192279	0.196881
1289	0.096952	0.205263	0.206578	0.196717	0.207071	0.195895	0.192772	0.196388
1290	0.098924	0.201976	0.202962	0.201812	0.206249	0.198689	0.191786	0.197538
1291	0.098267	0.206742	0.203291	0.199018	0.201812	0.200168	0.193429	0.200332
1292	0.10254	0.201812	0.20214	0.197703	0.204606	0.202469	0.191128	0.20099
1293	0.105498	0.201647	0.205427	0.200004	0.208715	0.19721	0.192772	0.19195
1294	0.113552	0.205427	0.202798	0.196388	0.205099	0.201812	0.192115	0.201154
1295	0.111415	0.205592	0.203455	0.197703	0.205592	0.200332	0.196717	0.198689
1296	0.111415	0.201319	0.205592	0.191128	0.203455	0.200825	0.190964	0.196881
1297	0.112566	0.204113	0.206578	0.195402	0.205921	0.20099	0.193429	0.198853
1298	0.116017	0.20362	0.206249	0.194087	0.202633	0.201154	0.193265	0.200168
1299	0.115853	0.204277	0.203948	0.192772	0.202798	0.200332	0.193922	0.200661
1300	0.119633	0.202633	0.203948	0.196552	0.209865	0.19721	0.193758	0.199018
1301	0.121934	0.20099	0.208879	0.193429	0.20214	0.19836	0.195402	0.205099
1302	0.12292	0.202305	0.203784	0.200497	0.205263	0.200332	0.193758	0.199675
1303	0.121112	0.199018	0.201319	0.196059	0.203784	0.198524	0.193429	0.199346
1304	0.129659	0.203948	0.205427	0.19721	0.204277	0.197374	0.195073	0.196881
1305	0.127029	0.203126	0.205921	0.192608	0.202962	0.201647	0.194744	0.199018
1306	0.128508	0.202798	0.206907	0.195895	0.204113	0.198853	0.194416	0.198031
1307	0.132289	0.200168	0.204606	0.196059	0.201647	0.200825	0.19573	0.199182
1308	0.137219	0.204277	0.208879	0.198689	0.205756	0.200004	0.197538	0.200825
1309	0.137877	0.201976	0.207728	0.195895	0.202305	0.198853	0.199839	0.199018
1310	0.138041	0.203948	0.20477	0.198031	0.206742	0.19573	0.197867	0.200004
1311	0.137384	0.202305	0.202633	0.201319	0.206249	0.201812	0.195895	0.203291
1312	0.138205	0.201976	0.208057	0.198524	0.205921	0.200168	0.19573	0.198196
1313	0.13837	0.204113	0.205921	0.196717	0.204113	0.200168	0.193101	0.201154
1314	0.137384	0.201483	0.205427	0.198524	0.202469	0.200004	0.196059	0.200825
1315	0.145273	0.202798	0.203948	0.195073	0.202962	0.202469	0.194251	0.200332
1316	0.140835	0.202798	0.207071	0.197045	0.203126	0.203784	0.200332	0.204441
1317	0.143629	0.204277	0.204277	0.193101	0.205263	0.201483	0.197703	0.211837
1318	0.142643	0.201319	0.2074	0.199182	0.205099	0.201483	0.198196	0.203291
1319	0.151847	0.19836	0.206249	0.195566	0.203948	0.200661	0.197538	0.201483
1320	0.149546	0.198524	0.204934	0.190307	0.202798	0.200004	0.198524	0.200497
1321	0.150368	0.201812	0.209536	0.196717	0.206085	0.197703	0.198689	0.202633
1322	0.154477	0.19836	0.205263	0.19573	0.203784	0.200168	0.197374	0.206742
1323	0.153984	0.199018	0.207235	0.195073	0.20477	0.198524	0.197867	0.201647
1324	0.154148	0.199511	0.204606	0.196223	0.201154	0.198689	0.198031	0.204606
1325	0.149382	0.202305	0.202962	0.199839	0.204606	0.194251	0.20214	0.199675
1326	0.152176	0.200497	0.203948	0.196881	0.202962	0.197538	0.196388	0.203784
1327	0.152011	0.20362	0.205592	0.199839	0.203948	0.199839	0.195073	0.200332
1328	0.149875	0.200497	0.202633	0.197538	0.205263	0.200661	0.195073	0.20214
1329	0.147574	0.19836	0.204113	0.194251	0.204934	0.200332	0.198031	0.200168
1330	0.145108	0.200168	0.201319	0.199675	0.204277	0.203126	0.192443	0.202305
1331	0.133275	0.197045	0.202633	0.194251	0.20362	0.201647	0.199346	0.208879
1332	0.130481	0.198689	0.201812	0.196881	0.206578	0.196223	0.197538	0.203455
1333	0.123249	0.20099	0.205921	0.191786	0.204113	0.197867	0.197867	0.206085
1334	0.117168	0.198689	0.205756	0.192936	0.200168	0.198524	0.198853	0.202305
1335	0.113059	0.20099	0.201154	0.194251	0.206249	0.195566	0.199839	0.202633
1336	0.112073	0.200497	0.204441	0.197374	0.206907	0.198853	0.200004	0.20362
1337	0.116017	0.198524	0.207893	0.194909	0.201647	0.197374	0.200497	0.204606
1338	0.114374	0.202469	0.205592	0.196223	0.203126	0.19836	0.200497	0.203784
1339	0.111908	0.200661	0.201483	0.196388	0.201647	0.201812	0.198689	0.208386
1340	0.115031	0.199675	0.20099	0.19721	0.203455	0.196059	0.201154	0.204606
1341	0.117825	0.199018	0.204441	0.19573	0.200825	0.19836	0.198689	0.198853
1342	0.107964	0.199018	0.203126	0.199511	0.202469	0.200004	0.19836	0.202798
1343	0.111415	0.198196	0.202962	0.198196	0.204606	0.202469	0.198031	0.204277
1344	0.113552	0.205099	0.20362	0.200497	0.201319	0.197374	0.199675	0.201154
1345	0.119797	0.199346	0.191128	0.194744	0.202962	0.200497	0.197374	0.203126
1346	0.122756	0.207235	0.201812	0.198689	0.202962	0.198031	0.200168	0.204606
1347	0.125714	0.200332	0.199675	0.195895	0.203784	0.200168	0.199018	0.20362
1348	0.127194	0.197867	0.199018	0.199346	0.201976	0.19836	0.198196	0.200004
1349	0.135247	0.202305	0.200497	0.196717	0.203948	0.201483	0.200168	0.204277
1350	0.132453	0.201647	0.199675	0.200825	0.203126	0.199675	0.20099	0.200497
1351	0.136069	0.201647	0.202305	0.196059	0.202962	0.197374	0.201483	0.202305
1352	0.140342	0.197867	0.20362	0.198031	0.201319	0.199018	0.202962	0.204606
1353	0.140506	0.201976	0.204277	0.200497	0.204113	0.202305	0.206578	0.201154
1354	0.143629	0.197374	0.205592	0.197867	0.203291	0.197538	0.198689	0.201647
1355	0.146095	0.201812	0.204441	0.199018	0.203948	0.20099	0.200332	0.202305
1356	0.147574	0.19573	0.202633	0.197374	0.198031	0.196717	0.199346	0.204113
1357	0.149217	0.201483	0.201812	0.201319	0.199839	0.196388	0.199675	0.200825
1358	0.151025	0.201647	0.201647	0.198689	0.207728	0.195237	0.197538	0.204441
1359	0.150368	0.204441	0.199839	0.201319	0.199511	0.19836	0.203455	0.201154
1360	0.156285	0.200825	0.19721	0.200332	0.202962	0.20362	0.202798	0.201483
1361	0.156449	0.201976	0.201483	0.201647	0.202798	0.200497	0.202798	0.200332
1362	0.160558	0.200661	0.201319	0.199182	0.202962	0.20099	0.199346	0.203291
1363	0.164174	0.202633	0.206414	0.200332	0.202962	0.197538	0.20362	0.202305
1364	0.162695	0.198196	0.201319	0.197045	0.199675	0.19195	0.192115	0.201319
1365	0.160558	0.198689	0.20099	0.198196	0.202798	0.20099	0.200497	0.206414
1366	0.166311	0.201812	0.20099	0.198689	0.204113	0.196223	0.202962	0.200661
1367	0.163845	0.196059	0.201154	0.197374	0.198853	0.19836	0.200332	0.200825
1368	0.163681	0.201812	0.199675	0.203126	0.198853	0.197374	0.202305	0.206907
1369	0.162202	0.201647	0.199182	0.202305	0.196388	0.197538	0.203948	0.206578
1370	0.166146	0.199511	0.199511	0.202305	0.199675	0.198524	0.203455	0.204606
1371	0.169433	0.199839	0.201976	0.199182	0.199511	0.201154	0.206742	0.206742
1372	0.171406	0.199839	0.199511	0.201647	0.203455	0.196059	0.203291	0.205427
1373	0.1742	0.199511	0.201483	0.199346	0.200661	0.198524	0.202798	0.202798
1374	0.17272	0.201976	0.200332	0.202305	0.204277	0.195566	0.209043	0.205921
1375	0.177651	0.202469	0.19836	0.200661	0.19721	0.195402	0.200825	0.202633
1376	0.177158	0.206907	0.201154	0.203126	0.200497	0.194087	0.201647	0.203126
1377	0.178473	0.206249	0.196059	0.198853	0.201812	0.199018	0.200661	0.205099
1378	0.179623	0.205592	0.201647	0.203784	0.203291	0.19836	0.202633	0.19573
1379	0.181431	0.203455	0.196223	0.201154	0.20099	0.203291	0.203455	0.207071
1380	0.178309	0.205263	0.203291	0.20362	0.203455	0.20099	0.202469	0.204441
1381	0.184718	0.202469	0.191786	0.19573	0.200332	0.2074	0.206414	0.202633
1382	0.181596	0.200168	0.197374	0.195895	0.201483	0.201319	0.201154	0.20099
1383	0.185047	0.205427	0.194744	0.19836	0.202305	0.200825	0.20477	0.211509
1384	0.183732	0.200497	0.197045	0.196388	0.200332	0.201647	0.206085	0.207893
1385	0.18176	0.203455	0.193101	0.198196	0.200004	0.202305	0.208386	0.204113
1386	0.182253	0.20362	0.197867	0.193429	0.19836	0.201319	0.204934	0.206742
1387	0.185212	0.205921	0.199346	0.201812	0.200825	0.196059	0.20362	0.204934
1388	0.186855	0.20214	0.199182	0.195237	0.200004	0.200004	0.204441	0.205427
1389	0.189485	0.207071	0.19721	0.201483	0.201976	0.198196	0.204277	0.204277
1390	0.182582	0.202633	0.196388	0.199839	0.199675	0.201812	0.202962	0.209536
1391	0.191457	0.20362	0.193922	0.199839	0.199018	0.199346	0.208057	0.204441
1392	0.191786	0.201319	0.194416	0.200497	0.197703	0.202962	0.201976	0.202305
1393	0.191457	0.204441	0.195895	0.203126	0.20214	0.193265	0.203126	0.205099
1394	0.19195	0.202962	0.19458	0.202633	0.199018	0.206742	0.20477	0.195895
1395	0.190964	0.203455	0.193101	0.200825	0.200497	0.201319	0.205099	0.200825
1396	0.192443	0.200825	0.18932	0.202469	0.19573	0.203455	0.203784	0.203784
1397	0.190307	0.202305	0.194416	0.199346	0.200497	0.202305	0.205921	0.206414
1398	0.194087	0.207071	0.189814	0.201319	0.202962	0.20214	0.205921	0.200497
1399	0.191128	0.201483	0.191457	0.200332	0.200004	0.202469	0.202962	0.205099
1400	0.19195	0.205263	0.191293	0.200004	0.20214	0.199346	0.202633	0.204277
1401	0.189814	0.203784	0.193429	0.200825	0.199018	0.202305	0.205921	0.208057
1402	0.193594	0.202305	0.193922	0.198524	0.200168	0.19836	0.207235	0.205592
1403	0.193922	0.203291	0.196388	0.198196	0.198031	0.199839	0.207071	0.205099
1404	0.192772	0.204277	0.193265	0.200661	0.199675	0.196059	0.201483	0.199839
1405	0.194416	0.200004	0.193594	0.198196	0.200168	0.200332	0.204113	0.200332
1406	0.194251	0.205099	0.195402	0.202633	0.19721	0.198031	0.204113	0.203126
1407	0.194909	0.199346	0.189814	0.201647	0.195402	0.202798	0.202633	0.201483
1408	0.19458	0.20099	0.194416	0.202305	0.199675	0.197867	0.203291	0.200825
1409	0.196552	0.203455	0.18932	0.202633	0.19836	0.202962	0.201319	0.202305
1410	0.194251	0.203291	0.194251	0.204606	0.199018	0.201812	0.203784	0.204113
1411	0.196552	0.204113	0.196223	0.202798	0.198689	0.202798	0.203291	0.205592
1412	0.191786	0.202798	0.192936	0.206907	0.200332	0.20099	0.198524	0.198853
1413	0.201812	0.206907	0.192936	0.204113	0.201812	0.201976	0.199675	0.203455
1414	0.193429	0.207893	0.193101	0.202962	0.194744	0.199346	0.204441	0.199675
1415	0.19836	0.205427	0.189649	0.204277	0.19721	0.199346	0.199675	0.202962
1416	0.192608	0.202469	0.191128	0.202469	0.196717	0.199675	0.203455	0.201812
1417	0.198524	0.205921	0.190471	0.202962	0.19836	0.200661	0.203126	0.201976
1418	0.195566	0.203784	0.191786	0.204441	0.196717	0.201154	0.202469	0.203126
1419	0.199182	0.203948	0.193101	0.205263	0.195237	0.199511	0.202305	0.200661
1420	0.193101	0.200497	0.194087	0.206414	0.197374	0.200497	0.204441	0.205921
1421	0.193594	0.202798	0.192936	0.207235	0.198689	0.195566	0.20214	0.201976
1422	0.191786	0.20099	0.192772	0.203948	0.199182	0.201154	0.20362	0.200332
1423	0.194416	0.203455	0.196059	0.204441	0.199675	0.195073	0.201976	0.19573
1424	0.194909	0.202798	0.190964	0.203784	0.197374	0.198853	0.198689	0.200332
1425	0.19195	0.202633	0.192115	0.206742	0.202633	0.19721	0.199346	0.198853
1426	0.201483	0.202962	0.195073	0.20477	0.194909	0.199675	0.196223	0.202962
1427	0.199511	0.206085	0.189978	0.207728	0.197703	0.201319	0.203291	0.20099
1428	0.201154	0.206907	0.18932	0.20362	0.198689	0.201976	0.20214	0.201483
1429	0.196881	0.204441	0.1908	0.205427	0.19721	0.201319	0.20362	0.198689
1430	0.202962	0.204277	0.192279	0.204441	0.201647	0.201976	0.20099	0.200497
1431	0.200168	0.203784	0.191128	0.201154	0.198689	0.200168	0.20855	0.200004
1432	0.197538	0.204934	0.188827	0.201319	0.199182	0.201647	0.199839	0.199346
1433	0.195237	0.205592	0.1908	0.202469	0.202798	0.200497	0.201647	0.202305
1434	0.199839	0.203126	0.189978	0.205263	0.201812	0.199675	0.200825	0.197538
1435	0.198031	0.207235	0.189978	0.200825	0.197045	0.200004	0.198524	0.203948
1436	0.193922	0.208879	0.191621	0.206907	0.199346	0.204113	0.204113	0.203455
1437	0.19836	0.205263	0.190635	0.207564	0.196552	0.201812	0.200168	0.200004
1438	0.198689	0.207071	0.192772	0.205592	0.197703	0.198031	0.206414	0.201812
1439	0.198524	0.206907	0.192936	0.201483	0.195895	0.198689	0.202962	0.20362
1440	0.197703	0.208386	0.194087	0.204113	0.19721	0.197703	0.202798	0.197867
1441	0.198853	0.204441	0.192279	0.201976	0.196059	0.200825	0.206085	0.200332
1442	0.19836	0.205427	0.195237	0.205427	0.197538	0.195073	0.204441	0.194087
1443	0.198524	0.206414	0.188006	0.201647	0.196388	0.19836	0.204277	0.197045
1444	0.196223	0.204441	0.191128	0.204113	0.196717	0.201976	0.204934	0.200661
1445	0.20099	0.204606	0.18439	0.202469	0.19721	0.199018	0.203455	0.19721
1446	0.197867	0.210194	0.193429	0.203948	0.195566	0.199675	0.204113	0.201812
1447	0.201319	0.209701	0.186033	0.200332	0.202798	0.207564	0.201647	0.200661
1448	0.195566	0.207893	0.188663	0.201976	0.196059	0.201647	0.203784	0.201483
1449	0.198196	0.209208	0.189649	0.203455	0.196717	0.205099	0.201647	0.200825
1450	0.190964	0.209043	0.192115	0.199182	0.197045	0.201812	0.201812	0.200497
1451	0.194251	0.209865	0.1908	0.198689	0.196552	0.203126	0.198031	0.200168
1452	0.198031	0.207728	0.195237	0.202798	0.193265	0.203126	0.204441	0.201647
1453	0.19573	0.207564	0.195073	0.202469	0.198689	0.201647	0.206578	0.20099
1454	0.197703	0.204441	0.194909	0.199182	0.197538	0.199675	0.203291	0.199018
1455	0.197538	0.205263	0.193594	0.202798	0.200661	0.197703	0.203291	0.194744
1456	0.19836	0.202633	0.196059	0.202469	0.196388	0.200004	0.203784	0.199675
1457	0.199346	0.207071	0.191786	0.203948	0.196881	0.197374	0.204606	0.197867
1458	0.199182	0.206578	0.191128	0.20099	0.194251	0.204277	0.202305	0.199346
1459	0.200497	0.205756	0.192772	0.203291	0.19573	0.200825	0.200332	0.198689
1460	0.201976	0.206249	0.19195	0.205099	0.193758	0.202469	0.202469	0.200497
1461	0.198689	0.208057	0.194909	0.203126	0.194744	0.200497	0.204441	0.20099
1462	0.201812	0.206085	0.188334	0.201483	0.195402	0.201319	0.201812	0.200168
1463	0.200661	0.208386	0.193758	0.205427	0.195895	0.20099	0.202798	0.197538
1464	0.200661	0.205099	0.191293	0.202469	0.196059	0.202798	0.202469	0.198689
1465	0.200332	0.209043	0.191786	0.202305	0.197867	0.198689	0.203291	0.197703
1466	0.199182	0.210194	0.1908	0.200168	0.192772	0.204606	0.201812	0.198853
1467	0.19836	0.205921	0.192772	0.203948	0.19573	0.203948	0.198196	0.199182
1468	0.199675	0.20855	0.191128	0.202962	0.199346	0.200825	0.203784	0.196552
1469	0.191128	0.205099	0.19195	0.200168	0.19458	0.201647	0.200332	0.201976
1470	0.194744	0.205427	0.193101	0.202305	0.197374	0.197045	0.199839	0.198524
1471	0.196717	0.205921	0.195073	0.206907	0.197538	0.200168	0.201812	0.198524
1472	0.198853	0.206907	0.192443	0.201976	0.19573	0.19836	0.201812	0.195073
1473	0.199182	0.200661	0.195402	0.202469	0.197045	0.200168	0.199346	0.19573
1474	0.199511	0.207235	0.196552	0.203455	0.196717	0.197045	0.19721	0.193922
1475	0.199511	0.204934	0.195237	0.203784	0.193265	0.201154	0.199018	0.200168
1476	0.199182	0.207728	0.194744	0.206578	0.198689	0.197374	0.195073	0.19721
1477	0.203948	0.206085	0.196059	0.203948	0.192772	0.199839	0.19836	0.198031
1478	0.197867	0.207564	0.195073	0.207235	0.196717	0.199675	0.20099	0.197867
1479	0.204441	0.208386	0.18817	0.203948	0.196552	0.202305	0.199675	0.19836
1480	0.199675	0.208879	0.191786	0.203455	0.196059	0.201154	0.200497	0.196552
1481	0.204606	0.209043	0.191128	0.204606	0.198524	0.201483	0.195566	0.199675
1482	0.201154	0.206085	0.194909	0.192608	0.197867	0.202469	0.196552	0.197867
1483	0.201647	0.211673	0.189156	0.206578	0.195073	0.199182	0.195237	0.199182
1484	0.201319	0.205921	0.193922	0.20099	0.198196	0.202962	0.198196	0.199346
1485	0.201483	0.209043	0.196552	0.201647	0.202469	0.199839	0.197867	0.195237
1486	0.200497	0.204934	0.192443	0.206742	0.198031	0.202469	0.200825	0.200825
1487	0.199675	0.208715	0.197045	0.206085	0.199675	0.202798	0.199018	0.196388
1488	0.199346	0.207564	0.199839	0.206907	0.197045	0.202305	0.200661	0.19573
1489	0.201812	0.206742	0.197045	0.206414	0.19836	0.200825	0.201976	0.197045
1490	0.202469	0.205756	0.196059	0.203784	0.199182	0.201647	0.201976	0.19721
1491	0.200661	0.208386	0.198689	0.202633	0.198031	0.198689	0.202633	0.198524
1492	0.201647	0.205756	0.195402	0.202962	0.195073	0.200497	0.196223	0.199346
1493	0.201647	0.207235	0.198031	0.201976	0.199346	0.197538	0.203455	0.203455
1494	0.203126	0.211016	0.198031	0.201319	0.195402	0.198524	0.199182	0.199182
1495	0.202305	0.207728	0.194251	0.201976	0.196552	0.203291	0.198196	0.197703
1496	0.202962	0.208222	0.192115	0.199018	0.199346	0.199675	0.204113	0.197374
1497	0.203126	0.208715	0.195895	0.200497	0.200004	0.204277	0.20099	0.193922
1498	0.206578	0.207235	0.191128	0.203126	0.199018	0.198853	0.195566	0.193101
1499	0.202798	0.208222	0.194251	0.201483	0.196552	0.204277	0.200825	0.191457
1500	0.204934	0.207893	0.195402	0.200661	0.19836	0.200661	0.19836	0.189485
1501	0.202633	0.208057	0.193594	0.203291	0.197538	0.201647	0.198196	0.191128
1502	0.201154	0.209043	0.197045	0.20477	0.199675	0.199511	0.200661	0.186526
1503	0.200661	0.206742	0.202962	0.204113	0.19721	0.199675	0.198196	0.185212
1504	0.201154	0.205263	0.198524	0.202469	0.197538	0.201976	0.201647	0.180774
1505	0.20362	0.206907	0.196059	0.197045	0.199182	0.204277	0.195895	0.170913
1506	0.200004	0.205756	0.198031	0.205099	0.199511	0.199839	0.20099	0.165653
1507	0.203948	0.203784	0.195237	0.196388	0.199346	0.205921	0.199346	0.159736
1508	0.200332	0.207235	0.20214	0.20099	0.197538	0.203784	0.201319	0.147245
1509	0.204277	0.203291	0.194416	0.198524	0.198031	0.203455	0.193101	0.136562
1510	0.201154	0.205756	0.199346	0.202305	0.199346	0.200332	0.198031	0.11914
1511	0.204606	0.20477	0.197538	0.19836	0.197045	0.20214	0.197045	0.106485
1512	0.201319	0.204934	0.1908	0.201812	0.195237	0.201483	0.198031	0.092021
1513	0.203291	0.207728	0.195237	0.201319	0.19721	0.202962	0.198196	0.081995
1514	0.202962	0.207071	0.197374	0.201812	0.195073	0.200497	0.197045	0.067532
1515	0.204113	0.208222	0.194251	0.20477	0.19458	0.205592	0.197867	0.058657
1516	0.201154	0.209208	0.197538	0.196388	0.197045	0.204277	0.198689	0.046987
1517	0.200497	0.208222	0.192772	0.203455	0.200825	0.208057	0.19573	0.037948
1518	0.199675	0.205263	0.197703	0.199675	0.197045	0.201483	0.197538	0.035318
1519	0.201812	0.208715	0.198031	0.202798	0.199346	0.202962	0.198689	0.031538
1520	0.202962	0.203455	0.198031	0.199675	0.199346	0.201812	0.194416	0.033674
1521	0.20477	0.205592	0.199675	0.201812	0.202305	0.200497	0.197867	0.034825
1522	0.201812	0.199346	0.193758	0.19458	0.19836	0.200497	0.195895	0.033346
1523	0.201483	0.203291	0.19836	0.201976	0.200825	0.201647	0.195566	0.039098
1524	0.204113	0.199675	0.198031	0.199346	0.20099	0.20214	0.188499	0.037948
1525	0.203126	0.202962	0.200825	0.200661	0.199018	0.197374	0.196881	0.035482
1526	0.202305	0.203291	0.197538	0.197867	0.196388	0.203126	0.199018	0.0437
1527	0.204113	0.205756	0.199675	0.202962	0.198853	0.20099	0.196059	0.0437
1528	0.204934	0.203126	0.196717	0.199839	0.19573	0.202305	0.193429	0.046823
1529	0.204277	0.201976	0.200168	0.200004	0.200332	0.205756	0.197703	0.048138
1530	0.203784	0.202962	0.196223	0.200661	0.196552	0.208386	0.200497	0.052904
1531	0.202798	0.204606	0.196881	0.201319	0.197867	0.201976	0.19573	0.057999
1532	0.203126	0.203126	0.195402	0.19836	0.200332	0.202305	0.193101	0.061451
1533	0.20362	0.20214	0.197045	0.200497	0.199675	0.201483	0.199346	0.061451
1534	0.199182	0.204277	0.194087	0.20362	0.197045	0.203784	0.192443	0.069176
1535	0.200168	0.201483	0.19721	0.200825	0.197703	0.202469	0.193594	0.064574
1536	0.204113	0.205099	0.196881	0.199182	0.201976	0.197045	0.193101	0.067696
1537	0.204441	0.203455	0.196059	0.199182	0.19836	0.205592	0.194087	0.063259
1538	0.202798	0.198689	0.199675	0.20477	0.203455	0.200332	0.194087	0.064409
1539	0.202798	0.199675	0.203948	0.198853	0.198689	0.206085	0.196059	0.065067
1540	0.202962	0.203948	0.19836	0.200004	0.201483	0.20214	0.194251	0.064738
1541	0.204934	0.204606	0.201154	0.197703	0.194744	0.193594	0.181431	0.067861
1542	0.202305	0.204277	0.199675	0.199346	0.20099	0.199675	0.192936	0.067532
1543	0.204113	0.201154	0.198031	0.200497	0.201483	0.20099	0.191457	0.071312
1544	0.201319	0.199675	0.201319	0.201976	0.204113	0.199018	0.194251	0.063587
1545	0.207235	0.202305	0.194416	0.199675	0.198853	0.201647	0.193265	0.073449
1546	0.201483	0.20099	0.196552	0.20099	0.205099	0.201154	0.195073	0.077065
1547	0.202962	0.204113	0.19836	0.198689	0.197867	0.202962	0.191786	0.080845
1548	0.204113	0.199839	0.19573	0.200004	0.202469	0.203455	0.195237	0.085611
1549	0.204441	0.198196	0.194416	0.20477	0.19721	0.203455	0.191293	0.090542
1550	0.203126	0.198031	0.200497	0.198853	0.199675	0.205099	0.193594	0.094651
1551	0.200497	0.201812	0.199511	0.19836	0.199839	0.20362	0.190471	0.097609
1552	0.202962	0.199511	0.198853	0.198196	0.196059	0.205263	0.192115	0.099417
1553	0.203784	0.20099	0.200497	0.201812	0.201812	0.199018	0.188663	0.103526
1554	0.201154	0.197703	0.20099	0.199675	0.199018	0.206578	0.192115	0.110265
1555	0.202798	0.201154	0.200332	0.201154	0.203291	0.201812	0.191786	0.108128
1556	0.200497	0.20099	0.201154	0.199182	0.199839	0.202798	0.190142	0.117496
1557	0.200332	0.200332	0.199675	0.20099	0.201483	0.201647	0.18932	0.120126
1558	0.206414	0.199839	0.017567	0.19836	0.201812	0.207235	0.19195	0.126043
1559	0.202962	0.200497	0.028744	0.199346	0.200332	0.206578	0.189978	0.127522
1560	0.206414	0.197045	0.033181	0.199182	0.199018	0.203784	0.190142	0.140013
1561	0.203455	0.197538	0.042221	0.202305	0.20099	0.199511	0.192115	0.131796
1562	0.203784	0.19721	0.045344	0.200004	0.195237	0.202469	0.185376	0.138041
1563	0.200332	0.202305	0.059478	0.200497	0.194087	0.201812	0.190142	0.140506
1564	0.207893	0.198196	0.06293	0.200004	0.195073	0.198853	0.188334	0.143629
1565	0.201483	0.19836	0.068189	0.200497	0.195402	0.202633	0.188499	0.144615
1566	0.203455	0.199839	0.071312	0.200661	0.200004	0.203948	0.189814	0.147409
1567	0.204113	0.199346	0.079037	0.20099	0.19458	0.199182	0.188663	0.150368
1568	0.203126	0.195237	0.081502	0.202962	0.189156	0.197538	0.187513	0.152505
1569	0.203948	0.190142	0.087584	0.199675	0.196223	0.20362	0.188334	0.15234
1570	0.201483	0.199018	0.092514	0.206578	0.201319	0.197867	0.186691	0.149217
1571	0.199675	0.194087	0.094487	0.198689	0.197867	0.201483	0.187841	0.146752
1572	0.200004	0.196223	0.103691	0.199182	0.199182	0.201812	0.189814	0.155792
1573	0.20477	0.19721	0.104019	0.198196	0.197703	0.200168	0.188499	0.158914
1574	0.199675	0.198689	0.11158	0.200825	0.19721	0.199839	0.183404	0.16401
1575	0.205427	0.195402	0.111087	0.198853	0.199346	0.201976	0.18554	0.165982
1576	0.200332	0.198031	0.120619	0.197045	0.196552	0.200661	0.189485	0.166968
1577	0.205756	0.197703	0.121112	0.199675	0.19573	0.20362	0.183897	0.170584
1578	0.201812	0.198524	0.128344	0.199346	0.195237	0.200004	0.186198	0.1742
1579	0.205756	0.198524	0.124893	0.201319	0.192772	0.202305	0.186855	0.168776
1580	0.203948	0.196552	0.12933	0.200332	0.193758	0.200661	0.188663	0.174528
1581	0.205592	0.201319	0.131467	0.201154	0.193922	0.198196	0.18439	0.174035
1582	0.201976	0.194909	0.134261	0.199675	0.19458	0.197538	0.186362	0.174693
1583	0.203291	0.199018	0.134097	0.199675	0.196881	0.203948	0.192115	0.17272
1584	0.204934	0.196388	0.13837	0.195402	0.194909	0.204113	0.18817	0.177651
1585	0.20362	0.199675	0.141493	0.199839	0.191786	0.203455	0.184883	0.17535
1586	0.201812	0.195566	0.143301	0.203126	0.196223	0.205592	0.188992	0.178637
1587	0.201319	0.195073	0.148889	0.200825	0.195566	0.200497	0.186362	0.176008
1588	0.202469	0.198853	0.14856	0.203126	0.191786	0.20214	0.187677	0.186855
1589	0.199346	0.200004	0.153819	0.198689	0.195895	0.200004	0.188992	0.179623
1590	0.204441	0.195402	0.154477	0.199346	0.194744	0.202305	0.185705	0.182746
1591	0.201812	0.193594	0.154477	0.200332	0.191457	0.200661	0.187513	0.178637
1592	0.203784	0.193594	0.153819	0.199346	0.191786	0.198196	0.186198	0.185869
1593	0.201319	0.195073	0.15612	0.199346	0.19458	0.195073	0.189814	0.182911
1594	0.202962	0.197374	0.153491	0.199346	0.189485	0.202633	0.187184	0.188992
1595	0.200168	0.195073	0.161544	0.202633	0.192772	0.198689	0.188499	0.188992
1596	0.204113	0.194744	0.153984	0.204113	0.191786	0.199346	0.188499	0.190635
1597	0.204277	0.193429	0.160722	0.200497	0.192279	0.20477	0.190307	0.190471
1598	0.204113	0.196388	0.165324	0.200497	0.189978	0.199839	0.184718	0.187841
1599	0.200168	0.196059	0.169762	0.200661	0.18439	0.199839	0.185376	0.189978
1600	0.199511	0.195073	0.164503	0.202962	0.189485	0.200004	0.185869	0.186691
1601	0.200004	0.196388	0.168447	0.197045	0.19195	0.199182	0.188663	0.189485
1602	0.202798	0.195566	0.16401	0.202798	0.188499	0.200332	0.187513	0.189814
1603	0.199018	0.19573	0.170091	0.200825	0.187184	0.197538	0.187019	0.18932
1604	0.199346	0.195237	0.16779	0.205099	0.190142	0.199346	0.18817	0.188827
1605	0.20214	0.193594	0.169105	0.200332	0.187677	0.200332	0.185869	0.191293
1606	0.198031	0.195895	0.17157	0.202305	0.189649	0.196059	0.190142	0.18817
1607	0.205263	0.194087	0.171406	0.199346	0.189485	0.199675	0.187184	0.190142
1608	-0.005936	0.194744	0.172392	0.201976	0.190635	0.200168	0.187184	0.192772
1609	0.009678	0.193429	0.172227	0.200168	0.1908	0.200825	0.183404	0.191457
1610	0.013294	0.196059	0.175021	0.200332	0.187513	0.19458	0.186855	0.190142
1611	0.02069	0.191621	0.173542	0.202633	0.18176	0.200004	0.186362	0.191786
1612	0.030552	0.192772	0.176172	0.201976	0.18554	0.196717	0.189814	0.194251
1613	0.035647	0.195402	0.176829	0.203455	0.18554	0.195402	0.188499	0.196552
1614	0.043043	0.193758	0.180445	0.201483	0.18176	0.195073	0.187348	0.196059
1615	0.05389	0.19721	0.178309	0.20477	0.17798	0.198524	0.189978	0.194087
1616	0.057342	0.193922	0.176008	0.200497	0.176008	0.198689	0.18932	0.198524
1617	0.060793	0.195073	0.178309	0.206085	0.183239	0.19836	0.187841	0.192936
1618	0.067696	0.192936	0.180116	0.197538	0.178473	0.195073	0.188663	0.195402
1619	0.067532	0.193101	0.179952	0.204113	0.175515	0.199839	0.188499	0.194744
1620	0.077886	0.18817	0.18061	0.201976	0.179788	0.19836	0.188006	0.196881
1621	0.083639	0.193758	0.183239	0.199018	0.179459	0.191786	0.187677	0.192936
1622	0.089227	0.189978	0.182417	0.20214	0.171406	0.200168	0.186855	0.195402
1623	0.091364	0.195237	0.184554	0.200661	0.1742	0.193265	0.192279	0.191457
1624	0.095801	0.194416	0.185212	0.204277	0.168283	0.193594	0.181924	0.19195
1625	0.10139	0.19721	0.181431	0.198853	0.161709	0.19195	0.184883	0.191293
1626	0.106813	0.192936	0.185376	0.198196	0.153162	0.194087	0.185705	0.196388
1627	0.108293	0.19721	0.187677	0.199018	0.152011	0.195402	0.190142	0.197538
1628	0.112566	0.193758	0.186198	0.19836	0.144944	0.194416	0.188499	0.194087
1629	0.116017	0.193101	0.189485	0.201483	0.134754	0.193429	0.189156	0.191621
1630	0.120126	0.195895	0.187348	0.200825	0.123742	0.193594	0.192772	0.19195
1631	0.123085	0.195402	0.190142	0.201976	0.116675	0.190307	0.192279	0.184225
1632	0.127522	0.198031	0.188663	0.200004	0.108128	0.19195	0.190142	0.175843
1633	0.130152	0.194251	0.191293	0.20362	0.100732	0.194744	0.192772	0.161215
1634	0.134261	0.194909	0.190471	0.205756	0.092186	0.199182	0.187184	0.147245
1635	0.136069	0.194909	0.188663	0.19836	0.084132	0.19458	0.1908	0.134918
1636	0.135247	0.195237	0.193101	0.203948	0.067696	0.195073	0.187184	0.116675
1637	0.141986	0.190142	0.192443	0.199675	0.047152	0.198031	0.189156	0.106813
1638	0.141	0.198689	0.194087	0.198689	0.037948	0.194909	0.192443	0.099253
1639	0.144615	0.191128	0.190635	0.197867	0.023813	0.196223	0.188499	0.096294
1640	0.146423	0.194251	0.19458	0.200004	0.016253	0.194251	0.196059	0.08857
1641	0.144944	0.19721	0.19458	0.196552	0.014938	0.193758	0.191293	0.092021
1642	0.147903	0.193265	0.192279	0.198524	0.020526	0.195402	0.192279	0.085447
1643	0.152176	0.19458	0.194251	0.194416	0.017403	0.190635	0.192936	0.082653
1644	0.150368	0.196059	0.196388	0.199018	0.01313	0.189156	0.194087	0.076079
1645	0.152505	0.19458	0.192443	0.197374	0.00672	0.195402	0.193594	0.07197
1646	0.155627	0.194416	0.198031	0.195073	0.005734	0.19195	0.19573	0.064574
1647	0.159408	0.196552	0.191293	0.199346	0.001296	0.19458	0.192115	0.058328
1648	0.160065	0.193922	0.195237	0.200004	0.003761	0.196881	0.193265	0.053726
1649	0.164338	0.194744	0.19458	0.195237	0.003104	0.192772	0.194416	0.049124
1650	0.165324	0.1908	0.192772	0.197045	0.004583	0.193429	0.193758	0.046494
1651	0.16138	0.195237	0.194909	0.200332	0.007377	0.194087	0.19458	0.04255
1652	0.16516	0.190307	0.197045	0.193594	0.004912	0.197703	0.196059	0.040906
1653	0.165817	0.196717	0.193429	0.198689	0.006556	0.192443	0.193594	0.037948
1654	0.165653	0.191621	0.195402	0.195402	0.003433	0.192936	0.193265	0.031373
1655	0.168118	0.196059	0.197538	0.201647	0.003104	0.189485	0.194744	0.024799
1656	0.16779	0.194909	0.19458	0.199018	0.002447	0.01313	0.19195	0.032031
1657	0.169269	0.195073	0.199675	0.197045	0.004419	0.020526	0.192115	0.030059
1658	0.174693	0.194416	0.198196	0.197374	0.002282	0.030552	0.191621	0.033674
1659	0.171406	0.194087	0.198031	0.195073	0.005898	0.038441	0.195566	0.036962
1660	0.174693	0.193429	0.199346	0.194909	0.005241	0.044851	0.194909	0.042385
1661	0.17272	0.19458	0.200004	0.19573	0.003926	0.049124	0.195895	0.03992
1662	0.178802	0.192443	0.199839	0.197703	0.001954	0.055863	0.193265	0.043536
1663	0.174693	0.193265	0.204934	0.195566	0.00294	0.057013	0.198524	0.044193
1664	0.179459	0.194416	0.202305	0.196223	0.002447	0.023156	0.193594	0.051096
1665	0.177487	0.192279	0.200004	0.200332	0.00294	0.028908	0.19721	0.057671
1666	0.181267	0.194744	0.200661	0.198689	0.005734	0.037126	0.197045	0.062108
1667	0.177651	0.191786	0.201319	0.197867	0.004748	0.045179	0.195402	0.067368
1668	0.172392	0.193758	0.19721	0.200004	0.005405	0.05274	0.195237	0.072134
1669	0.180938	0.193265	0.201154	0.194744	0.003597	0.058985	0.193594	0.07312
1670	0.18061	0.199675	0.199675	0.193429	0.006391	0.061779	0.198031	0.079859
1671	0.182253	0.196388	0.200332	0.192279	0.009185	0.066381	0.19573	0.087419
1672	0.179623	0.190142	0.199182	0.195895	0.006556	0.071148	0.192608	0.087584
1673	0.176665	0.194909	0.202469	0.193101	0.004583	0.077229	0.193594	0.098595
1674	0.176501	0.195073	0.205756	0.19573	0.006391	0.079201	0.19458	0.096788
1675	0.169433	0.19573	0.200825	0.188334	0.003761	0.084132	0.188663	0.10139
1676	0.150368	0.192443	0.201647	0.199346	0.007377	0.086926	0.191457	0.106978
1677	0.07838	0.194416	0.203126	0.192279	0.007706	0.0935	0.192936	0.109279
1678	0.003433	0.195895	0.203291	0.196388	0.005405	0.08216	0.196223	0.114538
1679	0.015924	0.195402	0.202305	0.19573	0.008692	0.089227	0.192608	0.118154
1680	0.020855	0.197045	0.205427	0.188499	0.007542	0.090871	0.199182	0.120291
1681	0.027593	0.199182	0.201319	0.193265	0.007377	0.095966	0.196717	0.122098
1682	0.028908	0.196717	0.205921	0.192279	0.005405	0.089227	0.198524	0.131138
1683	0.033017	0.196059	0.203126	0.193429	0.010829	0.096788	0.199346	0.127851
1684	0.03088	0.195237	0.204606	0.188827	0.009021	0.103197	0.195073	0.136562
1685	0.03992	0.195566	0.203948	0.19195	0.013459	0.105992	0.195895	0.13311
1686	0.038934	0.196388	0.207728	0.19195	0.016253	0.104019	0.196223	0.136398
1687	0.041235	0.197867	0.205263	0.194087	0.01954	0.108786	0.19573	0.138534
1688	0.04633	0.193594	0.206907	0.189814	0.021841	0.111908	0.196717	0.140835
1689	0.051425	0.197374	0.202633	0.194087	0.026278	0.106485	0.198689	0.142807
1690	0.055534	0.200332	0.204113	0.192608	0.029566	0.104512	0.19721	0.150368
1691	0.05915	0.196717	0.204934	0.19195	0.036304	0.102704	0.19573	0.151518
1692	0.063094	0.19458	0.20362	0.190964	0.031045	0.105663	0.195402	0.151683
1693	0.0603	0.200004	0.210029	0.192443	0.024799	0.106813	0.199511	0.153819
1694	0.064574	0.193429	0.204113	0.191786	0.016253	0.112566	0.199346	0.156285
1695	0.06408	0.197538	0.203455	0.191457	0.015266	0.112401	0.199511	0.153162
1696	0.063259	0.195073	0.203948	0.191293	0.012472	0.118811	0.200332	0.159243
1697	0.061451	0.196717	0.206742	0.190307	0.01576	0.118483	0.203126	0.162202
1698	0.065395	0.197703	0.203126	0.190964	0.014609	0.120619	0.195566	0.162859
1699	0.067203	0.192279	0.201319	0.184225	0.010993	0.129166	0.201976	0.164338
1700	0.071805	0.201154	0.205427	0.190142	0.01576	0.128344	0.197867	0.167625
1701	0.069833	0.196223	0.204934	0.188992	0.021019	0.133439	0.199839	0.168118
1702	0.072298	0.197867	0.203291	0.192936	0.02973	0.132782	0.196223	0.166475
1703	0.072627	0.19836	0.201976	0.187677	0.029894	0.136726	0.199839	0.168776
1704	0.067039	0.204441	0.2074	0.192772	0.038605	0.140178	0.199511	0.170091
1705	0.068025	0.19836	0.200004	0.189485	0.04255	0.147409	0.19836	0.169433
1706	0.063916	0.199839	0.205756	0.18817	0.050439	0.141328	0.197045	0.172392
1707	0.057013	0.201483	0.205921	0.189814	0.051754	0.154312	0.19836	0.173049
1708	0.051261	0.201483	0.206907	0.1908	0.060136	0.145437	0.199182	0.176172
1709	0.050439	0.200825	0.206085	0.187348	0.064738	0.151518	0.19836	0.175843
1710	0.049617	0.197374	0.202962	0.187184	0.070326	0.155627	0.197538	0.176665
1711	0.049288	0.200004	0.203784	0.187841	0.073942	0.157435	0.197538	0.179295
1712	0.0437	0.199675	0.207235	0.185869	0.074435	0.15612	0.197538	0.178144
1713	0.04255	0.198853	0.206907	0.188663	0.074106	0.155627	0.196223	0.182089
1714	0.041564	0.197703	0.205592	0.188006	0.075914	0.159736	0.203126	0.182746
1715	0.041892	0.190635	0.200168	0.191457	0.078873	0.161873	0.199346	0.183239
1716	0.040249	0.197045	0.20855	0.186526	0.081502	0.164503	0.201154	0.183239
1717	0.041564	0.201483	0.208057	0.185705	0.081009	0.167625	0.200497	0.181924
1718	0.033181	0.199839	0.208057	0.185376	0.079859	0.158093	0.189814	0.186526
1719	0.03351	0.196717	0.205427	0.187841	0.089556	0.166146	0.19836	0.185047
1720	0.038605	0.196388	0.206578	0.186855	0.091035	0.167461	0.199182	0.183897
1721	0.045672	0.200825	0.205427	0.186526	0.096788	0.164831	0.198853	0.185376
1722	0.051918	0.201976	0.203126	0.186033	0.099253	0.162037	0.196059	0.185212
1723	0.053233	0.20099	0.209043	0.189156	0.107142	0.158421	0.194087	0.185047
1724	0.064409	0.198524	0.207235	0.190307	0.106649	0.155299	0.199839	0.195566
1725	0.068682	0.203948	0.208879	0.187841	0.112073	0.148231	0.201319	0.186198
1726	0.072134	0.199675	0.205427	0.187019	0.112237	0.138863	0.193101	0.189485
1727	0.076079	0.199018	0.207071	0.185376	0.118811	0.130481	0.198853	0.187184
1728	0.074599	0.200168	0.2074	0.183568	0.123413	0.124728	0.198853	0.188663
1729	0.084132	0.199839	0.205592	0.183897	0.121605	0.110922	0.199346	0.189485
1730	0.091199	0.199346	0.207235	0.186526	0.1267	0.093336	0.196388	0.189485
1731	0.093829	0.200332	0.211016	0.183075	0.130809	0.080023	0.201976	0.1908
1732	0.100239	0.197538	0.204113	0.18554	0.130152	0.066875	0.199839	0.188663
1733	0.105663	0.20099	0.20855	0.18554	0.134754	0.052247	0.200661	0.192115
1734	0.10632	0.202962	0.206414	0.187348	0.138699	0.047973	0.203291	0.191621
1735	0.113552	0.202305	0.208057	0.186855	0.13574	0.054876	0.201647	0.1908
1736	0.11799	0.202305	0.207728	0.186362	0.142972	0.05537	0.205921	0.191128
1737	0.122098	0.198853	0.20362	0.189978	0.141657	0.061779	0.20214	0.19573
1738	0.119797	0.204277	0.207235	0.189814	0.146752	0.067039	0.20099	0.185869
1739	0.127358	0.206085	0.205263	0.187019	0.14593	0.071312	0.200661	0.192279
1740	0.124893	0.204441	0.207071	0.189156	0.150532	0.078051	0.202305	0.190964
1741	0.129001	0.203291	0.205756	0.190635	0.144944	0.082817	0.194744	0.191786
1742	0.132617	0.205263	0.209536	0.189485	0.153491	0.086762	0.198689	0.188334
1743	0.136562	0.204441	0.211344	0.188663	0.155299	0.094158	0.19721	0.187019
1744	0.137055	0.204606	0.210687	0.190635	0.156285	0.096459	0.199675	0.191786
1745	0.142479	0.204441	0.204277	0.187348	0.16401	0.102704	0.199346	0.194251
1746	0.145602	0.203291	0.204934	0.185869	0.158421	0.109114	0.206414	0.195895
1747	0.147081	0.202633	0.206249	0.184554	0.160394	0.111744	0.201976	0.194251
1748	0.149875	0.201976	0.207564	0.187019	0.160722	0.112401	0.202633	0.188499
1749	0.152998	0.204113	0.203455	0.189156	0.161051	0.117003	0.201647	0.193594
1750	0.152998	0.200004	0.204113	0.188006	0.163188	0.120948	0.201483	0.193922
1751	0.156449	0.202469	0.207071	0.189156	0.165324	0.123085	0.203126	0.192936
1752	0.1576	0.201812	0.209865	0.191293	0.166804	0.130316	0.200497	0.191293
1753	0.159243	0.20362	0.208057	0.192443	0.170091	0.129659	0.199182	0.192443
1754	0.160229	0.200004	0.2074	0.191457	0.165489	0.135083	0.199511	0.195073
1755	0.161051	0.205263	0.206578	0.195402	0.167625	0.13837	0.200168	0.192443
1756	0.162202	0.205427	0.207728	0.195237	0.161215	0.138699	0.196717	0.193922
1757	0.164667	0.202469	0.206907	0.19458	0.170748	0.14593	0.200332	0.192443
1758	0.167625	0.203126	0.204113	0.193429	0.17535	0.141328	0.197703	0.197374
1759	0.167132	0.203126	0.209208	0.195402	0.174364	0.147081	0.201483	0.191293
1760	0.170091	0.204934	0.204606	0.193758	0.171406	0.152011	0.198031	0.18932
1761	0.166968	0.204113	0.20477	0.196717	0.171077	0.155134	0.200004	0.193265
1762	0.173707	0.201976	0.208879	0.196059	0.176994	0.155627	0.197867	0.197374
1763	0.172885	0.200168	0.209043	0.192279	0.175515	0.158914	0.203126	0.196552
1764	0.171899	0.203291	0.20855	0.198031	0.176172	0.161709	0.199511	0.196881
1765	0.176008	0.202305	0.204606	0.191293	0.175843	0.159079	0.202469	0.199839
1766	0.1742	0.201319	0.212824	0.196552	0.17798	0.161873	0.200825	0.201319
1767	0.179295	0.19573	0.205263	0.196223	0.174857	0.166475	0.20099	0.196388
1768	0.183732	0.202305	0.2074	0.19836	0.175843	0.165324	0.202962	0.198196
1769	0.180938	0.199511	0.206085	0.196552	0.175021	0.167132	0.197867	0.200168
1770	0.180774	0.199511	0.204934	0.198853	0.180938	0.16894	0.202798	0.197867
1771	0.180281	0.199839	0.201647	0.196552	0.178637	0.166146	0.201647	0.198853
1772	0.183897	0.202633	0.20477	0.19836	0.180116	0.172392	0.198196	0.197703
1773	0.18554	0.202798	0.208386	0.194416	0.181267	0.173871	0.197867	0.196881
1774	0.185047	0.204441	0.209701	0.201154	0.183897	0.176829	0.202633	0.19721
1775	0.183897	0.202633	0.205921	0.200332	0.182089	0.181596	0.201154	0.199511
1776	0.184554	0.206578	0.208386	0.194087	0.185047	0.177487	0.201483	0.198031
1777	0.187677	0.202469	0.206085	0.20214	0.183239	0.181596	0.198689	0.196388
1778	0.186362	0.202305	0.206249	0.201812	0.185869	0.18176	0.200004	0.133768
1779	0.187841	0.201812	0.202962	0.199018	0.183239	0.183568	0.202469	0.128015
1780	0.187019	0.203948	0.205592	0.199018	0.182417	0.182911	0.200004	0.1267
1781	0.18817	0.201154	0.205263	0.199018	0.186362	0.189156	0.202469	0.130809
1782	0.18817	0.203126	0.206742	0.196881	0.185376	0.18554	0.20362	0.132782
1783	0.18817	0.202962	0.202633	0.199675	0.18817	0.187184	0.201319	0.13459
1784	0.192772	0.199018	0.206578	0.199182	0.183075	0.188992	0.202469	0.135411
1785	0.192443	0.202633	0.20362	0.201483	0.184718	0.189814	0.203455	0.13574
1786	0.189814	0.200661	0.205592	0.199182	0.182417	0.191293	0.201976	0.139192
1787	0.191621	0.202305	0.202962	0.202305	0.187513	0.191786	0.201154	0.136398
1788	0.191786	0.201647	0.205427	0.201812	0.183732	0.191786	0.199346	0.139192
1789	0.18932	0.201647	0.202469	0.207235	0.182746	0.193594	0.196223	0.143629
1790	0.1908	0.198853	0.203455	0.203291	0.190307	0.195237	0.19836	0.148067
1791	0.191457	0.204113	0.207728	0.200497	0.189978	0.195895	0.200497	0.142643
1792	0.190307	0.202633	0.202305	0.205592	0.188499	0.201647	0.200497	0.150368
1793	0.187841	0.201647	0.20477	0.200661	0.189814	0.198524	0.202305	0.146423
1794	0.191786	0.199675	0.201483	0.198853	0.18817	0.201483	0.199675	0.150039
1795	0.18817	0.199182	0.20477	0.201647	0.188827	0.195895	0.20099	0.150368
1796	0.18932	0.199018	0.200004	0.20214	0.188499	0.200661	0.205427	0.15234
1797	0.18932	0.200004	0.204934	0.20099	0.189156	0.199675	0.201812	0.150039
1798	0.187348	0.202305	0.202469	0.204277	0.188006	0.200661	0.201812	0.153819
1799	0.186526	0.197867	0.206085	0.202469	0.187348	0.199018	0.203455	0.154312
1800	0.184225	0.201483	0.200825	0.203455	0.18932	0.198689	0.201483	0.158421
1801	0.176336	0.199675	0.204113	0.199675	0.18932	0.201154	0.203784	0.163188
1802	0.175515	0.202962	0.20099	0.204113	0.189485	0.201154	0.20362	0.160722
1803	0.163188	0.200332	0.203126	0.204934	0.184061	0.203948	0.200497	0.161215
1804	0.153655	0.199839	0.205263	0.204934	0.1908	0.201319	0.200497	0.165489
1805	0.149053	0.198689	0.202633	0.204934	0.186691	0.203948	0.200497	0.163352
1806	0.142314	0.199511	0.203948	0.206414	0.187513	0.201647	0.200332	0.162695
1807	0.139192	0.199839	0.203784	0.20477	0.187677	0.207728	0.200004	0.163352
1808	0.128015	0.204441	0.20362	0.207893	0.194251	0.200497	0.197045	0.162859
1809	0.125221	0.198196	0.201812	0.203291	0.188992	0.20477	0.196881	0.168776
1810	0.109114	0.201812	0.203784	0.207893	0.19195	0.200497	0.200497	0.106978
1811	0.097938	0.201319	0.200004	0.206249	0.195566	0.205263	0.197045	0.116182
1812	0.077393	0.197867	0.200497	0.204934	0.193429	0.207235	0.198031	0.119469
1813	0.063094	0.202798	0.20214	0.205099	0.190307	0.205099	0.200497	0.008363
1814	0.046001	0.200497	0.20214	0.203455	0.191786	0.206907	0.201812	0.018554
1815	0.034989	0.200332	0.196552	0.203455	0.188499	0.207564	0.200497	0.026114
1816	0.031045	0.200825	0.204113	0.204113	0.188992	0.206249	0.202962	0.031209
1817	0.029566	0.195073	0.20362	0.203455	0.192608	0.208057	0.200004	0.034168
1818	0.02332	0.195073	0.204113	0.205592	0.184554	0.207564	0.200497	0.046166
1819	0.026443	0.200661	0.201319	0.205592	0.192115	0.206249	0.202305	0.051096
1820	0.025128	0.19721	0.199839	0.202798	0.188499	0.207071	0.199182	0.058492
1821	0.023156	0.198524	0.199346	0.208386	0.193594	0.201812	0.197538	0.063587
1822	0.022334	0.194251	0.198196	0.206249	0.191457	0.209536	0.196223	0.070983
1823	0.020526	0.199018	0.196552	0.211673	0.194416	0.208879	0.199511	0.071805
1824	0.020855	0.20099	0.199675	0.206414	0.191128	0.208715	0.192608	0.077886
1825	0.013459	0.202633	0.200825	0.207235	0.193429	0.209865	0.196881	0.082817
1826	0.014938	0.201483	0.199018	0.203455	0.193101	0.212495	0.199182	0.09235
1827	0.012308	0.199182	0.197045	0.200004	0.19573	0.210687	0.20099	0.090378
1828	0.009843	0.200332	0.196552	0.204441	0.192772	0.212988	0.198689	0.098102
1829	0.0105	0.195237	0.196059	0.20099	0.19458	0.21381	0.204934	0.096294
1830	0.01313	0.202798	0.198689	0.202305	0.193758	0.212002	0.199511	0.103855
1831	0.018225	0.19836	0.197538	0.200497	0.193101	0.213317	0.201812	0.108293
1832	0.022663	0.197867	0.197538	0.204606	0.193101	0.211016	0.201154	0.109443
1833	0.035154	0.199511	0.19721	0.201483	0.191128	0.209701	0.203291	0.112894
1834	0.036469	0.199346	0.193758	0.206578	0.194909	0.210523	0.199511	0.115524
1835	0.042878	0.198853	0.197867	0.20477	0.191128	0.211509	0.200168	0.11799
1836	0.051589	0.200661	0.198196	0.203948	0.19195	0.210358	0.204277	0.117168
1837	0.056849	0.196059	0.197867	0.201812	0.191621	0.213645	0.196388	0.118154
1838	0.064574	0.195566	0.196059	0.205263	0.195073	0.21233	0.198853	0.117661
1839	0.071477	0.19721	0.197374	0.203948	0.192443	0.214138	0.199346	0.117661
1840	0.071641	0.198689	0.196059	0.205756	0.192443	0.212988	0.200168	0.123085
1841	0.079201	0.195895	0.195073	0.203948	0.194251	0.213481	0.200332	0.117661
1842	0.081831	0.200004	0.195402	0.205263	0.196388	0.215453	0.200332	0.118318
1843	0.089063	0.197867	0.188827	0.205099	0.197867	0.21496	0.198031	0.117661
1844	0.095473	0.200168	0.194251	0.209208	0.195402	0.21233	0.19836	0.116182
1845	0.098431	0.201647	0.191293	0.207564	0.197703	0.214303	0.196388	0.115853
1846	0.098102	0.198524	0.194251	0.201812	0.196059	0.214467	0.199839	0.11158
1847	0.107306	0.198031	0.189156	0.197538	0.195566	0.215618	0.198853	0.108786
1848	0.107142	0.197374	0.191621	0.196388	0.194416	0.213317	0.201483	0.111087
1849	0.112073	0.199839	0.193265	0.203126	0.195237	0.214467	0.20099	0.109279
1850	0.114374	0.196717	0.194909	0.201483	0.192608	0.212495	0.201647	0.104841
1851	0.112073	0.199346	0.194087	0.204934	0.194251	0.212824	0.204441	0.097609
1852	0.120126	0.195073	0.19458	0.202305	0.195073	0.212002	0.200004	0.088077
1853	0.125057	0.197867	0.193101	0.208715	0.195402	0.213317	0.200661	0.048795
1854	0.126372	0.193922	0.1908	0.207071	0.192443	0.212988	0.199182	0.020362
1855	0.130645	0.196552	0.191293	0.206578	0.197867	0.212002	0.200497	0.016581
1856	0.132782	0.197045	0.191786	0.205427	0.195073	0.211509	0.200168	0.022334
1857	0.135904	0.196223	0.190142	0.206414	0.196059	0.21118	0.196059	0.019211
1858	0.138863	0.197867	0.190471	0.204934	0.196223	0.214631	0.201976	0.019211
1859	0.13952	0.199511	0.192443	0.20477	0.198853	0.211673	0.199018	0.018061
1860	0.141657	0.196223	0.186526	0.206414	0.200825	0.211673	0.198196	0.0105
1861	0.145273	0.197867	0.194416	0.204113	0.198524	0.212495	0.200825	0.008035
1862	0.143958	0.197867	0.191457	0.20477	0.195895	0.216111	0.200168	0.011979
1863	0.147245	0.197703	0.190635	0.204934	0.202798	0.211509	0.197703	0.012472
1864	0.151025	0.19836	0.191128	0.204934	0.201319	0.21233	0.198853	0.016746
1865	0.149546	0.192772	0.193265	0.205099	0.196388	0.212988	0.200004	0.022334
1866	0.153984	0.196059	0.191786	0.2074	0.200825	0.212824	0.199675	0.029894
1867	0.154148	0.19721	0.198524	0.201812	0.197538	0.213152	0.199346	0.029566
1868	0.15234	0.196881	0.192772	0.207564	0.198853	0.210194	0.201319	0.030552
1869	0.157107	0.193265	0.190142	0.20477	0.196223	0.213645	0.201154	0.035811
1870	0.160229	0.201647	0.192772	0.204277	0.197045	0.213974	0.200332	0.034661
1871	0.157764	0.198853	0.186198	0.204441	0.19721	0.214467	0.199839	0.038276
1872	0.161051	0.19573	0.1908	0.205592	0.204113	0.216439	0.202962	0.043043
1873	0.163516	0.195237	0.191786	0.20362	0.195402	0.216439	0.198524	0.037948
1874	0.164174	0.197538	0.190635	0.208222	0.201319	0.211673	0.198196	0.041399
1875	0.169926	0.195402	0.192279	0.204441	0.201647	0.214796	0.195073	0.044029
1876	0.168447	0.199675	0.193265	0.204934	0.201647	0.21381	0.195402	0.044522
1877	0.171406	0.197703	0.188827	0.20214	0.202798	0.211673	0.193922	0.04896
1878	0.170091	0.198196	0.190635	0.203126	0.20362	0.211016	0.197703	0.047152
1879	0.17272	0.198031	0.185705	0.202305	0.199839	0.212659	0.192936	0.046659
1880	0.16894	0.196059	0.1908	0.202469	0.201154	0.212659	0.198524	0.046823
1881	0.174857	0.204113	0.188334	0.203948	0.203948	0.215782	0.199182	0.05011
1882	0.17535	0.191128	0.18817	0.202633	0.200497	0.21381	0.198524	0.048138
1883	0.174364	0.195566	0.190471	0.201319	0.201319	0.214796	0.199511	0.048631
1884	0.173542	0.194251	0.192279	0.201483	0.197538	0.218247	0.205263	0.049781
1885	0.176665	0.192443	0.192115	0.205263	0.203126	0.210194	0.197045	0.047645
1886	0.176829	0.192936	0.191293	0.201319	0.203784	0.21118	0.198689	0.050768
1887	0.176829	0.193758	0.187019	0.201319	0.202633	0.213152	0.196388	0.047316
1888	0.176994	0.188334	0.187677	0.203784	0.200332	0.211837	0.196552	0.012965
1889	0.181103	0.189156	0.189978	0.203784	0.206414	0.21496	0.199346	0.004255
1890	0.183239	0.183075	0.192443	0.204441	0.201812	0.211837	0.196717	0.01313
1891	0.181431	0.182911	0.189156	0.203784	0.202305	0.215618	0.199839	0.01576
1892	0.179295	0.169762	0.191786	0.207071	0.198524	0.216111	0.199511	0.025457
1893	0.006556	0.179952	0.188334	0.206085	0.204606	0.210358	0.200661	0.025457
1894	0.02069	0.172392	0.192115	0.204606	0.203291	0.215782	0.196223	0.03236
1895	0.02447	0.137877	0.190307	0.203291	0.204113	0.202633	0.184883	0.03729
1896	0.032688	0.113552	0.188992	0.203784	0.202962	0.212988	0.193758	0.039756
1897	0.037126	0.098267	0.187677	0.198689	0.202469	0.213481	0.198031	0.05274
1898	0.047316	0.097281	0.188499	0.197867	0.2074	0.214796	0.197045	0.052247
1899	0.050439	0.09991	0.189649	0.202798	0.20099	0.21381	0.194416	0.058492
1900	0.057013	0.095637	0.189978	0.202962	0.205921	0.212002	0.197867	0.059807
1901	0.058985	0.083639	0.189485	0.20099	0.201483	0.209536	0.197045	0.064574
1902	0.065231	0.073778	0.189978	0.20214	0.204934	0.214303	0.199018	0.064738
1903	0.073449	0.067039	0.190964	0.203291	0.204113	0.212824	0.199346	0.065724
1904	0.07838	0.067861	0.197538	0.201154	0.204606	0.212002	0.198853	0.06293
1905	0.080187	0.066875	0.1908	0.200168	0.202469	0.214303	0.196059	0.066875
1906	0.088898	0.076407	0.193429	0.204441	0.20362	0.211016	0.198031	0.070983
1907	0.094815	0.079366	0.190964	0.203291	0.204277	0.210851	0.198196	0.073284
1908	0.100403	0.084789	0.19195	0.20362	0.206414	0.211344	0.196881	0.072298
1909	0.099746	0.086597	0.190635	0.200332	0.20362	0.218576	0.196223	0.059807
1910	0.105498	0.091692	0.192115	0.203291	0.203126	0.213974	0.197045	0.051918
1911	0.10895	0.091857	0.185047	0.20362	0.204606	0.213152	0.193594	0.057013
1912	0.112237	0.091035	0.192443	0.202469	0.208222	0.21381	0.19836	0.058328
1913	0.117661	0.090871	0.191128	0.203455	0.202798	0.215618	0.196059	0.061944
1914	0.119633	0.08594	0.190964	0.20214	0.201976	0.214631	0.195237	0.069833
1915	0.121605	0.080681	0.193101	0.201812	0.20477	0.212824	0.19721	0.070983
1916	0.114374	0.076243	0.195237	0.20099	0.203784	0.211344	0.193758	0.077229
1917	0.125221	0.077558	0.193429	0.204277	0.202962	0.212824	0.196881	0.079201
1918	0.126043	0.074928	0.197538	0.201976	0.205263	0.208715	0.193758	0.08331
1919	0.128673	0.074106	0.189814	0.204113	0.205756	0.21118	0.192772	0.087748
1920	0.134754	0.069997	0.194251	0.200168	0.205263	0.209701	0.195237	0.090542
1921	0.136891	0.081338	0.192936	0.204277	0.207893	0.207235	0.196388	0.09498
1922	0.142314	0.079201	0.189485	0.199675	0.20855	0.210523	0.19195	0.097774
1923	0.144287	0.084296	0.194744	0.200825	0.205592	0.21233	0.196059	0.096952
1924	0.145766	0.086926	0.189814	0.204441	0.206085	0.21118	0.192936	0.100732
1925	0.150697	0.093007	0.195237	0.202962	0.206742	0.207564	0.201154	0.102869
1926	0.153162	0.092514	0.19195	0.202798	0.209208	0.20855	0.194909	0.102376
1927	0.150861	0.102211	0.192608	0.2074	0.204277	0.208222	0.192936	0.110429
1928	0.151683	0.106813	0.189978	0.202305	0.206578	0.213481	0.191457	0.112401
1929	0.152833	0.115195	0.19195	0.201319	0.209865	0.210194	0.196388	0.112566
1930	0.156942	0.113223	0.192115	0.204277	0.21233	0.209208	0.189485	0.113059
1931	0.155299	0.115853	0.192936	0.201483	0.206578	0.210029	0.194909	0.120619
1932	0.160065	0.123742	0.194744	0.203291	0.210523	0.208057	0.194416	0.12292
1933	0.158421	0.124564	0.192936	0.203784	0.207071	0.207235	0.194909	0.126043
1934	0.16253	0.126207	0.193758	0.200497	0.207893	0.212824	0.196717	0.12818
1935	0.164667	0.129001	0.193265	0.202305	0.206578	0.207728	0.194251	0.127687
1936	0.164174	0.131138	0.192608	0.207235	0.20855	0.209536	0.197867	0.123906
1937	0.166804	0.134097	0.195402	0.201154	0.208715	0.210194	0.197045	0.127358
1938	0.166968	0.142643	0.193922	0.204606	0.208879	0.209208	0.198196	0.126207
1939	0.16401	0.139027	0.195402	0.20362	0.205099	0.210687	0.194909	0.132289
1940	0.166804	0.141	0.196388	0.204113	0.211673	0.210194	0.203455	0.130481
1941	0.168447	0.140342	0.195073	0.202305	0.206742	0.208222	0.196881	0.130481
1942	0.166146	0.147081	0.196059	0.207564	0.209865	0.205099	0.20214	0.139027
1943	0.168283	0.145766	0.191786	0.20855	0.208057	0.207564	0.201154	0.141328
1944	0.170913	0.149217	0.195566	0.205592	0.202469	0.211837	0.197867	0.140342
1945	0.170748	0.151847	0.190471	0.204113	0.206742	0.210851	0.195895	0.144615
1946	0.170419	0.15612	0.193429	0.202798	0.209043	0.207564	0.195895	0.145766
1947	0.169269	0.1576	0.193429	0.204934	0.209043	0.21118	0.196881	0.145766
1948	0.170419	0.158914	0.192115	0.204277	0.2074	0.207893	0.19836	0.147081
1949	0.170748	0.162202	0.189485	0.205921	0.209208	0.207564	0.197867	0.147903
1950	0.171241	0.160394	0.196223	0.203455	0.210194	0.209043	0.199511	0.150368
1951	0.169598	0.164174	0.195566	0.205592	0.212166	0.210851	0.204441	0.153655
1952	0.167954	0.162366	0.198689	0.20099	0.206907	0.208879	0.198524	0.153162
1953	0.174035	0.166804	0.194909	0.204113	0.211344	0.207564	0.201154	0.160229
1954	0.173378	0.164996	0.203455	0.207235	0.209208	0.209372	0.202305	0.159901
1955	0.176336	0.168118	0.198689	0.203948	0.207071	0.208386	0.199346	0.157107
1956	0.170913	0.166804	0.199839	0.205756	0.207235	0.209372	0.198689	0.166311
1957	0.179623	0.169598	0.197045	0.206249	0.208222	0.204277	0.198853	0.164667
1958	0.178802	0.170419	0.195402	0.205427	0.205921	0.209208	0.197867	0.167625
1959	0.177487	0.174857	0.196881	0.206249	0.205099	0.209701	0.200497	0.165817
1960	0.178473	0.175021	0.19195	0.204606	0.204277	0.211837	0.199839	0.169433
1961	0.180116	0.175679	0.197703	0.205427	0.209043	0.211837	0.200497	0.168447
1962	0.17913	0.176336	0.196223	0.207728	0.20477	0.214796	0.198196	0.171077
1963	0.178802	0.17798	0.196552	0.206085	0.20477	0.207893	0.198853	0.171241
1964	0.179952	0.184225	0.195402	0.204277	0.205263	0.210029	0.197703	0.170419
1965	0.178637	0.180281	0.19721	0.206249	0.207235	0.208879	0.199839	0.170091
1966	0.176501	0.181267	0.197045	0.205099	0.208386	0.207071	0.200497	0.175021
1967	0.179788	0.177651	0.197538	0.205263	0.202305	0.205427	0.198689	0.176665
1968	0.17798	0.18176	0.19836	0.206249	0.205756	0.204934	0.199182	0.175021
1969	0.178637	0.180445	0.198524	0.206414	0.206249	0.208879	0.203784	0.17798
1970	0.17913	0.17913	0.197374	0.207235	0.208386	0.204934	0.202798	0.179623
1971	0.183075	0.176336	0.19836	0.205427	0.207071	0.206907	0.203784	0.179788
1972	0.184718	0.180774	0.19836	0.206085	0.20855	0.206742	0.203455	0.178309
1973	0.182417	0.183239	0.20099	0.204113	0.203126	0.206249	0.199182	0.180116
1974	0.183568	0.183568	0.200168	0.205263	0.206578	0.198031	0.201319	0.177651
1975	0.184718	0.186033	0.196717	0.20362	0.205756	0.205427	0.199839	0.181924
1976	0.183075	0.183732	0.199675	0.207071	0.207071	0.206414	0.199018	0.180938
1977	0.180938	0.18817	0.195237	0.209865	0.203948	0.208222	0.201976	0.183239
1978	0.18176	0.186198	0.197703	0.205756	0.208386	0.207071	0.200825	0.183568
1979	0.186526	0.187841	0.194416	0.20477	0.205592	0.209372	0.198853	0.18554
1980	0.184718	0.186198	0.197374	0.205427	0.206414	0.204934	0.202633	0.181431
1981	0.18554	0.188827	0.196223	0.203784	0.20362	0.207071	0.198524	0.187677
1982	0.185869	0.186362	0.193922	0.201647	0.205592	0.205921	0.199675	0.187513
1983	0.188663	0.193265	0.19836	0.206249	0.209701	0.205756	0.203291	0.183075
1984	0.183732	0.190635	0.201154	0.205592	0.201812	0.206907	0.202469	0.184225
1985	0.185869	0.186855	0.197703	0.201319	0.207893	0.203948	0.196881	0.184061
1986	0.186691	0.189814	0.20214	0.200497	0.204277	0.20362	0.204113	0.184718
1987	0.184718	0.189978	0.202633	0.206414	0.209865	0.204441	0.202798	0.184718
1988	0.183732	0.191786	0.197703	0.203126	0.206742	0.203455	0.202962	0.187677
1989	0.185869	0.192115	0.201154	0.202962	0.208222	0.198524	0.204606	0.18554
1990	0.186033	0.191128	0.19721	0.203291	0.205756	0.206085	0.206578	0.190471
1991	0.186855	0.190307	0.199018	0.206414	0.208386	0.204277	0.206249	0.184554
1992	0.185376	0.192279	0.197538	0.20362	0.206414	0.204113	0.205263	0.188499
1993	0.182582	0.193265	0.196717	0.206414	0.206414	0.205099	0.207235	0.189156
1994	0.180774	0.195237	0.194909	0.20099	0.204606	0.205921	0.202469	0.187348
1995	0.180774	0.199346	0.195237	0.203126	0.20214	0.203948	0.203455	0.185705
1996	0.178966	0.195237	0.193758	0.200168	0.207071	0.203784	0.199346	0.188006
1997	0.177815	0.195073	0.197374	0.199511	0.205756	0.202962	0.202633	0.187841
1998	0.175679	0.194416	0.196388	0.202798	0.205099	0.203291	0.198031	0.183404
1999	0.175186	0.196388	0.199675	0.201154	0.20362	0.200497	0.201976	0.184225
2000	0.171406	0.198031	0.197045	0.196552	0.207893	0.200825	0.202962	0.134261
2001	0.169105	0.196881	0.198689	0.200497	0.20477	0.200168	0.202305	0.041728
2002	0.166968	0.196717	0.200332	0.2074	0.202962	0.203455	0.20477	0.04633
2003	0.161709	0.195402	0.200332	0.199675	0.202633	0.201154	0.204606	0.053069
2004	0.161051	0.195895	0.198853	0.201319	0.204606	0.200004	0.204113	0.056849
2005	0.161544	0.195237	0.201647	0.20214	0.204277	0.201154	0.203291	0.063094
2006	0.154641	0.196552	0.201976	0.201154	0.203784	0.199182	0.204934	0.068025
2007	0.155299	0.19573	0.198031	0.200825	0.203455	0.199182	0.20099	0.072463
2008	0.15119	0.197374	0.200661	0.199675	0.2074	0.196881	0.203455	0.072134
2009	0.15119	0.19721	0.195895	0.202469	0.201976	0.199346	0.20477	0.076736
2010	0.144944	0.197374	0.200332	0.203948	0.203455	0.196552	0.203291	0.070326
2011	0.141657	0.200004	0.199511	0.202798	0.203291	0.199511	0.201154	0.070819
2012	0.13574	0.198196	0.200332	0.202798	0.204934	0.195895	0.201154	0.064902
2013	0.138205	0.196388	0.199018	0.206249	0.204277	0.201154	0.199511	0.062108
2014	0.132782	0.198689	0.199839	0.200004	0.2074	0.198031	0.204441	0.057671
2015	0.128015	0.200004	0.197703	0.202469	0.20214	0.199511	0.200497	0.051918
2016	0.125714	0.198031	0.202469	0.199346	0.201647	0.199675	0.202469	0.053562
2017	0.11914	0.19836	0.199182	0.199839	0.20214	0.200825	0.201976	0.054383
2018	0.110922	0.195073	0.201319	0.200661	0.200497	0.19721	0.201812	0.05915
2019	0.110429	0.199018	0.198853	0.193758	0.201483	0.198689	0.201812	0.062601
2020	0.106649	0.195402	0.201483	0.197703	0.201647	0.195895	0.203291	0.069504
2021	0.105663	0.196223	0.199018	0.198689	0.20477	0.193265	0.202469	0.072956
2022	0.107306	0.193594	0.200004	0.194909	0.201647	0.199182	0.202798	0.079037
2023	0.104512	0.199182	0.199839	0.198031	0.203948	0.194251	0.204934	0.076736
2024	0.103362	0.19836	0.198196	0.189814	0.198524	0.199839	0.20099	0.086433
2025	0.101883	0.198524	0.200497	0.196881	0.20099	0.192608	0.203948	0.088241
2026	0.09876	0.200661	0.197703	0.197867	0.198853	0.198524	0.20099	0.090706
2027	0.099089	0.200661	0.199511	0.197538	0.200332	0.199018	0.200497	0.091199
2028	0.101554	0.200168	0.198031	0.201319	0.198853	0.202633	0.204441	0.087584
2029	0.099253	0.200168	0.202633	0.198524	0.19836	0.19836	0.201812	0.083639
2030	0.101718	0.199675	0.203126	0.202633	0.202633	0.19836	0.201154	0.080516
2031	0.098431	0.201976	0.206249	0.199511	0.200661	0.196552	0.204934	0.078873
2032	0.098431	0.202305	0.196059	0.199182	0.200332	0.19721	0.202305	0.077393
2033	0.095637	0.199511	0.19836	0.193922	0.20099	0.19721	0.204441	0.078708
2034	0.098102	0.197538	0.198689	0.197538	0.202633	0.19458	0.204441	0.07838
2035	0.093007	0.19721	0.198689	0.198031	0.197374	0.200004	0.204113	0.083639
2036	0.091199	0.204277	0.200332	0.198031	0.198524	0.195237	0.205427	0.084954
2037	0.092514	0.19721	0.199675	0.194744	0.196717	0.196881	0.203291	0.086269
2038	0.093829	0.199675	0.199675	0.197538	0.199018	0.195566	0.20855	0.0935
2039	0.094487	0.195895	0.200332	0.193758	0.197374	0.198196	0.204441	0.100568
2040	0.094651	0.198689	0.201319	0.196388	0.200004	0.194416	0.20855	0.103197
2041	0.098431	0.196223	0.197867	0.199675	0.196552	0.199018	0.206085	0.102376
2042	0.098102	0.198689	0.203948	0.198524	0.197703	0.195566	0.200661	0.106813
2043	0.098924	0.197538	0.195237	0.196717	0.202305	0.19573	0.202469	0.114209
2044	0.09613	0.201483	0.198196	0.193922	0.199018	0.192772	0.206249	0.111744
2045	0.100568	0.20214	0.199839	0.198031	0.199511	0.192772	0.203948	0.114702
2046	0.097116	0.195895	0.198196	0.197374	0.196881	0.195073	0.205099	0.119304
2047	0.09876	0.199675	0.197045	0.193758	0.198689	0.194416	0.204441	0.119469
2048	0.097774	0.199346	0.197703	0.196388	0.19721	0.19458	0.207728	0.120126
2049	0.100403	0.199675	0.200168	0.197045	0.19836	0.197867	0.204441	0.123085
2050	0.09991	0.197867	0.200332	0.194909	0.196059	0.197538	0.206249	0.128673
2051	0.097281	0.200825	0.201319	0.199018	0.198524	0.192443	0.201812	0.134261
2052	0.099253	0.198524	0.200004	0.200497	0.195895	0.196552	0.204277	0.137219
2053	0.104512	0.202798	0.20099	0.195237	0.197703	0.193758	0.204277	0.134754
2054	0.103033	0.199839	0.200825	0.197538	0.19573	0.194744	0.207071	0.137055
2055	0.110758	0.201483	0.200825	0.199839	0.200825	0.191128	0.207564	0.142479
2056	0.113388	0.199675	0.20214	0.196059	0.19721	0.192936	0.206742	0.146095
2057	0.114209	0.200168	0.201976	0.198524	0.195073	0.19195	0.209865	0.145766
2058	0.117003	0.205921	0.199346	0.199346	0.197867	0.195402	0.205756	0.152505
2059	0.114374	0.20099	0.202633	0.195566	0.200168	0.193429	0.20855	0.151025
2060	0.123249	0.199346	0.201812	0.199511	0.196717	0.1908	0.206085	0.15497
2061	0.117661	0.202305	0.20099	0.200661	0.193758	0.198524	0.212988	0.157271
2062	0.124071	0.202633	0.200332	0.199675	0.196388	0.192772	0.206414	0.157271
2063	0.124564	0.204277	0.202469	0.199018	0.19836	0.194087	0.209043	0.160065
2064	0.126372	0.200661	0.197045	0.197538	0.194087	0.199018	0.204441	0.162859
2065	0.128673	0.202962	0.198689	0.200332	0.19195	0.193594	0.206414	0.161709
2066	0.129988	0.204441	0.201154	0.200661	0.195073	0.188992	0.20855	0.163188
2067	0.134918	0.200661	0.201154	0.201976	0.194087	0.015595	0.205592	0.168612
2068	0.132289	0.202305	0.201319	0.201976	0.194251	0.011486	0.210851	0.164174
2069	0.134261	0.194416	0.202305	0.20099	0.191786	-0.000183	0.208879	0.170419
2070	0.132782	0.202962	0.203126	0.196223	0.196223	0.000967	0.210029	0.166968
2071	0.13311	0.200004	0.205263	0.195402	0.194416	-0.000512	0.208222	0.171241
2072	0.131631	0.199839	0.200004	0.199839	0.194744	0.000803	0.197045	0.174035
2073	0.134425	0.198853	0.202633	0.196552	0.196059	0.00031	0.206907	0.173542
2074	0.132946	0.203291	0.202469	0.198689	0.19458	-1.9e-05	0.206742	0.173542
2075	0.132782	0.20099	0.201812	0.197703	0.194087	0.00031	0.206249	0.17798
2076	0.13196	0.203784	0.201976	0.197867	0.195895	-0.004785	0.21233	0.179295
2077	0.134097	0.203455	0.200497	0.199346	0.195073	0.002447	0.208386	0.18061
2078	0.136069	0.202469	0.20362	0.203455	0.193101	-0.000512	0.209701	0.179788
2079	0.137055	0.207235	0.195402	0.199839	0.18932	0.000146	0.212824	0.177651
2080	0.139192	0.202962	0.194744	0.203291	0.195402	-0.000676	0.208386	0.180774
2081	0.134261	0.199675	0.19721	0.199675	0.194087	0.008857	0.206742	0.180281
2082	0.143136	0.20099	0.203291	0.199839	0.194744	0.008363	0.209701	0.180116
2083	0.136726	0.202305	0.197374	0.199675	0.193429	0.017074	0.207235	0.180774
2084	0.137219	0.200497	0.202962	0.19836	0.193758	0.02595	0.210029	0.183897
2085	0.139685	0.201154	0.198031	0.19836	0.19573	0.031867	0.212166	0.18061
2086	0.137219	0.200004	0.203455	0.199182	0.195073	0.041564	0.210194	0.184061
2087	0.142807	0.202305	0.196388	0.199675	0.193101	0.045015	0.210687	0.183568
2088	0.141	0.200661	0.199511	0.197867	0.195895	0.054712	0.210194	0.185376
2089	0.142807	0.200661	0.199182	0.201483	0.195073	0.057999	0.214138	0.187677
2090	0.142807	0.199839	0.197867	0.198524	0.191786	0.065724	0.212002	0.191293
2091	0.140342	0.206742	0.201647	0.199511	0.192772	0.06934	0.214303	0.189978
2092	0.144122	0.199346	0.200332	0.19836	0.189814	0.07838	0.210851	0.18817
2093	0.133439	0.20099	0.202469	0.197867	0.195073	0.080187	0.214796	0.186526
2094	0.142972	0.200497	0.195402	0.196881	0.190142	0.08331	0.212824	0.192608
2095	0.140013	0.200661	0.202633	0.199346	0.195073	0.087584	0.212002	0.188663
2096	0.139192	0.203291	0.19836	0.199675	0.194744	0.093829	0.212988	0.189978
2097	0.135576	0.197867	0.200004	0.200497	0.191786	0.099417	0.21233	0.186691
2098	0.130809	0.20477	0.196388	0.201976	0.193922	0.104348	0.214467	0.19195
2099	0.118976	0.198196	0.19836	0.199346	0.192608	0.105992	0.213974	0.191128
2100	0.110593	0.205263	0.197867	0.207564	0.192279	0.116182	0.210029	0.192608
2101	0.100239	0.201483	0.199018	0.205921	0.191786	0.117496	0.216932	0.193101
2102	0.100568	0.202798	0.199182	0.201976	0.197374	0.119304	0.217919	0.193758
2103	0.097116	0.200661	0.200661	0.200332	0.190964	0.123413	0.214467	0.189649
2104	0.09613	0.201812	0.199839	0.201647	0.192772	0.124893	0.21381	0.189485
2105	0.099253	0.201154	0.201483	0.199511	0.18932	0.129166	0.21233	0.190307
2106	0.09991	0.201812	0.199675	0.202305	0.19458	0.127687	0.212166	0.192936
2107	0.109279	0.20099	0.198853	0.200661	0.192936	0.134261	0.209701	0.195402
2108	0.107306	0.096952	0.200332	0.201483	0.195073	0.133439	0.212824	0.190635
2109	0.111251	0.098595	0.197538	0.202633	0.192936	0.139356	0.20855	0.200497
2110	0.119469	0.104841	0.201483	0.201812	0.19573	0.138863	0.211673	0.198031
2111	0.120455	0.109443	0.201976	0.203455	0.188499	0.144122	0.211344	0.195566
2112	0.12555	0.114209	0.20099	0.204277	0.190964	0.144122	0.213152	0.196717
2113	0.130809	0.121112	0.199839	0.203126	0.190964	0.149382	0.212002	0.185869
2114	0.02332	0.120126	0.200661	0.200497	0.186362	0.150532	0.211509	0.19573
2115	0.028086	0.123413	0.195402	0.205592	0.190307	0.15497	0.210851	0.196059
2116	0.029566	0.1267	0.200168	0.200661	0.193429	0.157271	0.211837	0.195237
2117	0.042714	0.130974	0.200497	0.203291	0.192115	0.158257	0.211509	0.195566
2118	0.049288	0.131631	0.200332	0.201976	0.189485	0.15875	0.207564	0.196223
2119	0.056027	0.136233	0.199839	0.204441	0.195895	0.158914	0.21118	0.19836
2120	0.059807	0.140178	0.201647	0.203126	0.193922	0.16253	0.210523	0.201154
2121	0.067203	0.14215	0.199018	0.203948	0.189649	0.162202	0.21118	0.198524
2122	0.075092	0.138534	0.200497	0.201647	0.191457	0.166146	0.210523	0.199018
2123	0.075092	0.147409	0.201812	0.205263	0.19195	0.164174	0.209701	0.199018
2124	0.079037	0.150368	0.202305	0.200332	0.192443	0.168283	0.210029	0.205756
2125	0.085776	0.153326	0.202305	0.200825	0.189814	0.163681	0.210194	0.200332
2126	0.09235	0.153655	0.197703	0.200004	0.191128	0.168283	0.210029	0.200661
2127	0.093007	0.156942	0.199182	0.19836	0.194909	-0.000676	0.213974	0.199346
2128	0.098431	0.160558	0.200004	0.200825	0.193429	0.0105	0.211673	0.200497
2129	0.103526	0.155134	0.20099	0.202469	0.19458	0.01691	0.211016	0.200332
2130	0.105992	0.162037	0.205756	0.201647	0.191293	0.025785	0.211016	0.200168
2131	0.107635	0.164338	0.202469	0.202305	0.192772	0.034003	0.217426	0.201319
2132	0.117003	0.164338	0.195237	0.203455	0.191293	0.043207	0.210194	0.200661
2133	0.116182	0.165489	0.201319	0.200332	0.191128	0.047809	0.211509	0.201319
2134	0.120126	0.167461	0.199182	0.201976	0.193265	0.054548	0.209208	0.199675
2135	0.122592	0.166311	0.198031	0.204934	0.192608	0.064409	0.209865	0.200825
2136	0.126207	0.172885	0.200004	0.201319	0.19721	0.064574	0.212659	0.196717
2137	0.131138	0.166475	0.197045	0.199839	0.193922	0.076079	0.210194	0.201976
2138	0.13311	0.169598	0.20214	0.20214	0.197867	0.076736	0.210851	0.198524
2139	0.128344	0.170419	0.200168	0.199018	0.194087	0.087912	0.211016	0.199346
2140	0.13311	0.171241	0.202633	0.20099	0.190635	0.084296	0.213152	0.200661
2141	0.138863	0.172885	0.201319	0.199018	0.197867	0.093172	0.211344	0.206742
2142	0.139685	0.173378	0.203126	0.200825	0.192772	0.091364	0.211344	0.201812
2143	0.143136	0.175186	0.199182	0.197045	0.193429	0.101718	0.212166	0.204441
2144	0.143629	0.176172	0.200332	0.200004	0.19458	0.102869	0.21381	0.20214
2145	0.15119	0.176994	0.201319	0.201812	0.19458	0.106813	0.21118	0.202962
2146	0.148396	0.178144	0.203291	0.203948	0.192608	0.113059	0.214303	0.200661
2147	0.155134	0.185376	0.196388	0.199346	0.196717	0.118976	0.212002	0.202469
2148	0.150368	0.17798	0.199839	0.201812	0.192936	0.11914	0.212166	0.20477
2149	0.157764	0.180445	0.199346	0.200168	0.19573	0.126372	0.21233	0.199675
2150	0.15497	0.185376	0.201976	0.196552	0.191128	0.130481	0.211509	0.20099
2151	0.156449	0.180116	0.192772	0.199675	0.19458	0.132124	0.213152	0.19836
2152	0.159901	0.18554	0.197703	0.191293	0.192772	0.136069	0.20855	0.196881
2153	0.160065	0.182253	0.197867	0.198853	0.196881	0.135576	0.211509	0.19573
2154	0.160229	0.183075	0.199182	0.201154	0.193265	0.140178	0.210851	0.201976
2155	0.159901	0.190142	0.199839	0.202305	0.197045	0.141328	0.210687	0.198853
2156	0.163188	0.184554	0.201647	0.201483	0.193265	0.143958	0.212495	0.201483
2157	0.162859	0.186855	0.201483	0.19836	0.196223	0.145437	0.211016	0.203291
2158	0.166146	0.18932	0.201319	0.200004	0.198524	0.148067	0.208386	0.207564
2159	0.163352	0.186198	0.202962	0.200497	0.195402	0.149217	0.213481	0.201812
2160	0.168118	0.185705	0.19573	0.201319	0.194251	0.153162	0.209043	0.204113
2161	0.165982	0.184883	0.199346	0.200825	0.192443	0.155463	0.214303	0.201647
2162	0.165489	0.186198	0.199675	0.201647	0.193922	0.156449	0.207728	0.201812
2163	0.165324	0.186855	0.200825	0.199839	0.19458	0.156778	0.212988	0.202469
2164	0.165324	0.188827	0.202633	0.201976	0.193429	0.16138	0.211509	0.201812
2165	0.163845	0.192443	0.199346	0.201483	0.196059	0.162366	0.21118	0.203784
2166	0.161051	0.189156	0.199018	0.202798	0.200825	0.168776	0.209536	0.204277
2167	0.160887	0.187513	0.200332	0.198524	0.193429	0.169762	0.210851	0.202305
2168	0.163516	0.192279	0.197867	0.203126	0.195402	0.171734	0.209701	0.203291
2169	0.164338	0.188499	0.198524	0.201319	0.194909	0.169926	0.209372	0.206249
2170	0.154641	0.190142	0.198689	0.201812	0.197867	0.168118	0.210194	0.201483
2171	0.154312	0.187677	0.20362	0.199675	0.196717	0.169762	0.208879	0.205099
2172	0.154148	0.187677	0.202305	0.201976	0.196552	0.169926	0.209701	0.202469
2173	0.154148	0.188499	0.198524	0.20099	0.197538	0.170584	0.202962	0.203948
2174	0.15234	0.189978	0.20362	0.199839	0.198689	0.169105	0.208386	0.207071
2175	0.15119	0.1908	0.199511	0.199839	0.201154	0.172227	0.204934	0.203948
2176	0.14593	0.194416	0.201976	0.197538	0.196223	0.172556	0.209865	0.204277
2177	0.141821	0.192115	0.197867	0.198853	0.200825	0.176829	0.205427	0.205263
2178	0.134261	0.191128	0.205427	0.198524	0.198853	0.174857	0.210029	0.20362
2179	0.12292	0.192936	0.20362	0.201483	0.196059	0.177815	0.210358	0.206414
2180	0.104019	0.194251	0.197045	0.201319	0.195237	0.178637	0.20855	0.205263
2181	0.105992	0.196717	0.195895	0.200825	0.198853	0.179623	0.208386	0.199182
2182	0.093007	0.190307	0.206907	0.199839	0.197374	0.18176	0.206578	0.202962
2183	0.086762	0.194744	0.196388	0.201812	0.200004	0.183897	0.211673	0.205921
2184	0.081831	0.193922	0.201812	0.199675	0.198196	0.182746	0.206414	0.199839
2185	0.077886	0.194087	0.200168	0.201319	0.195073	0.183239	0.207893	0.203455
2186	0.074106	0.192279	0.20362	0.201319	0.201647	0.185047	0.20855	0.204441
2187	0.073284	0.195895	0.199018	0.204441	0.197538	0.189814	0.206907	0.20099
2188	0.073449	0.1908	0.199182	0.202633	0.201319	0.186362	0.205592	0.205263
2189	0.069997	0.194087	0.200825	0.201812	0.199839	0.18554	0.208222	0.202798
2190	0.072298	0.194251	0.200332	0.204606	0.199511	0.186362	0.204934	0.201812
2191	0.071805	0.19573	0.20099	0.201154	0.200661	0.185869	0.207893	0.204277
2192	0.080845	0.193758	0.199346	0.200661	0.196881	0.188827	0.206742	0.206249
2193	0.079366	0.193429	0.200497	0.196717	0.197045	0.187677	0.20855	0.203126
2194	0.081995	0.192443	0.19836	0.200168	0.198524	0.188334	0.207728	0.206907
2195	0.087255	0.193429	0.201812	0.200825	0.20099	0.18439	0.208222	0.204934
2196	0.086597	0.194251	0.201647	0.196059	0.201483	0.184061	0.208715	0.206085
2197	0.083475	0.194744	0.197867	0.199675	0.197867	0.1908	0.205592	0.202469
2198	0.081831	0.196881	0.200004	0.201647	0.201154	0.189649	0.2074	0.204113
2199	0.07953	0.193594	0.199018	0.199018	0.197538	0.188663	0.205921	0.204277
2200	0.081995	0.196223	0.199346	0.200332	0.198689	0.190635	0.203948	0.204277
2201	0.08594	0.194909	0.200004	0.1908	0.197538	0.191293	0.20477	0.202305
2202	0.078708	0.196881	0.199182	0.200661	0.199346	0.193265	0.206414	0.200497
2203	0.084296	0.194909	0.198853	0.203126	0.19836	0.193101	0.208879	0.200825
2204	0.089063	0.197045	0.201483	0.204277	0.199018	0.190635	0.203784	0.201647
2205	0.090871	0.195402	0.199839	0.200168	0.199182	0.192936	0.203455	0.202305
2206	0.094487	0.19836	0.203784	0.200825	0.204277	0.187184	0.205263	0.199018
2207	0.100896	0.19721	0.197867	0.202469	0.20099	0.190471	0.204441	0.200825
2208	0.104019	0.197045	0.200497	0.204606	0.203455	0.189649	0.204441	0.199346
2209	0.109114	0.194087	0.199511	0.199346	0.199182	0.192608	0.20362	0.204277
2210	0.110429	0.194251	0.203291	0.202469	0.201812	0.187841	0.205921	0.203455
2211	0.115031	0.193594	0.200004	0.201154	0.199182	0.191457	0.204277	0.20477
2212	0.117003	0.193758	0.202633	0.199511	0.200168	0.191128	0.210029	0.202962
2213	0.124235	0.201154	0.198853	0.200168	0.200332	0.194251	0.205099	0.204277
2214	0.125221	0.195402	0.200332	0.199346	0.201319	0.194416	0.210851	0.203784
2215	0.130316	0.196223	0.19836	0.201483	0.201319	0.194416	0.205099	0.201483
2216	0.128508	0.194416	0.201483	0.200661	0.19573	0.1908	0.208386	0.204277
2217	0.132617	0.194909	0.198031	0.202798	0.200661	0.191457	0.204113	0.202798
2218	0.13196	0.195237	0.200004	0.20099	0.19573	0.192772	0.203948	0.202633
2219	0.13837	0.199346	0.200332	0.20362	0.200004	0.195566	0.204441	0.203291
2220	0.138863	0.19721	0.196881	0.201319	0.199346	0.193594	0.203455	0.204113
2221	0.138534	0.200004	0.19836	0.201976	0.203291	0.191786	0.203455	0.202305
2222	0.146752	0.198196	0.197045	0.202305	0.20099	0.193594	0.200497	0.205263
2223	0.147738	0.199018	0.200004	0.20214	0.204277	0.193758	0.205592	0.200661
2224	0.151683	0.199675	0.200168	0.198524	0.201483	0.193922	0.200497	0.202469
2225	0.149875	0.196388	0.199346	0.20099	0.203784	0.190964	0.201976	0.200004
2226	0.157764	0.197374	0.20099	0.200497	0.203126	0.196717	0.203948	0.204441
2227	0.155627	0.193922	0.201483	0.198031	0.201483	0.196388	0.209701	0.202305
2228	0.157764	0.195237	0.19721	0.201647	0.203291	0.194909	0.201647	0.202962
2229	0.157107	0.196059	0.200497	0.198524	0.202469	0.194416	0.206414	0.203784
2230	0.159736	0.193922	0.19721	0.200661	0.202305	0.19573	0.205921	0.203126
2231	0.163516	0.194416	0.200332	0.201483	0.201483	0.195073	0.206907	0.206414
2232	0.166146	0.197703	0.19721	0.200661	0.203948	0.195402	0.203455	0.204441
2233	0.167132	0.196717	0.19836	0.201976	0.203784	0.195237	0.201483	0.205921
2234	0.169598	0.196881	0.198524	0.201812	0.203455	0.19836	0.20477	0.203784
2235	0.169598	0.195073	0.201647	0.202633	0.199018	0.200004	0.201483	0.205263
2236	0.167625	0.197538	0.196552	0.203784	0.200661	0.195073	0.202798	0.201976
2237	0.173542	0.197867	0.196717	0.200332	0.200332	0.194087	0.20099	0.203126
2238	0.171406	0.197867	0.200332	0.20362	0.202305	0.195402	0.207235	0.200168
2239	0.173707	0.194251	0.201647	0.202469	0.204934	0.19573	0.199675	0.209043
2240	0.172063	0.198031	0.202469	0.202305	0.202962	0.193101	0.203948	0.198853
2241	0.174857	0.193265	0.194909	0.19836	0.204277	0.196388	0.201154	0.195237
2242	0.173378	0.197703	0.198196	0.203126	0.202633	0.196717	0.201647	0.203784
2243	0.175515	0.196552	0.199675	0.195073	0.200497	0.195402	0.201976	0.204934
2244	0.173542	0.197703	0.19836	0.198689	0.202305	0.190635	0.203784	0.203455
2245	0.182417	0.196881	0.198524	0.199675	0.201976	0.198853	0.202305	0.202633
2246	0.178473	0.192772	0.201154	0.202962	0.202962	0.193594	0.203455	0.201154
2247	0.182417	0.19573	0.195566	0.198853	0.202305	0.196717	0.203291	0.202633
2248	0.183239	0.195402	0.203291	0.198196	0.201976	0.19458	0.203291	0.204606
2249	0.182417	0.195402	0.202305	0.203784	0.200004	0.189485	0.192443	0.203784
2250	0.182417	0.196552	0.201483	0.205099	0.201319	0.196059	0.201812	0.202798
2251	0.183732	0.19836	0.200332	0.202633	0.201647	0.196881	0.204113	0.202962
2252	0.182911	0.193594	0.199675	0.200497	0.20362	0.198196	0.200332	0.200332
2253	0.180938	0.200661	0.200004	0.207235	0.199182	0.193265	0.202469	0.200332
2254	0.183239	0.197045	0.199675	0.205099	0.202962	0.196388	0.201812	0.204606
2255	0.183404	0.200825	0.200661	0.205592	0.202305	0.193922	0.200661	0.199018
2256	0.182417	0.199018	0.202305	0.20214	0.194416	0.196223	0.200825	0.201483
2257	0.18554	0.198524	0.201319	0.205099	0.208057	0.195566	0.203948	0.201976
2258	0.18817	0.199018	0.200332	0.199839	0.202469	0.196717	0.200332	0.198689
2259	0.185869	0.201319	0.203126	0.204441	0.199346	0.196059	0.201647	0.200825
2260	0.187677	0.199018	0.202798	0.200004	0.200661	0.19573	0.199839	0.204606
2261	0.187677	0.196881	0.207235	0.198689	0.202469	0.192772	0.200497	0.204934
2262	0.189649	0.199346	0.201319	0.200497	0.201319	0.195237	0.199182	0.204113
2263	0.187513	0.196881	0.203126	0.199018	0.201976	0.194909	0.203455	0.203291
2264	0.189978	0.200004	0.199018	0.203126	0.20214	0.19458	0.202469	0.20362
2265	0.189814	0.198196	0.201154	0.200825	0.202633	0.19836	0.202469	0.202798
2266	0.191786	0.20099	0.200004	0.203455	0.196717	0.197045	0.199839	0.201647
2267	0.189485	0.195566	0.200661	0.207235	0.193758	0.20099	0.203291	0.204277
2268	0.191621	0.198196	0.200168	0.204113	0.202469	0.191786	0.20099	0.202962
2269	0.192443	0.19721	0.201483	0.196881	0.197538	0.195073	0.202633	0.201483
2270	0.192608	0.196223	0.203455	0.202798	0.20099	0.194909	0.200497	0.200332
2271	0.188827	0.199675	0.202305	0.199182	0.197867	0.19458	0.198689	0.199511
2272	0.18932	0.199675	0.202469	0.202305	0.203784	0.191621	0.198853	0.200004
2273	0.189978	0.19836	0.201483	0.200825	0.202469	0.197703	0.198196	0.198196
2274	0.195566	0.198524	0.205263	0.200497	0.207564	0.193101	0.200004	0.197045
2275	0.194087	0.201483	0.201483	0.199675	0.201812	0.19573	0.19836	0.198031
2276	0.190635	0.19836	0.205592	0.198853	0.204441	0.195566	0.202962	0.20214
2277	0.196059	0.201154	0.200004	0.195566	0.202798	0.197703	0.20214	0.202633
2278	0.193922	0.199018	0.201812	0.197703	0.201647	0.197538	0.206578	0.199839
2279	0.195073	0.199839	0.201483	0.198853	0.201154	0.198524	0.201647	0.205592
2280	0.190307	0.199182	0.204441	0.196223	0.199839	0.195566	0.201976	0.194909
2281	0.193265	0.199675	0.199346	0.199511	0.200332	0.196552	0.201483	0.192443
2282	0.196388	0.199182	0.199675	0.197703	0.196717	0.197867	0.205427	0.192279
2283	0.19836	0.20362	0.201483	0.196059	0.205427	0.194087	0.206249	0.187677
2284	0.19573	0.197538	0.201976	0.198031	0.201319	0.19721	0.200825	0.18554
2285	0.197374	0.20099	0.200168	0.199511	0.204277	0.194251	0.20362	0.179459
2286	0.197867	0.200168	0.203455	0.197538	0.200004	0.193101	0.201483	0.17913
2287	0.197374	0.202305	0.203126	0.201319	0.203455	0.196223	0.201976	0.161215
2288	0.201319	0.20477	0.199018	0.19721	0.199018	0.204277	0.205592	0.159243
2289	0.197538	0.201812	0.200004	0.19836	0.198853	0.197045	0.205263	0.15875
2290	0.198031	0.198031	0.199675	0.199018	0.20214	0.199346	0.201647	0.152505
2291	0.196717	0.199182	0.201812	0.198196	0.20362	0.196881	0.206249	0.157435
2292	0.199346	0.199018	0.19721	0.195402	0.198853	0.198031	0.201483	0.161051
2293	0.193594	0.198853	0.204934	0.193101	0.196717	0.197374	0.20362	0.157928
2294	0.202305	0.19836	0.198689	0.190471	0.201319	0.197374	0.204606	0.158914
2295	0.198031	0.197045	0.198196	0.192608	0.205427	0.193429	0.203455	0.151683
2296	0.196223	0.198689	0.201483	0.194251	0.20214	0.196059	0.203291	0.144944
2297	0.199511	0.201319	0.201647	0.192936	0.200332	0.193594	0.201483	0.128508
2298	0.200168	0.19836	0.198689	0.197374	0.197374	0.195402	0.204441	0.116182
2299	0.197867	0.194087	0.20214	0.196388	0.197045	0.19458	0.205592	0.114045
2300	0.197374	0.201154	0.202798	0.197867	0.199839	0.191128	0.205592	0.108786
2301	0.199018	0.197703	0.202798	0.197867	0.197538	0.196388	0.201319	0.107306
2302	0.199839	0.197867	0.20214	0.198031	0.200825	0.19573	0.200497	0.102704
2303	0.200661	0.197703	0.201976	0.201154	0.197538	0.196388	0.202469	0.105334
2304	0.198689	0.200004	0.204113	0.20099	0.200825	0.196059	0.204441	0.103691
2305	0.199182	0.197374	0.202798	0.194251	0.199675	0.199675	0.201647	0.103362
2306	0.198031	0.199511	0.204277	0.196717	0.200825	0.193429	0.198031	0.101883
2307	0.199346	0.198689	0.204113	0.199675	0.201483	0.196059	0.197538	0.107799
2308	0.197703	0.200004	0.205921	0.19836	0.204934	0.193101	0.201976	0.100732
2309	0.204606	0.202305	0.204934	0.195073	0.192279	0.197374	0.198689	0.094651
2310	0.196881	0.201483	0.205263	0.19836	0.196059	0.197538	0.200497	0.08331
2311	0.201812	0.201483	0.199511	0.197538	0.20099	0.19195	0.19836	0.08594
2312	0.195237	0.199182	0.209372	0.198853	0.199675	0.19721	0.203948	0.080845
2313	0.201483	0.202305	0.204606	0.19721	0.199346	0.196552	0.201812	0.083803
2314	0.199511	0.196552	0.20477	0.193758	0.19836	0.1908	0.204441	0.085611
2315	0.197867	0.197538	0.205921	0.201647	0.198196	0.19573	0.201483	0.087748
2316	0.195402	0.196223	0.206414	0.197538	0.200497	0.197538	0.204113	0.09235
2317	0.199182	0.198196	0.206414	0.198031	0.196552	0.197045	0.201812	0.093829
2318	0.193265	0.196552	0.203948	0.197703	0.200332	0.195237	0.20099	0.101718
2319	0.200168	0.198196	0.205263	0.200168	0.200661	0.195895	0.202633	0.10139
2320	0.203126	0.200332	0.202962	0.196552	0.198853	0.198031	0.201154	0.102869
2321	0.197045	0.199839	0.20362	0.200497	0.199346	0.196388	0.201976	0.10632
2322	0.201976	0.194744	0.205263	0.19721	0.197703	0.193265	0.195566	0.106978
2323	0.200825	0.198524	0.203948	0.203126	0.198689	0.195237	0.202469	0.106156
2324	0.199839	0.19836	0.20855	0.197538	0.198689	0.201483	0.199839	0.114374
2325	0.199182	0.199675	0.203948	0.195402	0.200825	0.198031	0.20099	0.10895
2326	0.202798	0.200332	0.205756	0.194909	0.201812	0.196388	0.199839	0.109936
2327	0.199018	0.198196	0.204113	0.195237	0.199839	0.195895	0.200825	0.110758
2328	0.199675	0.198031	0.209208	0.196223	0.20099	0.19836	0.19836	0.109607
2329	0.203455	0.203455	0.207893	0.195566	0.198524	0.196717	0.207235	0.110758
2330	0.200497	0.198524	0.204606	0.19836	0.199182	0.199018	0.201812	0.109607
2331	0.201812	0.199182	0.205756	0.195895	0.196388	0.196881	0.203948	0.113388
2332	0.201319	0.199511	0.203784	0.197703	0.196223	0.195237	0.202798	0.114867
2333	0.201154	0.199675	0.211016	0.196717	0.196552	0.197045	0.205427	0.116346
2334	0.203291	0.201154	0.206414	0.194744	0.199182	0.192115	0.206085	0.114374
2335	0.200661	0.19721	0.20477	0.197045	0.196388	0.19836	0.203784	0.118154
2336	0.20214	0.199346	0.205427	0.197703	0.200168	0.197703	0.205756	0.09235
2337	0.201976	0.197867	0.205592	0.195402	0.197045	0.202962	0.203126	0.098431
2338	0.201154	0.198853	0.205099	0.197703	0.196223	0.198689	0.20477	0.098102
2339	0.202798	0.200661	0.20362	0.196059	0.196717	0.198196	0.202962	0.09876
2340	0.199675	0.201647	0.208057	0.198689	0.199018	0.197374	0.201976	0.094815
2341	0.20214	0.201812	0.205099	0.196388	0.198524	0.200168	0.202305	0.090706
2342	0.199839	0.201483	0.205756	0.197045	0.197867	0.199018	0.203291	0.078544
2343	0.200661	0.201976	0.202305	0.196552	0.194744	0.201812	0.201319	0.066546
2344	0.20099	0.200661	0.206578	0.192115	0.198524	0.195402	0.203291	0.054548
2345	0.206085	0.201976	0.198524	0.196717	0.199839	0.20099	0.202798	0.038934
2346	0.20214	0.203126	0.204277	0.192772	0.195566	0.199182	0.202962	0.027265
2347	0.20214	0.20099	0.201812	0.192443	0.197703	0.200168	0.202962	0.01428
2348	0.201483	0.199346	0.200332	0.193429	0.196388	0.194416	0.204277	0.006556
2349	0.202798	0.203126	0.197867	0.193758	0.194087	0.198031	0.201812	0.006062
2350	0.204934	0.203126	0.206578	0.193758	0.191621	0.19721	0.199018	0.003926
2351	0.201647	0.201812	0.20362	0.194416	0.19573	0.196388	0.201812	-0.000347
2352	0.198524	0.196717	0.202798	0.197374	0.192772	0.200168	0.201812	0.006884
2353	0.199675	0.199346	0.201976	0.200661	0.199018	0.197045	0.204277	-0.000841
2354	0.19573	0.198853	0.203948	0.194416	0.196388	0.200168	0.196881	0.008857
2355	0.196881	0.199839	0.203291	0.194416	0.195073	0.193429	0.199018	0.003926
2356	0.197703	0.200497	0.20214	0.194909	0.19573	0.203455	0.202633	0.000639
2357	0.19573	0.201647	0.200004	0.195237	0.199346	0.197374	0.203126	0.00294
2358	0.196388	0.199346	0.200168	0.194251	0.19573	0.196223	0.203784	-0.000512
2359	0.194251	0.204113	0.202633	0.193101	0.195237	0.193922	0.20362	0.000474
2360	0.196717	0.202962	0.200004	0.195073	0.193429	0.195895	0.200168	0.005241
2361	0.193922	0.200332	0.202305	0.19573	0.198689	0.193594	0.199675	0.005898
2362	0.198196	0.202633	0.198524	0.193101	0.197045	0.193758	0.198524	0.006556
2363	0.193429	0.200661	0.205921	0.19573	0.196717	0.196552	0.201319	0.009678
2364	0.195402	0.202962	0.19836	0.194909	0.197045	0.193265	0.199018	0.013952
2365	0.192443	0.198689	0.206578	0.194416	0.195402	0.196059	0.197867	0.017074
2366	0.194087	0.200168	0.202633	0.19573	0.194909	0.190964	0.199675	0.01691
2367	0.194909	0.196881	0.201483	0.202962	0.193922	0.19458	0.197374	0.013294
2368	0.194909	0.204277	0.20214	0.194416	0.197045	0.196059	0.202305	0.013952
2369	0.190964	0.199346	0.202962	0.195237	0.1908	0.194744	0.197703	0.014609
2370	0.196717	0.196388	0.203455	0.196717	0.19573	0.195237	0.20099	0.015102
2371	0.195073	0.196552	0.203291	0.195237	0.194744	0.193594	0.199018	0.018225
2372	0.194909	0.198196	0.200332	0.199839	0.196881	0.19573	0.196059	0.019375
2373	0.198853	0.198524	0.20362	0.191786	0.197703	0.196223	0.196717	0.026114
2374	0.196059	0.201976	0.204606	0.197867	0.199018	0.192772	0.197538	0.025292
2375	0.198689	0.203291	0.198031	0.197374	0.198031	0.196552	0.192279	0.036962
2376	0.19721	0.203291	0.202798	0.199018	0.202305	0.192279	0.196717	0.039427
2377	0.200497	0.20362	0.203126	0.189814	0.198853	0.192443	0.192443	0.046494
2378	0.197867	0.202633	0.200661	0.189156	0.201812	0.194744	0.19458	0.050932
2379	0.197867	0.203291	0.199511	0.194416	0.198031	0.197867	0.191786	0.061779
2380	0.197374	0.200661	0.201154	0.195073	0.199018	0.195237	0.194909	0.064574
2381	0.198196	0.203126	0.201319	0.196388	0.198196	0.19458	0.196388	0.071148
2382	0.196717	0.199675	0.203784	0.193758	0.195073	0.196552	0.196717	0.076736
2383	0.203291	0.201812	0.198689	0.19573	0.199839	0.194909	0.19721	0.080187
2384	0.196717	0.19836	0.199511	0.193922	0.19836	0.196388	0.201483	0.084625
2385	0.197703	0.199511	0.202962	0.197867	0.200332	0.19836	0.196552	0.088241
2386	0.194909	0.198689	0.200497	0.196552	0.198689	0.197703	0.199182	0.095144
2387	0.197703	0.202469	0.200004	0.19721	0.200004	0.197867	0.20099	0.096294
2388	0.200332	0.200004	0.200004	0.195402	0.195895	0.197538	0.197374	0.102869
2389	0.199839	0.200825	0.200004	0.196388	0.197538	0.196223	0.200825	0.106156
2390	0.200332	0.201483	0.199675	0.194251	0.202633	0.202962	0.197867	0.108786
2391	0.199182	0.205099	0.198689	0.19573	0.199511	0.197703	0.200661	0.104348
2392	0.198853	0.198853	0.199182	0.197703	0.197703	0.199346	0.198689	0.112401
2393	0.199839	0.203291	0.201812	0.19721	0.199018	0.198524	0.201647	0.111908
2394	0.198031	0.202798	0.199346	0.200661	0.200497	0.19721	0.197703	0.111415
2395	0.197703	0.201154	0.19721	0.195073	0.200825	0.197045	0.199346	0.109772
2396	0.200004	0.200497	0.200168	0.197538	0.202305	0.196059	0.199182	0.109772
2397	0.198689	0.201483	0.199182	0.195237	0.198689	0.196059	0.199675	0.110758
2398	0.197867	0.201812	0.196552	0.195073	0.199511	0.193922	0.201647	0.11158
2399	0.198689	0.200497	0.199675	0.190964	0.195566	0.190142	0.198853	0.111251
2400	0.196717	0.204606	0.195566	0.19721	0.20099	0.197867	0.20099	0.109114
2401	0.197538	0.199346	0.201976	0.189156	0.198689	0.197045	0.205592	0.110593
2402	0.199675	0.197538	0.201647	0.193429	0.196223	0.196881	0.203948	0.10632
2403	0.201483	0.197703	0.19721	0.191457	0.198031	0.198031	0.200497	0.108128
2404	0.19721	0.199182	0.204277	0.194251	0.199018	0.199346	0.207235	0.115853
2405	0.199346	0.198853	0.199675	0.191621	0.200168	0.196717	0.203126	0.110922
2406	0.197703	0.201812	0.20099	0.199346	0.198031	0.19458	0.204441	0.106485
2407	0.203455	0.199018	0.199018	0.197045	0.199346	0.19721	0.200168	0.105827
2408	0.200004	0.197867	0.196717	0.194251	0.19836	0.195237	0.203784	0.102211
2409	0.200825	0.20099	0.195402	0.194909	0.196717	0.200168	0.201319	0.093336
2410	0.199839	0.201976	0.197538	0.194909	0.196223	0.193101	0.200332	0.091692
2411	0.197867	0.205263	0.196881	0.19458	0.197538	0.201647	0.199346	0.097774
2412	0.19836	0.203291	0.194909	0.19458	0.196388	0.196388	0.200661	0.102211
2413	0.200004	0.202962	0.193101	0.192279	0.198524	0.195073	0.203784	0.100403
2414	0.199018	0.199018	0.198689	0.190307	0.197045	0.19721	0.202469	0.107306
2415	0.199018	0.200661	0.196388	0.191786	0.196223	0.200168	0.207071	0.108128
2416	0.193922	0.199839	0.197867	0.190307	0.196059	0.194744	0.202633	0.109443
2417	0.201154	0.200004	0.19721	0.194416	0.196059	0.192772	0.20362	0.108786
2418	0.196059	0.195895	0.192115	0.1908	0.195073	0.195237	0.202962	0.103691
2419	0.1908	0.19721	0.195566	0.193758	0.192115	0.19721	0.204934	0.09498
2420	0.1908	0.195895	0.193922	0.193922	0.193101	0.196223	0.20214	0.097281
2421	0.190964	0.199018	0.197045	0.191293	0.194744	0.19195	0.202962	0.10254
2422	0.181924	0.196223	0.191457	0.193922	0.194909	0.19836	0.201647	0.106156
2423	0.164338	0.189814	0.194744	0.198853	0.19721	0.195402	0.204606	0.106156
2424	0.167625	0.200004	0.193758	0.191786	0.194909	0.196223	0.200004	0.111087
2425	0.161709	0.201812	0.197045	0.194416	0.198853	0.196223	0.203784	0.112073
2426	0.155299	0.199839	0.194909	0.195566	0.196388	0.200661	0.192936	0.11914
2427	0.147738	0.200004	0.194909	0.196388	0.199346	0.194087	0.20477	0.118483
2428	0.132289	0.200497	0.189814	0.194087	0.197867	0.196717	0.204277	0.121277
2429	0.111087	0.19458	0.192115	0.191293	0.197045	0.194744	0.202469	0.013952
2430	0.10254	0.204277	0.191621	0.194087	0.200661	0.196223	0.202305	0.022827
2431	0.089556	0.200004	0.194744	0.190471	0.201812	0.195402	0.204113	0.031209
2432	0.081995	0.201812	0.19195	0.192608	0.197703	0.193758	0.20362	0.039591
2433	0.070162	0.198689	0.19573	0.191786	0.197045	0.196717	0.201812	0.041728
2434	0.057835	0.198031	0.193101	0.199346	0.197703	0.198853	0.205921	0.049288
2435	0.052411	0.196223	0.199182	0.190471	0.195402	0.200497	0.203455	0.054548
2436	0.047645	0.201647	0.196552	0.19573	0.198196	0.197045	0.206249	0.057177
2437	0.04633	0.196388	0.195073	0.191457	0.194416	0.191128	0.204277	0.064902
2438	0.043536	0.201154	0.196388	0.194251	0.200004	0.193429	0.205427	0.067039
2439	0.045179	0.197374	0.194909	0.193594	0.194416	0.198853	0.204441	0.077558
2440	0.044358	0.196223	0.193758	0.193265	0.198689	0.195566	0.202962	0.077558
2441	0.045015	0.199675	0.192443	0.19458	0.19721	0.198031	0.206414	0.080681
2442	0.046001	0.200004	0.191457	0.194251	0.196223	0.19458	0.203291	0.080516
2443	0.051589	0.202469	0.189978	0.194744	0.197538	0.197703	0.202305	0.084954
2444	0.050932	0.195073	0.193594	0.195073	0.20099	0.19573	0.209208	0.087912
2445	0.0603	0.201812	0.189814	0.19836	0.199018	0.197374	0.202305	0.094815
2446	0.058164	0.195566	0.193101	0.19195	0.199346	0.196223	0.206249	0.0935
2447	0.07197	0.199346	0.194416	0.192936	0.198031	0.197045	0.205427	0.092843
2448	0.063916	0.193922	0.196717	0.193429	0.197045	0.192608	0.205921	0.099417
2449	0.068682	0.200825	0.19573	0.194416	0.198524	0.193922	0.203291	0.100239
2450	0.072298	0.19721	0.19573	0.197703	0.197045	0.193758	0.211509	0.10254
2451	0.067203	0.192279	0.195237	0.193922	0.199675	0.194251	0.208057	0.102869
2452	0.067696	0.194251	0.196717	0.193594	0.199839	0.197374	0.203784	0.105992
2453	0.068682	0.197538	0.196223	0.194744	0.200825	0.193594	0.208715	0.098431
2454	0.076407	0.195237	0.193101	0.193594	0.196223	0.195073	0.207728	0.104841
2455	0.080516	0.196059	0.192279	0.195566	0.201319	0.199018	0.208222	0.105663
2456	0.086433	0.196881	0.198031	0.195073	0.196059	0.19458	0.203784	0.10895
2457	0.091364	0.197374	0.190471	0.199182	0.199018	0.194744	0.206578	0.104184
2458	0.086926	0.196388	0.191621	0.193101	0.200497	0.196881	0.20477	0.103362
2459	0.093993	0.19721	0.196223	0.195237	0.19721	0.194909	0.205592	0.100403
2460	0.100403	0.195237	0.195237	0.198196	0.199511	0.194251	0.202962	0.09613
2461	0.104019	0.194909	0.193265	0.194744	0.199018	0.194744	0.207235	0.090871
2462	0.109114	0.197374	0.194744	0.195073	0.198853	0.195237	0.206414	0.086926
2463	0.110429	0.196223	0.195402	0.197703	0.198689	0.193265	0.206907	0.087912
2464	0.112401	0.197374	0.192936	0.195895	0.201319	0.192115	0.206249	0.093336
2465	0.120291	0.193594	0.194909	0.195073	0.19721	0.194416	0.206742	0.068518
2466	0.118976	0.194087	0.195895	0.197867	0.198196	0.197045	0.210194	0.073449
2467	0.120291	0.190307	0.196223	0.19573	0.194744	0.196552	0.207728	0.06934
2468	0.120784	0.192772	0.199018	0.197045	0.19836	0.188827	0.210029	0.079037
2469	0.125386	0.193758	0.195073	0.192608	0.19836	0.192936	0.209372	0.091035
2470	0.124071	0.194744	0.197374	0.194909	0.195895	0.195237	0.209865	0.087419
2471	0.129495	0.191457	0.194416	0.193429	0.196388	0.193429	0.207728	0.094651
2472	0.135411	0.192608	0.193922	0.195402	0.197867	0.193101	0.207728	0.097445
2473	0.135083	0.194087	0.195402	0.194909	0.198031	0.193922	0.206578	0.101883
2474	0.138205	0.196717	0.194744	0.196059	0.196717	0.194744	0.207564	0.104348
2475	0.140835	0.198524	0.193429	0.196223	0.204934	0.193101	0.20477	0.106978
2476	0.140835	0.19573	0.197374	0.197374	0.19573	0.191457	0.209372	0.110593
2477	0.139356	0.195402	0.1908	0.195073	0.199182	0.197374	0.205756	0.114538
2478	0.132289	0.192608	0.188499	0.193594	0.198031	0.194909	0.211509	0.115195
2479	0.130645	0.200661	0.194744	0.191621	0.19721	0.193429	0.20855	0.116182
2480	0.122592	0.192115	0.192443	0.193101	0.197045	0.193429	0.208386	0.119469
2481	0.125057	0.194251	0.193922	0.191128	0.201483	0.193758	0.209701	0.123085
2482	0.116839	0.192115	0.195566	0.19458	0.200497	0.196717	0.21233	0.127029
2483	0.103362	0.192772	0.196059	0.196717	0.200332	0.195566	0.209208	0.131138
2484	0.095637	0.191457	0.201319	0.190142	0.195073	0.192115	0.20855	0.134097
2485	0.07838	0.199018	0.199018	0.198689	0.199182	0.189814	0.205756	0.136726
2486	0.061122	0.194744	0.199346	0.1908	0.18554	0.191457	0.211016	0.137877
2487	0.037126	0.194087	0.194416	0.196717	0.196059	0.188006	0.209043	0.137219
2488	0.024635	0.194251	0.195073	0.193758	0.19573	0.194744	0.209865	0.141164
2489	0.005734	0.194087	0.19573	0.193101	0.200332	0.188992	0.212495	0.141328
2490	0.002447	0.19573	0.195566	0.197045	0.195895	0.191128	0.208879	0.140178
2491	-1.9e-05	0.194251	0.194087	0.19573	0.196059	0.191621	0.209701	0.140671
2492	0.003268	0.193429	0.195237	0.19721	0.201812	0.191457	0.208222	0.143629
2493	0.004255	0.19458	0.19458	0.192772	0.200661	0.190635	0.21118	0.144615
2494	0.001625	0.188663	0.19458	0.191293	0.199511	0.190142	0.207235	0.147903
2495	0.00409	0.19458	0.197045	0.194744	0.198853	0.188663	0.208057	0.14593
2496	-1.9e-05	0.193429	0.193758	0.197538	0.199182	0.188499	0.210687	0.150861
2497	0.001789	0.194416	0.194087	0.195237	0.197045	0.18554	0.208057	0.150368
2498	0.003268	0.191621	0.195237	0.198031	0.200004	0.185376	0.20362	0.146423
2499	-0.001498	0.189156	0.199018	0.196388	0.19573	0.02069	0.209701	0.150368
