Ladekurvenmessung
Zeit: 2018_05_04 09.52.40
Info: FVA3, v = 0.1, T = 23, F = 20, h = 10.2
Ladewiderstand[Ohm]: 1012700
Störkapazität[pF]: 0.000000
Entladezeit[ms]: 200
Abtastrate[Hz]: 250000
Anzahl der Messwerte: 2500.000000
Verzögerung[ms]: 3
Ladespannung[V]: 0.200000
	Kurve_1	Kurve_2	Kurve_3	Kurve_4	Kurve_5
0	-0.001662	-0.007579	0.001789	-0.000347	-1.9e-05
1	0.00294	-0.004128	0.000639	-0.000512	-1.9e-05
2	-0.000347	-0.009716	0.001789	-0.000347	-0.000512
3	0.003433	-0.001169	-0.001498	-0.000512	-0.000512
4	0.001954	-0.000183	0.001132	-1.9e-05	-0.000347
5	0.000639	-0.00232	-0.002977	0.000146	-0.000347
6	0.00031	-0.005278	-0.001662	0.000146	-1.9e-05
7	-0.000841	-0.002155	-0.000512	0.00031	0.00031
8	0.000146	-0.005114	0.000639	0.000474	0.00031
9	0.000967	-0.006264	0.000474	0.00031	0.000474
10	0.003597	-0.004949	-0.000841	-0.000183	0.00031
11	0.00031	-0.005771	0.001132	-0.000183	0.000146
12	0.001132	-0.001334	-0.001498	-0.000512	-0.000183
13	-0.001334	-0.005114	0.001954	-0.000347	-0.000183
14	0.000639	-0.006593	-0.000676	-0.000183	-0.000347
15	-0.000512	-0.008565	-0.000183	0.000146	-0.000512
16	0.002447	-0.006922	0.000967	-1.9e-05	-0.000183
17	-0.003306	-0.008565	0.00031	0.000146	0.000146
18	0.001954	-0.00725	0.000146	0.000146	0.000146
19	0.000146	-0.012181	0.001296	0.000474	0.00031
20	0.00146	-0.007579	-0.002813	0.00031	0.00031
21	0.00294	-0.007579	-0.001498	-0.000183	0.000146
22	0.00294	-0.006264	-0.001991	-0.000183	-0.000183
23	0.00409	-0.006429	-0.004292	-0.000347	0.000146
24	-0.001827	-0.009058	-0.000841	-0.000183	-0.000347
25	-0.001662	-0.005771	-0.001662	-0.000183	-0.000183
26	-0.001827	-0.007908	0.000146	0.00031	-0.000347
27	0.002118	-0.004128	-0.003142	0.000146	-0.000183
28	-0.004128	-0.0061	-0.001005	0.000146	0.000146
29	0.000146	-0.007908	-0.000512	0.000146	-1.9e-05
30	-1.9e-05	-0.005443	-0.001005	0.000474	0.00031
31	-0.005607	-0.00347	0.000146	-1.9e-05	0.000474
32	-0.001991	-0.008401	0.000967	-1.9e-05	0.000474
33	0.000967	-0.007908	-0.001005	-0.000183	-1.9e-05
34	-0.001498	-0.00988	0.000639	-0.000347	-0.000512
35	0.001789	-0.006593	-0.001005	-0.000347	-0.000183
36	-1.9e-05	-0.008237	0.003926	-0.000183	-0.000512
37	0.000639	-0.007415	-0.004292	-1.9e-05	-0.000512
38	0.00031	-0.001991	-0.000676	0.00031	-0.000183
39	-0.002155	-0.005443	0.002118	0.00031	0.000146
40	-0.002155	-0.00725	-0.001498	0.00031	0.000474
41	-0.001334	-0.005936	0.001132	0.000474	0.000474
42	-0.002813	-0.00347	-0.003635	0.00031	0.00031
43	0.000146	-0.007744	-0.001662	-0.000183	0.000639
44	0.002282	-0.006593	-0.004128	-0.000183	0.000146
45	-0.001662	-0.0061	-0.002484	-0.000512	-0.000183
46	-0.001827	-0.006593	-0.000841	-0.000512	-0.000347
47	0.002775	-0.005607	-0.001169	-0.000512	-0.000347
48	0.000639	-0.005936	-0.001827	0.00031	-0.000347
49	-0.000183	-0.007908	0.001132	0.000146	-0.000183
50	0.00031	-0.005936	-0.000183	0.00031	0.000146
51	-0.000676	-0.007908	-0.000347	0.00031	-1.9e-05
52	0.001296	-0.008237	0.00146	0.00031	0.00031
53	-0.000347	-0.0061	-0.004621	0.00031	0.00031
54	-1.9e-05	-0.002648	-0.002155	-0.000183	0.000474
55	0.000803	-0.001662	-0.000841	-0.000347	0.000146
56	-0.000183	-0.009058	-0.003142	-0.000512	-1.9e-05
57	-0.001169	-0.009058	-0.002813	-0.000512	-0.000512
58	-0.000512	-0.006922	-0.004456	-1.9e-05	-0.000183
59	-0.001169	-0.004785	-0.004456	0.000146	-0.000676
60	0.001789	-0.006757	-0.001827	0.000146	-0.000347
61	-0.000347	-0.004292	-0.00347	0.00031	0.000146
62	-0.002484	-0.005114	-0.001662	0.00031	0.000146
63	0.000146	-0.007744	-0.001498	0.000474	0.000474
64	-0.002484	-0.008072	-0.00347	0.00031	0.000474
65	-0.001005	-0.006264	-0.001498	-0.000183	0.000474
66	-0.002813	-0.008401	0.002611	-0.000183	0.000146
67	-0.001498	-0.00725	-0.00232	-0.000183	-0.000183
68	-0.001005	-0.008237	0.001296	-0.000512	-0.000183
69	0.001296	-0.007086	0.00031	-0.000512	-0.000512
70	0.000639	-0.006429	-0.001991	-1.9e-05	-0.000512
71	0.00409	-0.008565	-0.001169	0.00031	-0.000183
72	-0.001005	-0.005114	-0.002813	0.000474	-1.9e-05
73	-0.002813	-0.007744	-0.002813	0.000474	0.00031
74	-0.001498	-0.00725	0.001789	0.000146	0.00031
75	-0.001334	-0.002648	-0.005771	0.00031	0.00031
76	-0.001991	-0.006593	-0.003142	-0.000183	0.000474
77	-0.001169	-0.007744	-0.000512	-0.000512	-1.9e-05
78	-0.000183	-0.004128	-0.005607	-0.000183	-0.000183
79	-0.001991	-0.007415	-0.002648	-0.000347	-0.000183
80	0.001789	-0.007579	-0.003142	-0.000183	-0.000512
81	-0.00347	-0.005936	-0.000841	-0.000183	-0.000512
82	0.001296	-0.005936	-0.000841	0.000146	-0.000183
83	-0.003142	-0.007908	0.000474	0.000146	-1.9e-05
84	-0.000512	-0.007744	-0.000841	-1.9e-05	0.00031
85	-0.000512	-0.007744	-0.000512	0.00031	0.00031
86	0.00409	-0.008072	-0.001334	0.000474	0.000474
87	-0.000676	-0.006922	-0.007086	-0.000183	0.000474
88	-0.000676	-0.00725	0.002118	-0.000183	0.000146
89	0.003433	-0.003799	0.000967	-0.000347	-0.000183
90	-0.000676	-0.007415	-0.002648	-0.000512	-0.000347
91	0.000967	-0.007744	-0.002484	-0.000347	-0.000347
92	0.000967	-0.007908	0.002611	0.000146	-0.000512
93	0.002775	-0.005771	-0.002648	0.000474	-0.000183
94	-0.002648	-0.006922	-0.003635	0.000474	0.000146
95	-0.000841	-0.000347	-0.003306	0.000474	0.000146
96	-0.003142	-0.005771	-0.002155	0.000474	0.00031
97	-0.001498	-0.005607	-0.004785	0.000146	0.00031
98	-0.003963	-0.005607	-0.003306	-0.000183	0.000146
99	-0.002648	-0.006757	-0.000347	-0.000347	-1.9e-05
100	-0.001169	-0.005443	-0.000512	-0.000347	-0.000183
101	-0.000183	-0.007579	-0.000183	-0.000347	-0.000183
102	0.000803	-0.005607	0.000146	-0.000183	-0.000183
103	0.000474	-0.007415	-0.001827	-1.9e-05	-0.000347
104	0.002447	-0.001169	-0.002155	0.00031	-0.000183
105	-0.001169	-0.006757	-0.000512	0.000639	-1.9e-05
106	-0.000676	-0.004949	-0.003306	0.000474	0.000474
107	-0.001005	-0.007579	-0.003142	0.000474	0.00031
108	0.000639	-0.007086	-0.001498	0.00031	0.00031
109	-0.004128	-0.00725	-0.001005	-0.000183	0.000474
110	-0.004621	-0.005114	-0.004621	-0.000183	-1.9e-05
111	-0.001498	-0.006757	-0.001662	-0.000841	-0.000183
112	-0.001005	-0.0061	-0.003799	-0.000347	-0.000347
113	-0.003963	-0.008072	-0.004292	-0.001334	-0.000347
114	-0.002484	-0.006429	-0.000512	-1.9e-05	-0.000347
115	-0.001005	-0.003799	-0.001334	-1.9e-05	-0.000183
116	-0.002977	-0.008072	0.00146	0.00031	0.000146
117	-0.000841	-0.003963	-0.001991	0.000474	0.000146
118	-0.003963	-0.007744	-0.00232	0.000474	0.000474
119	0.001296	-0.006429	-0.001498	0.000146	0.000146
120	-0.001005	-0.008237	-0.000841	0.000967	0.00031
121	-0.000512	-0.00725	-0.001498	0.00031	0.00031
122	-1.9e-05	-0.00873	0.00031	-0.001169	-1.9e-05
123	-0.001991	-0.0061	-0.003306	0.00146	-0.000676
124	-0.004456	-0.007908	-0.001169	0.000146	-0.000347
125	0.000146	-0.007415	-0.002484	0.003104	-0.000676
126	-0.001169	-0.005936	-0.004456	-0.000183	-0.000183
127	-1.9e-05	-0.004292	-0.004456	0.000146	0.000146
128	0.00031	-0.00232	-0.002155	0.001296	0.00031
129	0.002118	-0.005936	-0.009716	-0.003142	0.00031
130	-0.000347	-0.0061	-0.005443	-0.003142	0.000474
131	-0.001169	-0.004785	-0.001169	-0.000512	0.00031
132	-0.002813	-0.001498	-0.007086	0.003104	0.000146
133	-0.001169	-0.00873	-0.002813	-0.002155	-0.000183
134	0.000967	-0.005114	-0.002977	-1.9e-05	-0.000183
135	-0.001498	-0.004621	-0.002813	0.001132	-0.000183
136	-1.9e-05	-0.005443	-0.001827	0.00031	-0.000512
137	-0.001498	-0.007086	-1.9e-05	-0.000841	-0.000347
138	-0.001498	-0.005114	-0.001498	0.000474	0.000146
139	-0.003306	-0.006922	-0.000512	-0.000183	0.00031
140	-0.000841	-0.007086	-0.001827	-0.001005	0.000639
141	-0.001498	-0.006429	-0.002977	-0.007415	0.000474
142	-0.001334	-0.0061	0.000474	0.005898	0.000474
143	-0.002155	-0.007415	-0.003306	-0.001662	0.000146
144	-0.000841	-0.006429	-0.002155	0.000146	-0.000183
145	-0.001005	-0.005607	-0.004949	-0.000183	-0.000512
146	-0.00232	-0.008072	-0.001498	0.000146	-0.000347
147	-0.00347	-0.00232	-0.002813	-0.004292	-0.000512
148	0.000146	-0.005443	-0.000676	-0.001498	-1.9e-05
149	-0.001991	-0.004949	-0.002977	-0.003963	0.00031
150	-0.001991	-0.005771	-0.002155	-0.001991	0.000146
151	-0.000512	-0.006922	-0.002155	-0.002977	0.00031
152	-0.002977	-0.006922	-0.004128	-0.004128	0.000146
153	0.000967	-0.005278	-0.001498	-0.000347	0.000474
154	-0.002648	-0.001334	-0.001005	-0.003142	0.00031
155	-0.000676	-0.005443	-0.003635	-0.000347	-0.000183
156	-0.000183	-0.007744	0.000474	-0.001169	-0.000512
157	0.00146	-0.005607	-0.000676	0.001789	-0.000512
158	-0.000676	-0.007744	-0.000183	-0.001334	-0.000512
159	0.003926	-0.006922	-0.000676	0.001132	-1.9e-05
160	-0.004456	-0.005936	-0.002484	0.001132	-1.9e-05
161	-0.002648	-0.007086	-0.00232	0.000474	0.000146
162	-0.000512	-0.006593	-0.003306	0.000639	0.00031
163	-0.003799	-0.006593	-0.002484	-0.001498	0.00031
164	-0.001005	-0.002155	-0.004128	-0.000676	0.00031
165	-0.004292	-0.004621	-0.002484	-0.003635	0.00031
166	0.000474	-0.007415	-0.004785	-0.001005	-1.9e-05
167	-0.000347	-0.004785	-0.002484	-0.00232	-0.000347
168	-0.000347	-0.005443	-0.005443	0.001954	-0.000512
169	-0.000347	-0.008894	-0.001169	-0.002813	-0.000512
170	0.005898	-0.00347	-0.00347	0.000639	-0.000183
171	-0.003142	-0.006429	-0.001005	-0.002155	0.000146
172	-0.000841	-0.005278	-0.002484	-0.000347	-1.9e-05
173	-0.001334	-0.007579	-0.000841	-0.000183	0.00031
174	0.001296	-0.0061	-0.001991	-0.000676	0.000639
175	0.001789	-0.006757	-0.007086	0.002611	0.000474
176	0.001296	-0.007744	-0.001662	0.001954	0.00031
177	0.001132	-0.003799	-0.003306	-0.000676	-0.000347
178	0.002775	-0.004949	-0.001662	0.001132	-0.000347
179	0.004583	-0.003306	-0.006593	-0.001498	-0.000512
180	-1.9e-05	-0.004785	-0.002155	-0.00347	-0.000512
181	0.006227	-0.005278	-0.002977	-0.000841	-0.000183
182	-0.000841	-0.004785	-0.002648	-0.002155	0.000146
183	0.000639	-0.005607	-0.004128	-1.9e-05	0.000146
184	-0.001991	-0.008237	-0.001827	-0.001498	0.00031
185	0.000474	-0.003306	-0.001991	-0.000347	0.00031
186	-0.001991	-0.00725	-0.003963	-0.001662	0.000474
187	-0.001662	-0.002977	-0.003142	0.002118	0.00031
188	0.002611	0.000639	-0.00232	-0.001498	-0.000183
189	-0.000347	-0.006593	0.000474	-0.001991	-0.000183
190	-0.002155	-0.004949	-1.9e-05	-0.001991	-0.000512
191	0.000639	-0.002813	0.001132	-0.002813	-0.000512
192	0.003104	-0.002813	-0.001827	0.001296	-0.000183
193	-0.000347	-0.007415	-0.002155	-0.000183	-1.9e-05
194	-0.000841	-0.003306	-0.003142	-0.000347	0.000146
195	0.002611	-0.005936	0.000474	0.000474	0.00031
196	-1.9e-05	-0.00347	-0.003799	-0.000183	0.000474
197	-1.9e-05	-0.005443	-0.002977	-0.002484	0.000474
198	-0.002484	-0.004292	-0.005771	-0.000512	0.000146
199	-1.9e-05	-0.004785	-0.001827	-0.003306	-1.9e-05
200	0.001132	-0.004621	-0.003963	0.002282	-0.000512
201	-1.9e-05	-0.004292	-0.002648	-0.004456	-0.000512
202	0.000639	-0.002155	-0.004949	-0.001662	-0.000512
203	0.003433	-0.003799	-0.001498	0.001132	-0.000347
204	-0.000841	-0.000512	-0.003799	0.000474	0.000146
205	-0.002155	0.00031	-0.002977	0.001132	0.000146
206	-0.001991	-0.004456	0.001132	-0.000512	0.000474
207	-0.000676	-0.002648	-0.002484	-0.001827	0.00031
208	0.000967	-0.004949	-0.000676	-1.9e-05	0.000474
209	-0.000676	-0.004621	-0.000841	0.000639	0.000146
210	0.003761	-0.004128	-0.001334	0.001625	-0.000183
211	0.004419	-0.005771	-0.001334	-0.000676	-0.000347
212	-0.001169	-0.004292	-0.002484	0.000146	-0.000512
213	0.000803	-0.003306	-0.001827	0.00031	-0.000512
214	0.004583	-0.003306	-0.001005	-0.002813	-0.000347
215	-0.003306	-0.005607	-0.00347	-0.001498	0.000146
216	-0.004292	-0.006593	0.00031	-0.000512	0.000474
217	-0.001498	-0.004785	0.000146	0.000146	0.000474
218	-0.001991	-0.006429	-0.001991	-0.000841	0.000474
219	0.003926	-0.004785	-0.002484	0.000474	0.000639
220	-0.005443	-0.003799	-0.002977	-0.001662	0.000146
221	0.000967	-0.001334	-0.001498	-0.001169	-0.000183
222	-0.001334	-0.005607	-0.00232	-0.001827	-0.000347
223	-0.003799	-0.005278	-0.002155	-0.000841	-0.000347
224	0.000967	-0.001991	-0.001005	-0.001169	-0.000512
225	0.008528	-0.006757	-0.002155	-0.001498	-0.000183
226	-0.001169	-0.006922	-0.004128	-0.000183	0.000146
227	0.000474	-0.006264	-0.000183	-0.001498	0.000803
228	0.000639	-0.003963	-0.001498	0.000639	0.001132
229	-0.001498	-0.006922	-0.001498	-0.001334	0.001625
230	0.000474	-0.004292	-0.006922	-0.001334	0.000639
231	-0.000347	-0.006429	0.003761	-0.003306	0.00031
232	0.00146	-0.0061	0.002447	0.00031	-0.000347
233	-0.001498	-0.007579	-0.000183	-0.003635	-0.000512
234	0.000146	-0.003142	-0.001334	0.00031	-0.000512
235	-0.000841	-0.007086	-0.000676	0.000803	-0.001005
236	0.003433	-0.004949	-0.001662	-0.000676	0.00031
237	-0.004128	-0.003142	-0.002484	-0.000841	-0.000841
238	-0.001334	-0.003963	-0.000512	-1.9e-05	0.00031
239	0.000146	-0.005114	0.000474	-1.9e-05	-0.001169
240	-0.001169	-0.008237	0.000146	-0.001991	-0.001662
241	-0.000676	-0.002648	-0.001991	0.002118	-0.000347
242	-0.000841	-0.005443	-0.003306	0.000474	0.000474
243	0.001132	-0.005443	0.000639	0.004255	-0.000183
244	0.00294	-0.00347	0.000474	-0.000512	-0.000841
245	-0.00232	-0.004128	-0.002813	0.000967	-0.000841
246	-0.000183	-0.007086	0.000803	-0.002155	-0.000676
247	0.003104	-0.005278	-0.002155	0.000803	0.001132
248	-0.00347	-0.005607	-0.002484	0.000803	-0.001662
249	0.001132	-0.006429	-0.000841	0.001625	0.002282
250	-0.000347	-0.004785	-0.001169	0.001132	-0.001334
251	0.000639	-0.006922	-0.007086	0.001132	-0.000841
252	0.001789	-0.003635	-0.006264	0.000474	0.002775
253	-0.002484	-0.002813	-0.001827	0.002282	0.000639
254	0.001954	-0.004292	-0.001334	-0.00232	0.002611
255	-0.001498	-0.004456	0.000639	0.000474	0.000803
256	-0.000183	-0.002813	-0.004785	0.001789	-0.002155
257	-0.001498	-0.00347	0.001296	-0.004785	0.000146
258	-0.001991	-0.002813	-0.001991	-0.001334	-1.9e-05
259	-0.004128	-0.006429	0.001296	-0.001334	0.000146
260	-0.002484	-0.001662	-0.005607	0.001296	-0.001827
261	-0.004292	-0.006429	0.002447	0.002118	-0.002813
262	0.001954	-0.003799	-0.003635	-0.001169	0.001132
263	-0.000512	-0.006922	-0.000183	-0.001005	-0.001169
264	-0.001991	-0.005443	-0.002155	0.000146	0.002611
265	0.000639	-0.008237	-0.001662	0.002118	0.001132
266	0.002118	-0.012181	-0.000512	0.004748	-0.000183
267	-0.000676	-0.0061	-0.003142	0.004419	-0.000183
268	0.001625	-0.006757	-0.000841	0.002118	-0.001498
269	-0.004785	-0.005607	-0.002155	0.002447	0.00146
270	-0.001827	-0.005771	-0.001498	0.001296	-0.002484
271	-0.001169	-0.004621	-0.000676	0.001954	0.001132
272	-0.000347	-0.005443	-0.000512	0.000967	0.000639
273	-0.000841	-0.004456	-0.002813	0.00031	0.002118
274	-0.000512	-0.006264	-0.000512	-0.000183	-0.001498
275	-0.000841	-0.004621	-0.002155	0.002118	0.001954
276	0.007049	-0.013167	0.000474	-0.001169	0.00409
277	0.001789	-0.005607	-0.002648	0.002611	0.00409
278	-0.002813	-0.0061	-0.003142	0.001625	-0.000347
279	0.000474	-0.005443	-0.001827	0.002775	-0.001005
280	-0.00988	-0.006264	-0.004292	0.000474	-0.000676
281	-0.001005	-0.00873	-0.002813	-0.001005	-0.000512
282	-0.000676	-0.005936	-0.005443	-0.000347	-0.001827
283	0.001296	-0.00873	-0.000183	0.002282	0.000639
284	-0.002648	-0.009058	-0.002648	0.000967	0.000474
285	0.001132	-0.006429	-0.001169	0.003433	0.000474
286	0.000474	-0.006429	-0.001662	0.003104	0.001132
287	0.002118	-0.008565	-0.000183	0.003597	-0.000841
288	0.005734	-0.008894	-0.001005	0.002775	-0.000512
289	0.002118	-0.008072	-0.000183	0.001132	-0.000183
290	0.002118	-0.003963	-0.002484	0.000474	-0.00232
291	-0.00988	-0.006264	0.002775	0.001132	-0.000512
292	-0.001005	-0.003963	-0.00232	0.005734	-0.000676
293	-0.001498	-0.003799	-0.001498	0.001296	-0.00347
294	0.000639	-0.006264	-0.001498	0.002611	0.00031
295	-0.001662	-0.004456	-0.002648	-0.000183	-0.001498
296	-0.00232	-0.006264	0.001296	-0.001991	-0.001005
297	-0.002155	-0.006429	-0.002648	0.002447	-0.000676
298	0.001954	-0.006757	-0.001827	0.002447	0.000146
299	-0.002648	-0.007415	0.000146	0.001954	0.000803
300	0.000639	-0.007908	-0.000512	0.004583	0.001132
301	0.00146	-0.007086	0.003761	-0.000841	0.001789
302	-0.011524	-0.005771	0.000967	0.003104	0.001296
303	-0.000676	-0.007579	0.001132	0.005076	-0.000676
304	-0.001498	-0.007908	0.001625	0.002611	0.00031
305	-0.000183	-0.003306	0.000639	0.003268	0.002447
306	-0.000676	-0.007579	0.000474	0.000967	-0.001662
307	0.00031	-0.004128	-0.002648	0.003268	0.000967
308	0.003761	-0.005607	0.000146	0.002611	-0.001991
309	0.000474	-0.004128	-0.001662	0.003268	0.005076
310	-0.00232	-0.005936	-0.004621	-0.000512	-0.00232
311	-0.000512	-0.005114	-0.001498	0.004255	-0.003306
312	-0.002813	-0.005278	-0.001662	-1.9e-05	-0.00232
313	-0.010702	-0.006264	-0.000183	-0.000347	-0.003963
314	-0.002648	-0.005114	-0.000512	0.005076	-0.002155
315	-0.001498	-0.008401	-0.001334	0.004748	0.001132
316	0.004419	-0.008894	-0.003142	0.008857	0.000146
317	0.001132	-0.006593	0.001789	0.00146	0.000474
318	0.003104	-0.006264	-0.003306	0.00672	0.000803
319	0.000146	-0.006429	0.000803	0.002447	0.000639
320	0.001296	-0.003635	-0.001827	0.005898	-0.000183
321	0.000146	-0.009223	-0.001005	0.001789	-0.000347
322	0.001789	-0.004621	-0.001005	0.004912	-0.000512
323	-0.000676	-0.0061	0.001132	0.001132	-0.000183
324	-0.008401	-0.003635	-0.002155	0.002775	-0.001991
325	-0.001169	-0.00347	-0.000183	0.002282	0.002447
326	0.000474	-0.004785	-0.002155	0.001954	-0.003142
327	-0.001334	-0.006429	-0.001827	0.001789	-0.003635
328	0.000146	-0.005771	-0.004621	0.002611	-0.000676
329	-0.001498	-0.005443	-0.002155	-0.000183	0.00031
330	-0.003142	-0.006429	-0.000183	0.003597	-0.002155
331	0.000639	-0.010045	0.000639	0.003433	-0.001991
332	-0.000512	-0.008072	-0.000512	0.000146	-0.000841
333	0.004419	-0.004456	-0.003963	0.002282	0.002118
334	-0.002484	-0.009058	0.00031	-0.000512	-1.9e-05
335	-0.00347	-0.006757	-0.002484	0.000474	-1.9e-05
336	0.001789	-0.006429	0.001132	0.00031	0.001132
337	-0.004621	-0.007908	-0.000676	0.001625	0.004912
338	-0.001662	-0.00873	0.001954	0.000146	0.00146
339	0.002447	-0.00725	-0.001991	0.000803	0.00409
340	-0.001005	-0.004785	-0.001827	0.001132	0.001132
341	-1.9e-05	-0.005443	-0.001827	0.002118	0.001625
342	0.002447	-0.005278	-0.001169	0.004748	0.00146
343	0.000474	-0.006264	-0.002155	0.003597	0.002447
344	-0.000841	-0.005607	-0.002977	-0.002813	0.001789
345	-0.000183	-0.005443	-0.001827	-1.9e-05	0.000146
346	-0.008565	-0.004128	-0.002484	-0.001334	0.00031
347	-0.003142	-0.005936	0.001132	-0.002155	-0.000347
348	0.002775	-0.003799	0.00031	0.000803	0.000967
349	-0.002813	-0.006922	0.002118	-0.001334	-0.001498
350	0.001789	-0.005114	0.000967	0.000474	0.001625
351	0.001296	-0.008237	-0.003799	-0.005114	-0.000841
352	-0.001827	-0.001991	-0.002155	0.000803	-0.000841
353	0.001132	-0.008565	-0.003799	0.001625	-0.003635
354	0.00294	-0.007579	-0.002155	0.003268	0.000967
355	-0.000512	-0.00873	-0.001827	-0.000841	0.001625
356	0.001954	-0.007579	-0.000676	0.001132	0.000639
357	-0.002977	-0.006757	-0.000841	0.001789	0.001625
358	-0.000183	-0.007744	-0.001662	0.002282	0.000639
359	-0.002484	-0.004621	0.00031	0.002447	0.001132
360	-0.003306	-0.007579	-1.9e-05	0.002611	0.00294
361	-0.001827	-0.004949	-0.002977	0.000803	0.001789
362	-0.001169	-0.005771	-0.001005	0.001789	-0.000183
363	-0.004785	-0.004456	-0.003142	0.003433	0.000146
364	-0.002813	-0.006593	-0.000347	0.00294	-0.000512
365	-0.001334	-0.004456	-0.002155	0.003104	-0.001169
366	-0.006429	-0.004949	-0.004128	-0.002484	-0.001005
367	-0.004456	-0.004456	-0.000183	0.002118	-0.000183
368	-0.004785	-0.003799	0.00146	0.001954	-0.005443
369	0.00031	-0.004292	-0.000347	-1.9e-05	-0.001498
370	-0.003142	-0.005607	0.000474	0.001132	-0.005771
371	0.000146	-0.006593	0.001954	0.00146	0.000639
372	0.000639	-0.006429	0.00146	0.00146	-0.001005
373	0.001296	-0.006429	-0.002813	0.004748	0.001132
374	-0.001005	-0.004128	-0.002813	0.002611	0.002282
375	0.00294	-0.004292	-0.000183	0.002447	-0.001662
376	0.000967	-0.004456	-0.001827	0.002282	-0.001334
377	-0.000841	-0.00347	-0.000841	0.001789	0.00031
378	-0.000512	-0.005771	-0.001662	-1.9e-05	0.000474
379	-0.000841	-0.005278	-0.001991	0.00031	-0.002813
380	-0.001827	-0.003963	-0.005936	0.00146	0.000803
381	-0.001169	-0.006264	-0.002484	0.005076	-0.000841
382	-0.000512	-0.003963	0.00146	0.000967	0.001625
383	-0.001334	-0.005936	-0.001991	-0.000841	0.003433
384	0.00031	-0.006429	-0.001827	0.003433	0.001132
385	-0.002155	-0.005278	0.000639	-0.001827	0.000803
386	-0.004292	-0.009551	-0.000183	-0.000512	-0.000512
387	0.002447	-0.007415	0.001132	-0.000841	-0.002155
388	0.005076	-0.003635	-0.001334	0.00031	-0.001005
389	0.000146	-0.006922	0.000474	-0.001827	0.001296
390	0.002118	-0.001662	-0.000676	0.001954	0.001954
391	-1.9e-05	-0.0061	-0.002155	0.000639	-0.000676
392	-0.002648	-0.006593	-0.001498	0.000639	0.000803
393	0.00031	-0.005771	0.003433	-0.000841	0.002447
394	-0.001498	-0.006429	-0.002813	-0.003306	-1.9e-05
395	-0.000512	-0.004621	-0.002648	-0.000183	0.002118
396	-0.003306	-0.006429	-0.001498	-0.000841	0.000146
397	-0.003142	-0.003635	-0.002484	-0.002648	0.001789
398	-0.000676	-0.006922	-1.9e-05	-1.9e-05	-0.001498
399	-0.000347	-0.003799	-0.004949	-0.002648	0.000146
400	-0.002155	-0.005114	-0.002484	-0.003306	-0.001005
401	0.000803	-0.00347	-0.000841	-0.003142	0.001625
402	-0.002977	-0.003306	-0.000841	-0.001334	-0.001169
403	-0.000841	-0.0061	0.004255	0.000639	-0.000512
404	-0.001005	-0.004621	0.007542	-0.001334	0.000146
405	-0.000347	-0.005278	-0.001827	0.002447	0.000639
406	0.001625	-0.010045	-0.000183	-0.001991	0.00031
407	0.001625	-0.005607	0.001296	0.000967	0.00031
408	-0.000183	-0.006429	-0.002977	0.000803	-0.000183
409	0.000803	-0.008072	-0.001662	0.000639	-0.000183
410	-0.001498	-0.002648	-0.004128	0.000474	-0.000347
411	-0.002648	-0.0061	-0.000183	0.000967	-0.000183
412	-0.001991	-0.00347	-0.001005	0.000639	-0.000183
413	-0.002648	-0.005114	-0.001334	-0.001169	-1.9e-05
414	-0.003142	-0.005607	-0.002155	-0.001005	0.000146
415	-0.002648	-0.006922	0.003761	-0.001662	-1.9e-05
416	0.002775	-0.00347	-0.003799	-0.001169	-0.001827
417	0.001296	-0.004456	-0.001827	-0.002813	-0.001005
418	0.002118	-0.002155	-0.001334	0.00031	0.001132
419	-0.002484	-0.004456	0.00031	-0.001827	-0.00232
420	-0.000183	-0.006264	-0.000676	-0.001169	-0.001498
421	-0.000512	-0.004621	-0.002155	-0.000183	0.000967
422	0.000639	-0.005114	-0.001005	-0.002155	0.00146
423	0.000967	-0.007744	0.000474	0.000803	0.001132
424	-0.001334	-0.004785	0.00031	0.000146	-0.001827
425	0.000146	-0.001991	-0.001827	0.001625	0.000146
426	0.001625	-0.008072	0.003597	-0.000183	-0.001005
427	-0.000347	-0.00347	-0.004292	0.000803	0.000803
428	-0.000183	-0.007744	0.001132	0.003761	0.00031
429	0.000967	-0.005771	-0.003635	0.001789	0.00031
430	-0.000183	-0.005278	-0.003963	-0.000676	-0.000512
431	0.000967	-0.0061	-0.005278	-0.001991	-0.000347
432	0.00031	-0.006429	-0.007744	0.003926	-0.000347
433	-0.000347	-0.004621	-0.004785	-0.000841	-0.000676
434	-0.002155	-0.004621	-0.001662	0.000146	-0.001334
435	-0.001991	-0.008894	-0.001991	0.001954	-0.00232
436	0.000967	-0.002648	0.00031	-0.000512	-0.001005
437	-0.001005	-0.005936	0.001132	-0.001169	-0.002977
438	-0.003142	-0.005771	-0.00232	0.000146	0.000639
439	-0.001662	-0.00873	-0.001827	-0.000841	0.000146
440	-0.002155	-0.004785	-0.001991	0.000803	0.000146
441	0.000967	-0.005771	0.000803	0.000967	0.001132
442	0.001132	-0.006922	-0.002484	0.000146	0.000146
443	0.000967	-0.005607	-0.001827	0.00031	-1.9e-05
444	0.000967	-0.005114	0.00031	0.000146	0.00294
445	-0.001991	-0.005278	-0.000512	-0.000347	0.000474
446	-0.000183	-0.005278	-0.000347	0.004255	0.001789
447	-0.001498	-0.003635	-0.000512	0.00146	-1.9e-05
448	0.004583	-0.006429	-0.004621	0.00294	0.000803
449	-0.00347	-0.003635	-0.001662	0.001625	0.000803
450	-0.000183	-0.005771	-0.000183	0.000639	-1.9e-05
451	-0.002155	-0.005278	0.00146	-0.002155	-0.002155
452	0.002447	-0.004128	0.000474	-0.000183	0.000474
453	-0.003142	-0.005607	-0.001005	-0.001498	0.000474
454	0.000639	-0.005114	-0.004949	-0.002484	0.000146
455	-1.9e-05	-0.001662	-0.001827	-0.000512	0.00031
456	-1.9e-05	-0.004128	-0.000676	-0.001991	-0.000183
457	-0.001005	-0.004621	-0.00347	0.000474	0.001296
458	-0.00232	-0.002484	-1.9e-05	-0.000841	-0.000841
459	0.000146	-0.005771	-0.00873	0.000146	0.000639
460	-0.002155	-0.005936	0.002282	0.001132	-0.000512
461	0.000474	-0.007086	-0.004949	-0.000512	0.003597
462	-0.003635	-0.006757	0.001132	-1.9e-05	0.00146
463	0.002775	-0.004456	-1.9e-05	-1.9e-05	0.003268
464	0.00031	-0.005936	-0.000512	-0.001005	0.00146
465	-0.001662	-0.005607	-0.004128	0.00294	0.000803
466	-0.001169	-0.005936	-0.000512	-0.002155	0.000803
467	0.000967	-0.005936	-0.001169	-0.001005	-0.002813
468	0.003104	-0.002977	-0.002155	-0.001334	-0.002977
469	0.000639	-0.005114	-0.000841	-0.001005	0.000146
470	-0.001005	-0.007908	-0.010045	-0.000841	-0.001991
471	0.00031	-0.005443	-0.001827	-0.001991	-0.002813
472	-0.000841	-0.008401	-0.003306	0.001132	-0.002484
473	-0.005443	-0.010045	-0.001498	-0.001991	-0.003799
474	0.001954	-0.004785	-0.001169	0.001296	-0.001498
475	-0.000512	-0.007415	-0.000841	-0.001662	-0.003142
476	0.000146	-0.004785	-0.003142	0.003268	0.000803
477	0.00031	-0.0061	0.001954	-0.002155	0.000967
478	0.002118	-0.005771	-0.003799	-0.000841	-0.001169
479	-0.002484	-0.006593	0.003104	0.000803	0.002447
480	0.002282	-0.004949	-0.000676	0.006556	0.00031
481	0.000639	-0.005607	-0.011852	-0.005278	-0.003799
482	-0.000841	-0.006429	-0.002648	-0.003306	0.001132
483	0.000803	-0.00725	-0.002648	0.000146	0.000146
484	0.000639	-0.006922	-0.007908	-0.002155	-0.004456
485	0.003761	-0.0061	-0.003635	-0.002155	0.002118
486	0.003268	-0.008237	-0.001827	-0.001662	-0.000183
487	-0.002155	-0.00873	-0.004785	0.003268	0.000474
488	0.001625	-0.006429	0.000639	-0.002977	0.000146
489	0.004583	-0.002484	-0.00232	-0.000512	0.000146
490	-0.001169	-0.007579	0.000474	-0.001334	-0.001498
491	0.00031	-0.002977	-0.001498	0.000474	0.00031
492	-0.000183	-0.008401	-0.00873	-1.9e-05	0.000146
493	-0.000841	-0.005114	-0.002155	-0.000347	-0.001827
494	0.000967	-0.006757	0.000639	-0.000841	0.000803
495	-0.001827	-0.003306	-0.000347	0.002611	-0.000183
496	0.001296	-0.007086	-0.000183	0.001789	-0.000347
497	0.00031	-0.005936	0.000146	0.000474	0.001625
498	-0.001334	-0.005114	-0.001991	0.003104	0.002118
499	0.000967	-0.007086	0.003268	-0.001498	0.000146
500	0.00146	-0.002155	-1.9e-05	0.000146	0.002282
501	-0.001498	-0.006429	-0.002155	0.000639	-0.004785
502	-0.000512	-0.003963	-0.002155	-0.000347	-0.000512
503	-0.000676	-0.0061	-0.012017	0.000146	-0.001662
504	-0.000347	-0.006593	-0.0061	-0.000841	0.000146
505	-0.004292	-0.008565	0.000474	-1.9e-05	-0.001005
506	0.002282	-0.006264	-0.001169	0.000474	-0.001498
507	-0.000676	-0.0061	-0.001169	-0.000512	-0.000676
508	-0.001005	-0.006264	-0.000512	0.001954	0.001954
509	-0.003799	-0.004621	-0.000512	0.000474	-0.000347
510	-0.001662	-0.004456	-0.000676	0.001625	0.000474
511	-0.001169	-0.0061	0.001296	0.00146	0.00294
512	-0.002155	-0.005771	0.00031	0.00146	-0.001005
513	0.001132	-0.003306	-0.000183	0.001789	0.000146
514	0.002611	-0.007908	-0.00873	0.00031	0.002775
515	0.00294	-0.005936	-0.006922	0.002282	0.000639
516	0.002611	-0.007086	0.000474	0.001625	0.00031
517	0.001625	-0.004949	-0.000841	0.000474	-0.001169
518	0.000639	-0.007744	-0.00347	0.000474	-0.001169
519	0.003104	-0.010373	-0.002155	-0.000512	-0.000841
520	-0.001169	-0.008072	-0.002977	0.001132	0.000146
521	0.000967	-0.001334	-0.002977	-0.000841	-0.001169
522	0.00031	-0.00988	-0.000512	0.001132	-0.003799
523	-1.9e-05	-0.004785	-0.001498	0.002282	-0.001662
524	-0.005278	-0.004785	-0.001169	-0.003306	-0.002813
525	0.000474	-0.005936	-0.00873	0.001296	-0.001334
526	-0.001991	-0.004621	-0.002484	-0.001827	-1.9e-05
527	-0.001662	-0.005771	-0.002484	0.001132	-1.9e-05
528	-0.000676	-0.005278	-0.002813	0.001296	-0.002155
529	0.003268	-0.006264	-0.001005	0.000474	0.000803
530	-0.000841	-0.007415	-0.002155	-0.001662	0.001789
531	0.001296	-0.007086	-0.002813	0.003104	0.001132
532	-0.000183	-0.003306	-0.000347	0.002447	0.000474
533	0.000146	-0.008565	0.001296	0.000146	0.000967
534	0.001954	-0.007579	-0.005114	-1.9e-05	0.001296
535	-0.000841	-0.007415	0.000474	-0.001334	0.009678
536	0.002282	-0.004785	-0.007744	0.003268	-0.000183
537	-0.002484	-0.003635	-0.004456	-0.002484	0.001625
538	-0.002813	-0.003142	-0.003142	0.003433	0.001132
539	-0.000512	-0.004949	-0.000841	-0.001334	-0.001991
540	-0.001169	-0.005936	-0.000347	0.001625	0.001789
541	-0.002155	-0.006593	-0.001169	0.001954	-0.001334
542	-0.001005	-0.003799	-0.001169	0.001954	0.001132
543	-0.00232	-0.004292	-1.9e-05	-0.006429	-0.000347
544	-0.000183	-0.004621	-1.9e-05	0.001296	-1.9e-05
545	-0.001662	-0.005936	-0.001169	-0.000347	-0.000347
546	-0.001827	-0.006757	0.00031	-0.002977	-0.001005
547	0.001132	-0.005114	-0.001005	0.001954	-0.000512
548	0.001296	-0.006264	0.00031	-0.005936	0.001296
549	-0.001991	-0.007579	-0.003142	-0.002648	0.002282
550	0.00146	-0.006922	-0.002813	-0.003142	-0.001662
551	0.004748	-0.005278	-0.004128	-0.002484	-0.00232
552	-0.001498	-0.008401	-0.001991	-0.000676	-0.003306
553	0.001789	-0.005443	-0.002977	0.00294	-0.000183
554	-0.000512	-0.005771	0.001789	-0.001334	0.001132
555	0.001132	0.002611	0.002611	0.001954	0.002447
556	0.001132	-0.007086	0.001132	0.002611	-0.001005
557	-0.000841	-0.002977	-0.001827	0.000639	-0.000183
558	-0.002155	-0.001991	-0.003142	-0.001334	-0.001169
559	-0.001498	-0.006757	-0.000183	-0.002484	-0.000347
560	-0.004621	-0.004128	0.000639	-0.001169	0.000803
561	0.001954	-0.005771	0.001132	-0.004292	0.001954
562	-0.00232	-0.003142	-0.000676	-0.001991	0.002775
563	-0.000183	-0.0061	0.000146	-0.000183	-0.000347
564	-0.004621	-0.003635	-0.001498	-0.000512	0.003268
565	-0.001827	-0.005278	-0.000183	-0.001169	-0.000512
566	0.000474	-0.006922	-0.001334	-0.000841	0.000146
567	-0.005114	-0.007086	-0.000512	-0.001334	-0.003142
568	-0.002813	-0.004128	0.000474	0.000967	0.000146
569	-0.002977	-0.007744	-0.002484	0.000803	-0.001991
570	0.000803	-0.007086	-0.0061	-1.9e-05	-1.9e-05
571	-0.000347	-0.00725	0.001625	-0.000347	-0.000841
572	0.000803	-0.001169	-0.001991	0.002611	0.000639
573	0.001625	-0.003799	-0.002155	0.001296	0.001625
574	-0.000183	-0.003306	0.000639	-0.000347	-0.001827
575	-0.000183	-0.002813	-0.001827	-0.000676	-0.001662
576	0.001954	-0.005607	0.001296	-0.00232	-0.001005
577	-0.001827	-0.004128	0.00146	-0.000512	0.00146
578	-0.000347	-0.003142	0.00146	-0.000841	-0.003799
579	-0.000512	-0.005771	-0.001005	-0.000841	0.001132
580	-0.001005	-0.005443	-0.001991	-0.001334	-0.001169
581	0.001789	-0.005278	-0.00347	-0.001005	0.001625
582	-0.001005	-0.006757	-0.003799	-0.000183	0.000146
583	0.002282	-0.009058	-0.003306	0.00031	-0.001662
584	-1.9e-05	-0.009223	0.002447	-0.001169	0.000474
585	-0.003963	-0.007579	-0.001662	0.00031	0.005076
586	0.002775	-0.00725	0.001625	-0.003306	-0.001169
587	0.000474	-0.002813	-0.000183	0.000474	0.002282
588	-0.000512	-0.006757	-0.000183	0.003268	0.001954
589	-0.001334	-0.005771	-0.001334	0.000146	-0.001662
590	-0.001334	-0.00347	-0.000347	0.001132	0.00031
591	-0.001169	-0.007086	-0.000183	0.000803	0.002447
592	-0.001827	-0.003306	-0.003635	-0.001827	-0.00232
593	0.000474	-0.004621	-0.001005	-0.000841	0.000146
594	-0.001334	-0.00347	-0.001991	-0.001498	-0.001334
595	-0.001662	-0.005443	-1.9e-05	-0.001169	0.000639
596	-0.000347	-0.004621	-0.001334	0.001296	-0.002155
597	-0.002648	-0.005771	-0.000841	-0.00232	0.00031
598	0.001789	-0.003635	-0.001169	-0.001991	0.003104
599	-0.003142	-0.005771	-0.002484	-0.002648	0.002282
600	-1.9e-05	-0.005771	-0.004785	-0.001498	0.001296
601	-0.000676	-0.006429	-0.000676	-0.004292	-0.001827
602	-0.000512	-0.005443	-0.003142	0.001296	0.004419
603	-1.9e-05	-0.007086	-0.002484	-0.000347	-0.004292
604	0.001789	-0.006429	0.00294	0.003104	0.000474
605	-0.002977	-0.005114	-0.002155	0.001789	0.000803
606	0.00294	-0.002484	-0.005771	-0.000183	0.00031
607	0.002447	-0.004785	-0.002484	-0.004785	0.00294
608	-1.9e-05	-0.004456	-0.001991	0.002775	-0.000512
609	-1.9e-05	-0.007579	-0.000676	-0.000512	-1.9e-05
610	-0.00232	-0.008894	0.001625	-0.001991	0.003926
611	0.00031	0.001132	-0.000841	0.000639	0.00146
612	-0.001827	-0.002648	0.000146	-0.000347	-0.001169
613	0.001132	-0.003963	-0.003635	0.00031	0.000803
614	-0.003142	-0.00232	-0.00232	-0.003142	0.000474
615	-0.000676	-0.006429	-0.001991	0.002447	0.001954
616	-0.002484	-0.0061	-0.001498	-0.000676	-0.004456
617	-0.000676	-0.005607	-0.001991	-1.9e-05	-0.003306
618	0.001132	-0.007086	-0.001498	0.00031	-1.9e-05
619	-0.004949	-0.0061	-0.000183	0.003761	0.001625
620	-0.001827	-0.004292	-0.000183	-1.9e-05	0.000474
621	0.006391	-0.006757	0.00146	0.001625	0.000146
622	-0.004621	-0.004128	-0.000676	0.003433	0.000474
623	0.002282	-0.004621	-0.001334	0.001789	0.000639
624	0.001625	-0.004949	-0.001498	0.00031	-0.000512
625	-0.001991	-0.006593	-0.005936	-0.00347	-0.004949
626	0.00146	-0.006429	-0.003635	0.001132	-0.00232
627	-0.000841	-0.006429	0.00146	0.001625	-0.000347
628	0.002282	-0.002813	-0.003799	0.000639	-0.000841
629	0.000803	-0.006264	0.00031	-0.001334	-0.000183
630	0.000474	-0.003306	-0.000512	0.003597	-1.9e-05
631	-0.001827	-0.012839	-0.001827	-0.002648	-0.001169
632	-0.000676	-0.005278	-0.003799	0.000146	-0.000183
633	0.000146	-0.0061	-0.002484	-0.000841	-0.002484
634	-0.002813	-0.005607	-0.000841	0.001625	-0.00232
635	-0.001662	-0.00873	-0.000676	0.001296	-0.002155
636	-1.9e-05	-0.005771	-0.002484	-0.000347	-0.003142
637	-0.000676	-0.006429	-0.001334	-0.002155	-0.003799
638	0.003597	-0.007744	-0.002484	-0.002648	-0.002155
639	0.000803	-0.005607	-0.002155	-0.002648	-0.000183
640	0.005241	-0.007086	-0.000183	-1.9e-05	-0.001662
641	0.004748	-0.004292	-0.000183	0.005569	0.000146
642	-0.000676	-0.00725	-1.9e-05	-0.001991	-0.001662
643	-1.9e-05	-0.006922	-0.001827	0.001132	-1.9e-05
644	0.000639	-0.005936	0.000803	-0.001334	-0.003142
645	-0.001169	-0.002155	-0.00347	-0.001005	0.001789
646	-0.001991	-0.007415	-0.000676	0.000967	-0.001662
647	-0.000347	-0.005607	-0.003799	-0.001334	-0.001498
648	-0.001005	-0.006593	-0.002813	-0.001991	-0.002155
649	-0.001005	-0.005114	-0.004949	-0.000676	0.001625
650	-0.000841	-0.004456	-0.003799	-0.001169	0.000803
651	-0.000676	-0.0061	-0.000841	-0.001005	-0.000512
652	-0.000676	-0.005443	0.000803	0.006884	-0.000512
653	-0.000347	-0.0061	0.000803	-0.000183	-0.003799
654	0.000803	-0.004949	-1.9e-05	0.000967	0.000639
655	0.001789	-0.004949	0.000474	0.00031	-0.000676
656	0.00031	-0.004128	-0.001169	0.001954	-0.00232
657	0.001132	-0.007744	0.003433	0.005405	-0.000347
658	0.000474	-0.00725	-0.002155	0.002118	0.000146
659	-0.000347	-0.005607	0.000146	0.002282	-1.9e-05
660	0.004912	-0.00873	-0.002813	0.003104	0.001296
661	0.002282	-0.011359	-0.002977	0.000474	-0.000183
662	0.002447	-0.007415	-1.9e-05	0.00031	0.003926
663	0.00146	-0.004785	-0.001827	0.006227	-0.001827
664	0.00409	-0.005114	-0.002484	-0.001169	0.000146
665	-1.9e-05	-0.006757	-0.00347	0.00031	-0.001169
666	0.004255	-0.002484	-0.002484	0.000146	-0.001169
667	-0.00232	-0.004621	-0.000512	-0.000183	-0.002155
668	0.002611	-0.006757	-0.000512	0.00031	-0.003306
669	0.000639	-0.005114	-0.002813	-0.001498	-0.001498
670	0.00031	-0.005936	-0.002155	0.001789	-0.000841
671	0.002611	-0.005607	-0.001662	0.001789	-0.001991
672	0.005241	-0.005114	0.000474	0.000639	-0.002484
673	-0.002155	-0.00725	-0.001169	0.000639	-0.001169
674	0.000803	-0.0061	0.001625	0.007049	0.001296
675	0.00146	-0.003142	-0.00232	-0.000841	0.00146
676	-0.002813	-0.001662	-0.002813	-0.000841	-0.003142
677	0.006062	-0.000183	-0.003306	0.002447	-0.000676
678	0.001625	-0.000841	-0.002977	0.001132	-0.000841
679	0.001296	-0.000676	-0.000347	0.000967	-0.000676
680	-1.9e-05	0.001296	-0.003635	-0.000347	0.00146
681	0.000639	0.004748	-0.005443	0.000639	0.000474
682	-0.000512	0.003926	-0.004292	-0.001005	-0.000347
683	0.000639	-0.001991	-0.003306	0.000967	-0.000512
684	-0.002648	0.001132	-0.001334	-0.001169	-1.9e-05
685	0.001954	-0.001334	0.000639	0.00294	-0.000183
686	0.002775	0.00031	-0.002155	0.001789	-0.001498
687	-0.002484	-0.000347	-0.000512	0.003104	-0.001991
688	0.004748	0.002282	0.00146	0.004419	0.000146
689	-0.000841	-0.00232	0.000146	-0.001827	-0.001005
690	0.00146	-0.002155	-0.001334	0.001625	0.00031
691	0.001625	-0.004128	-0.000347	0.000146	-0.001169
692	-1.9e-05	-1.9e-05	-0.001498	0.001132	0.001296
693	-0.001334	-0.002155	-0.000676	0.000146	-0.000841
694	0.002447	-0.001005	-0.001005	0.001296	0.002118
695	0.001296	-0.001334	-0.002813	-0.001662	0.000639
696	0.000639	-0.000347	-0.001662	0.000474	0.001132
697	0.000474	-0.000183	-0.000183	-0.001005	-0.000841
698	-0.000512	-0.000512	-0.004128	0.000146	-0.002648
699	-1.9e-05	-0.000347	-0.004128	-0.001005	-0.001334
700	-0.001005	-0.000347	-0.001662	0.00031	0.00031
701	-0.000347	0.00031	0.000474	-0.000841	-0.002648
702	-0.002484	-0.001005	-0.002155	-0.002977	0.000967
703	0.001296	0.001954	-0.00232	0.002282	-0.000512
704	-1.9e-05	-0.001991	-1.9e-05	0.00031	-0.005607
705	0.002447	0.000146	-0.000676	0.003268	0.002282
706	0.00031	-0.001827	0.001132	0.001789	-0.001334
707	-1.9e-05	0.000639	0.003104	-0.004785	0.000639
708	-0.001169	-0.001991	0.00146	-0.001498	-0.000841
709	-1.9e-05	-0.001169	0.000146	-0.001334	0.000146
710	0.001132	-0.000183	-1.9e-05	-0.000841	-0.000183
711	-0.001334	-0.001498	-0.002155	0.001132	-0.001827
712	-0.004949	-0.002155	-0.001169	0.000639	0.000639
713	-0.000512	-0.003799	-0.003799	0.00031	0.000146
714	0.000967	-0.002977	-0.002155	0.002611	0.000803
715	0.00031	-0.004128	-0.002977	-0.001334	-0.000347
716	0.002447	-0.003306	-0.001498	0.002775	-0.000347
717	-0.001498	-0.002484	-0.000676	-0.00232	-0.000347
718	0.002118	-0.001005	-0.003142	-0.004456	0.002775
719	0.005734	-0.002155	0.003433	-0.001005	-0.002813
720	-1.9e-05	-0.002484	-0.001662	0.001296	0.002118
721	0.001625	-0.005114	-0.002484	-0.001827	-0.002484
722	0.001789	0.00031	-0.001498	-0.000183	-0.000512
723	-0.001169	-0.004128	0.00146	-0.001827	-0.004456
724	0.003104	-0.003306	0.001132	0.000146	0.001296
725	-0.000183	-0.002977	0.001132	0.00146	0.003597
726	0.004255	-0.005936	-0.001662	0.002447	0.001954
727	0.002775	-0.005936	-0.000676	0.002118	0.000639
728	0.00031	-0.003306	0.000639	0.002118	0.00146
729	0.003104	-0.002484	-0.000841	-0.00725	0.00031
730	0.001132	-0.00347	-0.000512	-0.001169	-0.000841
731	0.002282	-0.001662	-0.001334	0.000967	0.001789
732	0.000474	-0.006922	-0.001334	0.000803	-0.000183
733	-0.003306	-0.000676	-0.003142	-0.000183	0.00031
734	0.000639	-0.005443	-0.000512	-1.9e-05	-0.001334
735	0.000803	-0.00232	-0.002977	-0.000676	0.00031
736	0.000803	-0.003963	-0.000183	-0.001498	-0.000841
737	0.004255	-0.001169	-0.002977	-1.9e-05	-1.9e-05
738	0.00031	-0.002648	-0.001005	0.000474	0.002118
739	0.001789	-0.003142	-0.002484	0.003433	0.002611
740	0.001132	-0.002155	-0.000183	-0.007415	-0.000512
741	-0.001498	-0.004949	0.000474	-0.000512	-0.000183
742	0.001296	-0.001827	-0.000512	0.000474	0.001789
743	0.004419	-0.00347	-0.000183	0.001789	-0.000347
744	-0.001498	-0.00347	-0.000841	-1.9e-05	0.000803
745	0.00146	-0.0061	0.000639	0.002118	-0.001169
746	0.00146	-0.004949	-0.002155	-0.001827	-0.003635
747	0.001296	-0.005936	0.000146	0.002282	-0.002155
748	0.001132	-0.004456	-0.002977	0.001625	-0.000512
749	0.001296	-0.004292	-0.001827	-0.000512	-0.000841
750	0.001954	-0.004128	-0.000512	0.003597	0.002118
751	0.004583	0.000967	0.005405	-0.006264	0.003433
752	0.012308	0.007706	0.011815	0.011815	0.011158
753	0.017732	0.018061	0.018882	0.018882	0.021676
754	0.027922	0.022169	0.025457	0.024635	0.023977
755	0.027758	0.031209	0.029566	0.030223	0.030059
756	0.041892	0.033346	0.038605	0.035482	0.038934
757	0.044029	0.042057	0.040577	0.039427	0.04255
758	0.048631	0.045508	0.043865	0.047645	0.050274
759	0.056684	0.049946	0.05011	0.059314	0.056191
760	0.060958	0.055205	0.054712	0.063259	0.060958
761	0.068354	0.061944	0.061779	0.067696	0.068518
762	0.071805	0.072627	0.064574	0.06293	0.073778
763	0.075585	0.073613	0.072134	0.076407	0.077722
764	0.07838	0.076736	0.073942	0.08216	0.083803
765	0.087912	0.084296	0.075257	0.085283	0.087419
766	0.088734	0.087912	0.079859	0.08857	0.089391
767	0.094487	0.089391	0.082817	0.094815	0.094815
768	0.097774	0.094322	0.087912	0.095801	0.094158
769	0.104348	0.098267	0.089227	0.10139	0.104512
770	0.103362	0.10139	0.093336	0.104512	0.105334
771	0.106485	0.106156	0.094158	0.10895	0.10632
772	0.107306	0.107635	0.100075	0.106978	0.116017
773	0.110758	0.111908	0.100732	0.110922	0.119469
774	0.108621	0.114374	0.103033	0.114045	0.118154
775	0.111744	0.113881	0.107142	0.119633	0.124399
776	0.115524	0.119797	0.111087	0.124235	0.125057
777	0.117496	0.117661	0.107306	0.126865	0.130316
778	0.122427	0.114867	0.104677	0.131631	0.132617
779	0.123578	0.109607	0.114867	0.130809	0.135576
780	0.125057	0.108457	0.112894	0.136233	0.135411
781	0.132289	0.098102	0.116017	0.137548	0.139685
782	0.134097	0.103691	0.111251	0.141328	0.143465
783	0.134918	0.095473	0.115853	0.142479	0.144287
784	0.13837	0.087584	0.121441	0.141	0.146423
785	0.139356	0.088734	0.121934	0.144615	0.147738
786	0.14215	0.084954	0.123578	0.152505	0.150204
787	0.141821	0.08216	0.128508	0.149382	0.152011
788	0.144451	0.085283	0.125714	0.150368	0.153819
789	0.141657	0.074928	0.129495	0.148889	0.157271
790	0.146095	0.074928	0.13574	0.154641	0.157435
791	0.143794	0.06934	0.133768	0.156778	0.15612
792	0.14593	0.064738	0.13574	0.156285	0.159243
793	0.14215	0.061451	0.137384	0.162366	0.162037
794	0.142479	0.054548	0.139356	0.159408	0.161544
795	0.148396	0.05389	0.142314	0.158421	0.165817
796	0.143958	0.049617	0.146916	0.161709	0.164996
797	0.149053	0.048795	0.145108	0.163188	0.165817
798	0.150039	0.046166	0.143301	0.164338	0.166311
799	0.152176	0.051754	0.143629	0.167132	0.169433
800	0.151683	0.040742	0.146752	0.165653	0.16779
801	0.155134	0.041728	0.148067	0.168283	0.171734
802	0.146916	0.04107	0.148231	0.171899	0.167297
803	0.142314	0.041892	0.145108	0.173542	0.17157
804	0.136726	0.04255	0.148067	0.172885	0.175679
805	0.11536	0.039591	0.146752	0.171406	0.174035
806	0.108128	0.03729	0.149217	0.168776	0.174857
807	0.10895	0.041564	0.144451	0.173707	0.176501
808	0.110758	0.046494	0.140835	0.176008	0.17272
809	0.11273	0.041728	0.148231	0.175843	0.178309
810	0.11799	0.04896	0.149875	0.177158	0.178966
811	0.118647	0.035154	0.150532	0.176008	0.176172
812	0.121277	0.042057	0.153984	0.18061	0.180281
813	0.122756	0.043371	0.155134	0.180445	0.177815
814	0.131302	0.039756	0.148724	0.184225	0.179295
815	0.132289	0.042221	0.152833	0.182417	0.182089
816	0.132782	0.041564	0.151354	0.183568	0.178966
817	0.134261	0.039263	0.153819	0.180938	0.179459
818	0.139849	0.038769	0.15234	0.183568	0.183568
819	0.144944	0.036633	0.153984	0.183404	0.182582
820	0.145766	0.028415	0.155956	0.186198	0.115031
821	0.147903	0.030223	0.156285	0.186198	0.026443
822	0.147738	0.022334	0.157271	0.183897	0.002775
823	0.14971	0.023813	0.157764	0.186033	0.012472
824	0.150861	0.023977	0.159572	0.185376	0.018554
825	0.15234	0.021841	0.160229	0.188663	0.022169
826	0.155134	0.020362	0.163023	0.188663	0.028086
827	0.157764	0.020526	0.165489	0.18817	0.039591
828	0.156778	0.013459	0.169105	0.187019	0.0437
829	0.159079	0.010336	0.170419	0.187348	0.051754
830	0.1576	0.010993	0.169105	0.188006	0.056027
831	0.159736	0.009678	0.170748	0.190307	0.062766
832	0.160229	0.009678	0.170419	0.188992	0.065888
833	0.162202	0.006227	0.172885	0.1908	0.073284
834	0.164996	0.002447	0.179295	0.188663	0.078708
835	0.168612	0.004419	0.171734	0.192115	0.08331
836	0.168118	0.00672	0.175186	0.192772	0.086269
837	0.168776	0.00935	0.173214	0.192772	0.095473
838	0.169105	0.006884	0.174035	0.193429	0.096623
839	0.170419	0.007377	0.178473	0.189156	0.101225
840	0.170584	0.008035	0.177158	0.189485	0.102376
841	0.169926	0.009678	0.178966	0.191457	0.105498
842	0.174035	0.008035	0.175021	0.193922	0.11158
843	0.173378	0.008363	0.181596	0.192443	0.112237
844	0.170419	0.007213	0.180774	0.192936	0.119469
845	0.171899	0.008363	0.179952	0.190635	0.121605
846	0.176501	0.008363	0.179952	0.193758	0.079694
847	0.174528	0.009514	0.182417	0.192608	0.0769
848	0.177815	0.008035	0.176336	0.192936	0.083146
849	0.178637	0.008692	0.178144	0.189156	0.08857
850	0.179952	0.010007	0.180774	0.192936	0.092679
851	0.18176	0.006884	0.180281	0.192443	0.096623
852	0.181596	0.008528	0.182746	0.194087	0.100732
853	0.182746	0.008035	0.180116	0.194087	0.101883
854	0.182911	0.006556	0.172556	0.193922	0.108621
855	0.184225	0.00787	0.163681	0.195895	0.112894
856	0.180938	0.005076	0.167297	0.19721	0.113223
857	0.183239	0.007213	0.165489	0.199839	0.11799
858	0.182911	0.004419	0.164667	0.197045	0.118976
859	0.183075	0.009021	0.170913	0.196388	0.124564
860	0.180281	0.008692	0.169762	0.19573	0.123578
861	0.182746	0.010007	0.171241	0.198196	0.129495
862	0.182417	0.00409	0.174857	0.195237	0.130809
863	0.186526	0.00935	0.173871	0.197374	0.135247
864	0.185705	0.003761	0.173049	0.196388	0.133932
865	0.185376	0.001132	0.177651	0.194744	0.139356
866	0.186691	0.003597	0.176008	0.193265	0.140835
867	0.188663	0.005405	0.175679	0.19458	0.143629
868	0.192936	0.005734	0.175843	0.198524	0.142643
869	0.191293	0.005241	0.17798	0.198031	0.144944
870	0.192443	0.005076	0.176501	0.197538	0.150532
871	0.189978	0.003926	0.17798	0.19573	0.147903
872	0.175186	0.008692	0.179952	0.197867	0.152998
873	0.166804	0.006556	0.180774	0.195895	0.152669
874	0.171899	0.006556	0.177158	0.197867	0.159572
875	0.169762	0.006227	0.183239	0.19721	0.155134
876	0.170748	0.00146	0.179952	0.199018	0.161709
877	0.170419	0.006062	0.181924	0.196552	0.161873
878	0.17535	0.00787	0.184061	0.199346	0.160887
879	0.173542	0.009678	0.183239	0.197374	0.162202
880	0.176501	0.012801	0.183732	0.198031	0.163681
881	0.175515	0.01313	0.183568	0.194416	0.161051
882	0.17535	0.006884	0.185212	0.196552	0.165653
883	0.177651	0.011979	0.188334	0.199839	0.167132
884	0.182417	0.008199	0.190471	0.191786	0.167461
885	0.186198	0.009843	0.186526	0.194909	0.170913
886	0.180445	0.007377	0.184061	0.195566	0.170419
887	0.183568	0.002282	0.182746	0.199346	0.17157
888	0.183568	0.002282	0.185212	0.198031	0.171734
889	0.181431	0.005241	0.186033	0.200004	0.176665
890	0.183239	0.005241	0.182253	0.198689	0.171734
891	0.185705	0.008035	0.187841	0.199018	0.172392
892	0.181596	0.009185	0.184061	0.197867	0.175679
893	0.183075	0.005734	0.187019	0.198524	0.176172
894	0.178802	0.005734	0.18817	0.19836	0.177487
895	0.183568	0.00672	0.187677	0.196059	0.18176
896	0.183075	0.004912	0.188499	0.194744	0.17913
897	0.162202	0.007213	0.187841	0.195895	0.178966
898	0.046823	-0.001334	0.187184	0.193265	0.17913
899	0.011486	0.003104	0.184061	0.192115	0.179623
900	0.017896	0.006391	0.186526	0.198196	0.180116
901	0.026114	0.005569	0.187841	0.199346	0.17913
902	0.031209	0.007049	0.18554	0.196223	0.182582
903	0.038276	0.005241	0.191457	0.19573	0.180445
904	0.045344	0.004255	0.186526	0.195895	0.182746
905	0.050603	0.006062	0.191128	0.202469	0.182089
906	0.058657	0.00409	0.190142	0.201812	0.184554
907	0.063752	0.004419	0.193922	0.197703	0.186033
908	0.069011	0.004583	0.1908	0.202305	0.184225
909	0.068354	-0.004949	0.194087	0.19836	0.184061
910	0.076572	0.003761	0.190307	0.202305	0.187184
911	0.080187	0.006227	0.192936	0.203455	0.187184
912	0.084789	0.007049	0.1908	0.200168	0.186855
913	0.088405	0.004255	0.19195	0.196388	0.184225
914	0.095473	0.004255	0.193594	0.198031	0.187841
915	0.092021	0.00672	0.190142	0.198031	0.186691
916	0.088405	0.003433	0.194744	0.195566	0.185869
917	0.086269	0.006884	0.194744	0.197867	0.190471
918	0.085447	0.006884	0.193265	0.196223	0.187677
919	0.093336	0.005405	0.192279	0.198689	0.187019
920	0.094651	-0.006593	0.192936	0.19836	0.183732
921	0.101061	0.004583	0.194087	0.199346	0.186198
922	0.099746	0.004912	0.199511	0.200825	0.188663
923	0.109279	0.005734	0.19573	0.201483	0.187184
924	0.110593	0.004419	0.194744	0.198853	0.18439
925	0.112566	0.004583	0.192279	0.201319	0.18439
926	0.11799	0.004255	0.196881	0.199018	0.179788
927	0.120784	0.003926	0.19573	0.201319	0.177651
928	0.126043	0.006391	0.19721	0.199018	0.16779
929	0.125879	0.006556	0.196223	0.19573	0.163023
930	0.128837	0.006556	0.196059	0.198031	0.157107
931	0.130974	-0.003306	0.19458	0.197538	0.155792
932	0.134261	0.005569	0.197538	0.196881	0.139849
933	0.137712	0.003597	0.200825	0.199018	0.065231
934	0.142314	0.004912	0.194744	0.202633	0.065395
935	0.143301	0.00409	0.190471	0.196717	0.049781
936	0.14478	0.005241	0.193922	0.20099	0.056027
937	0.147903	0.003926	0.196223	0.201154	0.057671
938	0.14856	0.004255	0.191786	0.199018	0.063259
939	0.148396	0.005076	0.199018	0.199675	0.069997
940	0.151025	0.004748	0.193922	0.202962	0.074928
941	0.155792	0.004912	0.197867	0.198689	0.077229
942	0.156613	-0.001662	0.197867	0.20099	0.08331
943	0.159079	0.007213	0.194251	0.200332	0.081995
944	0.158421	0.003104	0.20099	0.204277	0.093993
945	0.162037	0.005898	0.196223	0.197867	0.095966
946	0.164667	0.005734	0.197703	0.196388	0.098595
947	0.161709	0.004419	0.195237	0.199511	0.106978
948	0.138041	0.004912	0.201319	0.198031	0.105334
949	0.071312	0.007377	0.194251	0.197045	0.03614
950	0.028086	0.006391	0.192279	0.19573	0.036962
951	0.019211	0.007542	0.190635	0.198689	0.044851
952	0.007213	0.005569	0.192443	0.198196	0.046823
953	0.004255	0.00031	0.19195	0.20099	0.054712
954	0.001954	0.004748	0.193429	0.197538	0.063916
955	0.003268	0.005405	0.196881	0.205263	0.064902
956	0.002447	0.003761	0.195895	0.20099	0.042714
957	0.002118	0.005898	0.194087	0.201647	0.003926
958	-0.000347	0.007542	0.194251	0.201154	0.009185
959	0.000803	0.003433	0.197374	0.20099	0.008528
960	-1.9e-05	0.005898	0.189156	0.201154	0.011815
961	-0.000347	0.003761	0.19458	0.195895	0.017567
962	-0.000183	0.006062	0.193922	0.195566	0.027265
963	-0.001334	0.005405	0.192443	0.198853	0.030552
964	0.003433	0.001789	0.193429	0.198031	0.038769
965	0.009514	0.002118	0.193429	0.197374	0.044193
966	0.006556	0.004255	0.193265	0.198853	0.051261
967	0.00031	0.003597	0.191128	0.200168	0.051918
968	0.000474	0.005898	0.189978	0.200661	0.059314
969	0.000146	0.004419	0.192279	0.20099	0.068189
970	-0.000347	0.005241	0.189649	0.200004	0.070983
971	-0.000183	0.006391	0.19573	0.199182	0.072956
972	-0.000347	0.005076	0.197374	0.199182	0.082982
973	-0.000512	0.004748	0.195402	0.199839	0.086597
974	-0.000183	0.003433	0.194416	0.199511	0.090706
975	0.000146	0.001789	0.192936	0.200332	0.096623
976	0.000639	0.001132	0.188827	0.201154	0.09991
977	0.00031	0.003926	0.190307	0.198689	0.101225
978	0.000474	0.00409	0.188663	0.200661	0.102704
979	0.00031	0.008199	0.184554	0.200497	0.110922
980	-1.9e-05	0.001625	0.185376	0.19836	0.111744
981	-0.000183	0.00294	0.184718	0.19836	0.115853
982	-0.000183	0.004583	0.187841	0.197374	0.119469
983	-0.000347	0.005076	0.185705	0.199839	0.124399
984	-0.000347	0.002118	0.180445	0.199346	0.126207
985	-0.000183	0.00787	0.183075	0.201319	0.127687
986	-1.9e-05	0.006062	0.183239	0.199182	0.129659
987	0.000146	0.004912	0.186691	0.200661	0.13311
988	0.000474	0.007213	0.188334	0.200332	0.13574
989	0.005241	0.005241	0.189156	0.201154	0.137384
990	0.009843	0.006884	0.188334	0.20477	0.141986
991	0.015924	0.004419	0.192608	0.202633	0.142643
992	0.024635	0.007706	0.188334	0.20214	0.147574
993	0.031209	0.003104	0.191621	0.197374	0.15497
994	0.040413	0.004255	0.191457	0.199839	0.15234
995	0.043207	0.005405	0.190471	0.200332	0.152176
996	0.053397	0.006062	0.191457	0.19836	0.151518
997	0.053726	-0.002484	0.191786	0.196388	0.153326
998	0.062273	-0.003142	0.190142	0.200332	0.155627
999	0.066875	0.00409	0.194087	0.197867	0.158257
1000	0.066217	0.003597	0.187513	0.200004	0.15875
1001	0.077886	0.004255	0.190471	0.200825	0.156449
1002	0.079859	0.003926	0.189814	0.200332	0.161215
1003	0.086762	0.005734	0.192443	0.197867	0.153655
1004	0.090542	0.006884	0.193922	0.204606	0.16253
1005	0.093665	0.005734	0.195073	0.201647	0.16253
1006	0.097938	0.003104	0.193758	0.19836	0.162695
1007	0.10139	0.001789	0.193594	0.197703	0.163352
1008	0.103033	0.001625	0.196881	0.196881	0.163845
1009	0.110429	0.004255	0.194251	0.196881	0.171406
1010	0.110593	0.003597	0.194087	0.195566	0.16779
1011	0.116182	0.005734	0.189978	0.197867	0.169269
1012	0.118976	0.005734	0.197867	0.195073	0.167625
1013	0.123413	0.006556	0.195402	0.197045	0.170748
1014	0.126207	0.004912	0.195895	0.197703	0.170584
1015	0.130809	0.005898	0.195895	0.199511	0.174035
1016	0.130974	0.007213	0.196717	0.197867	0.172556
1017	0.135247	0.004912	0.194416	0.198524	0.174857
1018	0.137877	0.004255	0.194087	0.198031	0.170748
1019	0.140178	0.003926	0.195237	0.197703	0.17157
1020	0.141821	0.003926	0.19195	0.195895	0.17535
1021	0.143958	0.006556	0.195402	0.198689	0.17272
1022	0.140835	0.006227	0.194909	0.19836	0.1742
1023	0.148889	0.001625	0.19721	0.198196	0.174857
1024	0.150204	0.005241	0.195895	0.198196	0.177487
1025	0.150532	0.006556	0.197867	0.19573	0.173707
1026	0.15497	0.000803	0.196717	0.197703	0.180281
1027	0.154477	0.002118	0.19721	0.198196	0.17535
1028	0.157764	0.001296	0.197703	0.19721	0.17913
1029	0.160394	-0.002813	0.198853	0.196059	0.176665
1030	0.162366	0.001132	0.195237	0.198689	0.178637
1031	0.160394	0.000474	0.197045	0.197538	0.179952
1032	0.164338	0.000146	0.194909	0.197867	0.183897
1033	0.164503	0.001789	0.192279	0.197045	0.182253
1034	0.165324	0.003268	0.192772	0.19836	0.17913
1035	0.16779	0.008363	0.194251	0.19836	0.181924
1036	0.169105	0.008035	0.193101	0.198031	0.18176
1037	0.168776	0.006227	0.194416	0.197703	0.179459
1038	0.171406	0.004912	0.194416	0.200332	0.177158
1039	0.171406	0.005734	0.194909	0.19836	0.183404
1040	0.173214	0.003926	0.191128	0.200497	0.176336
1041	0.173378	0.00672	0.197374	0.19721	0.180281
1042	0.172063	-0.002484	0.198524	0.196717	0.178637
1043	0.175843	0.004419	0.193101	0.20214	0.180774
1044	0.175679	0.003597	0.198689	0.197538	0.176994
1045	0.175186	0.004255	0.194909	0.197374	0.179788
1046	0.175679	0.003433	0.195566	0.195566	0.181103
1047	0.178144	0.002282	0.195566	0.19573	0.18439
1048	0.178144	-0.001005	0.197538	0.198853	0.181596
1049	0.17913	0.005405	0.197538	0.19836	0.183075
1050	0.180116	0.003597	0.198031	0.199182	0.185047
1051	0.184883	0.00146	0.200004	0.199018	0.178144
1052	0.181596	0.002611	0.197703	0.199182	0.185047
1053	0.18176	0.002447	0.19721	0.198524	0.185047
1054	0.184225	0.004583	0.196223	0.201319	0.185047
1055	0.182582	0.007706	0.197703	0.201812	0.180445
1056	0.185869	0.012472	0.196388	0.196223	0.180938
1057	0.18061	0.007542	0.198853	0.192936	0.182911
1058	0.182417	0.010007	0.197538	0.197045	0.181267
1059	0.186362	0.007706	0.197045	0.193429	0.181924
1060	0.185376	0.007377	0.196552	0.201647	0.178637
1061	0.185047	0.006062	0.198524	0.194416	0.185376
1062	0.188663	0.003433	0.200168	0.19836	0.179623
1063	0.185869	0.003761	0.20362	0.199346	0.180116
1064	0.18554	0.006556	0.197867	0.198689	0.180774
1065	0.188663	0.008035	0.197374	0.198031	0.181596
1066	0.190307	0.011979	0.197538	0.202633	0.177487
1067	0.188827	0.012308	0.195402	0.195402	0.179788
1068	0.1908	0.008692	0.196717	0.198031	0.178802
1069	0.19458	0.012144	0.196717	0.200497	0.177158
1070	0.190307	0.012637	0.193101	0.197374	0.176008
1071	0.192772	0.015924	0.195073	0.20214	0.177815
1072	0.191293	0.012965	0.198196	0.196059	0.180774
1073	0.192608	0.014116	0.195895	0.197045	0.174364
1074	0.1908	0.013952	0.198689	0.196388	0.174857
1075	0.191786	0.015102	0.19573	0.197867	0.176336
1076	0.190471	0.015431	0.198196	0.199182	0.173707
1077	0.193429	0.01428	0.195895	0.198689	0.177487
1078	0.19195	0.012637	0.195402	0.196388	0.178802
1079	0.191128	0.009678	0.196717	0.196059	0.175186
1080	0.189649	0.011979	0.197374	0.199182	0.178144
1081	0.194087	0.010993	0.196552	0.201647	0.179295
1082	0.186855	0.006062	0.197045	0.202962	0.175186
1083	0.186033	0.00672	0.19836	0.200168	0.17913
1084	0.183732	0.00787	0.198196	0.198853	0.179952
1085	0.18554	0.00294	0.197374	0.199018	0.176829
1086	0.186362	0.009514	0.195073	0.199675	0.179623
1087	0.185047	0.008528	0.199182	0.202633	0.176336
1088	0.187841	0.018061	0.19721	0.201812	0.176336
1089	0.188663	0.019047	0.197538	0.197374	0.174528
1090	0.186033	0.016417	0.194416	0.200825	0.177815
1091	0.187841	0.021019	0.196717	0.201647	0.177322
1092	0.187677	0.023813	0.198031	0.199346	0.174857
1093	0.185869	0.025128	0.197867	0.200168	0.175515
1094	0.189814	0.027922	0.197867	0.198689	0.181103
1095	0.187677	0.028251	0.201483	0.195237	0.173707
1096	0.185212	0.027758	0.196881	0.196881	0.176008
1097	0.18439	0.024142	0.198196	0.198524	0.178473
1098	0.187513	0.016253	0.199018	0.200825	0.175515
1099	0.186033	0.015924	0.198524	0.200168	0.176665
1100	0.115524	0.011158	0.201483	0.200825	0.175843
1101	0.044029	0.013294	0.195895	0.200168	0.179623
1102	0.040577	0.012965	0.200661	0.200332	0.177158
1103	0.048302	0.018882	0.19721	0.203948	0.1742
1104	0.052247	0.013952	0.197374	0.200661	0.168776
1105	0.058657	0.019704	0.196552	0.194909	0.17798
1106	0.061451	0.012472	0.198031	0.146095	0.170748
1107	0.064245	0.009514	0.19573	0.100403	0.174035
1108	0.067532	0.006227	0.198031	0.029401	0.173214
1109	0.062437	0.011651	0.195895	0.001296	0.174693
1110	0.028415	0.011322	0.194416	0.000474	0.170748
1111	0.015595	0.011486	0.19573	-0.000183	0.172063
1112	0.003433	0.013623	0.199018	-0.000347	0.173049
1113	-0.002977	0.008692	0.200332	-0.000347	0.171077
1114	0.011979	0.0105	0.198031	-0.000512	0.17272
1115	0.01428	0.010993	0.198031	-0.000183	0.173871
1116	0.006556	0.010336	0.200332	0.000146	0.174693
1117	0.002118	0.01428	0.200497	0.00031	0.171406
1118	0.004583	0.012637	0.200497	0.000474	0.171406
1119	0.009678	0.008528	0.202469	0.000474	0.171077
1120	0.017732	0.010171	0.196717	0.000474	0.174035
1121	0.010007	0.00672	0.20099	0.000146	0.169762
1122	0.002118	0.008199	0.198031	-0.000183	0.170748
1123	0.00672	0.006062	0.199839	-0.000183	0.170913
1124	0.017074	0.009843	0.197045	-0.000347	0.16894
1125	0.024635	0.00409	0.197703	-0.000676	0.170748
1126	0.030552	0.000146	0.196717	-0.000512	0.173871
1127	0.036469	-0.000512	0.198689	-0.000183	0.171734
1128	0.041728	-0.000512	0.199839	0.000474	0.172392
1129	0.047152	-0.000183	0.196881	0.00031	0.173707
1130	0.047973	-0.000347	0.200332	0.000639	0.173214
1131	0.044358	0.00031	0.198196	0.000967	0.175843
1132	0.034989	0.000146	0.200332	0.000146	0.180116
1133	0.007542	0.000146	0.20099	-0.000183	0.175515
1134	0.001625	0.000639	0.201812	-1.9e-05	0.171241
1135	0.006556	0.000474	0.199839	-0.000183	0.17535
1136	0.018389	0.000146	0.20099	-0.000512	0.17272
1137	0.023649	-1.9e-05	0.198689	-1.9e-05	0.174693
1138	0.033346	-0.000347	0.199675	0.000146	0.171241
1139	0.03614	-0.000347	0.200497	0.000474	0.173871
1140	0.017896	-0.000347	0.19721	0.000474	0.173542
1141	0.003104	-0.000347	0.196552	0.000474	0.176008
1142	0.000146	0.000146	0.198524	0.000639	0.175679
1143	0.000803	0.000146	0.197703	0.000146	0.1742
1144	0.000967	0.00031	0.195566	-0.000347	0.173378
1145	0.001625	0.00031	0.196552	-0.000183	0.175679
1146	-0.000841	0.000474	0.197538	-0.000512	0.175021
1147	-0.000347	0.00031	0.199018	-0.000512	0.175021
1148	0.011322	-0.000183	0.197703	-0.000676	0.176172
1149	0.014609	-0.000347	0.198031	0.000146	0.165489
1150	0.022827	-0.000347	0.197374	0.00031	0.173214
1151	0.030223	-0.000183	0.204113	0.00031	0.168283
1152	0.036962	-0.000183	0.200332	0.000474	0.168283
1153	0.041564	0.000146	0.200661	0.000639	0.172392
1154	0.049617	0.000474	0.201647	-1.9e-05	0.176665
1155	0.057177	-1.9e-05	0.199839	-0.000347	0.172227
1156	0.063916	0.00031	0.199511	-0.000183	0.171899
1157	0.066053	0.000474	0.198031	-0.000183	0.175515
1158	0.070983	0.00031	0.199182	-0.000347	0.1742
1159	0.076572	-1.9e-05	0.196881	-0.000512	0.176008
1160	0.078051	-0.000183	0.198853	0.000146	0.167461
1161	0.083475	-0.000183	0.197867	0.000146	0.17535
1162	0.085776	-0.000512	0.200661	0.00031	0.1742
1163	0.091528	-0.000183	0.196717	0.000474	0.1742
1164	0.097281	-1.9e-05	0.198524	0.000639	0.176665
1165	0.101883	0.00031	0.196717	0.00031	0.176336
1166	0.103197	0.000146	0.198689	-1.9e-05	0.170091
1167	0.110265	0.000474	0.199839	-1.9e-05	0.174857
1168	0.112073	0.000146	0.201812	-0.000183	0.16779
1169	0.099253	-1.9e-05	0.203126	-0.000347	0.170419
1170	0.09991	-0.000183	0.20099	-0.000512	0.170255
1171	0.095637	-0.000183	0.200497	0.000146	0.156778
1172	0.014609	-0.000183	0.199839	0.00031	0.169762
1173	0.008363	-0.000512	0.200004	0.000146	0.16779
1174	0.008035	-0.000676	0.199511	0.000474	0.169433
1175	0.008363	0.000146	0.198031	0.000639	0.166968
1176	0.010336	0.000639	0.19836	-1.9e-05	0.172227
1177	0.01428	0.00031	0.199018	-1.9e-05	0.163516
1178	0.006391	0.001296	0.19458	-0.000183	0.169269
1179	0.006227	0.002282	0.201647	-0.000676	0.165817
1180	0.012637	0.003926	0.197867	-0.000347	0.167461
1181	0.016088	0.001296	0.201647	-0.000512	0.163023
1182	0.020197	0.005734	0.201976	0.000146	0.155956
1183	0.0271	0.002775	0.199675	0.00031	0.164667
1184	0.03729	0.003926	0.19721	0.00031	0.169926
1185	0.04107	0.00672	0.200825	0.000474	0.166475
1186	0.044686	0.001789	0.195237	0.000474	0.165982
1187	0.051918	0.003433	0.199346	-1.9e-05	0.169433
1188	0.059478	0.003104	0.199182	0.000146	0.16401
1189	0.063259	0.001789	0.197703	-0.000347	0.167625
1190	0.070326	0.006556	0.197867	-0.000183	0.168118
1191	0.075421	0.005076	0.197867	-0.000512	0.170255
1192	0.077886	-0.001498	0.199346	-1.9e-05	0.168776
1193	0.081995	0.005405	0.197374	0.000146	0.161544
1194	0.083968	0.00031	0.202469	0.000146	0.169433
1195	0.094651	0.003268	0.199675	0.000474	0.169762
1196	0.094322	0.004583	0.200004	0.000474	0.171734
1197	0.09876	0.008692	0.199018	0.000146	0.170091
1198	0.105992	0.006391	0.199839	-0.000183	0.169926
1199	0.109443	0.00787	0.199182	-0.000347	0.169105
1200	0.107142	0.005405	0.199182	-0.000183	0.168612
1201	0.114374	0.00672	0.197045	-0.000347	0.169598
1202	0.115689	0.009185	0.197867	-0.000347	0.171241
1203	0.118976	0.00672	0.199182	-0.000347	0.170913
1204	0.124235	0.008035	0.199182	-1.9e-05	0.15875
1205	0.129001	0.004419	0.200825	0.00031	0.163516
1206	0.129166	0.006062	0.197867	0.000474	0.166968
1207	0.130316	0.007377	0.200332	0.00031	0.168776
1208	0.129988	0.005734	0.192443	0.000474	0.167625
1209	0.128015	0.003268	0.193758	0.000146	0.169269
1210	0.118976	0.006884	0.189814	-0.000347	0.168776
1211	0.114209	0.003761	0.192772	-0.000512	0.166968
1212	0.118976	0.008528	0.18932	-0.000676	0.170091
1213	0.120455	0.005241	0.187019	-0.000183	0.167297
1214	0.126207	0.004912	0.184061	-0.000183	0.169926
1215	0.125386	0.005405	0.187019	-1.9e-05	0.163516
1216	0.129001	0.005734	0.188334	0.000474	0.165817
1217	0.122098	0.004583	0.18817	0.00031	0.164174
1218	0.12933	0.006227	0.191786	0.000474	0.163845
1219	0.131796	0.006062	0.190635	0.000474	0.163352
1220	0.134097	0.002775	0.18932	0.000146	0.163845
1221	0.134097	0.006391	0.190964	-0.000183	0.16516
1222	0.136891	0.005241	0.18817	-0.000183	0.164831
1223	0.143958	0.007213	0.184554	-0.000183	0.166146
1224	0.14593	0.007706	0.18439	-0.000347	0.166311
1225	0.144122	0.009021	0.181431	-1.9e-05	0.168612
1226	0.148067	0.003761	0.183075	0.00031	0.161873
1227	0.154148	0.008199	0.172227	0.000474	0.166475
1228	0.148231	0.006227	0.168118	0.00031	0.164503
1229	0.148724	0.005734	0.150204	0.000146	0.172392
1230	0.148231	0.005405	0.141986	0.00031	0.167625
1231	0.151025	0.004583	0.12292	0.000146	0.165653
1232	0.151518	0.012308	0.105334	-1.9e-05	0.169433
1233	0.151847	0.011651	0.091692	-0.000347	0.165489
1234	0.152669	0.01313	0.085776	-0.000347	0.166968
1235	0.157271	0.00787	0.060136	-0.000347	0.167297
1236	0.160394	0.010171	0.034003	-1.9e-05	0.166804
1237	0.163188	0.005405	0.037783	0.000146	0.163188
1238	0.164338	0.011158	0.030387	0.00031	0.164996
1239	0.160558	0.003761	0.028908	0.000146	0.164174
1240	0.162202	0.005734	0.029072	0.000474	0.167954
1241	0.160887	0.00409	0.031373	0.000474	0.163681
1242	0.16253	0.003926	0.019211	0.000146	0.164338
1243	0.165817	0.007213	0.024964	-0.000183	0.163188
1244	0.166968	0.010171	0.009021	-0.000347	0.166311
1245	0.165817	0.011815	0.009678	-0.000512	0.167132
1246	0.170748	0.012965	0.010336	-0.000512	0.163681
1247	0.168447	0.008692	0.010171	-1.9e-05	0.163023
1248	0.174857	0.0105	0.00409	0.000146	0.159901
1249	0.106813	0.011651	0.004583	0.000474	0.161544
1250	0.076572	0.016253	0.005076	0.000474	0.161709
1251	0.07953	0.011651	0.006556	0.00031	0.162202
1252	0.085118	0.01313	0.004255	0.000474	0.160229
1253	0.08857	0.022005	0.001625	0.00031	0.159901
1254	0.093172	0.027758	0.008199	-0.000183	0.160394
1255	0.09991	0.035811	0.003926	-0.000183	0.164667
1256	0.098102	0.037783	0.009514	-0.000512	0.163352
1257	0.107635	0.04107	0.015266	-0.000512	0.164503
1258	0.107306	0.044193	0.02069	-0.000183	0.163516
1259	0.111908	0.049288	0.023813	0.00031	0.164338
1260	0.113881	0.055698	0.02447	0.00031	0.16401
1261	0.118483	0.061779	0.025457	0.00031	0.165653
1262	0.122427	0.065067	0.032853	0.000146	0.166968
1263	0.127029	0.063423	0.036633	0.00031	0.164503
1264	0.129659	0.069997	0.034989	0.000146	0.162859
1265	0.13196	0.075585	0.036633	-0.000183	0.16516
1266	0.13574	0.07953	0.045179	-0.000183	0.165817
1267	0.136069	0.085447	0.041892	-0.000347	0.163188
1268	0.143629	0.087419	0.045015	-0.000676	0.164667
1269	0.140013	0.089556	0.041235	-0.000183	0.159901
1270	0.143794	0.095473	0.034496	0.000146	0.161709
1271	0.145602	0.095801	0.03992	0.000146	0.162037
1272	0.145108	0.090871	0.040577	0.000474	0.162366
1273	0.146423	0.077065	0.041235	0.00031	0.159243
1274	0.152011	0.057671	0.040084	0.000474	0.161544
1275	0.149382	0.066546	0.04255	0.000146	0.161544
1276	0.153819	0.067368	0.044029	-0.000183	0.16516
1277	0.15234	0.073942	0.047152	-0.000183	0.165489
1278	0.156778	0.079037	0.047809	-0.000183	0.164503
1279	0.160229	0.079366	0.048795	-0.000183	0.161873
1280	0.164503	0.086762	0.046494	-1.9e-05	0.162202
1281	0.162202	0.08857	0.053233	-1.9e-05	0.161544
1282	0.164174	0.090049	0.0603	0.000146	0.160558
1283	0.165817	0.098431	0.062437	0.000146	0.161873
1284	0.162037	0.099582	0.066217	0.000474	0.159408
1285	0.151847	0.093336	0.069011	0.00031	0.157271
1286	0.144944	0.045508	0.072791	0.000146	0.158914
1287	0.152505	0.019868	0.073942	-0.000183	0.164174
1288	0.15497	0.008857	0.080187	-0.000183	0.1576
1289	0.15497	0.010664	0.080845	-0.000347	0.162859
1290	0.156285	0.018882	0.086104	-0.000512	0.159079
1291	0.160394	0.022827	0.091857	-0.000347	0.160722
1292	0.156942	0.020526	0.093007	-0.000183	0.159079
1293	0.160229	0.014609	0.10254	0.000146	0.159572
1294	0.163352	0.022334	0.104348	0.00031	0.160229
1295	0.164667	0.028086	0.112237	0.00031	0.160394
1296	0.166804	0.036469	0.114867	0.000474	0.161873
1297	0.168118	0.040742	0.116182	0.00031	0.161215
1298	0.169433	0.048467	0.118483	-0.000183	0.161051
1299	0.172063	0.050439	0.122098	-0.000512	0.161544
1300	0.171899	0.0603	0.121441	-0.000347	0.164174
1301	0.169598	0.061122	0.124071	-0.000347	0.15612
1302	0.170913	0.068189	0.126865	-1.9e-05	0.158914
1303	0.165324	0.070819	0.132617	-1.9e-05	0.160558
1304	0.165324	0.076736	0.132946	0.00031	0.159572
1305	0.168447	0.084296	0.138863	0.00031	0.157271
1306	0.167954	0.088734	0.138041	0.000146	0.153984
1307	0.166475	0.090213	0.142972	0.000639	0.159408
1308	0.1742	0.096952	0.141657	0.00031	0.161051
1309	0.168447	0.09991	0.146752	-0.000183	0.159243
1310	0.171241	0.10139	0.14856	-0.000183	0.161544
1311	0.175679	0.109114	0.15119	-0.000512	0.160558
1312	0.175021	0.109279	0.152833	-0.000676	0.158257
1313	0.175679	0.11273	0.152998	-1.9e-05	0.121605
1314	0.179788	0.116346	0.158586	0.000146	0.114045
1315	0.178144	0.120784	0.155463	0.00031	0.099089
1316	0.178966	0.121605	0.155299	0.000146	0.100732
1317	0.178144	0.127687	0.158257	0.00031	0.096623
1318	0.172227	0.125714	0.163845	0.000474	0.070983
1319	0.172885	0.127522	0.159408	0.00031	0.05389
1320	0.16894	0.131796	0.164667	-0.000183	0.037783
1321	0.167297	0.135576	0.164503	-0.000347	0.03088
1322	0.167625	0.138205	0.164338	-0.000183	0.024306
1323	0.171406	0.140342	0.166475	-0.000512	0.019211
1324	0.169926	0.14215	0.168283	-0.000347	0.014773
1325	0.171899	0.144122	0.171734	-1.9e-05	0.016417
1326	0.173378	0.147574	0.167132	0.000146	0.013787
1327	0.17272	0.147574	0.173378	0.00031	0.01428
1328	0.174693	0.152011	0.176336	0.000474	0.013459
1329	0.174857	0.151683	0.177651	0.00031	0.015266
1330	0.176829	0.14971	0.175843	0.000146	0.020197
1331	0.177651	0.151847	0.179952	-1.9e-05	0.020855
1332	0.17798	0.147903	0.17798	-0.000183	0.022991
1333	0.178637	0.150697	0.179459	-0.000512	0.019704
1334	0.17913	0.155463	0.178309	-0.000347	0.020362
1335	0.183239	0.152011	0.177651	-0.000183	0.014773
1336	0.183568	0.152998	0.18061	0.000146	0.008528
1337	0.179952	0.155956	0.18176	0.00031	0.002611
1338	0.178309	0.156449	0.179952	0.000474	0.00787
1339	0.179788	0.159243	0.182582	0.000474	0.008528
1340	0.17913	0.159736	0.180281	0.000474	0.0105
1341	0.178637	0.163845	0.179459	0.00031	0.008692
1342	0.185212	0.163023	0.185376	-1.9e-05	0.006227
1343	0.179788	0.165982	0.181596	-0.000183	0.005898
1344	0.181103	0.164338	0.186033	-0.000347	0.006884
1345	0.184225	0.170584	0.184883	-0.000676	0.004583
1346	0.182417	0.16779	0.185869	-0.000183	0.005076
1347	0.183732	0.169433	0.18554	0.000146	0.006227
1348	0.183075	0.168447	0.189485	0.000146	0.001132
1349	0.180116	0.169269	0.190964	0.00031	0.004583
1350	0.176665	0.17157	0.189978	0.00031	0.004912
1351	0.179623	0.170091	0.188663	0.00031	0.006062
1352	0.1742	0.164996	0.19195	0.000146	0.004912
1353	0.177322	0.172392	0.186198	-0.000183	0.008363
1354	0.174035	0.172227	0.190307	-1.9e-05	0.005241
1355	0.173214	0.170255	0.192608	-0.000347	0.005734
1356	0.176172	0.176994	0.196388	-0.000512	0.00672
1357	0.172227	0.175515	0.192443	-0.000347	0.008035
1358	0.174857	0.176172	0.193101	0.000146	0.010829
1359	0.174857	0.176008	0.19458	0.00031	0.000967
1360	0.17157	0.177487	0.193101	0.000474	0.005076
1361	0.173214	0.172885	0.193594	0.000146	0.008199
1362	0.17535	0.178637	0.191786	0.000639	0.012472
1363	0.174364	0.177322	0.193101	0.000146	0.017074
1364	0.178144	0.178966	0.192608	-1.9e-05	0.002775
1365	0.174693	0.176008	0.194251	-0.000183	0.001789
1366	0.181596	0.176994	0.193101	-0.000512	0.006062
1367	0.176501	0.178473	0.196059	-0.000512	0.002775
1368	0.123413	0.176336	0.192279	-1.9e-05	0.004912
1369	0.028908	0.175843	0.195566	0.000146	0.001132
1370	0.012144	0.172227	0.196552	0.00031	0.004255
1371	0.008199	0.162859	0.194744	0.000474	0.004419
1372	0.006556	0.15119	0.194251	0.000474	0.007377
1373	0.008035	0.146259	0.193758	0.000474	0.010664
1374	0.0105	0.143136	0.192115	0.00031	0.008857
1375	0.016746	0.14593	0.194087	-1.9e-05	0.011651
1376	0.021512	0.146752	0.193594	-0.000347	0.005734
1377	0.032524	0.150532	0.197374	-0.000347	0.008857
1378	0.036962	0.150368	0.19573	-0.000347	0.005569
1379	0.046166	0.155792	0.191293	-0.000347	0.008528
1380	0.049617	0.154148	0.196059	-1.9e-05	0.012637
1381	0.0603	0.154641	0.195073	0.00031	0.01691
1382	0.060465	0.15497	0.197045	0.000146	0.012472
1383	0.062437	0.156613	0.194744	0.00031	0.012965
1384	0.036797	0.154312	0.197703	0.00031	0.018718
1385	0.004748	0.1576	0.194744	-1.9e-05	0.016253
1386	0.001789	0.154148	0.196223	-0.000183	0.012801
1387	0.005076	0.153326	0.19721	-0.000512	0.015102
1388	0.00146	0.156613	0.196059	-0.000183	0.015595
1389	0.001296	0.15612	0.197045	-0.000347	0.018882
1390	0.002447	0.1576	0.195237	-0.000183	0.018718
1391	0.005898	0.156285	0.195237	0.000146	0.022663
1392	0.019868	0.157764	0.19458	0.00031	0.018225
1393	0.027265	0.156778	0.197703	0.00031	0.011322
1394	0.033839	0.161544	0.194744	0.00031	0.014116
1395	0.039263	0.157928	0.197374	0.00031	0.012472
1396	0.046494	0.158914	0.194416	0.000146	0.013459
1397	0.047973	0.158421	0.195566	-1.9e-05	0.009843
1398	0.059972	0.159736	0.197703	-0.000183	0.010007
1399	0.061944	0.16138	0.19721	-0.000183	0.008692
1400	0.067368	0.163023	0.194416	-0.000512	0.018225
1401	0.072791	0.160394	0.198524	-1.9e-05	0.024306
1402	0.077393	0.159901	0.19836	-1.9e-05	0.021841
1403	0.083639	0.160887	0.198689	0.00031	0.022005
1404	0.086104	0.160394	0.200168	0.00031	0.027922
1405	0.088241	0.16253	0.197045	0.000474	0.034332
1406	0.09235	0.157764	0.200168	0.000474	0.041892
1407	0.089063	0.16516	0.198689	0.00031	0.050603
1408	0.091528	0.160722	0.19836	-1.9e-05	0.050274
1409	0.099089	0.159736	0.197538	-0.000347	0.058164
1410	0.10139	0.161544	0.200004	-0.000347	0.061286
1411	0.105334	0.165817	0.195073	-0.000347	0.068682
1412	0.102376	0.163845	0.199675	-0.000347	0.069504
1413	0.10895	0.16779	0.19721	0.00031	0.073613
1414	0.113388	0.16401	0.197538	0.000146	0.076079
1415	0.116017	0.16516	0.197703	0.00031	0.08216
1416	0.116346	0.164174	0.196881	0.00031	0.086762
1417	0.121934	0.164174	0.198524	0.00031	0.088241
1418	0.122756	0.16401	0.198689	0.000146	0.094322
1419	0.121277	0.162695	0.199182	-0.000347	0.094651
1420	0.123578	0.164996	0.198524	-0.000512	0.099746
1421	0.123742	0.163681	0.200497	-0.000512	0.103526
1422	0.126536	0.165653	0.198196	-0.000512	0.105498
1423	0.128837	0.162859	0.198524	-0.000347	0.106649
1424	0.130645	0.165324	0.199182	-1.9e-05	0.112073
1425	0.132782	0.164996	0.196388	0.00031	0.111744
1426	0.135083	0.163516	0.198853	0.000474	0.118318
1427	0.134425	0.165982	0.198031	0.000474	0.120291
1428	0.139027	0.165489	0.197538	0.00031	0.121112
1429	0.141986	0.165489	0.199182	0.000146	0.122756
1430	0.142643	0.168776	0.198524	-1.9e-05	0.127687
1431	0.143794	0.16516	0.196717	-0.000676	0.130645
1432	0.144615	0.160722	0.195237	-0.000183	0.13311
1433	0.130316	0.131796	0.197867	-0.000347	0.134754
1434	0.12818	0.089885	0.197374	-1.9e-05	0.136398
1435	0.127687	0.096788	0.20099	0.000146	0.13952
1436	0.001789	0.099253	0.200168	0.00031	0.140835
1437	0.002282	0.104184	0.198853	0.00031	0.144615
1438	0.001954	0.106813	0.200497	0.00031	0.14593
1439	0.005241	0.107635	0.197374	0.000474	0.151683
1440	0.005734	0.111744	0.197703	0.000146	0.148724
1441	0.009843	0.114209	0.197045	-0.000183	0.154806
1442	0.012801	0.116017	0.198689	-0.000512	0.154641
1443	0.021183	0.11651	0.197045	-0.000512	0.156285
1444	0.016746	0.122756	0.198524	-0.000347	0.157107
1445	0.018389	0.08216	0.196881	-0.000347	0.160229
1446	0.02069	0.087419	0.198689	-1.9e-05	0.161873
1447	0.018882	0.088405	0.19721	0.000146	0.162037
1448	0.021183	0.079694	0.197538	0.000146	0.163516
1449	0.029894	0.086433	0.198689	0.000146	0.163681
1450	0.033017	0.087748	0.196059	0.000639	0.166146
1451	0.038769	0.091035	0.199839	0.000146	0.169269
1452	0.039427	0.0935	0.197374	-0.000512	0.172556
1453	0.043371	0.08972	0.201812	-0.000347	0.170091
1454	0.046823	0.089391	0.198689	-0.000347	0.171406
1455	0.039263	0.091364	0.203455	-0.000512	0.169762
1456	0.044851	0.095308	0.200168	-0.000512	0.173214
1457	0.05011	0.08216	0.203784	-1.9e-05	0.171077
1458	0.055205	0.083803	0.201812	0.000146	0.168283
1459	0.058985	0.086597	0.20214	0.000146	0.172227
1460	0.067203	0.090213	0.200661	0.00031	0.178802
1461	0.071805	0.08709	0.201647	0.000474	0.17272
1462	0.076079	0.071477	0.196881	0.000146	0.178144
1463	0.082982	0.072134	0.197538	-1.9e-05	0.18061
1464	0.084296	0.049946	0.19721	-0.000183	0.180116
1465	0.089556	0.047152	0.19573	-0.000183	0.181431
1466	0.091857	0.051589	0.197374	-0.000347	0.180116
1467	0.097281	0.057999	0.199346	-0.000347	0.180938
1468	0.097609	0.064245	0.200332	0.000146	0.180445
1469	0.10139	0.068518	0.199675	0.000146	0.183897
1470	0.105334	0.06934	0.200825	0.000146	0.177158
1471	0.1101	0.071805	0.199675	0.00031	0.184061
1472	0.110429	0.070819	0.201812	0.000474	0.177815
1473	0.113223	0.069504	0.19836	0.00031	0.179295
1474	0.116839	0.031538	0.201647	-0.000183	0.181103
1475	0.117003	0.00146	0.20099	-0.000512	0.184225
1476	0.098267	0.001789	0.202798	-0.000183	0.184718
1477	0.040084	0.000474	0.201976	-0.000347	0.18817
1478	0.000474	0.000803	0.199511	-0.000347	0.188827
1479	0.003926	-0.001169	0.198524	0.000146	0.187019
1480	0.003926	-0.000183	0.197867	-1.9e-05	0.190142
1481	-0.000183	-0.000512	0.198196	0.00031	0.184061
1482	0.003926	-0.000183	0.196552	0.00031	0.188499
1483	-1.9e-05	-0.000183	0.199839	0.000639	0.187841
1484	0.002775	0.000474	0.19721	0.000146	0.186526
1485	0.000146	0.00031	0.198031	-0.000183	0.187348
1486	0.003433	0.000639	0.199346	-0.000347	0.189485
1487	0.000639	0.000639	0.200004	-0.000183	0.188663
1488	0.003926	0.00031	0.199182	-0.000512	0.187513
1489	0.009021	-0.000183	0.200661	-0.000347	0.187677
1490	0.012801	-0.000347	0.200004	-1.9e-05	0.188334
1491	0.021512	-0.000676	0.19836	-1.9e-05	0.190142
1492	0.028908	-0.000512	0.19836	0.00031	0.18817
1493	0.035647	-0.000183	0.200497	0.00031	0.189485
1494	0.042714	0.000146	0.198196	0.00031	0.190471
1495	0.047973	0.00031	0.195566	0.000146	0.192279
1496	0.054055	0.000146	0.198031	-0.000183	0.192608
1497	0.060465	0.00031	0.197867	-0.000512	0.194909
1498	0.06408	0.000639	0.199018	-0.000347	0.191293
1499	0.07049	0.000474	0.198689	-0.000512	0.193922
1500	0.073942	-0.000183	0.200497	-0.000347	0.195073
1501	0.079859	-0.000512	0.201319	-1.9e-05	0.194087
1502	0.083146	-0.000347	0.200497	0.00031	0.194087
1503	0.084789	-0.000347	0.19836	0.000146	0.19195
1504	0.089885	-0.000183	0.198196	0.00031	0.18817
1505	0.081995	-1.9e-05	0.196059	0.000639	0.192608
1506	0.081338	0.000146	0.19721	0.000474	0.193265
1507	0.08594	0.000639	0.196223	-1.9e-05	0.189978
1508	0.090378	0.000146	0.197703	-0.000183	0.191621
1509	0.097445	0.00031	0.200332	-0.000512	0.194087
1510	0.096294	0.00031	0.200332	-0.000347	0.195237
1511	0.103197	-0.000183	0.199346	-0.000347	0.19195
1512	0.106813	-0.000183	0.199018	0.000146	0.195073
1513	0.10895	-0.000841	0.199182	0.000146	0.194416
1514	0.110758	-0.000347	0.199018	0.000146	0.193265
1515	0.112566	-0.000347	0.199182	0.00031	0.193101
1516	0.112894	0.000146	0.19836	0.00031	0.1908
1517	0.101718	0.000146	0.200332	0.000146	0.192936
1518	0.09991	0.000474	0.197703	-0.000183	0.197374
1519	0.09876	0.000474	0.201319	-0.000347	0.194744
1520	0.103197	0.00031	0.197867	-0.000347	0.192443
1521	0.104841	0.000146	0.199675	-0.000676	0.190635
1522	0.110758	-0.000183	0.199182	-0.000676	0.191786
1523	0.107306	-0.000347	0.199675	-1.9e-05	0.191457
1524	0.115524	-0.000512	0.203126	0.000146	0.192279
1525	0.117496	-0.000512	0.20362	0.00031	0.190471
1526	0.119797	-0.000347	0.195237	0.00031	0.190307
1527	0.125221	-1.9e-05	0.199511	0.000474	0.195402
1528	0.123578	0.00031	0.196717	0.000146	0.196881
1529	0.127194	0.000146	0.194251	-0.000183	0.198524
1530	0.127851	0.000146	0.199511	-0.000347	0.196881
1531	0.050439	0.000474	0.198031	-0.000512	0.198689
1532	0.000146	0.000146	0.199182	-0.000512	0.196388
1533	0.003104	-0.000183	0.199018	-0.000347	0.198031
1534	0.009185	-0.000183	0.201319	-1.9e-05	0.195073
1535	0.020033	-0.000676	0.197867	0.000146	0.19458
1536	0.023156	-0.000347	0.199839	0.00031	0.191128
1537	0.038769	-0.000183	0.197374	0.00031	0.195895
1538	0.034168	0.00031	0.197045	0.00031	0.19458
1539	0.046166	0.000474	0.198031	0.00031	0.194416
1540	0.047645	0.000474	0.19836	-0.000183	0.197374
1541	0.050603	0.00031	0.20362	-0.000347	0.196552
1542	0.060958	0.000474	0.197867	-0.000512	0.197374
1543	0.066217	0.000146	0.197538	-0.000512	0.195402
1544	0.070819	-1.9e-05	0.197045	-0.000183	0.19836
1545	0.073449	-0.000512	0.198031	0.000146	0.195895
1546	0.07575	-0.000676	0.19836	0.000146	0.197703
1547	0.068025	-0.000347	0.200004	0.00031	0.196059
1548	0.063259	-0.000183	0.196059	0.00031	0.199346
1549	0.05011	0.000146	0.200168	0.000474	0.19836
1550	0.040906	0.000474	0.197703	0.00031	0.20099
1551	0.032195	0.000474	0.200332	-0.000183	0.20099
1552	0.032688	0.000474	0.199346	-0.000183	0.19721
1553	0.035482	0.00031	0.20099	-0.000512	0.197538
1554	0.039263	0.00031	0.201647	-0.000676	0.195566
1555	0.043536	-0.000347	0.199839	-0.000183	0.195237
1556	0.050439	-0.000512	0.201319	0.000146	0.195402
1557	0.055041	-0.000347	0.199346	0.00031	0.197538
1558	0.0603	-0.000347	0.197045	0.000146	0.193265
1559	0.063587	-0.000183	0.19721	0.000474	0.173542
1560	0.056684	-1.9e-05	0.200825	0.00031	0.164667
1561	0.038769	0.000146	0.196881	0.000146	0.168118
1562	0.016253	0.000474	0.198689	0.000146	0.168776
1563	0.008692	0.00031	0.199182	-0.000347	0.094487
1564	0.015431	0.00031	0.200332	-0.000347	0.0105
1565	0.022005	0.000146	0.199018	-0.000512	0.010993
1566	0.029072	-1.9e-05	0.20362	-0.000347	0.01313
1567	0.038276	-0.000347	0.201483	-1.9e-05	0.013787
1568	0.043043	-0.000347	0.199018	0.000146	0.000146
1569	0.046494	-0.000512	0.198524	0.000146	0.000803
1570	0.051918	-0.000347	0.19836	0.00031	0.00787
1571	0.054219	-1.9e-05	0.199675	0.00031	0.000967
1572	0.05537	0.000474	0.199346	0.000146	-0.004292
1573	0.059643	0.00031	0.198524	-0.000183	0.005241
1574	0.061451	0.000474	0.196881	-0.000347	-1.9e-05
1575	0.065395	0.000146	0.194416	-0.000347	-0.001005
1576	0.070326	0.000146	0.197045	-0.000512	-0.000347
1577	0.072956	-0.000183	0.197045	-0.000347	-0.000183
1578	0.080845	-0.000347	0.196717	0.000146	-0.000512
1579	0.087419	-0.000512	0.202962	0.000146	-0.001005
1580	0.088405	-0.000347	0.200825	0.000146	0.00146
1581	0.091035	-0.000183	0.199182	0.00031	0.000146
1582	0.098924	0.000146	0.205263	0.00031	0.003104
1583	0.101225	0.000146	0.199511	0.00031	0.00031
1584	0.107142	0.000146	0.200661	-1.9e-05	0.000803
1585	0.109607	0.00031	0.198031	-0.000512	-1.9e-05
1586	0.115853	0.00031	0.198853	-0.000512	-1.9e-05
1587	0.11799	0.000146	0.20099	-0.000347	-0.000183
1588	0.118483	-0.000183	0.197867	-0.000183	-0.000512
1589	0.122756	-0.000183	0.198689	-1.9e-05	-0.000512
1590	0.127358	-0.000676	0.196881	-1.9e-05	-0.000183
1591	0.126043	-0.000512	0.19573	0.000474	-1.9e-05
1592	0.126372	-1.9e-05	0.19836	0.000474	0.00031
1593	0.127851	0.000146	0.197867	0.000474	0.00031
1594	0.130152	0.000146	0.196388	0.000146	0.000474
1595	0.136233	0.000474	0.196059	-0.000183	0.000639
1596	0.135904	0.000474	0.200168	-0.000183	-1.9e-05
1597	0.14215	0.000474	0.201647	-0.000183	0.000146
1598	0.14215	0.000146	0.201647	-0.000347	-0.000512
1599	0.146095	-0.000183	0.198853	-0.000183	-0.000183
1600	0.15234	-0.000183	0.201319	-1.9e-05	-0.000347
1601	0.153162	-0.000512	0.200168	0.000146	-0.000183
1602	0.14971	-0.000347	0.198853	0.000146	0.000146
1603	0.152998	-0.000347	0.196388	0.00031	0.000146
1604	0.155299	0.000146	0.201647	0.000474	0.00031
1605	0.155299	0.00031	0.199511	0.00031	0.00031
1606	0.158257	0.000474	0.196552	-0.000183	0.000474
1607	0.155792	0.000474	0.20099	-0.000183	0.00031
1608	0.1576	0.00031	0.200168	-0.000347	-0.000347
1609	0.162037	-1.9e-05	0.20099	-0.000512	-0.000512
1610	0.159736	-0.000183	0.197703	-1.9e-05	-0.000347
1611	0.157764	-0.000512	0.201319	-1.9e-05	-0.000676
1612	0.163516	-0.000512	0.199182	0.00031	-0.000347
1613	0.16138	-0.000347	0.200825	0.000474	0.00031
1614	0.164831	-0.000183	0.199839	0.00031	0.000146
1615	0.156942	-1.9e-05	0.203948	0.000474	0.000146
1616	0.163023	0.00031	0.196717	0.00031	0.000474
1617	0.161215	0.00031	0.201319	-1.9e-05	0.000639
1618	0.153655	0.000639	0.200332	-0.000347	-1.9e-05
1619	0.148067	0.00031	0.198853	-0.000347	-0.000347
1620	0.132453	0.000146	0.20099	-0.000676	-1.9e-05
1621	0.128673	-0.000183	0.19573	-0.000347	-0.000512
1622	0.104512	-0.000183	0.198524	0.000146	-0.000347
1623	0.103197	-0.000347	0.199182	-1.9e-05	-0.000347
1624	0.094487	-0.000347	0.196223	0.000474	0.000146
1625	0.095308	-1.9e-05	0.194087	0.00031	0.000146
1626	0.096459	-1.9e-05	0.201154	0.00031	0.00031
1627	0.097938	0.000146	0.196059	0.00031	0.000474
1628	0.095473	0.000474	0.19836	-0.000183	0.000474
1629	0.100732	0.000639	0.198524	-0.000347	0.000146
1630	0.101883	0.000474	0.19573	-0.000183	-0.000183
1631	0.107635	0.000146	0.197538	-0.000347	-0.000183
1632	0.110758	-0.000347	0.197867	-0.000347	-0.000512
1633	0.112237	-0.000347	0.19836	0.000146	-0.000512
1634	0.116346	-0.000512	0.199182	0.00031	-0.000347
1635	0.111415	-0.000512	0.201319	0.000146	-1.9e-05
1636	0.115853	-0.000512	0.198196	0.00031	0.000474
1637	0.105334	-1.9e-05	0.200497	0.000639	0.000639
1638	0.096459	0.000146	0.193758	0.000146	0.000474
1639	0.090871	0.00031	0.200497	-0.000347	0.000639
1640	0.087748	0.000474	0.197374	-0.000183	-1.9e-05
1641	0.092186	0.00031	0.198689	-1.9e-05	-0.000347
1642	0.098595	0.00031	0.197538	-0.000347	-0.000183
1643	0.103691	-0.000183	0.196881	-0.000183	-0.000347
1644	0.10139	-0.000347	0.195895	-1.9e-05	-0.000512
1645	0.104841	-0.000512	0.196388	0.00031	-0.000347
1646	0.111251	-0.000512	0.197867	0.000146	-1.9e-05
1647	0.113059	-0.000183	0.19721	0.000474	-1.9e-05
1648	0.114374	0.000146	0.198689	0.00031	0.000474
1649	0.121934	-1.9e-05	0.19836	0.000146	0.000474
1650	0.122592	0.000146	0.201154	-0.000183	0.000474
1651	0.127522	0.000639	0.200004	-0.000183	-1.9e-05
1652	0.130152	0.00031	0.201483	-0.000347	0.000146
1653	0.132782	0.000146	0.199018	-0.000347	-0.000512
1654	0.135247	-0.000347	0.200168	-0.000512	-0.000347
1655	0.134918	-0.000512	0.196059	-1.9e-05	-0.000347
1656	0.13837	-0.000347	0.198031	-1.9e-05	-0.000512
1657	0.136562	-0.000512	0.199511	0.000474	0.000146
1658	0.13459	-0.000183	0.201647	0.00031	0.00031
1659	0.11799	-0.000183	0.198853	0.000146	0.000639
1660	0.105005	0.00031	0.19836	0.000146	0.00031
1661	0.103362	0.00031	0.197374	-0.000183	0.00031
1662	0.100403	0.000474	0.199182	-0.000347	-1.9e-05
1663	0.097938	0.00031	0.198524	-0.000347	-0.000183
1664	0.097116	-1.9e-05	0.198689	-0.000512	-0.000183
1665	0.099089	-0.000183	0.199511	-0.000512	-0.000347
1666	0.103855	-0.000512	0.200332	0.000146	-0.000512
1667	0.105005	-0.000512	0.199675	0.000146	-0.000347
1668	0.108293	-0.000512	0.199675	0.000474	-1.9e-05
1669	0.109772	-0.000183	0.20099	0.00031	0.000474
1670	0.113552	-0.000183	0.196223	0.00031	0.00031
1671	0.111908	0.000146	0.199839	0.00031	0.00031
1672	0.105992	0.000474	0.196059	-1.9e-05	0.000474
1673	0.077558	0.000474	0.200497	-0.000183	0.000146
1674	0.045344	0.000474	0.198031	-0.000347	-1.9e-05
1675	0.025785	0.00031	0.201154	-0.000512	-0.000183
1676	0.012472	-0.000183	0.19721	-0.000347	-0.000347
1677	0.004255	-0.000347	0.197867	0.000146	-0.000512
1678	0.000967	-0.000512	0.200004	0.00031	-0.000183
1679	-0.000676	-0.000512	0.198031	0.000146	0.000146
1680	0.004255	-0.000347	0.19721	0.000474	-1.9e-05
1681	0.000146	-1.9e-05	0.197374	0.000474	0.00031
1682	0.000474	0.00031	0.201483	0.00031	0.000474
1683	0.000474	0.00031	0.19721	-0.000183	0.000146
1684	0.000639	0.000474	0.201154	-0.000183	0.000146
1685	0.000146	0.000474	0.199511	-0.000347	-1.9e-05
1686	-1.9e-05	-1.9e-05	0.199675	-0.000183	-0.000183
1687	0.000146	-1.9e-05	0.197538	-0.000512	-0.000512
1688	0.001296	-0.000347	0.201483	-1.9e-05	-0.000347
1689	0.005569	-0.000512	0.200168	0.000146	-0.000183
1690	0.001296	-0.000512	0.198853	0.00031	-1.9e-05
1691	0.011979	-0.000183	0.200332	0.000474	0.000146
1692	0.006556	-1.9e-05	0.196223	0.00031	0.000146
1693	0.007377	0.00031	0.196388	0.00031	0.000474
1694	-0.001005	0.00031	0.197703	-0.000183	0.000639
1695	0.001789	0.000146	0.198853	-0.000183	0.000146
1696	0.011815	0.000474	0.195895	-0.000512	-0.000183
1697	0.015266	0.00031	0.199018	-0.000347	-0.000347
1698	0.020197	-0.000183	0.194909	-0.000347	-0.000512
1699	0.023649	-0.000512	0.201976	-1.9e-05	-0.000512
1700	0.021348	-0.000183	0.198853	-1.9e-05	-0.000347
1701	-0.001334	-0.000512	0.199839	0.00031	0.000146
1702	0.001296	-0.000183	0.199182	0.000474	0.00031
1703	0.001296	0.000146	0.199839	0.000474	0.00031
1704	0.000146	0.00031	0.200497	0.00031	0.00031
1705	0.000474	0.000474	0.200661	-0.000183	0.00031
1706	0.001789	0.000474	0.20099	-1.9e-05	0.000146
1707	0.00672	0.00031	0.198031	-0.000347	-0.000183
1708	0.010336	0.00031	0.196717	-0.000512	-0.000347
1709	0.009185	-0.000183	0.197703	-0.000347	-0.000347
1710	0.014609	-0.000347	0.199839	0.000146	-0.000512
1711	0.018225	-0.000512	0.200825	-1.9e-05	-0.000183
1712	0.00409	-0.000347	0.199018	0.000474	-1.9e-05
1713	0.001132	-0.000347	0.197538	0.000474	0.00031
1714	0.006391	0.000146	0.199675	0.00031	0.00031
1715	0.011651	0.00031	0.196223	0.00031	0.00031
1716	0.008528	0.00031	0.199182	-0.000183	0.000474
1717	0.010336	0.000639	0.197045	-0.000512	0.00031
1718	0.012308	0.000639	0.198196	-0.000512	-1.9e-05
1719	0.010336	0.00031	0.197703	-0.000347	-0.000183
1720	-0.000183	-0.000183	0.19836	-0.000347	-0.000512
1721	0.002611	-0.000512	0.199346	0.000146	-0.000347
1722	0.007706	-0.000512	0.200497	0.000146	-0.000183
1723	-1.9e-05	-0.000512	0.199346	0.000146	0.000146
1724	0.007542	-0.000183	0.202469	0.00031	0.000146
1725	0.002775	-1.9e-05	0.204441	0.000474	0.00031
1726	0.001789	0.00031	0.199346	0.000146	0.00031
1727	0.005241	0.00031	0.203126	-1.9e-05	0.000146
1728	-0.000512	0.000639	0.19721	-0.000183	0.000146
1729	0.002118	0.000146	0.199346	-0.000183	-0.000183
1730	0.003761	0.00031	0.200497	-0.000512	-0.000512
1731	0.001296	-0.000183	0.202469	-0.000347	-0.000347
1732	0.004912	-0.000347	0.198031	0.000146	-0.000676
1733	0.005734	-0.000347	0.198689	0.000474	-0.000347
1734	0.000474	-0.000512	0.197703	0.000146	-0.000183
1735	0.00409	-0.000512	0.197538	0.000639	0.00031
1736	0.00031	0.000146	0.198689	0.000474	0.000146
1737	0.000967	0.000146	0.199018	0.00031	0.00031
1738	0.000967	0.00031	0.198689	-0.000183	0.000474
1739	0.00031	0.000474	0.19836	-0.000347	0.00031
1740	0.000639	0.000474	0.199675	-0.000183	-0.000183
1741	-0.000512	0.00031	0.199839	-0.000512	-0.000183
1742	-0.000347	-0.000183	0.200661	-0.000183	-0.000512
1743	-0.000183	-0.000183	0.197867	0.000146	-0.000347
1744	-0.000347	-0.000512	0.19836	-1.9e-05	-0.000347
1745	-0.000183	-0.000347	0.195895	0.000474	-1.9e-05
1746	0.000146	-0.000347	0.199182	0.00031	0.00031
1747	0.00031	-1.9e-05	0.197538	0.000639	0.000474
1748	0.000474	0.000146	0.196881	0.00031	0.00031
1749	0.00031	0.000474	0.197045	-0.000183	0.000639
1750	0.000474	0.00031	0.199182	-0.000347	0.000146
1751	0.00031	0.000639	0.195073	-0.000512	-1.9e-05
1752	-1.9e-05	0.000474	0.195895	-0.000183	-0.000183
1753	-0.000183	-0.000183	0.194744	-0.000347	-0.000347
1754	-0.000347	-0.000183	0.202798	-0.000183	-0.000512
1755	-0.000347	-0.000512	0.199182	0.00031	-0.000183
1756	-1.9e-05	-0.000676	0.199675	0.000146	-1.9e-05
1757	0.000146	-0.000183	0.19836	0.000474	0.00031
1758	0.000146	-1.9e-05	0.200004	0.000474	0.000474
1759	0.00031	0.00031	0.200497	0.00031	0.00031
1760	0.000474	0.00031	0.197374	-0.000347	0.00031
1761	0.00031	0.00031	0.201647	-0.000512	0.00031
1762	-1.9e-05	0.000474	0.199346	-0.000347	-1.9e-05
1763	-0.000183	0.000474	0.200825	-0.000347	-0.000347
1764	-0.000512	-0.000183	0.199675	-0.000512	-0.000676
1765	-0.000183	-0.000347	0.200497	-1.9e-05	-0.000676
1766	-1.9e-05	-0.000512	0.195566	0.000146	-0.000347
1767	-0.000183	-0.000512	0.199675	0.00031	0.000146
1768	-1.9e-05	-0.000183	0.197045	0.000474	0.000146
1769	0.000146	0.000146	0.200332	0.00031	0.000474
1770	0.00031	0.000474	0.196552	0.00031	0.000474
1771	0.00031	0.000146	0.197703	-0.000183	0.00031
1772	0.00031	0.000146	0.200825	-0.000347	0.000146
1773	-1.9e-05	0.000474	0.202962	-0.000183	-0.000347
1774	-0.000183	0.00031	0.201976	-0.000512	-0.000347
1775	-0.000347	-1.9e-05	0.200168	-0.000183	-0.000512
1776	-0.000347	-0.000347	0.20099	-0.000183	-0.000347
1777	0.000146	-0.000347	0.199018	0.00031	-0.000347
1778	-0.000183	-0.000512	0.201483	0.000146	0.000146
1779	-1.9e-05	-0.000347	0.19836	0.000146	0.00031
1780	0.00031	-1.9e-05	0.201976	0.00031	0.00031
1781	0.00031	0.000146	0.196552	0.000146	0.000474
1782	0.00031	0.00031	0.192608	-1.9e-05	0.00031
1783	0.000474	0.000474	0.196388	-0.000183	0.000146
1784	-1.9e-05	0.000639	0.198196	-0.000347	-0.000183
1785	-0.000183	0.000474	0.196059	-0.000347	-0.000347
1786	-0.000347	-0.000183	0.196881	-0.000347	-0.000347
1787	-0.000512	-0.000347	0.199839	0.000146	-0.000183
1788	-1.9e-05	-0.000347	0.197045	0.00031	-0.000512
1789	-0.000183	-0.000512	0.201154	0.00031	-1.9e-05
1790	0.000146	-0.000512	0.197867	0.000474	0.000146
1791	0.00031	-1.9e-05	0.201154	0.000474	0.00031
1792	0.000474	0.00031	0.19721	-1.9e-05	0.000474
1793	0.00031	0.000474	0.198031	-0.000183	0.000474
1794	0.00031	0.00031	0.197867	-0.000183	0.000146
1795	0.000146	0.000474	0.19836	-0.000347	-1.9e-05
1796	-0.000183	0.00031	0.198031	-0.000183	-0.000183
1797	-0.000183	-0.000183	0.196223	-0.000347	-0.000512
1798	-0.000347	-0.000347	0.200004	-1.9e-05	-0.000347
1799	-0.000347	-0.000512	0.199018	-1.9e-05	-0.000183
1800	0.000146	-0.000512	0.199182	0.000474	0.000146
1801	-1.9e-05	-0.000183	0.200661	0.000146	0.000146
1802	0.000474	-1.9e-05	0.199182	0.000474	0.000474
1803	-1.9e-05	0.000474	0.197703	-1.9e-05	0.00031
1804	0.00031	0.00031	0.200168	-1.9e-05	0.000639
1805	0.000639	0.000474	0.197374	-0.000347	0.000146
1806	-1.9e-05	0.00031	0.199346	-0.000347	-0.000183
1807	-0.000512	0.000474	0.19836	-0.000347	-0.000183
1808	-0.000183	-1.9e-05	0.195402	-0.000347	-0.000512
1809	-0.000347	-0.000183	0.198031	-0.000183	-0.000347
1810	-0.000512	-0.000512	0.199839	0.00031	-0.000347
1811	-1.9e-05	-0.000512	0.201812	0.000146	-1.9e-05
1812	0.000146	-0.000347	0.199839	0.00031	0.00031
1813	0.000146	-1.9e-05	0.19836	0.000474	0.00031
1814	0.000474	0.00031	0.199675	0.000146	0.00031
1815	0.000474	0.000474	0.19836	-1.9e-05	0.000474
1816	0.000474	0.00031	0.197703	-0.000347	0.00031
1817	-0.000183	0.000474	0.199839	-0.000512	-1.9e-05
1818	-0.000512	0.00031	0.197374	-0.000512	-0.000183
1819	-0.000183	-0.000183	0.198524	-0.000512	-0.000183
1820	-0.000183	-0.000347	0.199675	0.000146	-0.000183
1821	-0.000347	-0.000512	0.200497	0.000146	-0.000347
1822	-0.000183	-0.000512	0.199018	0.000146	-0.000183
1823	-1.9e-05	-0.000347	0.201647	0.00031	0.00031
1824	0.000146	-1.9e-05	0.202305	0.00031	0.000474
1825	0.000474	0.000146	0.196717	0.00031	0.000474
1826	0.000474	0.000474	0.197538	-0.000183	0.000474
1827	0.000474	0.000146	0.199182	-0.000183	0.000146
1828	-1.9e-05	0.000146	0.197867	-0.000512	0.000146
1829	-0.000183	0.000146	0.199839	-0.000347	-0.000347
1830	-0.000512	-0.000183	0.198031	-0.000347	-0.000183
1831	-0.000347	-0.000347	0.198031	-1.9e-05	-0.000512
1832	-0.000676	-0.000347	0.198196	0.000146	-0.000183
1833	-0.000183	-0.000512	0.20099	0.00031	-1.9e-05
1834	0.000146	-0.000183	0.201154	0.000146	0.000146
1835	0.000146	0.000146	0.199018	0.000474	0.000474
1836	0.000474	0.00031	0.199346	0.00031	0.00031
1837	0.000474	0.00031	0.199018	-0.000183	0.000639
1838	0.000639	0.00031	0.200497	-0.000183	0.00031
1839	-1.9e-05	0.000639	0.197374	-0.000347	-0.000183
1840	-0.000183	0.00031	0.199018	-0.000512	-0.000347
1841	-0.000347	-0.000183	0.196717	-0.000347	-0.000183
1842	-0.000183	-0.000183	0.19836	-1.9e-05	-0.000512
1843	-0.000676	-0.000347	0.19836	0.000146	-0.000347
1844	-0.000183	-0.000841	0.199511	0.00031	-1.9e-05
1845	0.00031	-0.000347	0.197374	0.00031	0.000146
1846	0.000474	-1.9e-05	0.198853	0.00031	0.00031
1847	0.000474	0.00031	0.196552	-1.9e-05	0.000474
1848	0.000474	0.000146	0.19836	-0.000183	0.000474
1849	0.000474	0.00031	0.198689	-0.000183	0.00031
1850	-1.9e-05	0.000639	0.197374	-0.000347	-0.000183
1851	-1.9e-05	0.00031	0.202305	-0.000347	-0.000347
1852	0.000146	-0.000183	0.198524	-0.000512	-0.000512
1853	-0.000512	-0.000512	0.199675	-1.9e-05	-0.000347
1854	-0.001169	-0.000183	0.199839	0.000146	-1.9e-05
1855	-0.000347	-0.000347	0.199675	0.000146	-0.000183
1856	-0.000183	-0.000347	0.197538	0.00031	0.00031
1857	0.00031	0.000146	0.201812	0.000474	0.000639
1858	0.000474	0.000146	0.195073	0.00031	0.00031
1859	0.000146	0.000474	0.196881	-1.9e-05	0.000639
1860	0.000474	0.000474	0.198031	-0.000347	0.000474
1861	-1.9e-05	0.000639	0.199182	-0.000347	-0.000183
1862	-0.000183	0.00031	0.199018	-0.000347	-0.000347
1863	-0.000347	-0.000347	0.196552	-0.000347	-0.000183
1864	-0.000347	-0.000183	0.199182	-1.9e-05	-0.000512
1865	-0.000676	-0.000347	0.199346	-1.9e-05	-0.000183
1866	-0.000183	-0.000347	0.201483	-1.9e-05	0.000146
1867	0.000146	-0.000347	0.199839	0.00031	-1.9e-05
1868	0.000146	-0.000183	0.199839	0.00031	0.000474
1869	0.00031	0.00031	0.200332	0.000146	0.00031
1870	0.000146	0.000474	0.198524	-1.9e-05	0.000474
1871	0.000146	0.000474	0.199346	-1.9e-05	0.000146
1872	-1.9e-05	0.000146	0.200004	-0.000183	-0.000347
1873	-0.000347	0.00031	0.199675	-0.000347	-0.000512
1874	-0.000347	-0.000183	0.201976	-0.000512	-0.000347
1875	-0.000347	-0.000347	0.197374	-1.9e-05	-0.000347
1876	-0.000841	-0.000347	0.197867	0.000474	-0.000512
1877	-1.9e-05	-0.000183	0.197867	0.00031	-1.9e-05
1878	0.000146	-0.000183	0.197045	0.00031	0.000146
1879	0.00031	0.000146	0.199018	0.00031	0.000474
1880	0.000146	0.00031	0.196717	0.000474	0.000474
1881	0.000803	0.00031	0.197374	-1.9e-05	0.000474
1882	-0.000183	0.000146	0.200168	-0.000183	0.00031
1883	0.000474	0.000474	0.202962	-0.000183	-0.000347
1884	0.004419	0.00031	0.198196	-0.000512	-0.000183
1885	0.000967	0.000146	0.200825	-0.000512	-0.000512
1886	0.002118	-0.000183	0.198853	-0.000183	-0.000512
1887	0.005405	-0.000512	0.20099	0.00031	-0.000347
1888	0.000474	-0.000512	0.200004	0.000474	-0.000183
1889	0.001296	-0.000183	0.199839	0.000474	0.00031
1890	0.007213	0.000146	0.199018	0.000474	0.00031
1891	0.011651	0.000146	0.198031	0.00031	0.000474
1892	0.001789	0.000474	0.199346	-1.9e-05	0.00031
1893	-0.001334	0.000474	0.197867	-0.000347	0.000146
1894	0.004419	0.000474	0.197867	-0.000347	-0.000183
1895	-0.002155	0.00031	0.197045	-0.000183	-0.000183
1896	-0.001169	-0.000183	0.198853	-0.000183	-0.000512
1897	-0.001662	-0.000347	0.200168	-0.000183	-0.000512
1898	-0.000347	-0.000183	0.196717	0.000146	-0.000512
1899	0.000967	-0.000512	0.19573	0.000474	0.000146
1900	0.000146	-0.000347	0.198524	0.000474	0.000474
1901	0.005241	-0.000183	0.197867	0.000146	0.00031
1902	0.002775	0.00031	0.19836	0.000474	0.00031
1903	0.009021	0.00031	0.199839	-0.000183	0.000474
1904	0.010664	0.00031	0.201319	-0.000347	0.00031
1905	0.018554	0.000474	0.198853	-0.000347	-0.000183
1906	0.020526	0.00031	0.199182	-0.000512	-0.000347
1907	0.018225	-1.9e-05	0.200004	-0.000347	-0.000347
1908	0.007706	-0.000347	0.197045	-0.000183	-0.000676
1909	-0.000183	-0.000512	0.197538	-1.9e-05	-0.000347
1910	0.005734	-0.000676	0.19721	0.000146	0.000146
1911	0.012965	-0.000183	0.196881	0.00031	0.000146
1912	0.005898	0.000146	0.200497	0.00031	0.00031
1913	0.006227	0.00031	0.198853	0.000146	0.000474
1914	0.007706	0.00031	0.198524	-0.000183	0.000474
1915	0.005734	0.000474	0.200661	-0.000347	0.000474
1916	0.012637	0.00031	0.199018	-0.000347	-0.000183
1917	0.006227	0.000146	0.200825	-0.000347	-0.000347
1918	0.002118	-0.000183	0.198689	-0.000183	-0.000512
1919	0.00409	-0.000183	0.201812	-1.9e-05	-0.000512
1920	0.002775	-0.000347	0.200004	0.000146	-0.000347
1921	-0.001662	-0.000512	0.199839	0.00031	0.000146
1922	0.001132	-0.000347	0.202798	0.000474	0.000146
1923	0.000146	-0.000183	0.204606	0.00031	0.000146
1924	0.000474	0.000146	0.199675	0.00031	0.00031
1925	0.000967	0.000474	0.194087	0.000146	0.000474
1926	0.00031	0.00031	0.199018	-1.9e-05	0.00031
1927	-0.000512	0.000474	0.196717	-0.000512	-0.000183
1928	0.000146	0.000146	0.197538	-0.000512	-0.000512
1929	-0.000512	-0.000183	0.196223	-0.000183	-0.000183
1930	-0.000347	-0.000183	0.200825	0.000146	-0.000183
1931	-0.000676	-0.000347	0.197045	-1.9e-05	-0.000183
1932	-1.9e-05	-0.000676	0.199018	0.000146	-1.9e-05
1933	0.000474	-0.000347	0.195566	0.00031	-1.9e-05
1934	0.000474	0.000146	0.202633	0.00031	0.000474
1935	0.000639	0.00031	0.196717	0.00031	0.000474
1936	0.00031	0.000146	0.199511	0.000146	0.000474
1937	0.001132	0.000474	0.198196	-0.000347	0.000146
1938	-0.000347	0.00031	0.199675	-0.000347	-1.9e-05
1939	0.005241	0.00031	0.200332	-0.000347	-0.000347
1940	0.005076	-1.9e-05	0.199346	-0.000347	-0.000512
1941	0.000967	-0.000347	0.199675	-1.9e-05	-0.000512
1942	0.00031	-0.000347	0.198853	0.000146	-0.000183
1943	-0.001827	-0.000512	0.197703	0.00031	-1.9e-05
1944	0.003433	-0.000512	0.197374	0.00031	0.000474
1945	-0.000841	0.000146	0.204113	0.000474	0.000146
1946	0.00031	0.000474	0.192608	0.00031	0.000474
1947	-1.9e-05	0.00031	0.196552	-0.000183	0.000474
1948	-0.000347	0.00031	0.198031	-0.000183	0.00031
1949	0.00031	0.000639	0.196059	-0.000512	-0.000183
1950	0.000474	0.00031	0.195402	-0.000512	-0.000676
1951	-0.000183	-0.000183	0.197538	-0.000347	-0.000512
1952	-1.9e-05	-0.000512	0.19836	-0.000183	-0.000183
1953	-0.000512	-0.000183	0.198196	0.000146	-0.000183
1954	0.000146	-0.000347	0.200497	0.000146	0.000146
1955	0.000146	-0.000183	0.199511	0.000474	0.000146
1956	0.000803	-1.9e-05	0.205427	0.00031	0.00031
1957	0.000639	0.00031	0.197538	0.000146	0.00031
1958	0.000474	0.00031	0.197045	-0.000183	0.000474
1959	0.000146	0.000474	0.195566	-0.000183	0.00031
1960	-1.9e-05	0.000474	0.19721	-0.000347	-0.000183
1961	-0.000347	0.000146	0.197867	-0.000347	-0.000183
1962	-0.000183	-0.000183	0.196223	-0.000512	-0.000512
1963	-0.000512	-0.000183	0.193429	-1.9e-05	-0.000512
1964	-0.000512	-0.000512	0.202305	-1.9e-05	-0.000183
1965	-0.000347	-0.000676	0.197703	0.00031	0.00031
1966	-1.9e-05	-0.000512	0.19836	0.000474	0.00031
1967	0.001296	0.000146	0.204441	0.000474	0.000474
1968	0.000803	0.00031	0.196717	0.000474	0.00031
1969	0.00031	0.000146	0.199182	-1.9e-05	0.000639
1970	0.000474	0.00031	0.200168	-0.000512	0.000146
1971	0.001296	0.000474	0.199182	-0.000183	-0.000183
1972	0.001625	0.00031	0.200004	-0.000347	-0.000512
1973	0.003268	-0.000183	0.201647	-0.000512	-0.000347
1974	0.012637	-0.000347	0.201154	-1.9e-05	-0.000347
1975	-0.005936	-0.000512	0.198524	0.00031	-0.000347
1976	0.000474	-0.000347	0.197703	-1.9e-05	0.000146
1977	0.002282	-0.000347	0.200168	0.00031	0.00031
1978	0.002282	-1.9e-05	0.200825	0.00031	0.000474
1979	0.006556	0.00031	0.196388	0.00031	0.000474
1980	0.001296	0.00031	0.197045	-1.9e-05	0.00031
1981	0.009185	0.000474	0.198031	-0.000183	0.00031
1982	0.016253	0.000146	0.19721	-0.000347	-1.9e-05
1983	0.010336	0.00031	0.200168	-0.000347	-0.000183
1984	0.001789	-1.9e-05	0.194087	-0.000676	-0.000512
1985	0.005241	-0.000183	0.203291	-1.9e-05	-0.000676
1986	0.012144	-0.000347	0.201483	-1.9e-05	-0.000347
1987	0.016417	-0.000347	0.199675	0.00031	0.000146
1988	0.022663	-0.000512	0.20099	0.00031	0.000474
1989	0.030716	0.000146	0.199511	0.00031	0.000474
1990	0.035154	0.00031	0.199675	0.000146	0.000474
1991	0.018225	0.000146	0.198031	-0.000183	0.000474
1992	0.013952	0.00031	0.199346	-0.000183	0.000146
1993	0.019375	0.000474	0.197703	-0.000347	-0.000183
1994	0.022169	0.00031	0.198689	-0.000512	-0.000347
1995	0.030059	-0.000183	0.194251	-0.000512	-0.000512
1996	0.035482	-0.000347	0.197045	-1.9e-05	-0.000347
1997	0.041892	-0.000347	0.199182	0.000146	-0.000183
1998	0.044686	-0.000347	0.195402	0.00031	0.000639
1999	0.052082	-0.000183	0.19721	0.00031	0.000146
2000	0.051261	0.000146	0.19721	0.000474	0.00031
2001	0.057342	0.000146	0.198853	0.000474	0.00031
2002	0.045179	0.00031	0.20099	-1.9e-05	0.00031
2003	0.03236	0.000474	0.200332	-0.000183	-0.001334
2004	0.026114	0.000639	0.199839	-0.000347	-0.000183
2005	0.01691	0.000474	0.198853	-0.000347	-0.001169
2006	0.018225	-1.9e-05	0.195402	-0.000512	-0.000347
2007	0.012637	-1.9e-05	0.203291	-1.9e-05	-0.000183
2008	0.012965	-0.000183	0.19721	0.000146	-0.000183
2009	0.014773	-0.000512	0.198853	-1.9e-05	0.000146
2010	0.024635	-0.000347	0.196059	0.00031	0.000474
2011	0.031867	-1.9e-05	0.19195	0.000474	0.000146
2012	0.038769	0.000146	0.198196	0.00031	0.00031
2013	0.041892	-1.9e-05	0.198689	-0.000183	0.001954
2014	0.047152	0.000474	0.196881	-0.000347	0.000474
2015	0.047973	0.000474	0.199346	-0.000512	-0.000183
2016	0.047973	0.00031	0.198689	-0.000676	-1.9e-05
2017	0.04748	-0.000183	0.196223	-0.000512	-0.000676
2018	0.046001	-0.000347	0.199182	0.000146	-0.000841
2019	0.050932	-0.000183	0.19721	0.00031	-0.000841
2020	0.049946	-0.000347	0.199839	0.000146	-0.000183
2021	0.055041	-0.000347	0.19721	0.000146	0.000474
2022	0.058328	0.00031	0.192115	0.000474	0.00031
2023	0.066381	0.000146	0.199018	0.000146	0.000967
2024	0.064245	0.00031	0.201154	-0.000183	0.000474
2025	0.072791	0.000474	0.197538	-0.000183	0.00031
2026	0.0769	0.000474	0.200168	-0.000347	-1.9e-05
2027	0.081009	0.000474	0.200004	-0.000347	-1.9e-05
2028	0.083968	-1.9e-05	0.197703	-0.000676	0.001625
2029	0.088734	-0.000183	0.200168	-1.9e-05	0.002118
2030	0.091857	-0.000183	0.198524	0.00031	-0.000347
2031	0.092843	-0.000512	0.197867	0.000474	0.000146
2032	0.097938	-0.000512	0.197867	0.00031	0.000146
2033	0.091035	-1.9e-05	0.186855	0.000474	0.000146
2034	0.068847	-1.9e-05	0.19836	0.00031	0.000146
2035	0.069669	0.00031	0.200332	-0.000183	0.000146
2036	0.075257	0.000146	0.199018	-0.000183	0.000146
2037	0.080187	0.000474	0.200168	-0.000347	0.007542
2038	0.08216	0.000146	0.195895	-0.000183	-0.000512
2039	0.041564	-1.9e-05	0.197703	-0.000347	-0.000841
2040	0.035811	-0.000347	0.196717	0.000146	0.000146
2041	0.018554	-0.000512	0.200332	0.000146	0.000803
2042	0.011322	-0.000347	0.19836	0.000474	0.000474
2043	0.016581	-0.000183	0.199511	0.000474	0.001132
2044	0.026936	-1.9e-05	0.188992	0.00031	0.001789
2045	0.017896	0.000146	0.195237	0.00031	0.004419
2046	0.026936	0.000474	0.198031	-1.9e-05	0.000803
2047	0.029566	0.00031	0.193101	-0.000183	0.000146
2048	0.033839	0.00031	0.199346	-0.000347	-0.000183
2049	0.039098	0.000146	0.196059	-0.000347	0.003926
2050	0.042714	-0.000183	0.195073	-0.000347	-0.000512
2051	0.050439	-0.000183	0.198196	-0.000183	0.000639
2052	0.052904	-0.000347	0.199346	0.000146	0.008363
2053	0.056027	-0.000347	0.19721	0.00031	0.003761
2054	0.028744	-0.000183	0.199511	0.00031	-0.000676
2055	0.013787	-1.9e-05	0.187019	0.00031	0.004912
2056	0.001954	-1.9e-05	0.195895	0.00031	0.00672
2057	-0.001005	0.00031	0.197703	-0.000183	0.000474
2058	0.000146	0.00031	0.196059	-0.000183	0.00031
2059	0.007049	0.000474	0.196388	-0.000347	0.000146
2060	0.017896	0.00031	0.199182	-0.000183	0.002775
2061	0.025785	-0.000183	0.200004	-0.000183	-0.000183
2062	0.030387	-0.000183	0.200497	0.000146	0.000146
2063	0.031373	-0.000347	0.198196	0.000146	0.001132
2064	0.02973	-0.000347	0.199675	-1.9e-05	0.001954
2065	0.031045	-0.000183	0.199182	0.000474	0.004255
2066	0.034989	0.000146	0.188499	0.000474	0.002282
2067	0.034989	0.000146	0.197703	0.00031	-0.000183
2068	0.039098	0.00031	0.197867	-0.000183	0.004419
2069	0.000967	0.000474	0.199346	-0.000183	0.000967
2070	0.00787	0.00031	0.195895	-0.000347	-0.000183
2071	0.000803	0.000146	0.199839	-0.000512	-0.000183
2072	0.00672	0.000146	0.195402	-0.000512	-0.000347
2073	0.001296	-0.000183	0.197867	0.000146	-0.001169
2074	-1.9e-05	-0.000512	0.202798	0.000146	-0.000183
2075	0.00672	-0.000347	0.202469	0.00031	-1.9e-05
2076	0.012308	-0.000183	0.199346	0.00031	0.00031
2077	0.018554	0.000146	0.192443	0.00031	0.000474
2078	0.021512	0.00031	0.19721	0.00031	0.000803
2079	0.019047	0.000146	0.199182	-0.000183	0.000639
2080	0.012965	0.00031	0.199346	-0.000183	0.000146
2081	0.019704	0.00031	0.197538	-0.000183	0.001789
2082	0.021348	0.000146	0.199511	-0.000347	-0.000347
2083	0.02973	-1.9e-05	0.197867	-0.000347	0.002118
2084	0.032688	-0.000183	0.200825	-1.9e-05	0.003597
2085	0.036469	-0.000347	0.200825	0.000146	0.005569
2086	0.036633	-0.000512	0.200168	0.000146	0.004583
2087	0.035811	-0.000183	0.195402	0.000146	0.004419
2088	0.036469	-1.9e-05	0.191128	0.00031	0.000146
2089	0.038441	0.00031	0.195895	0.000474	0.001789
2090	0.004419	0.000146	0.19836	-0.000183	0.000146
2091	0.001789	0.00031	0.197045	-0.000512	-1.9e-05
2092	0.004419	0.000639	0.197374	-0.000512	-0.002813
2093	0.006227	0.000474	0.198524	-0.000347	-0.000183
2094	0.001954	0.000146	0.199018	-0.000347	-1.9e-05
2095	0.000803	-0.000347	0.201647	0.000146	-0.000347
2096	-0.000347	-0.000676	0.19721	-1.9e-05	0.001132
2097	-0.000183	-0.000512	0.199839	0.00031	0.00031
2098	0.000146	-0.000512	0.193922	0.00031	0.00031
2099	0.00031	-1.9e-05	0.196881	0.00031	0.002118
2100	0.000146	0.000639	0.195237	0.000474	0.003268
2101	0.000474	-0.000841	0.196388	-1.9e-05	0.001296
2102	0.000639	0.006227	0.19836	-0.000183	0.00146
2103	-1.9e-05	0.011815	0.194909	-0.000512	-0.000183
2104	-0.000183	0.020855	0.196388	-0.000676	-1.9e-05
2105	-0.000347	0.028744	0.198853	-0.000347	0.002118
2106	-0.000183	0.029566	0.19836	0.000146	0.001132
2107	-0.000512	0.03614	0.196552	0.000146	-1.9e-05
2108	-0.000183	0.039427	0.196552	0.00031	0.00031
2109	0.000146	0.044522	0.199675	0.00031	-0.001005
2110	0.000474	0.040742	0.198524	0.000474	0.006062
2111	0.000474	0.008857	0.196717	0.000474	0.005734
2112	0.001625	0.002775	0.198524	-0.000183	0.000803
2113	0.008199	0.000146	0.198853	-0.000347	0.00409
2114	0.006556	0.000474	0.199839	-0.000183	0.003597
2115	0.003268	0.000146	0.199182	-0.000512	0.011322
2116	0.001296	-1.9e-05	0.202798	-0.000347	0.008528
2117	0.000639	0.003104	0.200168	0.000146	0.00031
2118	0.000639	0.010171	0.200332	-1.9e-05	-1.9e-05
2119	0.00294	0.015102	0.200497	0.00031	0.002775
2120	-0.001498	0.023649	0.199675	0.000639	0.000639
2121	0.00294	0.022827	0.197867	0.00031	0.003926
2122	0.007049	0.03236	0.197045	0.00031	0.00294
2123	0.007049	0.032524	0.197045	-1.9e-05	0.002118
2124	0.006227	0.005898	0.19573	-1.9e-05	0.00031
2125	0.012965	0.011322	0.201154	-0.000347	0.002611
2126	0.019047	0.015266	0.198524	-0.000347	0.00031
2127	0.024142	0.014609	0.200497	-0.000347	-0.001827
2128	0.018225	0.004912	0.200497	-1.9e-05	-0.000347
2129	-0.000183	-0.000512	0.202962	-1.9e-05	-1.9e-05
2130	0.000803	0.001132	0.197703	0.000474	-1.9e-05
2131	0.008692	0.000803	0.200168	0.00031	0.000803
2132	0.014609	0.00146	0.198689	0.000474	0.000474
2133	0.014116	0.008199	0.198031	0.000474	0.00031
2134	0.013787	0.009843	0.198031	-0.000183	0.000474
2135	0.001954	0.007377	0.199018	-0.000183	0.000146
2136	0.001954	0.010829	0.19836	-0.000183	0.001296
2137	-0.000183	0.019211	0.194744	-0.000347	-0.000183
2138	0.001132	0.010829	0.197703	-0.000512	-0.000512
2139	0.009843	0.010007	0.198689	-0.000347	-0.000347
2140	0.001132	0.006556	0.197867	0.000146	-0.000183
2141	0.00294	0.014773	0.197867	0.000146	0.002118
2142	0.000803	0.015595	0.199182	0.00031	0.000146
2143	-0.000183	0.016253	0.196388	0.00031	0.00031
2144	0.000474	0.017567	0.198196	0.000474	0.000474
2145	0.003926	0.025785	0.199839	-1.9e-05	0.00031
2146	0.006556	0.028908	0.196388	-1.9e-05	0.000146
2147	0.000146	0.035811	0.199182	-0.000347	-1.9e-05
2148	-0.000183	0.041892	0.198853	-0.000512	-0.000183
2149	-0.000347	0.045344	0.199839	-0.001005	-0.000183
2150	-0.000512	0.049781	0.200825	-1.9e-05	-0.000512
2151	-0.000347	0.050274	0.19836	0.000803	-0.000183
2152	-0.001662	0.053726	0.197045	-1.9e-05	-0.000183
2153	0.003433	0.060629	0.194744	0.000639	0.000146
2154	0.000803	0.060136	0.199346	0.00031	0.00031
2155	0.00294	0.054548	0.198196	0.000474	0.000474
2156	0.011979	0.047809	0.191786	0.000146	0.000474
2157	0.01691	0.040249	0.202469	0.003104	0.000146
2158	0.025621	0.047809	0.199511	0.000474	-0.000183
2159	0.026443	0.050768	0.199675	0.000474	-0.000183
2160	0.03236	0.049617	0.198031	0.002775	-0.000512
2161	0.036797	0.042221	0.200661	-0.000512	-0.000676
2162	0.031209	0.046494	0.199018	0.001789	-0.000183
2163	0.028908	0.047973	0.198524	0.000803	-1.9e-05
2164	0.013623	0.051918	0.199675	0.001132	0.00031
2165	0.000474	0.055534	0.199018	0.000146	0.000146
2166	0.006062	0.05389	0.197538	0.00409	0.000639
2167	0.010829	0.056356	0.200004	0.014609	0.000474
2168	0.009185	0.057671	0.19836	0.02332	0.00031
2169	0.009021	0.049288	0.19836	0.028908	-0.000183
2170	0.003761	0.01691	0.199018	0.037455	-0.000183
2171	0.004419	0.006062	0.200497	0.04633	-0.000347
2172	0.001296	0.005076	0.201319	0.048795	-0.000347
2173	0.002118	0.010336	0.199675	0.055041	-0.000512
2174	0.001296	0.003104	0.198196	0.059314	-1.9e-05
2175	0.002447	0.009185	0.194251	0.066875	0.000146
2176	0.000967	0.011486	0.198196	0.070655	0.000474
2177	0.001296	0.015431	0.197045	0.072791	0.00031
2178	0.000146	0.01954	0.198853	0.079037	0.000639
2179	0.001296	0.002775	0.196388	0.085283	0.00031
2180	-0.000183	0.002447	0.199182	0.091035	-0.000347
2181	0.001296	0.000803	0.197538	0.094815	-0.000347
2182	-0.000512	0.000146	0.199182	0.102047	-0.000512
2183	-0.000347	-0.000183	0.19721	0.099582	-0.000512
2184	-0.000347	-0.000183	0.199346	0.10254	-0.000347
2185	0.000639	-0.000347	0.199675	0.110758	-1.9e-05
2186	0.000146	-0.000347	0.197045	0.112894	0.00031
2187	0.001625	0.000146	0.198031	0.116346	0.000474
2188	0.001954	0.000474	0.196552	0.11651	0.000474
2189	0.002118	0.000146	0.201154	0.121441	0.000474
2190	0.000967	0.002775	0.196881	0.128673	0.000474
2191	0.00031	0.002447	0.199839	0.128015	-0.000183
2192	0.000474	0.001625	0.198853	0.131302	-0.000347
2193	0.000639	0.001296	0.199675	0.138699	-0.000347
2194	0.003597	0.00294	0.199018	0.133275	-0.000512
2195	0.000803	0.000146	0.203126	0.133603	-0.000347
2196	0.001132	0.003268	0.198196	0.137877	-1.9e-05
2197	-0.000347	0.006227	0.196717	0.140506	0.000474
2198	0.002118	0.004255	0.197867	0.145108	0.000146
2199	-1.9e-05	0.007377	0.196388	0.143301	0.000474
2200	0.000639	0.009678	0.196223	0.147409	0.000474
2201	0.00146	0.017567	0.196388	0.151354	0.000474
2202	-1.9e-05	0.015266	0.199839	0.154641	-0.000347
2203	0.000967	0.019704	0.198853	0.156942	-0.000183
2204	-1.9e-05	0.024964	0.201154	0.161873	-0.000347
2205	-0.000512	0.014609	0.19836	0.155792	-0.000512
2206	0.000474	-0.000347	0.202798	0.160558	-0.000347
2207	0.000146	0.001132	0.200004	0.160722	-1.9e-05
2208	-0.000347	-0.000841	0.201483	0.164174	0.000146
2209	0.000639	-0.000183	0.201319	0.164831	0.00031
2210	-0.000512	0.004255	0.196223	0.160722	0.00031
2211	0.000474	0.008857	0.197374	0.168776	0.000474
2212	0.000474	0.013787	0.19836	0.167297	0.000146
2213	-0.000676	0.008199	0.198031	0.170584	-0.000183
2214	-0.000183	0.001789	0.197374	0.169926	-0.000183
2215	-1.9e-05	-0.000183	0.199182	0.178473	-0.000676
2216	-0.000512	-1.9e-05	0.198853	0.168283	-0.000512
2217	-0.001169	0.001132	0.199511	0.171899	-0.000512
2218	0.001132	-0.000841	0.197374	0.1742	-1.9e-05
2219	0.000803	-0.000512	0.198031	0.175186	-1.9e-05
2220	0.000803	0.000474	0.19836	0.17798	0.000474
2221	0.000639	0.000474	0.19836	0.176829	0.000474
2222	0.000639	0.001954	0.198196	0.17913	0.00031
2223	0.000474	0.000146	0.200004	0.181924	0.00031
2224	-1.9e-05	0.002282	0.199675	0.183075	0.000146
2225	-0.000347	-1.9e-05	0.201483	0.178637	-0.000512
2226	-0.000183	0.000146	0.19721	0.186526	-0.000183
2227	-0.000347	-0.000841	0.200004	0.179459	-0.000347
2228	-0.000512	0.000474	0.197703	0.183075	-0.000512
2229	-0.000183	0.00146	0.198524	0.181267	-0.000183
2230	0.000146	0.005569	0.197374	0.18817	0.000146
2231	0.000146	0.002282	0.196717	0.184554	0.00031
2232	0.000146	0.001132	0.197538	0.182582	0.00031
2233	0.000146	0.001954	0.196388	0.186362	0.00031
2234	0.000474	0.002611	0.197867	0.187019	0.000146
2235	0.000146	0.002118	0.19573	0.186033	-0.000183
2236	-0.000347	0.000474	0.197374	0.187513	-0.000183
2237	-0.000183	-1.9e-05	0.197374	0.188663	-0.000183
2238	-0.000512	-0.000183	0.203291	0.190964	-0.000512
2239	-0.000347	-0.000512	0.203291	0.190142	-0.000347
2240	-0.000347	-0.000676	0.202798	0.19195	-0.000183
2241	0.000146	-0.000347	0.199839	0.192115	0.000146
2242	0.000474	-0.000183	0.20099	0.18817	0.00031
2243	0.000474	0.000639	0.197703	0.190142	0.00031
2244	0.000474	0.000146	0.197045	0.188334	0.00031
2245	0.000474	0.000967	0.200168	0.189649	0.000146
2246	-1.9e-05	0.000474	0.197867	0.18932	-0.000183
2247	-0.000347	0.000474	0.196717	0.190471	-0.000183
2248	-0.000347	0.000967	0.196059	0.188499	-0.000347
2249	-0.000347	0.000967	0.196552	0.191457	-0.000183
2250	-0.000183	0.000803	0.197374	0.191786	-0.000183
2251	-0.000183	0.006556	0.198196	0.191786	-0.000183
2252	-1.9e-05	-0.000512	0.196059	0.193265	0.000146
2253	0.00031	0.004419	0.195566	0.192443	0.00031
2254	0.000146	0.001296	0.197867	0.195237	0.00031
2255	0.000639	-0.000841	0.200661	0.197045	0.00031
2256	0.000474	0.001789	0.198853	0.19573	0.000146
2257	0.000146	0.00672	0.198689	0.192772	-1.9e-05
2258	-1.9e-05	0.007049	0.199675	0.197374	-0.000347
2259	-0.000347	0.012637	0.198689	0.190142	-0.000347
2260	-0.000183	0.019211	0.200332	0.19195	-0.000512
2261	-0.000512	0.009021	0.19836	0.194909	-0.000347
2262	0.000146	-0.001334	0.200168	0.195237	-1.9e-05
2263	0.000967	0.00294	0.197374	0.192772	-1.9e-05
2264	0.000639	0.002447	0.197703	0.195566	0.00031
2265	-0.000183	0.012144	0.19836	0.192608	0.00031
2266	0.000474	0.013623	0.19836	0.195895	0.000474
2267	0.000474	0.015924	0.196388	0.194087	0.000146
2268	-1.9e-05	0.022169	0.199018	0.194087	-0.000183
2269	-0.000183	0.00409	0.197045	0.196552	-0.000347
2270	-0.000512	0.000967	0.201483	0.187348	-0.000512
2271	-0.000347	0.001789	0.199182	0.196717	-0.000512
2272	-0.000512	-0.002155	0.199511	0.194251	-0.000512
2273	0.00031	0.000146	0.199018	0.197045	-1.9e-05
2274	-1.9e-05	0.001132	0.199018	0.196223	0.00031
2275	0.000639	0.000474	0.201319	0.197703	0.000639
2276	-1.9e-05	0.003597	0.203455	0.195073	0.000474
2277	0.000639	0.008857	0.200661	0.198853	0.000803
2278	0.000639	0.012472	0.197538	0.196881	0.00031
2279	-1.9e-05	0.012965	0.200004	0.19836	-0.000183
2280	-1.9e-05	0.013952	0.197538	0.202633	-0.000347
2281	-0.000183	0.003761	0.200661	0.188006	-0.000841
2282	-0.000512	0.005241	0.198524	0.196223	-0.000512
2283	-0.000183	0.006556	0.198031	0.196717	-0.000183
2284	-0.000183	0.001296	0.197374	0.197867	0.000146
2285	-0.000512	0.004748	0.198853	0.197374	0.00031
2286	0.00031	0.003433	0.196881	0.198689	0.000474
2287	0.000474	0.009514	0.198853	0.193922	0.00031
2288	0.000146	0.006227	0.198853	0.200825	0.000474
2289	0.000639	0.011651	0.202469	0.19836	0.000474
2290	0.00031	0.016581	0.202798	0.199346	-0.000183
2291	-0.000183	0.020855	0.198853	0.197703	-0.000347
2292	-0.000347	0.020526	0.20099	0.188827	-0.000512
2293	-0.000676	0.001132	0.200661	0.19458	-1.9e-05
2294	-0.000347	0.00031	0.198031	0.19721	0.00031
2295	-0.000183	0.00294	0.198853	0.196059	0.000803
2296	0.000146	0.009185	0.19721	0.200168	0.000639
2297	0.00031	0.015595	0.197538	0.198689	0.000967
2298	0.00031	0.020855	0.199346	0.197867	-1.9e-05
2299	0.000639	0.025292	0.195895	0.201154	0.00146
2300	0.00031	0.030716	0.196717	0.199346	0.000146
2301	0.000146	0.03729	0.197045	0.199839	0.000146
2302	-0.000347	0.040084	0.198689	0.199511	-1.9e-05
2303	-0.000347	0.049288	0.196881	0.189649	0.00031
2304	-0.000512	0.054055	0.196552	0.196388	-0.001169
2305	-0.000183	0.052411	0.200168	0.20214	-0.000841
2306	-1.9e-05	-0.000347	0.198853	0.199675	-0.000676
2307	-0.000183	0.007213	0.199346	0.198524	0.00031
2308	0.00031	0.011322	0.200497	0.198853	0.001132
2309	-1.9e-05	0.01691	0.201647	0.199346	0.000803
2310	0.000639	0.01313	0.198853	0.200661	0.000967
2311	0.000474	0.019868	0.198524	0.201647	0.00031
2312	0.00031	0.01691	0.196388	0.200825	-0.000841
2313	0.000146	0.006391	0.201319	0.200661	-0.000183
2314	-0.000183	0.005241	0.197538	0.194087	0.001132
2315	-0.000347	0.00409	0.201647	0.193265	-0.000183
2316	-0.000183	0.007542	0.200497	0.201812	-0.000512
2317	-0.000347	0.000967	0.198853	0.197703	0.00031
2318	0.00031	0.00672	0.199018	0.199018	0.000639
2319	0.000146	-0.000347	0.199511	0.196059	0.001296
2320	0.000146	0.001296	0.198853	0.20099	0.000639
2321	0.00031	0.000967	0.197867	0.197538	-0.000183
2322	0.000803	0.000639	0.198689	0.198853	0.000474
2323	-1.9e-05	0.00031	0.198853	0.193922	0.000146
2324	-1.9e-05	0.00031	0.199018	0.201812	-0.000183
2325	-0.000347	0.000146	0.200497	0.194087	-0.000676
2326	-0.000347	-0.000183	0.195402	0.197703	-0.000183
2327	-0.000512	-0.000347	0.20099	0.199675	-0.000183
2328	-1.9e-05	-0.000512	0.198031	0.199182	0.000474
2329	0.000146	-0.000347	0.197374	0.200825	0.001954
2330	-1.9e-05	-0.000183	0.201154	0.200332	-0.001498
2331	0.00031	0.000146	0.200332	0.20362	0.000967
2332	0.00031	0.00031	0.199675	0.201483	-0.000512
2333	0.000474	0.000474	0.199182	0.202305	0.000967
2334	0.00031	0.000474	0.198524	0.200332	0.000474
2335	-0.000183	0.000639	0.196881	0.200168	0.000474
2336	-0.000347	-1.9e-05	0.200497	0.196717	-0.000512
2337	-0.000347	-0.000183	0.199675	0.19721	-0.000347
2338	-0.000347	-0.000347	0.198524	0.19836	-0.001662
2339	-0.000512	-0.000347	0.201154	0.20099	-0.000183
2340	-0.000183	-0.000676	0.199839	0.195895	0.000146
2341	0.00031	-1.9e-05	0.200332	0.19573	-1.9e-05
2342	0.000146	0.000146	0.197703	0.197703	0.000967
2343	0.000474	0.00031	0.195073	0.200497	0.000474
2344	0.000803	0.00031	0.196059	0.199018	0.000474
2345	-1.9e-05	0.000474	0.198689	0.19721	-1.9e-05
2346	-1.9e-05	0.000146	0.200332	0.201976	0.000146
2347	-0.000347	-0.000183	0.199018	0.196059	-0.000347
2348	-0.000183	-0.000183	0.202305	0.200004	-0.000512
2349	-0.000347	-0.000512	0.200661	0.197045	-0.001005
2350	-1.9e-05	-0.000183	0.198853	0.202469	0.00031
2351	-1.9e-05	-0.000512	0.19721	0.200168	0.000474
2352	0.00031	-1.9e-05	0.199346	0.201483	0.00031
2353	0.000474	0.00031	0.199511	0.198196	0.00031
2354	0.000474	0.000474	0.19721	0.199839	0.000474
2355	0.000474	0.00031	0.198196	0.200004	0.000146
2356	0.00031	0.00031	0.200332	0.200004	-1.9e-05
2357	-0.000347	0.00031	0.199839	0.199511	-0.000512
2358	-0.000347	0.000146	0.20099	0.197867	-0.000347
2359	-0.000512	-1.9e-05	0.198853	0.197538	-0.000347
2360	-0.000512	-0.000347	0.198031	0.199511	-0.000676
2361	-0.000347	-0.000512	0.199839	0.201812	0.000146
2362	-0.000183	-0.000347	0.20099	0.199839	0.000474
2363	0.000639	-1.9e-05	0.198853	0.199182	0.000474
2364	0.000474	0.000146	0.202305	0.199675	0.000639
2365	0.000639	0.000474	0.200332	0.199346	0.000474
2366	0.00031	0.000146	0.20214	0.199511	0.000146
2367	0.000474	0.000639	0.200825	0.201976	0.000146
2368	-0.000183	0.000639	0.200825	0.200825	0.000146
2369	-0.000676	0.00031	0.200825	0.198196	-0.000676
2370	-1.9e-05	-0.000183	0.198853	0.200004	0.000146
2371	-0.000512	0.001132	0.19721	0.201154	0.000146
2372	-0.000347	-0.000347	0.197703	0.19836	0.000146
2373	-1.9e-05	0.003597	0.199675	0.201154	0.00031
2374	0.00031	-1.9e-05	0.195073	0.199675	0.00031
2375	0.00031	0.000146	0.202798	0.198196	0.000146
2376	0.00031	0.00031	0.19458	0.202305	0.002775
2377	0.000639	0.00031	0.197538	0.198853	0.000474
2378	0.000474	0.000474	0.197538	0.200168	0.000146
2379	-0.000347	0.001132	0.199511	0.19721	-0.000676
2380	-0.000183	0.000146	0.199675	0.201319	-0.000347
2381	-0.000512	-0.000512	0.200332	0.199018	-0.000512
2382	-0.000347	0.000146	0.198031	0.19836	0.000474
2383	-0.000347	-0.000512	0.199018	0.202469	0.00031
2384	0.000146	0.000967	0.199511	0.202633	0.00146
2385	0.000146	-0.000183	0.198689	0.199511	0.000967
2386	0.000474	0.000639	0.199182	0.201483	0.000803
2387	0.000474	0.000803	0.19721	0.201483	0.000474
2388	0.00031	-1.9e-05	0.198853	0.200168	-0.001005
2389	0.000146	0.001954	0.197374	0.200497	0.000803
2390	-0.000347	0.000474	0.197538	0.196388	0.000639
2391	-0.000183	0.002118	0.197703	0.199182	-0.000183
2392	-0.000512	0.001132	0.200004	0.196552	-0.000676
2393	-0.000676	0.001789	0.197045	0.201154	0.00031
2394	-0.000512	0.000803	0.198689	0.195073	-0.000512
2395	-0.000183	0.00031	0.19836	0.199839	0.000639
2396	0.00031	0.003597	0.198524	0.198031	0.000146
2397	0.00031	0.005076	0.200497	0.199511	0.000474
2398	0.000639	0.009021	0.198853	0.201976	0.000474
2399	0.000639	0.009514	0.199346	0.200825	0.000803
2400	-0.000183	0.010829	0.197045	0.198196	0.00031
2401	-1.9e-05	0.007706	0.198524	0.200825	0.000639
2402	-0.000183	0.010171	0.192936	0.198689	0.001625
2403	-0.000347	0.005569	0.198196	0.196223	-0.000676
2404	-0.000347	0.007542	0.197703	0.199511	0.000803
2405	-0.000183	0.00787	0.197374	0.197867	0.000474
2406	-1.9e-05	0.003926	0.196552	0.198853	0.001132
2407	0.00031	0.005898	0.199346	0.201647	0.000474
2408	0.000146	0.012472	0.198031	0.201647	0.00031
2409	0.00031	0.019047	0.198196	0.200825	0.000474
2410	0.00031	0.02447	0.19458	0.201647	0.001132
2411	0.000146	0.026771	0.196223	0.199675	-0.000347
2412	-0.000183	0.022991	0.19836	0.201319	0.000146
2413	-0.000183	0.02447	0.198689	0.199182	-0.000676
2414	-0.000183	0.028415	0.201319	0.196717	-0.000183
2415	-0.000512	0.035318	0.199346	0.200661	0.00031
2416	-0.000347	0.035811	0.199675	0.201976	0.000967
2417	-0.000183	0.032688	0.199675	0.199018	0.000474
2418	0.000474	0.037455	0.200168	0.200661	0.000967
2419	0.00031	0.021019	0.200332	0.201319	0.000639
2420	0.00031	0.003597	0.200004	0.201647	0.001296
2421	0.000474	0.000967	0.198689	0.201319	0.000639
2422	0.000146	-0.000347	0.198689	0.199675	-0.000676
2423	-1.9e-05	0.000146	0.197374	0.203126	0.001132
2424	-0.000347	-0.000183	0.201812	0.199182	-0.000676
2425	-0.000347	0.001296	0.197538	0.199182	0.000639
2426	-0.000347	-0.000183	0.199182	0.199182	-0.000512
2427	0.000146	0.000639	0.198031	0.198689	-0.000183
2428	0.00031	-0.003963	0.198524	0.199675	-0.000512
2429	0.000803	0.00031	0.201154	0.198689	0.000474
2430	-1.9e-05	0.000639	0.198853	0.19836	-0.000512
2431	0.000803	-0.000183	0.196059	0.197867	0.001625
2432	0.000474	0.002282	0.195237	0.201647	0.000639
2433	0.000967	0.002775	0.196388	0.199675	-0.000183
2434	0.000803	0.00031	0.197703	0.200168	0.000474
2435	0.000803	0.003597	0.200004	0.201154	0.000146
2436	0.001296	0.003104	0.199182	0.199839	-1.9e-05
2437	0.001132	0.000803	0.20099	0.200825	0.000474
2438	0.003433	0.008857	0.196881	0.203126	0.000967
2439	0.001296	0.005569	0.199346	0.194251	-1.9e-05
2440	0.002282	0.019868	0.197703	0.20362	-0.000347
2441	0.003268	0.028251	0.200332	0.200497	0.000967
2442	0.002118	0.034825	0.198853	0.201647	0.000474
2443	-0.000183	0.042221	0.197045	0.202962	0.000639
2444	0.000639	0.049781	0.199346	0.200168	-0.001334
2445	-0.000512	0.052411	0.19721	0.198689	-0.000347
2446	-1.9e-05	0.059643	0.198853	0.199839	0.000146
2447	0.001132	0.067039	0.198853	0.196388	-0.000347
2448	0.003433	0.069669	0.200004	0.136726	-0.001169
2449	0.010993	0.076079	0.198524	0.006227	0.00031
2450	0.014773	0.07197	0.198524	0.011322	-0.000183
2451	0.02447	0.083639	0.197045	0.016746	0.000639
2452	0.02069	0.087748	0.202305	0.025621	0.00031
2453	0.027922	0.090871	0.196059	0.030716	0.000803
2454	0.029237	0.092843	0.196881	0.038276	0.000146
2455	0.014116	0.098924	0.19721	0.044193	0.000803
2456	0.001954	0.100896	0.199018	0.049288	-0.000512
2457	0.000803	0.105992	0.203784	0.057506	0.000803
2458	-1.9e-05	0.111251	0.199182	0.060465	-1.9e-05
2459	0.008035	0.11158	0.198689	0.067861	-1.9e-05
2460	0.018389	0.115524	0.199511	0.072791	-0.000841
2461	0.020197	0.111251	0.198689	0.079859	0.000474
2462	0.011979	0.120455	0.198031	0.079859	0.000146
2463	0.005898	0.125057	0.199839	0.087419	0.000967
2464	0.008692	0.130481	0.198031	0.094158	0.00031
2465	0.008692	0.13196	0.199675	0.097281	0.000146
2466	0.016088	0.132617	0.197538	0.100239	0.000639
2467	0.014773	0.132946	0.199346	0.102047	0.000146
2468	0.011322	0.141328	0.198853	0.109114	0.000146
2469	0.00935	0.139685	0.202469	0.10895	-0.001169
2470	0.01313	0.143794	0.198524	0.113552	-0.000512
2471	0.018225	0.146095	0.199182	0.117332	0.000639
2472	0.021019	0.139849	0.198196	0.120948	0.000639
2473	0.026443	0.144287	0.199182	0.125057	0.00031
2474	0.031702	0.149875	0.202305	0.129166	0.001296
2475	0.034661	0.14856	0.196717	0.131302	0.000803
2476	0.026114	0.151518	0.199018	0.134097	0.001296
2477	0.026607	0.156285	0.199182	0.135904	-0.000676
2478	0.03088	0.152505	0.197703	0.137548	-1.9e-05
2479	0.036797	0.159408	0.198853	0.140506	-0.000841
2480	0.045179	0.159243	0.200497	0.141	-0.000512
2481	0.051261	0.159408	0.196717	0.138534	-0.001498
2482	0.056191	0.163681	0.201812	0.14478	-0.000841
2483	0.061615	0.164667	0.196717	0.14856	0.000967
2484	0.064245	0.16401	0.199018	0.146916	-0.000183
2485	0.071477	0.167625	0.196552	0.155299	0.000639
2486	0.073449	0.168118	0.199346	0.156285	0.00031
2487	0.084296	0.165817	0.197374	0.16138	0.000474
2488	0.081009	0.171077	0.198853	0.140835	-0.000183
2489	0.086762	0.170091	0.198853	0.146259	0.000146
2490	0.091528	0.172227	0.198524	0.14856	-1.9e-05
2491	0.096788	0.1742	0.201647	0.148889	-0.000347
2492	0.09876	0.171241	0.199182	0.153326	-0.001334
2493	0.10254	0.170913	0.200661	0.157271	0.001132
2494	0.104512	0.173707	0.198689	0.155463	0.000639
2495	0.104019	0.171734	0.199182	0.158257	-0.000183
2496	0.108293	0.173707	0.200004	0.155463	-0.000512
2497	0.107964	0.175679	0.199018	0.15875	0.000474
2498	0.114374	0.178309	0.197045	0.161215	0.000639
2499	0.114867	0.176336	0.201319	0.161873	-0.000512
