Ladekurvenmessung
Zeit: 2018_05_04 09.02.51
Info: FVA3, v = 0.749, T = 23, F = 20, h = 374.2
Ladewiderstand[Ohm]: 1012700
Störkapazität[pF]: 0.000000
Entladezeit[ms]: 200
Abtastrate[Hz]: 250000
Anzahl der Messwerte: 2500.000000
Verzögerung[ms]: 3
Ladespannung[V]: 0.200000
	Kurve_1	Kurve_2	Kurve_3	Kurve_4	Kurve_5	Kurve_6	Kurve_7
0	-0.002813	-0.001662	-0.001005	0.001789	-0.000841	-0.001498	0.001625
1	-0.002648	-0.001991	0.001625	0.002118	0.001625	0.00031	0.001132
2	-0.001991	-0.000512	-0.000512	0.002118	-0.000183	0.001789	0.003104
3	-1.9e-05	-0.003635	0.000146	0.001954	-1.9e-05	0.00031	0.000967
4	-0.001498	0.000474	0.000146	0.003597	0.000803	-0.000347	0.001132
5	0.000146	-0.001334	-0.002813	0.000803	0.000803	0.00146	-0.001005
6	-0.000347	-0.000512	-0.001498	0.00146	0.000803	0.001132	-0.000512
7	0.00146	0.00031	0.000146	0.004419	-0.002484	0.001296	-0.007579
8	-0.001169	-0.001169	0.003597	0.001954	-0.000183	-0.001827	-0.004785
9	0.00031	-0.001169	0.001296	0.000967	-0.002977	-0.001334	-0.002813
10	-0.001005	0.005405	0.00294	0.002447	-0.001169	0.001954	-0.001169
11	-0.002484	0.002447	0.001789	0.000639	-0.003306	-0.001169	0.000474
12	-0.000512	0.00146	0.003761	0.001132	0.001132	-0.000183	-0.001498
13	-0.005114	0.002282	0.000967	0.000639	0.00146	0.000803	-0.002484
14	-0.001662	-0.000183	0.002118	-0.000347	0.000474	-0.000512	0.000803
15	-0.001334	0.005076	-0.000183	0.001789	0.002118	0.000967	0.002447
16	-0.001334	-0.003142	0.00031	0.00031	0.000146	-0.000183	-0.000512
17	-0.003142	0.002611	-0.000841	0.000803	-1.9e-05	-0.000183	0.002611
18	-0.00347	-0.000183	-0.00232	0.003926	-0.000183	-0.000512	-1.9e-05
19	0.00031	-0.003142	-0.000676	0.000146	-0.000512	-0.000512	0.001296
20	-0.000512	0.000967	-0.001334	-0.001005	-1.9e-05	-0.000512	0.000639
21	-0.001991	0.002611	-0.001662	0.004748	-0.001662	0.000474	0.001954
22	0.003433	-0.001827	-0.001334	0.000474	0.001296	-0.001334	0.000146
23	-0.001662	-0.001169	-0.002648	0.002447	0.001954	-0.000512	-0.000183
24	-0.001334	-0.000676	0.000639	-0.000183	0.00294	0.001625	-0.000183
25	0.00031	-0.000841	0.001625	0.001625	0.003268	0.001625	-1.9e-05
26	0.000474	0.001132	0.000146	0.002118	0.002282	0.002447	-0.001498
27	0.00031	-0.000512	0.000474	-0.000183	0.000967	-0.002813	0.005734
28	-0.002155	-0.001169	0.001296	0.00146	0.00146	-0.002648	0.002118
29	-0.000512	0.00146	0.00031	0.005405	0.003761	0.000639	0.001132
30	-0.00232	0.002118	-0.001005	-0.000183	0.001954	0.00031	0.000967
31	-0.003963	-0.003635	-0.001005	-0.001005	0.00146	-0.003963	-0.000676
32	-0.004292	0.000146	0.003433	0.003926	0.000803	-0.001005	0.001789
33	-0.00725	-0.000183	-0.001005	-0.002155	-0.001334	-0.001827	-0.001498
34	-0.003635	0.000803	0.002118	0.002611	-0.000183	0.003926	0.000967
35	-0.00347	-0.001169	0.002775	0.001789	0.000146	0.000474	0.001625
36	-0.003963	-1.9e-05	0.001132	0.001625	-0.000183	-0.000841	0.001954
37	-0.000347	0.000967	0.000639	0.000967	0.002118	-0.002484	-0.001005
38	-0.001827	-0.001991	-0.000676	-0.001498	-1.9e-05	-0.002977	-0.000183
39	-0.000841	-0.00347	-0.000512	-0.003635	-0.001005	0.000146	0.001954
40	-0.000183	-0.001991	-0.001169	0.002282	0.000803	-0.001827	0.000146
41	-1.9e-05	-0.001662	-0.003963	-0.005278	-0.001334	-0.000183	-0.000183
42	-0.001498	-0.001662	0.000803	-0.002155	-0.002648	-0.000676	-0.001991
43	0.000474	-0.000183	0.000146	-0.001498	-0.001827	-1.9e-05	-0.000183
44	0.000967	-0.001662	0.000967	-0.003963	0.000474	-0.001169	-0.001498
45	-0.000183	0.000639	-0.000676	0.000146	-0.002155	-1.9e-05	0.000474
46	-0.001334	-0.001991	0.000803	0.001954	0.000146	-1.9e-05	-0.000183
47	-0.000676	0.000474	-0.000183	0.004255	0.001296	0.001296	-0.000676
48	-0.002484	-0.002977	-0.002813	0.002775	0.000967	0.00031	-0.002648
49	-0.003142	-0.001662	-0.000676	0.003433	-0.000183	0.000474	0.001296
50	-0.001827	-0.002977	-0.001991	-0.000183	0.001132	-0.001498	-0.004128
51	-0.000841	-0.002648	-0.000183	0.007049	0.000146	-0.000512	0.001625
52	-0.004949	-0.002813	-0.002484	-0.001827	-1.9e-05	0.000639	0.000639
53	-0.004456	-0.003142	-0.001498	0.000474	-0.001827	-0.001005	-0.000676
54	-0.002813	-0.001827	-0.000676	-0.000347	-0.000841	0.002282	0.002611
55	-0.002484	-0.001169	-0.001498	0.001132	-0.002648	0.000967	-0.001662
56	0.00031	-0.001169	-0.000512	-0.001991	-0.003963	0.001132	0.00294
57	-0.001991	-0.001169	0.00031	0.000967	-1.9e-05	-0.001334	0.004255
58	0.00031	-0.000841	-0.001169	0.001789	-0.002813	-0.000183	-0.000841
59	0.000474	-0.00347	-0.001169	0.000639	0.000146	-1.9e-05	-0.001498
60	-0.000676	0.001789	-0.00347	0.002282	0.001954	0.003761	-0.001991
61	0.000967	-0.001005	-0.000512	0.00146	0.00031	-0.001169	-0.002648
62	-0.000676	-0.000347	-0.000183	0.004748	0.000639	0.00031	-1.9e-05
63	-0.003142	-0.000512	0.003104	-0.001827	-0.000676	-0.002484	-0.004128
64	-0.001991	-1.9e-05	-0.000347	0.00031	-0.000183	-0.000841	-0.002813
65	-0.000347	-0.001662	0.00031	-0.000512	-0.000512	-0.001498	0.001132
66	-0.001991	0.002447	0.000639	0.000803	0.002775	0.000967	0.00031
67	-0.000676	-0.001334	-0.000841	-0.001498	-0.000841	-0.000676	-0.001991
68	-0.003306	0.001132	-0.001334	0.001789	-0.000841	0.000146	0.00146
69	0.00031	-0.001005	-0.003306	0.00146	0.001296	-0.000512	0.000146
70	-0.001498	-0.000841	-0.001334	0.000967	0.00031	-0.000676	-1.9e-05
71	-0.000841	-0.001334	-0.004456	-0.001498	0.001132	0.000474	-0.002484
72	-0.002977	-0.003142	-0.003635	0.001954	0.000967	-0.001169	-0.000512
73	-0.002155	-0.002648	-0.002155	0.002611	0.00031	-0.000676	0.00146
74	-0.001827	-0.00232	-0.000183	-0.003142	0.00294	-0.003306	-0.001005
75	0.001132	-0.001662	-0.003799	-0.003635	-0.000676	-0.001334	0.000639
76	-0.002155	0.000967	-0.000347	-0.001005	-0.004128	-0.00347	0.001296
77	-0.000183	0.00031	-0.001662	-0.000676	-0.001169	-0.001498	-0.001169
78	-0.001005	-0.002813	-0.001827	-0.001169	0.000146	-0.000841	-0.003963
79	0.000146	-0.00232	0.000474	0.000639	0.00031	-0.002977	0.000474
80	0.000639	0.000146	-0.000512	-0.00232	0.003104	-0.001662	-0.001498
81	-0.002484	0.000474	-0.001169	0.000146	0.00146	0.000803	-0.000841
82	-0.000841	-0.001827	-0.001005	-0.000676	0.001132	-0.005114	-0.000841
83	-0.002155	-0.001662	-0.002484	0.001296	0.003433	-0.006593	-0.001827
84	-0.001169	-0.003142	-0.001991	0.00409	-0.001169	0.000474	-1.9e-05
85	-0.004785	-0.000512	-0.001169	-0.000676	0.002118	0.000146	0.000474
86	-0.000512	0.000803	-0.005607	-0.002484	-1.9e-05	0.002282	-0.002484
87	-0.000841	-0.001991	0.001296	-0.001662	0.00146	-0.001991	0.000803
88	-0.002155	0.00294	-0.001991	0.001789	-1.9e-05	-0.00347	-0.002813
89	-0.001827	-0.001662	-0.001662	-0.00347	-0.001498	-0.001991	0.002282
90	-0.002155	0.000146	-0.002484	0.004748	-0.001827	-0.000347	0.00146
91	0.000146	-0.001005	0.001132	0.000639	-0.000183	-0.001991	-0.001827
92	0.00146	0.001296	-0.002155	-0.001169	0.000146	-0.000512	0.000639
93	-0.001498	-0.002484	-0.000512	-0.001827	-0.003306	-0.003142	-0.003306
94	-0.002155	-0.000183	-0.000676	-0.002813	-0.002155	0.000803	0.000803
95	-0.001498	-0.001991	-0.002155	0.001132	-0.002648	-0.001662	-0.003306
96	-0.003635	-0.002155	-0.001991	-0.005278	-0.00347	-0.001991	-0.001169
97	0.000146	-0.000676	-0.005443	-0.003635	-0.001169	-0.002484	-0.003635
98	-0.002648	-0.002813	-1.9e-05	-1.9e-05	-0.00232	-0.001005	-0.000841
99	0.000803	-1.9e-05	-0.003306	-0.004456	-0.001662	-0.000512	-0.001005
100	-0.001662	0.002775	0.000474	0.000146	-0.001991	-0.000841	-0.001662
101	-0.001827	-0.001334	-0.001991	-0.000676	-0.001827	0.000146	-0.000183
102	-0.002484	-1.9e-05	-0.001169	0.001954	-0.000183	0.000474	0.000803
103	-0.003799	0.002611	-0.003306	0.000967	-0.002977	0.001954	-0.000676
104	-0.002813	-0.001991	-0.001169	-0.001005	-0.00232	0.001296	-0.001169
105	-0.002484	-0.002484	-0.003306	-0.000347	-0.001662	0.000146	0.000639
106	-0.002484	-0.005443	0.000146	0.000967	-0.004456	-0.002977	-0.00232
107	-0.005278	0.000474	-0.001662	-0.001005	-0.003635	-0.000841	-0.000183
108	-0.001827	-0.00232	-0.003635	0.000803	-0.003635	0.000803	-0.000676
109	-0.001169	-0.004456	-0.001334	-0.002813	-0.006429	0.001954	0.002611
110	-0.004292	-0.001662	-0.001334	-0.000841	-0.001498	-0.004128	-0.00347
111	-0.001169	-1.9e-05	-0.002155	0.001789	-0.004456	-1.9e-05	-0.001827
112	0.000639	-0.001169	-0.002155	0.000639	-0.001498	-0.002484	-0.002155
113	-0.000676	-0.000512	-0.000347	0.00146	-0.001498	-0.002155	-0.001169
114	0.00031	-1.9e-05	-0.006757	-0.000347	-0.001498	-0.001662	-0.004785
115	-0.001991	-0.001498	-0.00347	0.000803	-0.000512	-0.001498	-0.002155
116	0.00031	-0.000676	-0.003963	-0.000512	0.000146	-0.000676	-0.00232
117	0.000803	-0.000512	-0.001827	0.001954	-0.000347	-0.000676	-0.001991
118	-0.001498	-0.000841	-0.003306	-0.001334	-0.00347	-0.001005	0.000967
119	-0.002155	0.000474	-0.003306	-0.000183	-0.000347	-0.000347	-0.002484
120	-0.000183	-0.003306	-0.002484	0.000474	-0.001991	-0.000512	0.001296
121	-0.001498	0.000639	0.000967	-1.9e-05	-0.00232	-0.002484	0.000146
122	0.000474	-1.9e-05	0.00146	-0.002813	-0.001991	0.000803	0.001132
123	-0.000841	-0.001827	-0.002648	-0.001169	-0.000841	-0.001334	-0.001827
124	-0.002813	-0.000676	-0.000512	0.000967	-0.001498	-0.000183	0.004912
125	-0.001662	0.000639	-0.001498	-0.002484	0.002447	-0.001991	-0.003142
126	-0.001334	-0.001498	-0.00232	-0.002155	0.000639	-0.002813	-0.002155
127	0.001625	-0.00232	-0.001498	-0.001662	0.000967	-0.005443	-0.001827
128	-0.002977	0.000474	-0.001991	0.00031	-0.000512	-0.000183	0.003597
129	-0.000676	-0.004456	-0.002484	-0.004292	-0.001827	-0.003963	-0.002648
130	-0.001827	0.001296	-0.003142	-0.000347	0.001132	-0.002977	-0.001334
131	0.000967	-0.003963	-0.001662	-0.001662	-0.001005	-0.002648	-0.001991
132	-0.001334	-0.000512	0.001296	-0.001334	-0.00232	-1.9e-05	-0.002484
133	-0.001662	0.002447	-0.001169	0.000474	-0.001334	-0.000841	-0.001005
134	-0.002155	-0.001991	-0.003963	0.000639	0.002282	0.001625	-1.9e-05
135	-0.001334	-0.000512	-0.000512	0.00031	-0.000841	0.001296	0.001296
136	-0.000841	-0.003306	-0.001169	-0.001334	0.002775	0.001625	-0.003142
137	0.000146	-0.000347	-0.002813	-1.9e-05	-0.000841	0.005076	-1.9e-05
138	-0.003306	-0.001334	-0.000841	0.000967	0.002447	-0.002484	-0.000841
139	-0.001498	0.00146	-0.002484	0.003433	-1.9e-05	0.001296	0.001132
140	-0.00232	0.002118	-0.002155	-0.000347	-0.002155	-0.001498	-0.000841
141	-0.005278	-1.9e-05	-0.004292	-0.001662	-0.006264	0.000639	-0.000841
142	-0.000512	-0.001827	-0.001334	-0.004785	-0.004292	-0.00232	0.001132
143	0.00031	0.000803	-0.001169	-0.003142	-0.000512	-0.001662	0.000803
144	-0.001991	-0.001662	-0.000676	-0.002813	-0.003142	-0.001498	-0.003799
145	-0.002155	0.000146	-0.002155	-0.002813	0.000146	0.000146	-0.000183
146	-0.001662	-0.00232	-1.9e-05	-0.005607	-0.001662	-0.001334	0.000967
147	-0.002155	-0.001169	-0.000512	0.000146	0.000474	-0.000512	-0.002648
148	-0.001169	-0.002155	-0.003963	0.001296	-0.001334	0.001132	-0.000841
149	-0.00232	-1.9e-05	-0.00232	-0.002813	0.003104	-0.000512	-0.000841
150	-0.000512	0.002282	-0.00347	-0.00232	-0.003142	-0.001169	-0.000347
151	-0.004621	-0.001005	-0.003306	0.000803	0.000474	0.00146	-0.001169
152	-0.003963	-0.002813	-0.002484	-0.000841	-0.000512	0.000146	0.000803
153	-0.001662	-0.00347	-0.001827	0.000803	0.001625	-0.000841	-1.9e-05
154	-0.001334	-1.9e-05	-0.001169	0.000803	-0.000676	0.002118	0.001789
155	-0.001169	-0.003799	-0.001662	-0.000512	-0.000512	-0.003799	0.000967
156	-0.003142	-0.001169	-0.001827	0.001625	-0.00232	0.00031	0.001954
157	-0.000676	-0.002484	0.00146	-0.000183	-0.000676	-0.001169	-0.00347
158	-0.00347	-0.000347	-0.001498	0.000967	-0.002813	-0.001005	0.002118
159	-0.000676	-0.001991	-0.001662	-0.002648	-0.002813	0.000803	0.001132
160	-0.002484	-0.000676	-0.001827	-0.001498	-0.001334	-0.006429	-0.000512
161	-0.000512	-0.001662	-0.001169	-0.001334	-0.003142	-0.004785	-0.003306
162	-0.00232	-0.000183	-0.002813	-0.000676	-0.001662	-0.00232	-0.001334
163	-0.000512	-0.001827	-0.002155	-0.003306	-0.001498	-0.004128	-0.001498
164	-0.000676	-0.003963	-0.002648	-0.000512	-0.00347	-0.00232	-0.001827
165	0.000474	0.000967	-0.005607	-0.000676	0.000474	-0.001169	-0.003963
166	-0.003635	-0.001498	-0.004621	-0.001169	0.00146	-0.000183	-0.002155
167	-0.001005	-0.000183	-0.005607	-0.000183	0.00146	0.000474	-0.000676
168	0.000146	-0.001498	-0.002484	0.000967	0.001625	-0.000347	-0.001827
169	-0.00232	-0.001334	-0.004456	0.00031	0.001625	-0.000183	0.000474
170	0.000967	-0.001662	-0.003306	0.00031	-0.000347	-1.9e-05	-0.000512
171	-0.001827	-0.000347	-0.002648	-0.001498	-0.000841	-1.9e-05	-1.9e-05
172	-0.002155	0.000146	0.000474	-0.001005	-0.000676	-0.001662	-1.9e-05
173	-0.004128	0.00031	-0.000183	0.00031	-0.001334	0.000639	0.000967
174	0.003761	-0.000347	-0.002813	-0.001334	-0.001169	-0.001169	-0.003142
175	-0.003799	-0.000183	0.000967	0.000146	-0.000841	-1.9e-05	0.000474
176	-0.002484	-1.9e-05	0.000474	-0.001498	-0.003635	-0.001334	-0.001827
177	-1.9e-05	0.002775	-0.00232	-0.001334	0.00031	0.000639	0.003597
178	-0.004128	-0.000512	-0.000841	-0.002484	-0.001662	-0.001334	-0.003142
179	-0.000347	-0.001662	0.002118	-0.000512	-0.000183	-0.002648	-0.002977
180	0.00031	0.001296	-0.000676	-0.00232	-0.002813	-0.005771	-0.002813
181	-0.000347	-0.002977	-0.000512	-0.002484	-0.001005	-0.001662	-0.001662
182	-0.000841	-0.000512	-0.002155	0.000146	0.000474	-0.000347	-0.000512
183	-0.003799	-0.00232	0.000474	0.000639	-0.002484	-0.001169	-0.001005
184	-0.000347	0.001132	-0.000347	-0.001827	-0.000676	0.000474	-0.000183
185	-0.001005	0.00146	-0.002977	0.000639	0.001625	-0.001005	-0.002484
186	-0.002484	-0.004292	0.00294	-0.001334	0.00294	0.00146	0.000474
187	-0.001169	-0.004292	0.002282	-0.000676	-0.000512	-1.9e-05	0.000803
188	-0.00347	-0.004621	0.00031	0.002282	-0.003306	0.005569	-0.001498
189	-0.002648	-0.003306	0.00146	-0.001991	-0.000347	0.001789	0.00031
190	-0.001991	0.003268	-0.001498	0.000967	-0.000841	0.002447	0.002282
191	-0.000841	-0.001334	-0.001005	-0.002977	-0.00347	-0.000676	-0.000512
192	-0.004292	0.000146	0.001625	-0.00232	0.00146	-0.000512	0.000803
193	-0.000676	0.000967	-0.000183	-0.001991	-0.001827	0.001954	-0.001005
194	-0.001827	-0.001991	0.001296	-0.003963	-0.001827	-0.000676	-0.000841
195	-0.0061	-0.000512	-0.002813	-0.002155	-0.001991	-0.000676	-0.001827
196	-0.002484	-0.003635	0.000474	-1.9e-05	-0.001169	-0.000512	-0.002648
197	-0.001005	-0.000676	-0.000676	-0.002977	-0.001662	-0.000512	0.001132
198	-0.003306	-0.001827	-1.9e-05	-0.000183	0.001132	-0.001827	-0.002155
199	-0.002484	-0.000841	-0.002648	-0.001005	-0.004128	0.000803	-0.002813
200	-0.003963	-0.003963	-0.000676	0.000146	-0.000512	-0.000841	0.000967
201	-0.002813	-0.004128	-0.00232	0.001954	-0.003142	0.000146	0.00146
202	-0.001005	-0.005443	-0.002813	0.00146	-0.000183	-0.001169	-0.002813
203	-0.002977	-0.00347	-0.001827	0.002447	0.002611	0.001954	-0.000183
204	0.000803	-0.005443	-0.003635	0.004419	0.000803	-0.004292	-0.003963
205	-0.001991	-0.003799	0.001625	0.001296	-0.001827	-0.001498	-0.00232
206	-0.001334	-0.000841	0.00031	-0.002155	-0.003799	-0.001662	-0.001169
207	-0.001169	0.003926	-0.001334	0.000967	-0.001334	-0.000841	0.000146
208	-0.002484	-0.001662	-1.9e-05	-0.001169	-0.001169	0.00031	-0.006593
209	-0.002484	0.000803	0.001132	-0.00347	-0.002484	-0.001991	-0.001991
210	-0.001334	-0.001498	-0.003963	-0.002484	-0.004128	0.001625	-0.001169
211	-0.003306	-0.001005	0.003433	-0.001991	-1.9e-05	0.002447	-0.004128
212	-0.00232	-0.001827	-0.000347	-0.001334	0.000474	0.001132	-0.000347
213	-0.001005	-0.000841	0.001296	0.00031	-0.001169	-0.001498	-0.003142
214	-0.001827	-0.002813	-0.000347	-0.002813	-0.003963	0.00146	-0.000347
215	-0.000347	-0.001498	0.004419	-0.000512	-0.004128	-0.000347	-0.001498
216	0.000474	-0.002155	-0.002813	0.001132	-0.003306	-0.000512	-0.001498
217	-1.9e-05	-0.003142	-0.001005	-0.00232	-0.000183	-0.002813	0.000146
218	-0.001334	-0.001169	-0.003142	-0.000512	-0.000183	-0.001169	-0.001334
219	-1.9e-05	-0.00347	-0.000183	0.000146	-0.001169	-0.001991	0.000146
220	-0.002484	-0.000512	-0.002648	-0.000841	-0.001498	-0.001498	-0.001498
221	0.00031	-0.000183	-0.002155	0.000474	-0.001827	-1.9e-05	-0.001662
222	-0.003306	0.001296	0.00146	0.000803	-1.9e-05	0.000146	-0.001827
223	0.001132	-1.9e-05	-0.002484	0.000967	-1.9e-05	-0.001334	-0.000347
224	-0.002813	-0.000183	-0.000183	0.001132	0.001132	0.000967	0.000474
225	0.001132	-0.000676	0.000803	-0.001991	-0.002155	0.000967	-0.001005
226	-0.002648	-0.000676	-0.000183	-1.9e-05	0.000474	-1.9e-05	0.003104
227	0.001132	-0.000512	-0.001334	0.000967	-0.000676	-0.002484	0.001789
228	-0.00232	-0.00232	-1.9e-05	-0.002648	-0.000512	-0.002484	0.000967
229	-0.002484	-0.000676	-0.001334	-0.00347	-0.000512	-0.001169	0.001954
230	-0.001662	-0.00232	0.00146	-0.001827	-0.000347	-0.005278	0.001789
231	-0.001662	-0.001169	-0.000512	-0.000347	-0.001334	-0.007744	0.001954
232	-0.001334	-0.001334	0.001789	-0.002155	-0.00232	-0.004128	0.000146
233	-0.001991	0.001789	0.000639	-0.00232	-1.9e-05	-1.9e-05	0.000803
234	-0.000347	-0.003142	0.002282	-0.00232	-0.000183	-0.002484	-0.001169
235	-0.001827	-1.9e-05	-0.001169	-0.000347	0.001954	-1.9e-05	-0.000512
236	0.000146	-0.001662	0.000146	-0.001334	-0.003142	-1.9e-05	-0.002155
237	-0.002155	-0.001827	-0.00232	-0.00232	-0.004785	0.002447	-0.000676
238	-0.001827	-0.002813	-0.001991	-0.002155	-0.003799	0.000639	-0.001827
239	-0.001991	-0.00232	0.000474	-0.002484	-0.001169	0.000146	0.000146
240	0.001132	0.000474	-0.001827	-0.005278	-0.003635	-0.000676	-0.001498
241	-0.001334	-0.004949	0.00146	-0.003142	-0.001005	0.001789	-0.000512
242	0.000639	0.000639	-0.000676	-0.003635	-0.000841	-0.001169	-0.000183
243	0.000803	-0.001334	0.001296	-0.001827	-0.001334	-0.001334	-0.004128
244	0.000803	0.000146	0.002447	-0.00232	-0.001334	0.00146	-0.000183
245	0.001132	-0.00232	0.001296	-0.001334	0.000639	-0.001169	0.001296
246	0.000474	-0.003306	-0.000676	0.000146	-0.000183	0.003268	-0.001498
247	-0.001827	0.00146	-1.9e-05	-0.002484	0.000474	0.000474	-0.001169
248	-0.002155	-0.001991	-0.000347	0.001132	-0.00232	-0.001169	0.000146
249	0.000146	-0.001991	-0.000347	-0.001169	-0.000512	0.00146	-0.000512
250	-0.002648	-0.000676	-0.002155	-0.000676	-0.002155	-0.00347	-0.000183
251	0.000146	-0.009223	-0.002484	-0.000512	-0.001169	-0.003635	-0.001662
252	-0.001827	-0.008237	-0.001005	0.003597	-0.001005	0.000146	0.005076
253	-0.006593	-0.002155	-0.002813	-0.001991	-0.002155	-0.003306	-0.001991
254	-0.001334	-0.005114	0.000474	-0.001334	-0.003306	-0.004949	-0.000347
255	-0.000347	-0.002648	-0.001991	-0.001827	-0.002155	-0.001169	-0.00232
256	-0.000676	-0.001991	0.001625	0.000639	-0.001169	-0.001169	-0.000676
257	-0.000183	0.001789	-0.001991	-0.000512	-0.002977	-0.001498	-0.001498
258	-0.000841	-1.9e-05	-0.001662	0.001296	-0.000512	0.003597	-0.000841
259	-0.000841	0.00031	-0.001334	-0.005114	-0.002648	-1.9e-05	-0.003799
260	0.001625	-0.000183	-0.000676	0.000803	0.000803	-0.000841	-0.004128
261	-0.001169	-0.000512	-0.004456	0.000803	0.000967	0.001789	-0.002155
262	-0.000512	-0.001169	-0.000676	-0.003635	0.000146	-0.002648	-0.003142
263	-0.002648	-0.000512	-0.002155	-0.001334	-0.000183	-0.000183	-0.002977
264	-0.001005	-0.000512	-0.001334	-0.000676	0.001132	-0.002155	-0.003142
265	-0.002484	-0.000347	-0.006757	-0.001334	-0.000183	0.00031	0.001132
266	-0.001827	-0.000183	-0.000347	-0.003306	-1.9e-05	-0.002155	-0.001498
267	-0.001662	-1.9e-05	0.001296	0.00031	-0.002813	-0.001005	0.00146
268	-0.001991	-0.002155	-0.004785	-0.000841	-0.00232	-0.001827	-0.000183
269	-0.002155	0.00146	-0.001662	0.00031	-0.002648	0.001296	-0.000183
270	0.000803	0.000474	-0.001334	-0.000676	-0.002813	-0.002484	-0.001334
271	-0.000512	-0.002648	-0.001662	0.000803	0.000146	-0.001662	0.002775
272	-0.001662	-0.00232	-0.001827	-0.003306	-0.003306	-0.002484	-0.002977
273	-0.001498	-0.002155	-0.000676	-0.001005	-0.000841	-0.001498	-0.002484
274	-0.003142	-0.000841	-0.001498	-0.001827	-0.000347	-0.000512	0.001132
275	-0.003142	-0.001498	-0.000841	-0.001498	0.00031	-0.002648	0.003104
276	-0.002813	-0.001005	-0.001334	-0.001005	-0.001662	0.000474	0.002447
277	-0.001662	0.000474	-1.9e-05	-0.003142	0.001132	-0.001169	-0.001498
278	-0.00347	0.00031	0.004583	0.000639	-0.000676	-0.001005	0.001789
279	0.000474	-0.000841	0.000474	-0.001498	0.001625	-0.001991	0.001132
280	-0.001827	0.001296	-0.000676	-0.000347	-1.9e-05	0.002775	-0.001334
281	-0.001662	-0.001662	-0.001827	-0.000512	-0.002813	-0.004785	-0.001662
282	-0.001005	-0.000841	0.000639	0.00031	0.000146	-0.003306	0.001625
283	-0.002155	-0.000676	-0.005443	-0.001169	-0.000512	-0.002813	-0.001991
284	-0.003635	-0.001334	-0.001827	-0.001169	-0.004128	-0.000841	0.000474
285	-0.001498	-0.002648	-1.9e-05	-0.003142	-0.003306	-0.002484	-0.000841
286	-0.002648	-0.002977	-0.004128	-0.000183	-0.00232	-0.001991	-0.000183
287	-0.001005	-0.003142	-0.001991	-0.001334	0.001625	-0.001991	-0.001005
288	-0.002484	0.000639	0.000146	-0.001498	-0.000512	-0.001169	-0.000512
289	0.000146	0.004419	-1.9e-05	-0.000512	-0.001498	0.001789	0.000639
290	-0.00232	-0.001991	-0.001169	-0.002484	0.000639	-0.001498	-0.001827
291	0.000639	0.00031	0.000474	-0.00347	-0.001334	0.001625	-0.001334
292	0.000474	-0.001498	-0.001005	-0.001334	-0.001334	-0.001991	-0.004128
293	-0.001662	-0.002484	-0.00232	-0.000512	-0.001827	-0.001169	-0.001334
294	-0.000512	-0.001991	-0.001498	-0.004456	-0.000347	0.000146	-0.003306
295	-0.005443	0.000803	-0.001334	-1.9e-05	-0.001005	-1.9e-05	-0.003963
296	-0.004785	-0.003142	0.000639	-0.004949	-0.000347	-0.001498	-0.001662
297	-0.001827	-1.9e-05	0.000639	-0.000512	0.001296	-0.001334	-1.9e-05
298	-0.002155	-1.9e-05	-0.000676	-0.000841	-0.001827	0.000146	-0.001827
299	-0.004621	0.000639	-1.9e-05	-0.002484	-0.000512	0.001296	0.000474
300	-0.002484	-0.000512	-0.001169	0.000474	-0.001005	-0.001991	0.00031
301	-0.004621	-0.000676	-0.002977	-0.000676	-0.000512	-0.00347	0.001625
302	-0.001991	-0.006757	-0.001827	-0.000512	-0.001498	-1.9e-05	-0.001498
303	-0.003963	-0.004456	-0.001991	-0.001005	-0.003142	-0.001498	-0.000676
304	-0.001005	-0.001991	-0.002484	-0.001827	-0.004292	-0.007744	-0.000512
305	-0.001991	-0.0061	-0.001498	-0.001662	-0.001827	-0.002813	-0.001005
306	0.00031	-1.9e-05	-0.003635	0.000639	-0.002648	-0.00347	-0.004621
307	-0.001827	-0.003963	-0.000512	-0.001334	-0.004456	-0.003142	0.003761
308	-0.001498	0.000146	-0.002155	0.000803	-0.002648	0.000803	0.001132
309	0.00031	-0.000676	-0.001498	-0.001334	-0.002484	-0.001334	-0.004128
310	-0.002155	-0.001169	-0.001827	-0.001005	0.000474	-0.001991	-0.002155
311	0.002118	-0.00347	0.002447	0.000639	0.001296	-0.002155	-0.001991
312	-0.002155	0.001296	0.000146	0.00031	-0.001498	-0.005114	-0.002155
313	-0.000183	-0.000841	-0.001498	-0.000676	-0.005936	-0.000512	-0.005771
314	-1.9e-05	0.00031	0.001132	0.001625	-0.001498	-0.002484	-0.001169
315	0.001296	-0.001334	-0.003142	-0.002155	-0.001169	-0.003963	-0.002648
316	-0.004456	0.00031	-0.00347	-0.001005	0.00146	-0.000841	0.00031
317	-0.001005	-1.9e-05	-0.006757	-0.001662	0.002775	-0.000841	-0.000347
318	-0.003306	-0.001498	-0.00232	-0.000841	-0.001334	-0.002648	0.000803
319	-0.002648	-0.00232	-0.002155	-0.001005	-0.000512	-0.002484	0.000639
320	-0.002155	-0.002484	-0.001827	-0.00347	-0.001827	-0.000841	-0.001005
321	-0.000841	-0.003142	-0.005278	-0.006593	-0.001827	0.000146	0.000146
322	0.001296	0.002611	-0.000183	-0.002813	-0.000183	-0.002155	0.00146
323	0.002611	-0.003142	-0.002813	-0.000676	-0.00232	-0.001005	-0.002484
324	0.002447	-0.003306	-0.001498	-0.002813	-0.006922	-0.000512	0.000146
325	0.00031	-0.001169	-0.002648	-0.000676	-0.003142	-0.001005	-0.000512
326	0.000474	-0.002648	-0.002484	-0.001662	-0.000512	-0.004292	-0.001005
327	-0.000841	-0.001169	-0.001498	-0.001991	-0.00232	-0.004292	0.000474
328	0.001132	-0.001991	-0.00232	-0.002813	0.00146	-0.002813	-0.004621
329	-0.001169	-0.002155	0.00031	-0.001662	-0.001169	-0.002648	-0.002484
330	-0.000183	-0.000512	-0.000512	-0.001827	0.002282	-0.001991	-0.003306
331	-0.001827	0.001132	-0.000183	0.000967	-0.001827	0.003104	-0.001498
332	-0.001334	0.00031	-0.003799	-0.004621	-0.000841	-0.000183	0.001132
333	-0.003799	-0.000347	0.001789	0.000474	0.001296	0.000967	0.002447
334	-0.004292	-0.000183	0.000803	-0.001498	-0.001334	0.000967	-0.001827
335	-0.002155	-0.00232	0.000474	-0.001334	-0.0061	0.00031	0.001132
336	-0.003635	-0.001827	0.002282	-0.001662	-0.000183	-0.001991	-0.000512
337	-0.000183	-0.002484	0.00146	-0.001827	-0.001498	-0.001334	-0.000841
338	-0.002484	-0.004621	-0.002813	-0.002813	-0.004785	-0.000841	-0.000676
339	-0.001169	-0.007086	-0.001334	-0.001498	-0.002484	0.001789	-0.001991
340	-0.001334	-0.00347	-0.001827	0.003268	-0.00232	-0.002484	0.002282
341	-0.000183	-0.002977	0.001296	-0.001662	-0.002813	-0.00232	-0.00232
342	-0.004785	-0.000676	-0.002813	-0.000676	-0.00347	0.000967	-1.9e-05
343	-0.001991	-0.001005	-0.001827	-0.00232	-0.000347	-0.001827	-0.002484
344	-0.003142	-0.00232	0.000639	-0.000841	0.000474	-0.000841	0.001789
345	-0.000347	0.001954	-0.002813	-0.004456	0.000474	-0.000676	-0.001498
346	0.000967	-0.000183	-0.000512	0.000967	-0.009716	0.000146	-0.001827
347	0.003433	-0.001498	-0.001334	-0.003142	-0.001334	-0.001662	-0.00232
348	0.000474	-0.000841	-0.001498	-0.001662	-0.000347	-0.001334	-0.002155
349	0.001625	-0.000183	-0.002484	-0.004456	-0.000841	-0.001005	0.000146
350	-0.005443	-1.9e-05	-0.000512	-0.003799	0.00031	-0.000676	-0.001334
351	-0.003306	-0.001005	-0.004949	0.00146	-0.001005	0.000639	0.000146
352	-0.003142	-0.001169	0.002447	-0.001991	0.000639	-0.002648	-0.003142
353	-0.0061	-0.002155	-0.003306	-0.004128	-0.003635	-0.002977	-0.000512
354	-0.004785	-0.003799	-0.000676	-0.006429	-0.000512	-0.004785	-0.002155
355	-0.002484	-0.002813	0.001132	-0.002155	-0.003799	-0.000347	0.000474
356	-0.001005	-0.003635	-0.005114	-0.00347	-0.003142	-0.000676	-0.000183
357	-0.001334	-0.003635	-0.002813	-0.000347	-0.009716	0.000803	0.002118
358	-0.000676	-0.004621	-0.000676	-0.000676	-0.004292	-0.004621	-0.004128
359	-1.9e-05	-0.001334	-0.002977	0.001954	-0.003306	0.00031	-0.001005
360	0.000639	-0.003142	-0.002977	-0.002155	-0.001334	-0.003799	-0.002977
361	-0.001991	0.000146	-0.004785	-0.000183	-0.000512	-0.001169	-0.002977
362	0.000967	-0.002813	-0.000676	-0.002155	0.000474	-0.004949	-0.007908
363	-0.001827	-0.001334	0.00031	-0.001169	0.001296	-0.000347	-0.000676
364	-0.001005	0.001132	-0.001169	-0.001991	-0.001662	0.003926	-0.000512
365	-0.001662	0.00031	0.000967	-0.001991	0.002118	-0.002484	-0.001662
366	-0.000347	-1.9e-05	0.001954	-0.000183	-0.00347	-0.000841	0.00146
367	-0.001662	0.000474	-0.000512	-1.9e-05	0.003104	0.000474	-0.001662
368	-0.000512	0.000967	-0.003142	-0.001498	-0.00232	-0.000347	-0.000183
369	-0.002813	-0.001334	-0.000512	-0.000347	0.000967	-0.003963	0.000474
370	-0.002648	0.002775	-0.002648	-0.001334	-0.003306	-0.000183	0.00031
371	-0.003635	-0.001827	-1.9e-05	0.000967	-0.001991	-0.001498	-0.001662
372	-0.001827	-1.9e-05	-0.001334	-0.001827	-0.002813	0.00031	-0.000512
373	-0.001005	-0.002648	-1.9e-05	-0.00232	-1.9e-05	-0.001991	-0.001334
374	-0.002155	-0.001169	-1.9e-05	-0.000676	-0.001991	-0.001334	0.002282
375	0.002611	-0.001498	-0.001334	-0.003963	-0.003963	-0.002977	-0.001991
376	-0.001827	-0.001334	-0.001991	0.000474	0.000803	-0.002977	-0.00232
377	0.002282	0.000474	0.001954	-0.003799	-0.001005	-0.003142	-0.001005
378	0.000967	-0.000512	-0.002484	-0.001827	-0.001334	-0.004456	-0.001991
379	0.003104	-0.004128	-0.001005	-0.001827	0.005569	-0.006429	-0.001991
380	-0.001334	-0.004621	-0.000512	-0.000512	-0.002155	-0.00347	-0.001827
381	0.001132	0.000639	-0.003142	-1.9e-05	-0.00232	-0.001498	0.000474
382	-0.000841	-0.001662	0.001296	-0.001169	0.00031	-0.000841	0.003268
383	-0.001498	-0.000183	0.000639	-0.001005	-0.004621	-0.000841	-0.000676
384	-0.00232	-0.001662	0.003268	-0.004128	-0.000676	-0.001498	0.00031
385	-0.001827	0.001625	0.00031	0.001132	-0.0061	0.000803	0.000146
386	-0.002155	-0.001498	0.000967	-0.001827	-0.006757	-0.000512	-0.001827
387	-0.003306	0.000474	-0.004128	-0.002648	-0.00347	0.00146	0.000474
388	-0.000183	-0.002813	-0.001005	-0.000512	-0.005114	-0.002813	-0.000347
389	-0.002155	-0.000183	0.000146	-0.001498	-0.003306	0.003104	0.001789
390	-0.000676	-0.000841	0.000146	-0.006429	0.002447	-0.002155	-0.001662
391	-0.006922	-0.002813	-0.002977	-0.001169	-0.00347	-0.000512	-0.001662
392	0.000967	-0.003799	0.001296	-0.002813	-0.000512	-0.002155	-0.001005
393	-0.001991	-1.9e-05	-0.002484	-0.002484	0.001132	-0.000183	-0.002484
394	-0.000512	0.00294	-0.002648	-0.003963	-0.000347	-0.001169	-0.003306
395	-0.001334	0.001132	0.001132	-0.000512	0.001132	-0.002484	-0.000183
396	-0.000347	0.000639	-0.001334	0.001296	-0.000676	-0.002155	-0.001005
397	-0.002484	-0.001827	-0.001005	-0.001334	-0.001169	-0.001334	-0.001005
398	-0.005443	0.000639	-0.002155	-0.002155	0.000967	-0.000512	-0.000183
399	-0.001662	-0.000841	0.000803	0.000474	0.00031	-0.002155	0.00031
400	-0.003635	0.001625	-0.002813	-0.000512	-0.000512	-0.000676	0.002447
401	-0.002648	-0.004128	-0.001662	-0.000676	0.005569	0.001296	-1.9e-05
402	-0.004785	-0.000347	-0.001827	-0.000183	-0.001498	-0.001662	-0.001827
403	-0.000347	-0.004785	-0.000676	-0.001662	0.00031	-0.001662	-0.003142
404	0.00031	-0.000676	-0.000512	-0.003963	-0.000183	-0.003963	0.000474
405	-0.000841	-0.002813	-0.001827	-0.002648	-0.001498	-0.003306	-0.001005
406	-0.003306	-0.001827	-0.000512	-0.002484	-0.004292	0.000146	0.000639
407	-0.000183	0.000474	-0.000347	-0.001662	-0.002484	-0.001005	-0.003142
408	-0.002813	-0.000676	-0.001662	-0.001498	-0.00347	-0.000841	0.001296
409	-0.001169	-0.002155	-0.000183	-0.004128	-0.003306	-0.001662	0.001296
410	-0.000676	-1.9e-05	0.003268	0.000967	-0.002484	-0.001169	0.000803
411	-0.000841	0.002118	-0.003799	-0.001991	-0.002155	-0.001498	-0.002813
412	-0.001169	-0.00347	-0.004292	-0.001991	0.00031	-0.002813	-0.003142
413	-1.9e-05	-0.001169	-0.002155	-0.001334	-0.002813	0.000146	-0.00232
414	-0.000841	-0.007086	-0.000676	-0.001334	-0.001005	-1.9e-05	-0.00347
415	0.000146	-0.003963	-0.003306	0.001132	-0.000183	-0.001498	-0.003635
416	0.000474	-0.000841	-0.000841	-0.002977	0.001132	-0.000841	-0.002813
417	-0.002155	0.001625	0.000146	-0.000183	-0.004456	-0.001662	0.00031
418	-0.000183	-0.002155	-0.001334	-0.000183	-0.001498	-0.001334	-0.005114
419	0.000474	0.000474	-0.001498	0.001296	-0.004949	0.002118	0.000639
420	-0.001169	-0.000676	-0.001662	-0.002813	0.000639	-0.000512	-0.001662
421	-0.002977	0.00031	0.000639	0.001132	-0.000841	-0.000676	0.002282
422	0.003104	-1.9e-05	-1.9e-05	-0.000841	0.000146	0.001954	-0.001334
423	0.00031	0.000146	-0.000183	0.00031	0.000967	-0.001169	0.003433
424	-0.001827	-0.000347	-0.000841	-0.001005	-0.004621	0.000146	-0.003306
425	-0.00347	-0.000183	-0.000183	0.000639	-0.001662	-0.001991	-0.002484
426	-0.000676	-0.00232	-0.001662	-0.004128	-0.000183	-0.003142	-0.001334
427	-0.001005	-0.002155	0.000474	-1.9e-05	-0.003963	-0.001334	-0.002813
428	-0.001334	-0.003142	-1.9e-05	-0.00347	-0.002813	-0.004621	-0.001662
429	0.001132	-0.002155	-1.9e-05	-0.002484	-0.000183	-0.005607	-0.000676
430	-0.00232	-0.001334	-0.001005	-0.002977	-0.006264	-0.005278	-0.000676
431	-0.001827	-0.003799	-0.000676	-0.001991	-0.001498	-0.002813	0.000803
432	-1.9e-05	-0.000841	0.003926	0.000639	-0.001005	-0.00232	0.001954
433	-0.000676	-0.002484	-0.001169	0.001789	-0.000512	-0.00347	-0.00347
434	-0.001498	-0.001827	-0.002484	0.000639	-0.00232	-0.004292	-0.001498
435	-0.000512	-0.001991	-0.000841	-0.001662	-0.003142	-0.002648	-0.000183
436	-0.002813	-0.003306	-0.001334	0.002611	-0.002648	-0.001498	-0.002484
437	-0.001498	-0.00347	-0.000183	-0.002155	-0.000347	-0.00232	0.001132
438	-0.002648	-0.001662	0.000803	0.001296	-0.000183	0.000639	-0.002648
439	-0.001334	-0.004128	0.002611	-0.000841	-0.004785	0.000146	-0.001334
440	-0.003963	-0.001498	0.000146	-0.002648	-0.003635	-0.001334	0.001296
441	0.000803	-0.000841	-0.000676	-0.004128	-0.003142	0.001296	-0.001005
442	-0.001662	0.000474	0.000803	-0.001991	-0.003142	-0.000183	-0.000676
443	-0.000676	0.00146	0.001954	-0.002977	-0.004456	-0.000841	0.000803
444	-0.001498	-0.002648	-0.000841	-0.002977	-0.001169	-0.001334	-0.001169
445	-0.001005	-0.002484	0.000803	0.000146	-0.002155	-0.006429	-0.001005
446	0.001954	-0.005771	-1.9e-05	0.000803	-0.001827	-0.001334	-0.001991
447	-0.005443	-0.003635	-0.002648	0.001296	-0.002648	-0.001169	-0.004785
448	-0.00347	-0.005278	-0.001005	-1.9e-05	-0.000512	-0.003799	-0.001662
449	-0.00347	-0.002648	-0.002484	-0.000347	-0.002155	-0.000183	-0.001169
450	-0.000841	-0.005278	-0.001991	-0.000841	-0.002977	-0.003142	-0.004949
451	-0.002813	-0.006429	-0.001662	-0.000347	-0.001991	-0.001498	0.002118
452	-0.000841	-0.005936	-0.001991	-0.000841	-0.001334	-0.000347	-0.00232
453	-0.005114	-0.002813	-0.000183	0.00031	-0.004128	-0.001662	-0.001827
454	0.000146	-0.003963	0.001789	-0.001169	-0.002648	-0.006757	0.001132
455	-1.9e-05	-0.001169	-0.000841	0.000967	-0.001169	-0.000183	-0.001827
456	-0.000512	-0.003963	-0.001334	-1.9e-05	-0.001827	-0.002977	-0.003142
457	-0.002155	-0.001498	0.000803	-0.000183	-0.004621	-0.000512	-0.001005
458	-0.003635	-0.000841	-0.001827	0.000967	-0.004128	-0.000841	-0.000183
459	-0.001169	-0.003799	0.001296	-0.002155	0.000146	-0.002484	-0.000512
460	-0.000183	-0.000676	-0.000183	-0.001005	-0.000676	-0.003963	0.000639
461	-0.004128	-0.003142	0.003104	-0.000183	-0.002155	-0.002977	-0.000676
462	-0.002155	-0.000183	-0.001169	-0.002977	-0.002648	-0.001662	-0.000841
463	-0.001498	-0.001662	-0.000512	-0.001827	-0.004456	-0.001498	-0.003142
464	-0.001827	-0.00347	-0.00347	-0.004456	-0.004456	-0.004128	-0.001169
465	0.00031	-0.003963	-0.000676	0.000639	-0.002813	-0.006429	0.00031
466	-0.000841	-0.002484	-0.006922	-0.002484	-1.9e-05	-0.001827	-0.001334
467	0.000639	-0.005936	-0.002813	0.000146	0.003926	-0.004456	-0.002648
468	-0.001498	-0.000512	-0.006922	0.000639	-0.002977	-0.003963	-0.001334
469	0.000639	-0.001169	-0.000512	0.001296	-0.001827	-0.001662	-0.001334
470	-0.000512	0.000967	-0.000347	-0.000347	0.000146	-0.00232	-0.000183
471	-0.000347	-0.002155	-0.001005	-0.002484	-0.000512	-0.000676	-0.004949
472	-0.000841	-0.001827	-0.000512	0.000639	0.000146	0.000967	0.00146
473	0.000146	0.00146	-0.001005	-1.9e-05	-0.002648	-0.001498	-0.002648
474	-0.004456	0.000474	0.001132	0.000474	-0.000841	0.001625	-0.003306
475	-0.002484	0.001625	-0.001827	-0.001991	-0.000183	-1.9e-05	-0.001169
476	-0.003142	-0.00232	0.00294	0.00031	-0.002648	-0.001005	-0.001498
477	-0.000676	0.000146	-0.000347	-0.001662	-0.000841	-0.001005	-0.000512
478	-0.007415	-0.001334	-0.000183	-0.000512	-0.002155	-0.002813	-0.002155
479	0.00146	-0.000512	-0.000183	-0.003306	-0.003635	-0.001005	-0.000183
480	-0.003963	-0.000676	-0.001991	-0.00232	-0.001169	-0.00347	-0.001991
481	-0.003142	-0.000347	-0.002155	-0.000512	-0.00232	-0.00347	-0.003306
482	-0.000841	-0.001827	-0.000183	-0.002648	-0.001662	-0.003635	-0.004292
483	-0.003963	0.000803	-0.003963	0.00031	-0.000347	-0.001169	-0.00232
484	-0.00232	-0.002648	-0.00232	-0.005443	-0.004128	-0.002648	-0.001169
485	0.000803	-0.00232	-0.002155	-0.000347	0.003926	-0.002484	-0.002155
486	-0.001005	-0.001334	-0.00347	-0.002484	-0.00232	0.000803	-0.00232
487	-0.000183	-1.9e-05	0.000146	0.00146	-0.00232	0.000803	0.001132
488	0.000639	0.00146	-0.003142	-0.000347	-1.9e-05	0.001132	-0.002648
489	-0.000676	0.002611	0.000639	0.00031	-0.001334	0.001296	-0.000512
490	-0.001334	-0.001005	-0.003963	-0.00232	-0.001334	-0.000676	-0.001334
491	-0.000512	0.003104	0.000639	0.001132	0.000967	-0.001169	-0.00232
492	-0.001169	0.000474	-0.00232	-0.003142	-0.003306	0.000474	-0.000676
493	-0.001662	-0.000183	-0.000347	-0.002484	-0.001662	-0.000841	-0.003963
494	-0.001827	0.003597	-0.000183	-0.007415	-0.001169	-0.001991	0.001132
495	-0.000512	0.001132	0.000803	-0.000841	-0.002813	-0.001334	-0.001005
496	-0.002648	0.001789	-0.000676	-0.00725	-0.00347	-0.002484	0.000639
497	0.000146	-0.001169	-0.000841	-0.002977	-1.9e-05	-0.001169	-1.9e-05
498	0.000967	-1.9e-05	-0.001498	0.000146	-0.001498	-0.001827	-0.001005
499	-0.000512	-0.001827	-0.002484	-0.003799	-0.001005	-0.002484	-0.00232
500	-0.002977	0.000146	-0.00232	0.00146	0.000803	-0.001005	-0.004456
501	0.000474	-0.001827	-0.003635	-0.001662	-0.002813	-0.002813	-0.003963
502	-0.004292	-0.000183	-0.002813	-0.001005	-0.000183	-0.002648	-0.001662
503	-0.001827	-0.000512	-0.002977	-0.002155	-0.00347	-0.002155	-0.005607
504	-0.002977	-0.000512	-0.001334	-0.000347	-0.003963	-0.003306	-0.001991
505	0.000474	0.000639	-0.001827	-0.001169	-0.002813	-0.002977	-0.000347
506	-1.9e-05	-0.000183	0.001132	0.00031	-0.001827	-0.002155	0.000146
507	-0.000841	0.000146	-0.001662	-0.001334	-0.003306	-0.000512	0.000146
508	-0.001169	-1.9e-05	-0.001334	-0.001169	-0.001827	0.000803	-0.002813
509	-0.000347	0.000146	-0.001498	-0.000347	-0.001498	-0.000676	0.000803
510	-0.001005	0.000146	-1.9e-05	-0.001005	-0.001005	-0.005278	-0.003635
511	-0.002648	0.000803	-0.001991	-0.000347	-0.001662	-0.001662	0.000146
512	-0.000676	-0.001991	-0.000347	-0.002484	-0.001498	-0.00347	-0.000676
513	-0.002484	0.001296	-0.000841	-0.001662	-0.001991	-0.00232	-0.002484
514	-0.002484	-0.003963	-0.004456	-0.003142	-0.000841	-0.005278	-0.003963
515	0.000639	0.000474	-0.006429	0.001625	-0.003799	-0.003963	-0.001991
516	-0.00347	-0.001662	-0.003963	-0.005278	-0.001498	-0.003635	-0.001169
517	-0.002648	0.000803	-0.002977	0.00031	0.000803	-1.9e-05	-0.000347
518	-0.002648	-0.001334	-0.003799	-0.004621	-0.001334	-0.00232	-0.001827
519	-0.00232	-0.002155	-0.002484	-0.002648	0.001954	-0.001334	-0.001334
520	0.001132	-0.000676	-0.001334	-0.001498	0.000639	-0.001991	-0.002977
521	-0.001005	0.000146	0.000474	0.00031	-0.000676	-0.005278	-0.001662
522	0.000474	0.000146	-0.001827	-0.002484	-0.001169	-0.002155	-0.001662
523	0.000146	-0.001005	-0.004128	-0.000347	-0.001169	-0.000347	-0.004128
524	-0.003142	-0.001334	-0.002155	-0.001662	-0.002155	-0.001498	-0.002155
525	-0.003799	-0.000183	0.00031	-0.003142	-1.9e-05	-0.004785	-0.006264
526	-0.004456	0.00031	-0.000841	-0.003635	-0.00232	-0.001005	-0.000676
527	0.000967	-0.000183	0.001132	-0.003142	-0.000676	-0.005278	-0.001662
528	-0.002484	0.002775	-0.000512	-0.002155	-0.001498	-0.001498	0.000146
529	-0.001334	-0.000183	0.000803	-0.003799	-0.00232	-0.00232	-0.003799
530	-0.003799	0.002118	-0.000347	-0.002484	-0.001827	-0.000512	0.001132
531	0.000474	0.001132	-0.001662	-0.00232	-0.000841	-1.9e-05	-0.001334
532	-0.002977	-0.001662	0.002282	-0.001991	-0.002484	-0.0061	-0.001334
533	-0.000347	-0.000183	-0.00347	-0.003799	-0.001498	-0.003306	0.000639
534	0.001296	-0.001662	-0.001498	-0.001662	0.003926	0.000474	-1.9e-05
535	-0.005443	-0.000183	-0.00232	-0.000841	-0.001827	-0.002648	-0.002484
536	-0.00232	-0.001169	-0.001827	-0.001991	0.000639	-0.003142	-0.000841
537	0.001954	-0.001005	-0.002977	-0.003963	-0.000347	0.00031	-0.000676
538	-0.001169	-0.002813	0.000474	-0.002484	-0.002484	0.001132	-0.003799
539	0.001625	0.000967	-0.003306	-0.00232	-0.00232	-0.001169	-0.000676
540	0.000639	-0.001498	-0.004456	-0.001169	0.002447	0.00031	-0.00232
541	0.00031	-0.001662	-0.002813	-0.001827	-0.003635	-0.000676	-0.002648
542	0.002118	-0.000347	-0.000841	-0.005443	-1.9e-05	-0.001005	-0.004621
543	-0.001991	-0.000183	-0.001334	-0.001005	-0.001169	-0.007744	-0.001005
544	0.000639	-0.003963	0.001296	-0.00873	-0.002484	-0.002648	-0.00347
545	-0.001827	-0.00232	-0.000841	-0.001334	0.000967	0.000474	-0.002155
546	-0.002813	-0.001169	-0.001005	-0.005936	-0.001662	-0.001991	-0.005443
547	-0.004949	-0.000841	0.000639	-0.002977	-0.000347	-1.9e-05	0.001132
548	-0.004621	-1.9e-05	-0.002977	0.00031	-0.001498	-0.000841	-0.000676
549	-0.004949	-0.001827	-0.000183	-0.001662	-0.000347	-0.00232	0.001132
550	-0.005443	-0.000347	-0.001498	-0.006757	-0.001169	-0.006264	-0.001334
551	-0.003799	-0.001662	-0.000347	-0.001334	-0.002155	0.001296	-0.001991
552	-0.002484	-0.000676	-0.001827	-0.003799	0.001296	-0.002977	-0.000512
553	-0.000183	-0.002155	-0.003142	-0.001991	0.000967	-0.003306	-0.0061
554	0.000474	0.00031	-0.002484	-0.003142	-0.004456	-0.007908	-0.001662
555	0.00031	-0.002977	-0.000841	-0.001334	-0.000841	-0.007086	-0.001991
556	-0.004949	-0.001662	-0.003306	-0.000841	-0.00232	-0.001498	-0.002813
557	0.003104	-0.002648	-0.003142	-0.000512	0.000146	-0.002813	-0.005114
558	-0.001169	-0.001662	0.001132	-0.001334	-0.002813	-0.002648	-0.004949
559	-0.000676	-0.000676	-0.003963	-0.00232	-0.001169	-0.002484	-0.004292
560	-0.000676	0.000967	-0.003635	-0.000676	-0.000347	-0.000841	-0.000841
561	-0.000512	0.000803	0.003268	-0.001334	-0.002484	-0.00347	-0.004292
562	-0.000512	0.002775	-0.001827	-0.001005	-0.00232	-1.9e-05	-0.000512
563	-0.001169	-0.000347	-0.002155	-0.002155	-1.9e-05	-0.001662	-0.004128
564	-0.001005	0.003433	-0.000347	-0.003963	-0.001334	-0.00232	-0.001005
565	-0.000841	0.005405	-0.002155	-0.001827	0.00031	-0.009716	-0.002155
566	-0.00232	0.003104	-0.001662	-0.00347	0.002447	-0.000183	-0.001005
567	-0.002484	0.001625	-0.004785	-0.004456	-0.00347	-0.001169	-0.000183
568	-0.003142	0.000146	-0.002155	-0.001334	0.000639	-0.001662	-0.002977
569	-0.002977	0.00146	-0.004128	-0.001827	-0.000676	0.00031	-0.000841
570	0.001296	-0.000347	-0.002813	-0.005443	0.001296	-0.001662	-0.003306
571	-1.9e-05	-0.000512	-0.00347	-0.002977	-0.000676	-0.002813	-0.000676
572	-0.002484	-0.000183	-0.002813	-0.002484	0.000146	-0.00347	-0.002155
573	0.000803	0.002282	-0.00347	-0.000676	-0.000347	0.001625	-0.002977
574	0.000146	-0.000347	-0.001169	-0.004456	-0.000183	-0.002813	-0.004128
575	-0.003142	0.000803	-0.001827	-0.003306	-0.000512	-0.006429	-0.003635
576	-0.001005	0.000639	-0.001005	-0.002648	0.001625	-0.013332	-0.002813
577	-0.001334	0.000474	-0.000512	-0.001827	0.00294	-0.005607	-0.002813
578	-0.010702	0.00146	-0.001498	-0.003963	-0.000183	-0.005936	-0.004785
579	-0.002155	0.002282	-0.001005	-0.001169	0.000803	-0.001827	-0.000676
580	-0.001498	-0.000676	-0.004292	-0.00347	-1.9e-05	-0.002813	-0.001334
581	-0.001662	0.001789	-0.002977	-0.000676	-0.001169	-0.001005	-0.002484
582	-0.000347	0.00294	-0.001005	-0.001334	-0.000841	-0.000183	-0.002155
583	-0.003142	0.00146	-0.003142	-0.00232	0.003268	-0.002813	0.001625
584	-0.001991	0.000474	-0.000676	-0.002813	-0.000841	-0.000347	0.000474
585	-0.002813	0.001625	-0.001005	-0.002813	0.000803	-0.001334	-0.003799
586	-0.001827	0.000967	-0.001991	-0.00347	-0.000841	-0.000676	0.000146
587	-0.000841	0.000474	-0.001005	-0.003142	0.00031	-0.005607	-0.002484
588	0.000146	0.00031	-0.002484	-0.000512	0.000639	-0.000841	-0.001827
589	-0.011195	-0.003306	-0.00232	-0.001169	-0.004128	-0.003963	-0.001662
590	0.001132	0.000639	-0.000676	-0.002648	-0.002813	-0.001005	-0.00347
591	0.001625	0.002447	0.001625	-0.004456	-0.001827	-0.001991	-0.004292
592	0.00146	0.002282	-0.001498	-0.004785	-1.9e-05	-0.001827	0.00031
593	0.000639	0.001625	-0.000676	-0.004128	-0.001498	-0.005278	-0.000676
594	0.000803	0.002118	0.001296	0.000146	-0.000841	-0.00232	-0.004456
595	0.00031	0.001789	-0.002155	-0.003963	0.003433	0.000639	-0.002155
596	-0.005278	-0.000347	-0.002977	-0.001991	0.00146	0.000639	-0.002813
597	-0.000841	0.001625	-0.000183	0.000639	-0.000512	-1.9e-05	-0.005114
598	-0.000676	0.001296	-0.001991	0.002611	0.00146	-0.001169	0.000146
599	-0.003799	-0.000183	-0.001662	-0.001005	0.002611	-0.000512	0.00146
600	-0.013332	0.000967	0.000803	-0.000512	-0.001662	-0.002484	-0.000676
601	-0.006264	-0.000347	-0.002484	-0.001827	-0.000841	-0.000183	-0.000183
602	-0.002484	-0.001827	0.000146	-0.002155	0.002282	-0.002155	-0.00232
603	-0.00347	0.000146	-0.004292	-0.002484	-0.001005	-0.000512	-0.000676
604	-0.003142	-0.002484	-1.9e-05	-0.002977	-0.001005	0.000967	-0.001498
605	-0.003963	0.001954	-0.001005	-0.005936	-0.002155	-0.005443	-1.9e-05
606	-0.001334	-0.003142	-0.001005	-0.005443	-0.001991	-0.001169	-0.002484
607	-0.003306	0.002118	-0.000841	-0.000841	0.001625	0.001132	-0.001827
608	0.000146	-0.001169	-0.000183	-0.001498	-0.002977	-0.004292	-0.008072
609	-0.001498	-0.000512	-0.001169	-0.001662	-0.000841	-0.000347	-0.002977
610	0.000967	-0.001662	-0.002648	-0.001827	0.003268	-0.003635	-0.001827
611	-0.008894	0.000967	-0.000512	-0.000183	0.000474	-0.002155	-0.004621
612	-0.001334	0.003104	-0.000512	-0.001169	0.000146	-0.000183	-0.003306
613	-0.001662	0.004419	-0.001005	-0.00232	0.002611	-0.001169	-0.001991
614	-0.000676	0.000967	-0.002977	0.000967	-0.000183	-0.001169	-0.001005
615	-0.001334	-0.002155	-0.000676	0.002447	0.002611	0.002282	-0.001334
616	-0.000676	0.000474	-0.0061	0.002775	0.000474	-0.000512	-0.000347
617	-0.001498	-0.002648	-0.001169	0.000967	0.000803	0.000639	0.00031
618	-0.00347	0.001789	-0.004292	0.000639	-0.002155	0.000474	-1.9e-05
619	0.00031	-0.001827	-0.001662	-0.001827	0.001625	-0.000347	-0.004456
620	-0.001827	0.000474	-0.001991	0.000639	-0.000512	0.000474	0.001625
621	-0.001005	-0.001005	-0.001498	-0.002484	-1.9e-05	-0.002813	-0.002648
622	-0.004785	0.000474	-0.001005	-0.001991	-0.001991	-0.000676	-1.9e-05
623	-0.003635	-0.001498	-0.001334	-0.00232	-0.000841	-0.002648	-0.004128
624	-0.001334	0.000474	-1.9e-05	0.000639	-0.000183	-0.001498	-0.002155
625	-0.003306	-0.001334	-0.004128	-0.003306	0.000803	-0.002484	-0.005607
626	-0.004128	-0.003635	-0.000512	-0.00347	0.000474	-0.005607	-0.00232
627	0.000474	-0.000183	-0.001991	-0.002155	0.001954	-0.005443	-0.002813
628	-0.000347	-0.001662	-0.000183	-0.001005	0.003104	-0.00232	-0.002648
629	-0.003306	-0.000347	-0.001991	-0.002484	0.00294	-0.003799	-0.001662
630	-0.001005	-0.000512	-0.000183	0.000474	0.001954	-0.004949	-0.004456
631	-0.000183	-0.000347	-0.001991	-0.000512	-1.9e-05	0.004419	-0.001991
632	0.000146	-0.001005	0.000639	0.000146	0.005405	-0.002977	-0.004292
633	-0.004456	0.00146	-0.003142	0.000803	-0.001827	-1.9e-05	-0.001334
634	-0.003635	-0.003799	0.001132	0.00031	-0.002155	-0.001005	-0.004949
635	-0.00347	0.003268	-0.001498	-0.000183	0.000146	-0.001827	-0.003142
636	-0.003142	-0.001169	-0.001991	-0.001169	-0.001334	-0.001991	-0.003799
637	-0.003799	-0.001662	0.00146	-0.002813	-0.001827	-1.9e-05	0.000146
638	-0.001169	-0.002155	-0.001005	-0.004128	0.002282	-0.005443	-0.002484
639	-0.00347	-0.002484	-0.000841	-0.00347	-1.9e-05	-0.001005	-0.000183
640	-0.001334	-0.004128	0.000474	-0.007744	-0.000841	-0.002155	-0.00232
641	-0.000512	-0.005607	0.000146	-0.000512	0.001954	-0.000183	-0.004292
642	-1.9e-05	-0.003306	-0.003635	-0.005114	0.001789	0.003268	-0.001498
643	-0.000512	-0.004292	-0.000841	-0.005443	-0.001827	-0.00347	-0.003799
644	0.001954	-0.001334	-0.001662	-0.003306	-0.001334	-0.002484	-0.004128
645	-0.002648	-0.001662	-0.000841	-0.002484	0.003104	-0.002484	-0.004949
646	-0.002484	-0.000512	-0.002813	-0.002155	-0.004128	0.000639	-0.000183
647	0.002118	-0.003635	-0.00232	0.001625	-0.001991	-0.000676	-0.008237
648	-0.004456	-0.002813	-0.002155	-0.000183	-0.002648	-0.001005	-0.006922
649	-0.003635	-0.003306	-0.002155	-0.000841	0.001625	-0.001827	0.000803
650	-0.001827	0.000146	0.00294	0.000474	-1.9e-05	-0.000347	-0.000676
651	-0.001169	-0.003142	-0.000841	-0.001498	0.00031	-0.003799	-0.00347
652	-0.003635	-0.001662	-0.002155	0.000803	-0.002648	0.001789	-0.001498
653	-0.002155	-0.004456	-0.001005	-0.002155	-0.004292	0.002447	-0.002484
654	-0.001827	-0.00232	0.000474	-0.000183	-0.004128	0.00146	-0.000512
655	-1.9e-05	-0.003635	-0.001005	-0.000841	-0.004785	0.002447	-0.001991
656	-0.003635	0.00031	-0.002155	0.00146	-0.006264	-0.000676	-0.000183
657	-0.002155	-0.004949	-0.002484	-0.002977	-0.004128	-0.001827	-0.001498
658	-0.00232	-0.002155	-0.00232	0.00031	-0.002648	-0.001005	-0.003142
659	-0.000841	-0.005114	-0.001334	-0.001991	-0.006922	-0.002813	-0.000676
660	-0.001334	-0.00232	-0.001005	-0.00232	0.00409	-0.004785	0.000639
661	-0.000676	-0.001169	-0.002484	-0.000841	-0.001334	0.000803	-0.003142
662	-0.000512	-0.002648	0.000474	0.00031	-0.000183	-0.002155	-0.004785
663	0.00146	-0.004128	-0.004456	0.003268	-0.001498	-0.001005	-0.004949
664	0.000967	-0.005278	-0.003799	0.00146	0.002118	0.002611	-0.001991
665	-0.002977	-0.002648	-0.005114	-0.000841	-0.002155	-0.001662	-0.00232
666	0.001296	-0.002648	-0.004785	-0.000183	-0.000841	-0.002155	-0.002484
667	-0.00347	0.003433	-0.004456	-0.000347	-0.002155	0.000146	-0.001169
668	-0.001827	-0.001169	-0.003963	-0.002484	-0.004785	-0.003799	-0.000512
669	-0.00232	-1.9e-05	-0.000676	-0.001005	-0.002155	-0.000676	-0.001827
670	-0.001827	-0.003306	0.001625	-0.003635	-0.003635	-0.002648	-0.001005
671	-0.002484	-0.000841	0.001625	-0.001498	-0.000183	-0.002155	0.001789
672	-0.001169	-0.000841	-0.001005	-0.000347	-0.00232	-0.001827	-0.000512
673	-0.004292	-0.001498	-0.000183	-0.001498	-0.003635	-0.001827	-0.003963
674	0.00031	-0.001991	-0.00347	-0.003635	-0.001827	-0.000183	-0.003799
675	-0.002813	-0.003635	-0.001334	-0.001334	-0.001005	0.005076	-0.001827
676	-0.004292	-0.003306	-0.000183	-0.002648	-0.005607	-0.005607	-0.002813
677	0.004583	-0.003635	-0.001005	-0.002813	-0.000841	-0.002155	-0.00347
678	-0.00232	-0.002155	-0.003142	0.002611	-0.003799	-1.9e-05	-0.001827
679	-0.001827	-0.005114	-0.001662	-0.004292	-0.003142	-0.002813	-0.001005
680	-0.001169	-0.000183	-0.004128	-0.000512	-0.00347	-0.003306	-0.003306
681	0.000967	-0.003142	-0.000347	-0.000512	-0.001005	-0.001334	-0.002155
682	-0.002813	-0.002813	0.002611	-0.001169	0.00031	-0.004292	0.00031
683	-0.001827	-0.001005	-0.003306	0.000146	-0.001334	-0.003963	-0.002155
684	-0.005278	-0.000841	-0.000512	-0.000183	-0.005278	-0.001662	-0.002484
685	-1.9e-05	-0.000676	-0.00232	-0.002484	-0.001498	-0.00347	-0.004128
686	-0.003799	-0.002813	-0.001334	0.00146	-0.003142	-0.000512	0.001789
687	-0.002648	-0.001662	-0.000183	-0.001827	-0.003142	-0.004785	-0.001169
688	0.001296	-0.001498	0.000803	0.000474	-0.004128	-0.003142	-1.9e-05
689	-0.003142	0.000474	-0.001827	-0.000183	-0.005114	-0.00347	0.00146
690	-0.001827	-0.00232	-0.000347	-0.003635	-0.004128	-0.001005	-0.001169
691	-0.001169	-0.000841	-0.002484	-0.003799	-0.003142	-0.002484	-0.002813
692	-1.9e-05	-0.004292	-0.002813	-0.001827	-0.003963	-0.001334	-0.001169
693	-0.002977	-0.001334	-0.000841	-0.001169	-0.004456	-0.003306	-0.001005
694	-1.9e-05	-0.005114	-0.001662	-0.003306	-0.001498	-0.001334	-0.002155
695	-0.001334	0.00146	-0.002813	-0.00232	-0.004456	-0.001498	-0.0061
696	-0.001334	-0.001827	-0.002484	-1.9e-05	-0.004456	-0.003306	-0.004128
697	-0.000841	-0.001334	-0.002977	-0.003142	-0.004128	0.000803	-0.000676
698	-0.000183	-0.002484	-0.002813	-0.003142	-0.003306	-0.003306	-0.004128
699	0.002775	-0.001827	-0.001991	-0.001169	-0.002484	-0.001991	-0.001498
700	-0.003799	-0.001827	-0.001662	0.000146	-0.002977	-0.002813	-0.002977
701	-0.001662	-0.001334	-0.00232	-0.002155	-0.004456	-0.001334	-0.000676
702	-0.002155	-0.001662	-0.002648	-0.001498	-0.00347	-0.001991	-0.006429
703	-0.004292	-0.003142	-0.002648	-0.000183	-0.005443	-0.000183	-0.000183
704	-0.003306	-0.004456	-0.001005	-0.002484	-0.005114	-0.003306	0.000639
705	-0.003635	-0.000841	0.00146	-0.000676	-0.00232	0.000146	-0.003963
706	-0.001827	-0.001827	-0.004128	-0.001662	-0.005114	-0.000347	-0.00347
707	-0.001005	-0.004785	-0.002977	-0.000841	-0.004292	-0.001498	-0.001827
708	-0.001991	-0.001991	-0.003963	-0.001005	-0.006922	-0.00232	0.00146
709	-0.000841	-0.002813	0.000474	-0.001005	-0.007744	-0.000841	-0.000841
710	0.00031	-0.001662	-0.002977	-0.001334	-0.005114	-0.003963	-0.00232
711	-0.001991	-0.004292	-0.002155	-0.000183	-0.003963	-0.003799	-0.00232
712	-0.000676	-0.002484	-0.000347	-0.003142	-0.005278	-0.001334	-0.001662
713	-0.000347	-0.004456	-0.002484	-0.002155	-0.005771	-0.004292	-0.005114
714	-0.000512	-0.002648	-0.002648	-0.005443	-0.006757	-0.000676	-0.001991
715	0.000967	-0.002155	-0.005936	-0.002484	-0.001498	-0.004621	-0.002484
716	-0.003963	0.00031	-0.003799	-0.001498	-0.003142	-0.001334	-0.000676
717	-0.001169	-0.004621	-0.007086	-0.001498	-0.003635	-0.001827	-0.006264
718	-0.001827	0.000146	-0.003142	0.00146	-0.0061	-0.003306	-0.002648
719	-0.000512	-0.003963	-0.000347	0.004255	-0.004621	-0.002155	-0.001334
720	-0.000676	-0.000841	0.001296	0.000967	-0.000347	-0.002484	-0.001005
721	0.003268	-0.000676	-0.001005	-0.001169	-0.008401	-0.001662	-0.000841
722	-0.003306	-0.000347	0.000146	0.003761	-0.001991	-0.000347	-0.000512
723	-0.001005	-0.001005	-0.001827	-0.004128	-0.005114	-0.000183	-0.000183
724	-0.000183	-0.001334	0.002447	-0.003963	-0.003963	-0.003963	-0.005278
725	-0.002813	-0.001498	-0.002484	-0.001169	-0.003142	-0.000676	-0.001498
726	-0.002648	-0.001169	0.001296	-0.003142	-0.001498	-0.002648	-0.003142
727	-0.002155	0.000146	0.00031	-0.002977	-0.003635	-0.001169	-1.9e-05
728	-1.9e-05	-0.001005	-0.007086	-0.004128	-0.003142	-0.002484	-0.009387
729	-0.000676	-0.000841	-0.002813	-0.001005	-0.005607	-0.002155	0.000639
730	0.00031	-0.002977	-0.001498	-0.002977	-0.004292	-0.003142	-0.002155
731	-0.000183	0.000474	-1.9e-05	0.000146	-0.00347	-0.001662	-0.001991
732	0.002118	-0.002484	0.000474	-0.002484	-0.004785	-0.0061	-0.00232
733	-0.001334	-0.001169	-0.000512	-0.001498	-0.005114	-0.002648	-0.000676
734	-0.001991	-1.9e-05	-0.00232	-0.001498	-0.006757	-0.002813	-0.002155
735	-0.001662	-0.001498	0.000803	-0.001334	-0.001991	-0.001169	-0.000841
736	-0.000676	-0.00347	-0.002648	-0.003799	-0.004949	-0.003799	0.003597
737	-0.000512	-0.000512	-0.000347	-0.001169	-0.001498	-0.000512	-1.9e-05
738	-0.001005	-0.002484	-0.001662	-0.001662	-0.003306	0.00031	-0.000676
739	-0.000676	-0.003635	-0.007415	-0.001334	-0.002155	-0.000183	-0.008072
740	-0.000347	0.00146	-0.003799	-0.001991	-0.002484	0.000639	-0.002484
741	0.000803	-0.00347	-0.000183	-0.006922	-0.002813	-0.001005	-0.001827
742	0.001789	0.00031	-0.003799	-0.004456	-0.003963	-1.9e-05	-0.001169
743	0.00294	-0.001991	0.000639	-0.003306	-0.006757	-0.002484	-0.004128
744	-0.001991	0.00031	0.000474	-0.001991	-0.005114	-0.001827	0.000474
745	0.000803	-0.002155	0.000474	-0.005607	-0.003963	-0.001827	-0.000676
746	-0.001827	-0.001005	-0.000676	0.001132	-0.005443	-0.001827	-0.001005
747	-0.002155	-0.000347	-0.001991	0.000146	-0.003306	-0.002484	-0.000841
748	-0.004621	0.00031	-0.000841	0.000146	-0.002648	-0.001498	-0.002155
749	0.000146	-0.001334	-0.001991	-0.003963	-0.002648	-0.004128	-0.002155
750	-0.000512	-0.001005	-0.00988	0.000146	-0.000347	-0.001334	-0.008401
751	0.003104	0.002611	0.001296	0.001789	0.001296	0.001954	0.000146
752	0.006227	0.010336	0.011651	0.011979	0.007049	0.011651	0.011486
753	0.018554	0.01954	0.01576	0.019047	0.018882	0.017732	0.017239
754	0.03088	0.023977	0.027758	0.027758	0.025128	0.027429	0.025785
755	0.035318	0.033346	0.034168	0.035318	0.028744	0.029072	0.033346
756	0.041235	0.039098	0.043207	0.04107	0.038605	0.03992	0.03992
757	0.049124	0.045672	0.04748	0.047645	0.046659	0.048302	0.044358
758	0.053726	0.049946	0.052082	0.054055	0.050274	0.051918	0.054383
759	0.059314	0.061286	0.063259	0.058821	0.056356	0.061944	0.057835
760	0.066217	0.066217	0.066217	0.065888	0.063752	0.063916	0.063423
761	0.07312	0.070162	0.061286	0.068847	0.068682	0.070983	0.0603
762	0.077393	0.072956	0.074599	0.074928	0.074599	0.074764	0.071148
763	0.081502	0.08216	0.081502	0.080352	0.080187	0.081338	0.082817
764	0.087748	0.085447	0.084954	0.083475	0.083639	0.082982	0.08594
765	0.095801	0.090213	0.088241	0.091199	0.089391	0.087748	0.091199
766	0.09613	0.095966	0.09235	0.095801	0.092514	0.093336	0.094815
767	0.103197	0.098924	0.103362	0.098102	0.098102	0.098924	0.100239
768	0.106978	0.100239	0.102376	0.104677	0.09876	0.097281	0.102704
769	0.10895	0.108457	0.10632	0.10517	0.106485	0.110429	0.106978
770	0.113716	0.113388	0.108786	0.107635	0.108293	0.115195	0.110429
771	0.11799	0.114538	0.114374	0.118154	0.115195	0.117496	0.114374
772	0.122592	0.119797	0.109443	0.116839	0.114538	0.11799	0.110265
773	0.124071	0.12177	0.120619	0.122756	0.123413	0.120784	0.118811
774	0.126043	0.126865	0.125386	0.125386	0.124071	0.125879	0.127029
775	0.129166	0.126043	0.128344	0.126372	0.128344	0.122592	0.126043
776	0.131302	0.13196	0.130481	0.131467	0.127851	0.130809	0.130809
777	0.135904	0.133932	0.13459	0.135411	0.13311	0.132124	0.13311
778	0.134425	0.138699	0.139685	0.135247	0.135904	0.134261	0.137712
779	0.142314	0.140013	0.139685	0.135083	0.138205	0.135083	0.13952
780	0.141493	0.140013	0.140178	0.143629	0.138534	0.141493	0.142314
781	0.144122	0.145602	0.147245	0.141	0.139685	0.143136	0.143136
782	0.147738	0.146259	0.14971	0.146259	0.146095	0.145602	0.146588
783	0.150861	0.149053	0.143465	0.146423	0.143136	0.147245	0.139685
784	0.152176	0.149053	0.15119	0.150368	0.147574	0.150039	0.146095
785	0.153162	0.151025	0.151847	0.150861	0.150039	0.153162	0.153984
786	0.158586	0.152176	0.154148	0.155627	0.149546	0.152998	0.154312
787	0.158586	0.156942	0.154641	0.155299	0.154148	0.158421	0.153655
788	0.159736	0.156449	0.155463	0.15875	0.1576	0.159901	0.154312
789	0.160394	0.156449	0.161544	0.156942	0.157107	0.159243	0.160229
790	0.162859	0.160229	0.161709	0.159572	0.161544	0.159079	0.159079
791	0.165817	0.161873	0.163188	0.16401	0.160394	0.166968	0.162366
792	0.169433	0.16401	0.165489	0.161051	0.16138	0.16516	0.161215
793	0.171077	0.168118	0.168283	0.164996	0.166804	0.167297	0.16516
794	0.171734	0.167132	0.167297	0.164667	0.167954	0.166968	0.157928
795	0.170255	0.16779	0.170584	0.170091	0.168283	0.168118	0.169762
796	0.172392	0.165653	0.169433	0.169598	0.167297	0.171734	0.169105
797	0.170584	0.16894	0.173214	0.174035	0.169433	0.168118	0.171899
798	0.170255	0.174364	0.170913	0.171406	0.169433	0.170584	0.173378
799	0.173049	0.172392	0.174693	0.174364	0.171899	0.174364	0.171406
800	0.174528	0.173542	0.174857	0.172885	0.170748	0.169926	0.175021
801	0.174528	0.174528	0.176994	0.174693	0.173378	0.17272	0.176172
802	0.176336	0.174364	0.173871	0.175186	0.1742	0.177815	0.175186
803	0.181924	0.172063	0.17535	0.177158	0.173049	0.176008	0.176008
804	0.184554	0.177815	0.174364	0.176994	0.177815	0.182089	0.175843
805	0.18439	0.175679	0.180938	0.176829	0.176829	0.179295	0.170419
806	0.183732	0.174857	0.179788	0.180938	0.177487	0.182089	0.176665
807	0.186033	0.178802	0.18061	0.18061	0.180445	0.18176	0.176336
808	0.184061	0.181596	0.183404	0.182911	0.18176	0.182089	0.171406
809	0.184225	0.182089	0.184061	0.180774	0.180445	0.18061	0.104677
810	0.185869	0.185047	0.18176	0.186033	0.180774	0.182746	0.048467
811	0.185212	0.183732	0.186526	0.182089	0.183404	0.181267	0.003926
812	0.184554	0.187677	0.18932	0.183239	0.183404	0.185047	0.005076
813	0.188334	0.188663	0.184554	0.184883	0.183404	0.186033	0.001954
814	0.183568	0.186198	0.189156	0.187348	0.181103	0.184883	0.006556
815	0.190471	0.18817	0.185212	0.184883	0.185869	0.185212	0.008363
816	0.190307	0.186526	0.191128	0.18554	0.184554	0.186526	0.00294
817	0.191457	0.184883	0.186198	0.188006	0.185376	0.185869	0.002775
818	0.191786	0.189649	0.184883	0.185705	0.186362	0.186691	0.002611
819	0.190964	0.191128	0.184883	0.184718	0.184554	0.189485	0.004912
820	0.192443	0.186362	0.18554	0.189814	0.186855	0.188663	0.009514
821	0.191457	0.189156	0.182911	0.192443	0.186526	0.190142	0.016746
822	0.194251	0.186198	0.186033	0.188827	0.189978	0.187841	0.019868
823	0.19195	0.192115	0.190307	0.188499	0.189156	0.184554	0.021676
824	0.192443	0.186198	0.189485	0.188992	0.189649	0.190471	0.021841
825	0.193594	0.19195	0.190635	0.190635	0.18932	0.187841	0.026114
826	0.192772	0.191293	0.18817	0.192936	0.190964	0.1908	0.026278
827	0.196552	0.193101	0.19573	0.1908	0.193429	0.191128	0.029566
828	0.193429	0.188992	0.190307	0.18932	0.189814	0.189978	0.022498
829	0.194087	0.1908	0.192115	0.193265	0.18932	0.191457	0.024142
830	0.195237	0.193101	0.191293	0.1908	0.192115	0.187019	0.023977
831	0.194087	0.191128	0.19195	0.191128	0.1908	0.191786	0.026278
832	0.192936	0.192936	0.192608	0.195566	0.192443	0.191621	0.028415
833	0.19458	0.195073	0.196388	0.18932	0.190635	0.19195	0.034168
834	0.192279	0.194416	0.196388	0.191457	0.188006	0.192279	0.041892
835	0.196717	0.193265	0.193922	0.190964	0.193758	0.193265	0.043371
836	0.194087	0.19195	0.193922	0.19573	0.189649	0.194416	0.048467
837	0.198689	0.19195	0.192443	0.19195	0.192115	0.191457	0.054055
838	0.198031	0.197045	0.198689	0.192936	0.191457	0.192772	0.056027
839	0.198031	0.189156	0.190964	0.194744	0.19195	0.19195	0.061615
840	0.196552	0.192115	0.192772	0.193594	0.194087	0.195895	0.06671
841	0.195237	0.193758	0.192936	0.193101	0.195402	0.193429	0.067861
842	0.201483	0.194744	0.19573	0.195073	0.193594	0.195073	0.076243
843	0.198689	0.19573	0.195402	0.194744	0.196552	0.193265	0.080352
844	0.196388	0.19721	0.197374	0.19458	0.197045	0.193922	0.085447
845	0.198031	0.197045	0.197374	0.193429	0.195237	0.196552	0.092679
846	0.197045	0.193594	0.197374	0.19458	0.195402	0.196717	0.095637
847	0.196881	0.196388	0.194909	0.192936	0.194251	0.197374	0.097609
848	0.197538	0.195566	0.196552	0.197374	0.19573	0.194909	0.101883
849	0.198196	0.195895	0.200004	0.193758	0.19458	0.19721	0.108293
850	0.197374	0.188992	0.19458	0.197374	0.195237	0.195237	0.104841
851	0.195402	0.194744	0.19458	0.196388	0.193101	0.198196	0.110758
852	0.199182	0.195073	0.195402	0.194909	0.195566	0.19458	0.112401
853	0.198031	0.191457	0.192936	0.196059	0.191293	0.195566	0.115853
854	0.199511	0.192608	0.193758	0.195237	0.191128	0.194416	0.117496
855	0.195073	0.194744	0.197045	0.196223	0.193429	0.199675	0.121605
856	0.197045	0.194909	0.197867	0.195073	0.191457	0.193429	0.122263
857	0.19721	0.19721	0.197703	0.196717	0.19458	0.197538	0.125386
858	0.19836	0.197703	0.196059	0.196717	0.193594	0.197538	0.123085
859	0.197703	0.197374	0.198031	0.197045	0.197703	0.19573	0.126043
860	0.200004	0.199018	0.198689	0.19573	0.196059	0.195237	0.132617
861	0.199182	0.189485	0.196388	0.19721	0.198524	0.196717	0.126207
862	0.197045	0.20214	0.196059	0.194909	0.197045	0.196059	0.114538
863	0.194251	0.199182	0.197538	0.200497	0.197374	0.194909	0.109936
864	0.194744	0.199018	0.196717	0.199675	0.196059	0.197374	0.011815
865	0.196717	0.19836	0.196717	0.197703	0.197867	0.196717	0.015595
866	0.194087	0.199675	0.199511	0.196717	0.19573	0.197867	0.019704
867	0.197045	0.039756	0.196881	0.196223	0.196717	0.196223	0.003926
868	0.194251	0.042714	0.196388	0.196717	0.19721	0.19836	0.005076
869	0.197374	0.005898	0.199182	0.198196	0.196552	0.196223	0.001789
870	0.196059	0.002611	0.200497	0.199675	0.19721	0.194087	0.005241
871	0.196881	-0.005443	0.200332	0.196717	0.197374	0.196388	0.009843
872	0.196717	-0.004456	0.19573	0.19721	0.197374	0.198524	0.002282
873	0.196388	-0.007908	0.198196	0.197374	0.195895	0.197374	0.00146
874	0.198031	0.001954	0.199182	0.195237	0.200825	0.197538	0.003268
875	0.198031	0.009843	0.196881	0.197045	0.197045	0.196059	0.00031
876	0.193922	0.02069	0.198853	0.200004	0.197045	0.195073	0.001789
877	0.199018	0.026443	0.197703	0.195073	0.196881	0.195895	0.002118
878	0.196388	0.032853	0.199511	0.198196	0.19836	0.198196	0.003761
879	0.196059	0.039756	0.198196	0.197703	0.19721	0.198196	0.000639
880	0.195073	0.042221	0.197538	0.197703	0.197867	0.197867	0.000967
881	0.19458	0.054383	0.200004	0.198853	0.198031	0.196223	0.000803
882	0.197703	0.058821	0.198031	0.198524	0.199346	0.199675	0.012637
883	0.194087	0.052575	0.195895	0.198524	0.199675	0.198689	0.001789
884	0.192772	0.067861	0.198524	0.196552	0.198689	0.197538	0.00146
885	0.191621	0.074435	0.199346	0.199511	0.200497	0.19836	0.005898
886	0.19836	0.077722	0.197867	0.196388	0.196223	0.199675	0.003597
887	0.190142	0.079694	0.199018	0.196881	0.196223	0.195237	0.004583
888	0.193594	0.084954	0.197374	0.197374	0.197374	0.195073	0.001625
889	0.193922	0.093993	0.200168	0.196059	0.197703	0.199018	0.003597
890	0.19458	0.099746	0.198196	0.192279	0.195237	0.195402	-1.9e-05
891	0.190471	0.098595	0.198524	0.194744	0.198031	0.198689	0.001296
892	0.195895	0.103691	0.198524	0.19573	0.196223	0.196223	0.001625
893	0.195402	0.109772	0.200168	0.198031	0.200168	0.198689	0.004912
894	0.194909	0.103855	0.195237	0.195895	0.196059	0.199346	-0.000676
895	0.19573	0.116346	0.193594	0.20099	0.196552	0.197538	0.001625
896	0.193758	0.119469	0.197374	0.196059	0.196717	0.194087	0.005076
897	0.197374	0.121441	0.197867	0.196388	0.198196	0.197538	0.005241
898	0.192443	0.127194	0.196059	0.19836	0.197703	0.198689	0.00672
899	0.19195	0.127194	0.199018	0.197867	0.199182	0.196059	0.016253
900	0.189978	0.13574	0.199018	0.198689	0.199346	0.19721	0.022498
901	0.194744	0.136233	0.197867	0.198853	0.198524	0.201647	0.025457
902	0.191457	0.137877	0.201319	0.198031	0.196881	0.20099	0.034496
903	0.191457	0.138205	0.195073	0.199018	0.196881	0.198689	0.028086
904	0.194251	0.140178	0.199346	0.19836	0.196552	0.200004	0.032031
905	0.193101	0.134754	0.19573	0.197867	0.196388	0.197538	0.031867
906	0.192608	0.141821	0.197045	0.200168	0.194416	0.197538	0.029894
907	0.192443	0.147081	0.19721	0.197703	0.197045	0.195895	0.024799
908	0.194087	0.150039	0.198524	0.199182	0.196717	0.196717	0.0271
909	0.192936	0.152011	0.197374	0.195895	0.196552	0.199182	0.029072
910	0.195402	0.154477	0.200168	0.197867	0.198689	0.194744	0.030223
911	0.195237	0.160558	0.198031	0.19721	0.198031	0.192279	0.034168
912	0.196223	0.160722	0.199839	0.199018	0.199346	0.195566	0.03236
913	0.190635	0.162202	0.194744	0.200332	0.198031	0.198524	0.033017
914	0.194416	0.161215	0.195895	0.200497	0.201319	0.197045	0.031538
915	0.19458	0.16401	0.199839	0.196717	0.200004	0.199511	0.032853
916	0.19458	0.15612	0.19573	0.199346	0.200825	0.19836	0.014773
917	0.193594	0.166804	0.195073	0.199182	0.201647	0.199018	0.007377
918	0.19573	0.167625	0.197045	0.197045	0.202798	0.198031	0.003926
919	0.194251	0.169433	0.201154	0.200168	0.198853	0.199839	0.003433
920	0.193594	0.172063	0.19836	0.196223	0.199182	0.198689	0.001954
921	0.190471	0.173707	0.197703	0.193594	0.198524	0.197867	0.005405
922	0.193922	0.172885	0.204441	0.195237	0.198196	0.196552	0.004255
923	0.194087	0.174857	0.201483	0.198196	0.199182	0.196881	-0.000183
924	0.19458	0.175021	0.199018	0.196059	0.196059	0.198524	0.00031
925	0.197703	0.174693	0.201154	0.196552	0.199018	0.196717	-0.001498
926	0.19721	0.177322	0.199839	0.198031	0.197374	0.198031	0.002447
927	0.198524	0.171077	0.200168	0.198689	0.199346	0.194251	0.00031
928	0.195566	0.177815	0.196223	0.198196	0.19836	0.19573	-0.000183
929	0.197703	0.177322	0.197045	0.199675	0.20099	0.19573	0.000146
930	0.196388	0.179788	0.197867	0.199675	0.200332	0.196059	0.001625
931	0.195073	0.178637	0.197374	0.198689	0.198524	0.201483	0.000474
932	0.193922	0.181267	0.200332	0.199675	0.198524	0.200168	0.00031
933	0.193922	0.182582	0.194909	0.19836	0.200332	0.198196	0.002447
934	0.196552	0.185869	0.198689	0.199511	0.204441	0.200661	0.00146
935	0.195895	0.183404	0.199675	0.197703	0.200332	0.199675	0.007213
936	0.193594	0.181924	0.199346	0.197703	0.199675	0.200497	0.015102
937	0.197703	0.183075	0.199675	0.19836	0.200168	0.196881	0.025292
938	0.194251	0.178637	0.199182	0.199675	0.196717	0.20214	0.029894
939	0.194744	0.181596	0.198031	0.197703	0.196881	0.197538	0.03729
940	0.197703	0.187841	0.199182	0.198524	0.198689	0.197703	0.045508
941	0.19458	0.183239	0.19836	0.195895	0.19573	0.196223	0.050768
942	0.192936	0.185869	0.200497	0.195237	0.198689	0.194416	0.054712
943	0.193429	0.188663	0.198524	0.196059	0.194251	0.199346	0.063423
944	0.193594	0.187184	0.201154	0.19458	0.193101	0.196223	0.066053
945	0.195895	0.190471	0.194251	0.198524	0.196881	0.196388	0.072791
946	0.196223	0.192115	0.197703	0.197374	0.193758	0.199182	0.075257
947	0.191786	0.187841	0.199346	0.198196	0.199675	0.199018	0.08331
948	0.19836	0.186855	0.195566	0.196059	0.200332	0.197867	0.087748
949	0.194909	0.189814	0.198689	0.201976	0.199182	0.200004	0.091692
950	0.195402	0.188827	0.197374	0.197374	0.200168	0.19836	0.095801
951	0.194087	0.192115	0.198524	0.201647	0.200168	0.200661	0.102376
952	0.196223	0.190307	0.199346	0.199511	0.199511	0.197538	0.105663
953	0.19573	0.191457	0.20099	0.198196	0.201154	0.200168	0.109607
954	0.196717	0.1908	0.197867	0.199511	0.195895	0.201483	0.114045
955	0.193101	0.18932	0.201812	0.199346	0.199346	0.197867	0.119304
956	0.192608	0.192443	0.19836	0.199018	0.194416	0.195237	0.120126
957	0.194416	0.190964	0.200497	0.199018	0.197045	0.199346	0.120948
958	0.193594	0.19195	0.200168	0.198031	0.195402	0.19721	0.123413
959	0.198689	0.191293	0.200661	0.196059	0.198031	0.199346	0.127029
960	0.19836	0.195237	0.197867	0.198689	0.197045	0.20099	0.130809
961	0.198524	0.193594	0.200661	0.198196	0.198689	0.199675	0.130316
962	0.200168	0.194087	0.197703	0.202798	0.199839	0.197867	0.134425
963	0.199018	0.192772	0.194416	0.200004	0.198524	0.195895	0.13837
964	0.196059	0.193265	0.19721	0.200168	0.199346	0.198853	0.142807
965	0.200332	0.192936	0.193922	0.198853	0.200332	0.196881	0.142807
966	0.195895	0.194087	0.197045	0.201319	0.20099	0.20099	0.147574
967	0.199346	0.196388	0.195073	0.200497	0.200168	0.195566	0.148231
968	0.198689	0.196552	0.195402	0.200497	0.198689	0.200661	0.152011
969	0.195566	0.195566	0.19836	0.19836	0.198689	0.200332	0.154312
970	0.198524	0.200497	0.199346	0.196717	0.201647	0.200332	0.15612
971	0.197538	0.202469	0.197703	0.198689	0.198196	0.199346	0.156449
972	0.196881	0.194416	0.202962	0.199511	0.200825	0.199511	0.159079
973	0.196223	0.196881	0.199675	0.199346	0.198196	0.19721	0.161051
974	0.199018	0.195237	0.200825	0.195073	0.198196	0.19458	0.160065
975	0.196059	0.197538	0.198524	0.196388	0.197374	0.195895	0.168118
976	0.197703	0.197045	0.201319	0.197867	0.198689	0.197703	0.166475
977	0.200004	0.197703	0.199675	0.19836	0.197867	0.196717	0.168776
978	0.197867	0.194251	0.197703	0.19721	0.19721	0.193429	0.168776
979	0.197374	0.197703	0.198853	0.199346	0.196552	0.200004	0.169433
980	0.199182	0.195402	0.197538	0.198196	0.199675	0.199346	0.167297
981	0.198031	0.195895	0.197374	0.196717	0.198853	0.199675	0.171406
982	0.200004	0.201483	0.197538	0.199675	0.200168	0.197045	0.169926
983	0.198031	0.19573	0.200497	0.20099	0.200332	0.200332	0.171406
984	0.198689	0.197867	0.195566	0.19836	0.196388	0.197374	0.173214
985	0.197374	0.19836	0.199018	0.196223	0.201483	0.19836	0.175021
986	0.19721	0.199018	0.198196	0.199018	0.199018	0.198853	0.175515
987	0.198196	0.199018	0.199675	0.19573	0.201319	0.198196	0.179459
988	0.197867	0.200004	0.199675	0.199511	0.198031	0.198853	0.18061
989	0.194744	0.198524	0.200825	0.196881	0.19836	0.196059	0.182746
990	0.197045	0.199182	0.199018	0.198196	0.197374	0.202305	0.183897
991	0.199675	0.195073	0.199346	0.195073	0.199839	0.198853	0.179952
992	0.198689	0.198853	0.200168	0.19721	0.198031	0.198031	0.184883
993	0.199182	0.202305	0.197538	0.199182	0.195402	0.198524	0.182911
994	0.196552	0.198524	0.200168	0.199839	0.199182	0.20362	0.18176
995	0.198853	0.188827	0.195895	0.196717	0.199675	0.195073	0.182582
996	0.196552	0.201976	0.200332	0.192443	0.196552	0.200825	0.182089
997	0.200168	0.195895	0.200497	0.193922	0.199675	0.197374	0.18061
998	0.195073	0.196059	0.199182	0.197703	0.200661	0.20214	0.185376
999	0.197374	0.197045	0.198031	0.198524	0.199346	0.196223	0.185212
1000	0.19836	0.197867	0.200004	0.200332	0.200825	0.196717	0.185376
1001	0.196881	0.200825	0.198689	0.19836	0.19573	0.200825	0.185869
1002	0.197374	0.193922	0.203455	0.200661	0.202305	0.200168	0.187184
1003	0.198524	0.195895	0.201483	0.197538	0.201319	0.199018	0.189485
1004	0.199839	0.202469	0.200497	0.200497	0.203126	0.199018	0.186198
1005	0.194251	0.196223	0.198524	0.201319	0.198196	0.201647	0.188499
1006	0.199182	0.195073	0.199839	0.199182	0.198689	0.196388	0.188827
1007	0.198524	0.198853	0.199182	0.187513	0.197703	0.199346	0.192443
1008	0.197374	0.198689	0.198689	0.187841	0.198196	0.197538	0.18817
1009	0.197045	0.199675	0.202305	0.18817	0.198196	0.198031	0.188992
1010	0.199511	0.199839	0.198196	0.182253	0.19721	0.193265	0.192279
1011	0.196552	0.201812	0.199675	0.183568	0.197374	0.198031	0.189485
1012	0.200332	0.197045	0.198031	0.07575	0.19721	0.200004	0.18932
1013	0.196552	0.198689	0.198031	0.006884	0.19836	0.20099	0.190307
1014	0.200825	0.197374	0.19573	0.003104	0.200661	0.199675	0.192443
1015	0.201812	0.200004	0.194087	0.002775	0.201647	0.197374	0.191128
1016	0.199182	0.197867	0.195895	0.001625	0.196223	0.200825	0.190635
1017	0.199346	0.197045	0.197374	0.001625	0.19573	0.197538	0.192115
1018	0.201154	0.199182	0.19573	-0.006593	0.197703	0.198689	0.192936
1019	0.198689	0.19836	0.197538	0.001954	0.199839	0.19836	0.192443
1020	0.197045	0.20099	0.19836	0.000639	0.196717	0.198689	0.19458
1021	0.197867	0.196552	0.199839	0.003597	0.201319	0.197538	0.194744
1022	0.196717	0.197538	0.200661	0.003433	0.200004	0.199018	0.195073
1023	0.198196	0.199018	0.199182	0.004583	0.197867	0.198853	0.192608
1024	0.193758	0.20099	0.199675	0.001789	0.200661	0.199675	0.199182
1025	0.196223	0.199346	0.201812	0.000803	0.199511	0.196059	0.195895
1026	0.194251	0.201483	0.197867	0.001296	0.199018	0.197538	0.191457
1027	0.200332	0.197538	0.19836	-0.000676	0.198853	0.199675	0.195073
1028	0.196223	0.19836	0.198031	0.000474	0.197867	0.195237	0.19573
1029	0.200004	0.199346	0.197867	-0.007908	0.19721	0.191786	0.195237
1030	0.197703	0.198031	0.197867	-0.000841	0.199839	0.196059	0.19458
1031	0.197867	0.19721	0.198524	0.000146	0.198031	0.197374	0.195895
1032	0.200004	0.19836	0.200825	0.000146	0.199346	0.198196	0.196223
1033	0.197538	0.199182	0.199346	0.001132	0.199346	0.198196	0.194251
1034	0.198524	0.199018	0.203291	0.002775	0.196717	0.20099	0.19573
1035	0.197703	0.199511	0.199018	0.001625	0.19721	0.200004	0.19721
1036	0.199182	0.200004	0.200497	0.00409	0.198853	0.198689	0.196552
1037	0.197538	0.200661	0.198031	0.00031	0.197867	0.200825	0.198031
1038	0.201319	0.197374	0.199675	0.001954	0.199346	0.201319	0.19458
1039	0.200004	0.200825	0.200168	0.003597	0.198031	0.199839	0.19721
1040	0.201319	0.198853	0.199018	-0.004128	0.199346	0.196552	0.197045
1041	0.195073	0.200004	0.199675	0.001296	0.197045	0.200168	0.192443
1042	0.198031	0.198689	0.196388	0.002447	0.19573	0.198689	0.189156
1043	0.197374	0.200168	0.201483	0.001132	0.198524	0.199182	0.196388
1044	0.199346	0.199675	0.200004	0.001954	0.198689	0.197538	0.195566
1045	0.200004	0.200825	0.200004	0.000146	0.199839	0.201812	0.197538
1046	0.19721	0.196881	0.200332	-0.001827	0.199018	0.198031	0.19721
1047	0.199018	0.196388	0.201812	0.002118	0.205099	0.198031	0.198853
1048	0.196717	0.20099	0.199346	-0.000183	0.199346	0.197374	0.194909
1049	0.196552	0.197045	0.198031	0.00031	0.200332	0.199182	0.195566
1050	0.198524	0.19836	0.198031	-0.000512	0.199675	0.195895	0.196717
1051	0.199018	0.194909	0.198524	-0.000841	0.198031	0.200497	0.196717
1052	0.196552	0.198853	0.199346	0.000146	0.197867	0.197538	0.201976
1053	0.197374	0.194744	0.198689	0.00146	0.195402	0.197703	0.200004
1054	0.199018	0.197045	0.200332	0.001625	0.19836	0.19836	0.199839
1055	0.198689	0.200497	0.199182	0.002118	0.200497	0.195237	0.198853
1056	0.199182	0.199511	0.199675	0.000967	0.195237	0.203291	0.200661
1057	0.202305	0.196717	0.198524	0.000474	0.199018	0.19836	0.19721
1058	0.202633	0.201647	0.199511	0.001132	0.200332	0.200168	0.197374
1059	0.199018	0.201483	0.199346	-1.9e-05	0.200497	0.199018	0.192279
1060	0.196388	0.199018	0.200332	-1.9e-05	0.199182	0.199018	0.198031
1061	0.200168	0.203126	0.196881	-0.000841	0.200004	0.196059	0.19573
1062	0.200332	0.20099	0.199839	0.003104	0.200332	0.19458	0.195566
1063	0.19721	0.200168	0.197538	0.000474	0.194087	0.196552	0.196717
1064	0.199839	0.198196	0.199182	0.001954	0.200332	0.197538	0.196388
1065	0.199346	0.199839	0.201976	-0.002648	0.197538	0.19836	0.19721
1066	0.199018	0.198524	0.19836	0.000967	0.197374	0.19721	0.199182
1067	0.199018	0.201154	0.197867	0.000639	0.198853	0.19836	0.199839
1068	0.198524	0.198853	0.195895	0.000474	0.199018	0.197374	0.197538
1069	0.198689	0.200168	0.194909	0.001132	0.199182	0.200004	0.199018
1070	0.200661	0.200332	0.197045	0.000803	0.200661	0.196717	0.196059
1071	0.198689	0.199018	0.19721	0.000146	0.199182	0.200332	0.198853
1072	0.200825	0.194416	0.199675	-0.000841	0.200497	0.19721	0.196717
1073	0.199511	0.200497	0.197867	0.004748	0.198524	0.198689	0.198031
1074	0.19836	0.200332	0.19836	-0.001334	0.198853	0.198524	0.196388
1075	0.20099	0.200497	0.198689	-0.000183	0.200004	0.199018	0.197045
1076	0.198524	0.199346	0.198524	-0.000183	0.199675	0.197374	0.19836
1077	0.197374	0.200168	0.200004	0.000474	0.202305	0.199018	0.199346
1078	0.199346	0.200825	0.198031	0.00031	0.19573	0.199346	0.198853
1079	0.198524	0.199018	0.200661	0.000474	0.200332	0.197045	0.201647
1080	0.198689	0.199839	0.197045	-0.000512	0.198853	0.198031	0.197867
1081	0.199018	0.201483	0.199182	0.000146	0.199346	0.201647	0.192772
1082	0.19836	0.198031	0.199182	-0.001662	0.198031	0.202305	0.197703
1083	0.200825	0.199346	0.196552	0.000146	0.203126	0.196059	0.198524
1084	0.199675	0.199511	0.197374	0.006227	0.199346	0.19836	0.196552
1085	0.197045	0.194416	0.197374	-0.000183	0.196223	0.196223	0.198031
1086	0.198524	0.198853	0.199346	-0.000347	0.197374	0.198524	0.19836
1087	0.20099	0.196552	0.199182	0.000639	0.199346	0.197703	0.200332
1088	0.196717	0.199018	0.198689	0.000146	0.197538	0.197703	0.199346
1089	0.200332	0.198853	0.197538	0.000639	0.197538	0.198853	0.20099
1090	0.197703	0.199511	0.198853	-0.000347	0.199675	0.199346	0.197374
1091	0.201483	0.199346	0.198196	0.00031	0.199675	0.199182	0.197374
1092	0.200332	0.201483	0.197045	0.000474	0.201154	0.200825	0.198031
1093	0.196223	0.199182	0.197538	-1.9e-05	0.198196	0.200004	0.197867
1094	0.195402	0.200497	0.200004	0.00031	0.201154	0.200332	0.200332
1095	0.200497	0.199182	0.197867	0.005569	0.20099	0.199018	0.197045
1096	0.196388	0.19458	0.198689	-0.000183	0.199511	0.198524	0.198689
1097	0.198524	0.200004	0.198524	-0.000841	0.200332	0.199182	0.199182
1098	0.200332	0.197703	0.202633	0.002118	0.197045	0.199018	0.199182
1099	0.19721	0.199839	0.193101	0.000803	0.197703	0.194087	0.201483
1100	0.20099	0.200661	0.196223	-0.001169	0.198031	0.200168	0.198196
1101	0.196717	0.200825	0.19836	0.00031	0.197374	0.200004	0.194909
1102	0.19836	0.197867	0.199018	0.004583	0.196059	0.196059	0.199839
1103	0.197045	0.201319	0.197045	0.00146	0.195237	0.199018	0.195402
1104	0.200661	0.195566	0.19836	0.010007	0.195566	0.198031	0.195895
1105	0.197703	0.196552	0.198031	0.017403	0.198524	0.199839	0.199346
1106	0.201319	0.19836	0.194909	0.029401	0.197538	0.199346	0.193758
1107	0.200168	0.197374	0.19836	0.030716	0.198031	0.200825	0.198031
1108	0.203455	0.194087	0.196717	0.037783	0.197374	0.198853	0.198196
1109	0.19721	0.196717	0.198853	0.046166	0.199675	0.19836	0.196059
1110	0.198031	0.204441	0.197374	0.051261	0.196717	0.19721	0.197045
1111	0.199839	0.200497	0.19721	0.059643	0.200497	0.200004	0.198524
1112	0.198689	0.207564	0.19458	0.062437	0.199018	0.203948	0.198524
1113	0.197867	0.200168	0.19836	0.070819	0.200661	0.196881	0.198196
1114	0.199346	0.201812	0.195895	0.076407	0.200332	0.199346	0.195566
1115	0.200825	0.200004	0.190635	0.081502	0.201319	0.19836	0.198524
1116	0.196717	0.199675	0.194251	0.085776	0.199839	0.197045	0.200004
1117	0.200661	0.200497	0.192608	0.09498	0.199182	0.19721	0.200168
1118	0.196717	0.200168	0.19195	0.092021	0.194416	0.199018	0.200661
1119	0.198689	0.198031	0.188499	0.097116	0.200497	0.195895	0.199018
1120	0.198689	0.199018	0.189485	0.103526	0.198196	0.199018	0.199182
1121	0.199182	0.199675	0.182746	0.105334	0.198196	0.195237	0.196223
1122	0.199346	0.200004	0.180116	0.107142	0.199675	0.198524	0.200168
1123	0.200661	0.20362	0.174693	0.111251	0.199018	0.195073	0.196552
1124	0.202305	0.199182	0.177651	0.118154	0.200004	0.197538	0.199675
1125	0.201812	0.201812	0.16516	0.120126	0.200332	0.197867	0.19836
1126	0.201976	0.199346	0.161215	0.12555	0.201976	0.197374	0.197374
1127	0.200825	0.20099	0.15497	0.1267	0.200825	0.198524	0.199182
1128	0.200004	0.198689	0.143629	0.137219	0.20099	0.198196	0.198853
1129	0.199675	0.200168	0.140178	0.133603	0.197374	0.201647	0.199511
1130	0.200004	0.200004	0.133603	0.135576	0.200497	0.201647	0.200661
1131	0.198689	0.201647	0.128673	0.138534	0.198853	0.199839	0.201976
1132	0.199018	0.20099	0.119633	0.139685	0.196552	0.194909	0.202469
1133	0.199018	0.201154	0.108621	0.14215	0.19721	0.19573	0.202305
1134	0.200661	0.201812	0.09991	0.145108	0.200497	0.200004	0.19836
1135	0.197045	0.197045	0.091199	0.149217	0.200004	0.198524	0.200168
1136	0.199511	0.19836	0.07049	0.147738	0.199675	0.196881	0.199018
1137	0.199182	0.19836	0.06556	0.156449	0.200004	0.200661	0.20214
1138	0.199675	0.197703	0.064738	0.155134	0.198853	0.197045	0.19721
1139	0.199675	0.195895	0.058985	0.158093	0.199675	0.197538	0.197867
1140	0.200497	0.198689	0.060465	0.152998	0.199018	0.197703	0.197045
1141	0.200004	0.196717	0.062601	0.158586	0.199018	0.197867	0.197045
1142	0.197703	0.199346	0.064738	0.158586	0.197374	0.199839	0.198689
1143	0.202798	0.199675	0.070983	0.16253	0.199511	0.197045	0.197538
1144	0.198853	0.199346	0.075421	0.161544	0.198031	0.20099	0.199675
1145	0.200004	0.198524	0.077229	0.16779	0.201647	0.198853	0.196717
1146	0.199018	0.197045	0.081995	0.169762	0.199018	0.199839	0.198689
1147	0.198031	0.19836	0.083968	0.167132	0.202798	0.19721	0.198031
1148	0.199839	0.20099	0.08857	0.170913	0.19573	0.199511	0.199346
1149	0.198196	0.199182	0.0935	0.169926	0.195073	0.199675	0.199182
1150	0.196552	0.200497	0.096952	0.175679	0.197867	0.200661	0.203455
1151	0.19721	0.199346	0.100568	0.171406	0.197538	0.198689	0.199018
1152	0.196059	0.199346	0.103691	0.173214	0.194416	0.198031	0.200497
1153	0.19721	0.198689	0.109443	0.173707	0.197867	0.197045	0.201976
1154	0.198031	0.199511	0.113223	0.176501	0.19721	0.199346	0.201154
1155	0.198196	0.197045	0.115853	0.174857	0.196881	0.199182	0.19836
1156	0.199675	0.19721	0.119633	0.180281	0.199182	0.19836	0.199018
1157	0.201976	0.198689	0.115853	0.179623	0.198031	0.19836	0.199182
1158	0.200497	0.195237	0.124728	0.180281	0.196717	0.196223	0.195237
1159	0.20099	0.196552	0.123578	0.181267	0.197374	0.198689	0.198196
1160	0.201647	0.194087	0.127522	0.182253	0.199675	0.196881	0.196388
1161	0.199346	0.197867	0.131796	0.185869	0.194909	0.201812	0.19721
1162	0.20099	0.202305	0.135904	0.180445	0.199511	0.199182	0.197538
1163	0.199018	0.202633	0.136233	0.184718	0.198524	0.196059	0.194744
1164	0.199839	0.197867	0.141328	0.18554	0.199675	0.200168	0.195237
1165	0.198689	0.208386	0.133932	0.186362	0.199675	0.199018	0.201812
1166	0.199675	0.200497	0.135904	0.183897	0.193101	0.197703	0.199346
1167	0.19573	0.20362	0.140013	0.187513	0.199675	0.201483	0.201976
1168	0.197538	0.199182	0.011486	0.188006	0.199018	0.199511	0.202962
1169	0.198031	0.199839	0.007706	0.187677	0.198031	0.195566	0.198524
1170	0.197867	0.199511	0.01428	0.18554	0.199018	0.198524	0.200825
1171	0.19836	0.197045	0.021512	0.188006	0.198853	0.199018	0.198853
1172	0.19836	0.199018	0.031702	0.188499	0.198031	0.196552	0.200825
1173	0.198689	0.201647	0.03729	0.184883	0.19458	0.197374	0.197703
1174	0.200004	0.197045	0.042057	0.189156	0.198524	0.198853	0.197374
1175	0.200497	0.196717	0.052082	0.192772	0.201812	0.195566	0.198689
1176	0.197538	0.200825	0.056191	0.189485	0.197703	0.197045	0.199511
1177	0.201483	0.198196	0.063259	0.188827	0.201483	0.196223	0.194744
1178	0.198031	0.199511	0.070326	0.194416	0.199182	0.200332	0.200332
1179	0.202305	0.199182	0.074106	0.193758	0.20099	0.194909	0.19836
1180	0.198689	0.202633	0.080516	0.192115	0.198853	0.196223	0.197538
1181	0.200332	0.198853	0.085447	0.192608	0.199675	0.19721	0.200004
1182	0.199346	0.20362	0.08972	0.192115	0.202305	0.198689	0.198689
1183	0.199018	0.202305	0.094651	0.193101	0.196881	0.199182	0.194909
1184	0.196223	0.200497	0.099582	0.191786	0.196223	0.204441	0.201647
1185	0.19721	0.201812	0.101225	0.190471	0.19721	0.199018	0.199018
1186	0.197045	0.198524	0.108786	0.190471	0.196552	0.199182	0.200661
1187	0.197867	0.198689	0.109772	0.189649	0.197374	0.198689	0.201647
1188	0.198853	0.198524	0.113881	0.191786	0.199018	0.199346	0.198524
1189	0.198524	0.197045	0.119304	0.192443	0.195237	0.19721	0.199346
1190	0.200168	0.197374	0.123742	0.192608	0.196717	0.19836	0.199675
1191	0.199839	0.201154	0.124893	0.191128	0.195566	0.199346	0.197703
1192	0.197538	0.196223	0.128015	0.193922	0.198524	0.199675	0.197703
1193	0.200825	0.200661	0.12933	0.193758	0.198196	0.198524	0.198196
1194	0.200004	0.197045	0.133768	0.196223	0.197045	0.197703	0.195402
1195	0.199018	0.199346	0.136726	0.192936	0.199511	0.197867	0.200004
1196	0.198031	0.200004	0.137055	0.196223	0.198689	0.198524	0.195073
1197	0.193101	0.203784	0.143794	0.192772	0.196059	0.199511	0.200497
1198	0.198689	0.201483	0.143794	0.197045	0.196552	0.197045	0.198524
1199	0.199018	0.201976	0.14856	0.196552	0.194251	0.201319	0.200004
1200	0.197374	0.201483	0.148231	0.194909	0.196059	0.197538	0.196881
1201	0.196552	0.200497	0.154148	0.198031	0.201154	0.200332	0.200332
1202	0.199511	0.202305	0.151518	0.19573	0.198524	0.201154	0.198853
1203	0.198524	0.19573	0.155134	0.19573	0.199675	0.199346	0.200004
1204	0.198031	0.198031	0.157107	0.194251	0.199182	0.199018	0.198853
1205	0.199675	0.198524	0.159572	0.197045	0.198689	0.19836	0.19836
1206	0.198689	0.198031	0.160558	0.193429	0.194909	0.199511	0.198689
1207	0.201319	0.196552	0.160722	0.19573	0.198196	0.199839	0.19458
1208	0.198524	0.19836	0.163352	0.19573	0.196881	0.200497	0.198031
1209	0.198689	0.19836	0.167461	0.195402	0.196552	0.194744	0.19721
1210	0.199839	0.199839	0.166146	0.196223	0.193594	0.201647	0.199018
1211	0.201976	0.197538	0.164667	0.195402	0.198853	0.19573	0.19573
1212	0.199346	0.196223	0.172885	0.202469	0.199018	0.199182	0.19836
1213	0.200661	0.199018	0.166804	0.192279	0.199839	0.20099	0.196059
1214	0.199675	0.199839	0.168612	0.197374	0.19836	0.201319	0.198524
1215	0.200497	0.200661	0.171734	0.197045	0.200332	0.198196	0.199018
1216	0.200168	0.198853	0.173378	0.199182	0.20099	0.200332	0.199018
1217	0.198853	0.202305	0.17272	0.195237	0.199511	0.199182	0.199346
1218	0.196059	0.200168	0.172556	0.197703	0.200661	0.198196	0.19721
1219	0.201647	0.199346	0.178473	0.197374	0.199346	0.200332	0.20214
1220	0.199018	0.200497	0.180445	0.197538	0.200497	0.197867	0.202305
1221	0.198031	0.202305	0.178473	0.196059	0.198524	0.200825	0.198031
1222	0.199182	0.199182	0.180774	0.19721	0.200332	0.19836	0.197703
1223	0.198853	0.203126	0.182417	0.196881	0.196223	0.19836	0.200332
1224	0.199675	0.19458	0.179952	0.198031	0.202305	0.196552	0.199018
1225	0.199182	0.197703	0.183239	0.198689	0.199839	0.196552	0.199182
1226	0.200004	0.196717	0.181924	0.196388	0.200497	0.197867	0.198031
1227	0.201154	0.199839	0.181596	0.197867	0.198689	0.193758	0.198853
1228	0.199839	0.196717	0.183239	0.197538	0.198196	0.1908	0.197867
1229	0.197374	0.198524	0.183568	0.196059	0.198524	0.195237	0.200497
1230	0.201154	0.198196	0.183897	0.19573	0.20099	0.197374	0.199839
1231	0.198196	0.198689	0.186198	0.199018	0.20099	0.196717	0.196059
1232	0.199511	0.201976	0.184718	0.200168	0.197867	0.197538	0.195402
1233	0.19721	0.202305	0.186198	0.199346	0.200661	0.199839	0.198853
1234	0.199018	0.201319	0.186855	0.197703	0.199511	0.197538	0.200332
1235	0.199182	0.200661	0.185212	0.197045	0.202469	0.196881	0.199182
1236	0.198196	0.201483	0.187348	0.195237	0.199346	0.199839	0.200004
1237	0.200168	0.198853	0.190142	0.193758	0.202305	0.197538	0.200004
1238	0.199839	0.199018	0.190635	0.19573	0.199511	0.199182	0.199018
1239	0.198689	0.196552	0.187184	0.194087	0.197374	0.198524	0.200497
1240	0.197867	0.20099	0.189156	0.194087	0.198689	0.200661	0.199018
1241	0.199182	0.198031	0.192443	0.194909	0.199839	0.196388	0.199018
1242	0.197374	0.200004	0.190635	0.196059	0.197374	0.197538	0.199675
1243	0.200332	0.198524	0.190635	0.196059	0.197045	0.197703	0.198853
1244	0.197374	0.200332	0.192279	0.199018	0.197867	0.198689	0.197867
1245	0.20099	0.20099	0.192443	0.19836	0.200497	0.197703	0.198853
1246	0.199018	0.199839	0.190635	0.199018	0.199018	0.198853	0.198031
1247	0.202469	0.196881	0.18932	0.200497	0.198524	0.19836	0.197374
1248	0.195402	0.199018	0.192608	0.198689	0.200168	0.197374	0.197867
1249	0.194251	0.199675	0.1908	0.196552	0.197703	0.198524	0.200332
1250	0.199346	0.199346	0.191457	0.199511	0.203291	0.200004	0.198031
1251	0.198853	0.198689	0.191293	0.197538	0.194744	0.199346	0.199182
1252	0.196388	0.196223	0.194251	0.198524	0.198853	0.199511	0.200332
1253	0.196059	0.200332	0.194251	0.196717	0.197703	0.199675	0.19721
1254	0.199675	0.196552	0.197045	0.19836	0.194744	0.199675	0.201647
1255	0.198853	0.201154	0.193758	0.19836	0.200004	0.198689	0.200497
1256	0.199839	0.19721	0.194087	0.198524	0.19836	0.197703	0.198689
1257	0.198524	0.199839	0.196881	0.197867	0.196388	0.19573	0.201647
1258	0.200825	0.197374	0.197045	0.196881	0.197374	0.198196	0.197703
1259	0.198031	0.200825	0.195895	0.198524	0.199839	0.196059	0.197538
1260	0.199182	0.200661	0.197538	0.196717	0.197374	0.19573	0.197374
1261	0.197703	0.201319	0.195402	0.196881	0.200004	0.196717	0.198196
1262	0.20099	0.197045	0.192443	0.19573	0.196552	0.191293	0.194909
1263	0.199182	0.195895	0.19721	0.196388	0.200332	0.19573	0.196717
1264	0.199182	0.200004	0.193922	0.191786	0.197538	0.199018	0.197867
1265	0.19836	0.197867	0.194087	0.197703	0.200497	0.19721	0.198853
1266	0.201647	0.200825	0.193758	0.198853	0.199511	0.199018	0.197867
1267	0.20099	0.199839	0.196717	0.197538	0.200168	0.200004	0.199018
1268	0.201483	0.20214	0.196881	0.199675	0.199346	0.199675	0.19836
1269	0.20099	0.198853	0.196552	0.199182	0.201812	0.199018	0.197538
1270	0.198031	0.201483	0.198689	0.198853	0.201647	0.199182	0.197045
1271	0.201483	0.200332	0.194416	0.199182	0.199511	0.199182	0.196717
1272	0.198031	0.20099	0.197867	0.196717	0.199182	0.20099	0.202305
1273	0.199839	0.199839	0.198524	0.196059	0.199839	0.198196	0.198689
1274	0.197867	0.196223	0.200661	0.19721	0.200332	0.196552	0.201483
1275	0.200825	0.199675	0.198524	0.19573	0.200168	0.195237	0.198524
1276	0.19721	0.199346	0.200168	0.197374	0.196717	0.196881	0.200332
1277	0.196881	0.198524	0.199018	0.193594	0.197867	0.196881	0.203126
1278	0.19721	0.201154	0.19836	0.198689	0.199182	0.19721	0.200332
1279	0.199675	0.198196	0.197703	0.195237	0.197538	0.192115	0.195237
1280	0.200497	0.199839	0.199018	0.196717	0.197703	0.199839	0.200497
1281	0.198853	0.199018	0.197703	0.198196	0.200168	0.200168	0.199675
1282	0.198196	0.198689	0.199018	0.199182	0.19836	0.198196	0.196059
1283	0.194744	0.200825	0.195402	0.19721	0.197538	0.200825	0.196388
1284	0.202305	0.198524	0.19836	0.202305	0.196223	0.200825	0.19458
1285	0.198689	0.199511	0.198524	0.197867	0.199675	0.202469	0.201483
1286	0.199675	0.199182	0.19836	0.19836	0.200332	0.199675	0.196552
1287	0.199346	0.199839	0.198524	0.197703	0.199182	0.201319	0.198031
1288	0.199182	0.199346	0.196059	0.196223	0.201319	0.199182	0.197703
1289	0.199346	0.200497	0.199839	0.200825	0.198689	0.200497	0.200004
1290	0.200004	0.199346	0.197374	0.196059	0.204113	0.198031	0.199182
1291	0.200332	0.200168	0.199346	0.19836	0.201319	0.198031	0.200825
1292	0.19836	0.200497	0.19836	0.19573	0.197867	0.199675	0.196059
1293	0.198689	0.199675	0.199346	0.199346	0.199675	0.196717	0.198524
1294	0.198689	0.198689	0.19836	0.192279	0.196717	0.197538	0.200497
1295	0.197374	0.197045	0.198853	0.200825	0.198853	0.198031	0.197538
1296	0.197703	0.198524	0.199511	0.199675	0.196388	0.19721	0.198524
1297	0.197703	0.199346	0.199839	0.200332	0.199675	0.19721	0.200497
1298	0.19721	0.201812	0.196717	0.197703	0.19573	0.197538	0.197867
1299	0.201154	0.197538	0.199182	0.199182	0.200332	0.198853	0.19573
1300	0.196223	0.20099	0.199018	0.200332	0.194744	0.197538	0.200004
1301	0.200332	0.198196	0.195566	0.200004	0.20099	0.196881	0.194416
1302	0.196717	0.199346	0.199675	0.200168	0.199839	0.202633	0.199346
1303	0.197538	0.198524	0.198031	0.198853	0.201483	0.19836	0.19573
1304	0.199346	0.197867	0.200004	0.202633	0.195073	0.199511	0.200168
1305	0.201483	0.198524	0.199018	0.196223	0.198853	0.200004	0.196059
1306	0.199018	0.200004	0.199511	0.200661	0.199018	0.201319	0.197538
1307	0.199675	0.197045	0.199346	0.198031	0.196552	0.196552	0.196717
1308	0.199346	0.199182	0.200332	0.199839	0.197374	0.197045	0.200661
1309	0.199346	0.199839	0.199182	0.19573	0.196059	0.199346	0.196223
1310	0.197538	0.200661	0.200661	0.199346	0.202633	0.196881	0.19836
1311	0.198524	0.201154	0.199018	0.198689	0.20214	0.196059	0.19836
1312	0.201154	0.202962	0.19836	0.198689	0.203126	0.198853	0.196223
1313	0.199018	0.203126	0.199839	0.197867	0.199018	0.194416	0.195895
1314	0.200661	0.199018	0.196059	0.197703	0.202798	0.195895	0.194909
1315	0.200004	0.202305	0.19721	0.197703	0.198031	0.197703	0.199018
1316	0.200004	0.198031	0.199511	0.197703	0.197538	0.197045	0.19721
1317	0.200004	0.200497	0.195566	0.196388	0.197867	0.200332	0.196717
1318	0.199675	0.197703	0.196717	0.199018	0.200497	0.196881	0.195895
1319	0.200004	0.199675	0.199511	0.200497	0.197374	0.197045	0.199511
1320	0.209208	0.200825	0.199018	0.199018	0.199675	0.199182	0.198524
1321	0.196388	0.200497	0.201319	0.196388	0.203126	0.200004	0.199346
1322	0.202305	0.199346	0.199511	0.199839	0.200497	0.199346	0.198524
1323	0.202305	0.202798	0.199018	0.200332	0.201976	0.19573	0.200661
1324	0.198853	0.198853	0.200332	0.198524	0.198853	0.199675	0.199018
1325	0.199182	0.201319	0.201976	0.197538	0.201154	0.197045	0.199839
1326	0.199839	0.200168	0.199675	0.199182	0.198031	0.197538	0.198853
1327	0.198031	0.202305	0.201483	0.192936	0.199511	0.194744	0.201154
1328	0.196388	0.201976	0.197867	0.196552	0.197867	0.197374	0.200332
1329	0.199346	0.19836	0.201976	0.198196	0.198853	0.203291	0.199346
1330	0.199182	0.201812	0.201483	0.195073	0.197703	0.199511	0.199839
1331	0.199675	0.195073	0.19836	0.195237	0.197538	0.199018	0.197374
1332	0.197703	0.199182	0.199839	0.19721	0.199018	0.199182	0.200497
1333	0.200004	0.19836	0.19836	0.200332	0.199182	0.196717	0.201812
1334	0.199675	0.199839	0.19836	0.202633	0.198689	0.201976	0.19721
1335	0.200332	0.199018	0.199018	0.200332	0.198689	0.198689	0.196552
1336	0.199346	0.197045	0.201976	0.199346	0.203948	0.196223	0.20099
1337	0.202469	0.197703	0.199182	0.201154	0.197703	0.196059	0.196881
1338	0.19836	0.200168	0.200825	0.198689	0.199511	0.199346	0.197538
1339	0.198031	0.199182	0.202305	0.198689	0.202633	0.19721	0.196717
1340	0.201319	0.199182	0.203455	0.200497	0.199675	0.197374	0.199675
1341	0.198524	0.200825	0.200004	0.194251	0.201483	0.200168	0.197374
1342	0.198031	0.200004	0.202305	0.195402	0.199839	0.200497	0.20099
1343	0.199675	0.201483	0.202305	0.198853	0.196223	0.198689	0.198689
1344	0.200332	0.198196	0.20099	0.197374	0.201647	0.19836	0.200004
1345	0.199346	0.203126	0.199018	0.196223	0.199346	0.198689	0.199182
1346	0.199511	0.200497	0.199675	0.197045	0.200004	0.200168	0.198031
1347	0.202469	0.200168	0.199511	0.19573	0.200004	0.196552	0.198524
1348	0.202962	0.200332	0.200332	0.199018	0.196717	0.197703	0.197374
1349	0.201319	0.199675	0.198524	0.198689	0.197538	0.19836	0.198689
1350	0.200168	0.198031	0.199182	0.196717	0.198524	0.197045	0.193922
1351	0.19836	0.198853	0.199675	0.197703	0.198031	0.198524	0.19836
1352	0.202305	0.199675	0.198524	0.198853	0.197867	0.196552	0.198689
1353	0.198853	0.197538	0.199675	0.200825	0.197867	0.199675	0.199511
1354	0.198031	0.199675	0.198853	0.195895	0.199018	0.199839	0.19573
1355	0.202305	0.197045	0.201319	0.201812	0.200168	0.19721	0.19836
1356	0.20099	0.19721	0.19836	0.199675	0.194909	0.200661	0.198031
1357	0.200661	0.199182	0.199018	0.200168	0.200825	0.200332	0.195402
1358	0.199182	0.199182	0.198196	0.197374	0.196717	0.198524	0.197374
1359	0.201976	0.197703	0.202962	0.201976	0.199018	0.19836	0.199675
1360	0.200168	0.199839	0.200332	0.197867	0.19573	0.201154	0.197538
1361	0.198031	0.200825	0.200825	0.197867	0.195402	0.197538	0.195566
1362	0.199839	0.20099	0.201319	0.197045	0.194744	0.197374	0.200332
1363	0.199839	0.197538	0.198689	0.20099	0.198031	0.197867	0.197538
1364	0.197703	0.202633	0.200825	0.199675	0.197045	0.197374	0.201483
1365	0.198689	0.200497	0.198689	0.196717	0.199346	0.197867	0.199675
1366	0.198031	0.200004	0.19573	0.201319	0.198524	0.196552	0.199018
1367	0.197867	0.199018	0.195073	0.197374	0.198853	0.195402	0.198196
1368	0.197703	0.199018	0.199346	0.199182	0.200168	0.201483	0.199346
1369	0.197703	0.198196	0.200332	0.19836	0.199839	0.195237	0.19721
1370	0.199675	0.200168	0.200004	0.20099	0.199839	0.197045	0.200004
1371	0.19836	0.201154	0.196552	0.197867	0.198853	0.198031	0.197374
1372	0.198689	0.19836	0.200168	0.197538	0.200825	0.195402	0.19721
1373	0.199346	0.200168	0.199018	0.19836	0.199839	0.195073	0.199182
1374	0.200497	0.199182	0.200332	0.199018	0.199839	0.197538	0.198524
1375	0.198524	0.200661	0.200497	0.196223	0.199018	0.196881	0.201976
1376	0.19836	0.200497	0.200004	0.198853	0.200497	0.198196	0.200168
1377	0.201483	0.20477	0.200497	0.200332	0.200825	0.19836	0.199675
1378	0.200168	0.200825	0.199839	0.200168	0.200004	0.202305	0.197045
1379	0.198689	0.200004	0.199839	0.200004	0.199511	0.202962	0.20099
1380	0.201319	0.201319	0.200332	0.198689	0.201976	0.196059	0.198031
1381	0.200661	0.197703	0.200004	0.20214	0.198196	0.199511	0.200168
1382	0.200168	0.198524	0.200004	0.197538	0.199346	0.198853	0.200825
1383	0.196552	0.199511	0.199182	0.197045	0.199182	0.198524	0.199346
1384	0.199675	0.197045	0.200004	0.198031	0.19836	0.197703	0.201319
1385	0.199675	0.201319	0.199675	0.198853	0.199018	0.197374	0.201319
1386	0.199839	0.197703	0.196717	0.19721	0.198196	0.196059	0.198031
1387	0.200004	0.199511	0.203455	0.193429	0.201647	0.196881	0.200332
1388	0.200825	0.200332	0.198524	0.198031	0.19721	0.199182	0.196059
1389	0.200168	0.198524	0.19836	0.19836	0.195566	0.197045	0.197867
1390	0.200825	0.201647	0.198689	0.196223	0.194087	0.20099	0.198853
1391	0.200661	0.198031	0.20214	0.19836	0.197045	0.19836	0.19573
1392	0.20214	0.198524	0.200825	0.197867	0.19721	0.197703	0.200332
1393	0.198853	0.201812	0.201976	0.199346	0.198196	0.198031	0.197538
1394	0.197703	0.200332	0.200825	0.199839	0.198524	0.200168	0.197045
1395	0.200825	0.199511	0.201976	0.197045	0.198689	0.197374	0.198524
1396	0.194744	0.199675	0.199018	0.195566	0.199346	0.199675	0.198031
1397	0.200332	0.201154	0.199675	0.196881	0.197703	0.199018	0.199346
1398	0.19836	0.200332	0.20099	0.197538	0.198853	0.20099	0.198689
1399	0.199839	0.199675	0.198524	0.19836	0.198196	0.200168	0.198853
1400	0.198689	0.200661	0.200661	0.200168	0.197045	0.197045	0.200661
1401	0.202633	0.198689	0.197867	0.19836	0.199346	0.201483	0.196881
1402	0.200661	0.199675	0.20099	0.19836	0.202962	0.199511	0.200825
1403	0.202633	0.197374	0.196881	0.198524	0.195895	0.196881	0.199346
1404	0.201812	0.199018	0.201976	0.199018	0.197538	0.200004	0.201319
1405	0.201154	0.197867	0.199511	0.197538	0.200825	0.193594	0.198689
1406	0.20099	0.196223	0.199018	0.198689	0.198196	0.195237	0.199675
1407	0.200168	0.199018	0.200332	0.19836	0.196881	0.197045	0.199511
1408	0.202469	0.199018	0.203784	0.202469	0.198031	0.196059	0.19836
1409	0.199182	0.200332	0.200825	0.19573	0.194416	0.197538	0.199675
1410	0.203784	0.198853	0.198689	0.20099	0.197867	0.197045	0.194909
1411	0.200825	0.200004	0.204441	0.200004	0.200497	0.195073	0.195073
1412	0.202962	0.200497	0.198524	0.199511	0.202962	0.201976	0.196552
1413	0.201647	0.199182	0.195566	0.200497	0.200004	0.201647	0.198524
1414	0.203948	0.19836	0.196059	0.195566	0.196059	0.197703	0.19836
1415	0.199839	0.198689	0.199675	0.199839	0.201647	0.199346	0.199018
1416	0.202962	0.200168	0.196881	0.201647	0.199675	0.199675	0.197867
1417	0.197867	0.197374	0.199346	0.198853	0.199511	0.198689	0.200168
1418	0.20214	0.200825	0.199346	0.199346	0.19836	0.195237	0.20099
1419	0.201647	0.200661	0.201812	0.20099	0.199182	0.198689	0.198524
1420	0.201319	0.200497	0.200825	0.194909	0.198196	0.197045	0.199511
1421	0.206907	0.199675	0.200661	0.19836	0.199675	0.19721	0.199346
1422	0.202305	0.200168	0.199182	0.19573	0.197374	0.19836	0.198524
1423	0.202469	0.19836	0.199182	0.197374	0.199182	0.198031	0.199182
1424	0.202633	0.199839	0.199675	0.198689	0.198524	0.198853	0.196388
1425	0.205427	0.198196	0.199675	0.19836	0.19836	0.194909	0.197538
1426	0.200661	0.200332	0.198196	0.198524	0.19836	0.196388	0.199839
1427	0.202633	0.202469	0.198524	0.200168	0.199839	0.198196	0.196059
1428	0.20214	0.197867	0.201154	0.20214	0.200332	0.199511	0.196552
1429	0.201154	0.202798	0.199511	0.200332	0.199182	0.194087	0.19721
1430	0.201319	0.201319	0.200332	0.197703	0.201154	0.196552	0.199182
1431	0.201647	0.200168	0.199675	0.196388	0.199511	0.198196	0.197374
1432	0.198689	0.200661	0.202633	0.200004	0.200332	0.200168	0.198853
1433	0.202469	0.202633	0.20099	0.196881	0.201812	0.199675	0.19721
1434	0.200004	0.199346	0.201154	0.199839	0.200332	0.200332	0.198196
1435	0.20099	0.201647	0.200004	0.196388	0.199018	0.19721	0.200332
1436	0.201483	0.199346	0.201154	0.196552	0.199182	0.198689	0.198196
1437	0.199839	0.200497	0.199511	0.191621	0.197374	0.203126	0.198853
1438	0.202305	0.200825	0.198196	0.19573	0.200332	0.197867	0.196552
1439	0.201319	0.195402	0.199675	0.197374	0.198689	0.199182	0.199675
1440	0.20099	0.198524	0.19836	0.194251	0.200168	0.198031	0.197374
1441	0.199182	0.199511	0.200168	0.196388	0.195073	0.201319	0.198196
1442	0.201647	0.196552	0.199182	0.199839	0.197374	0.196552	0.196881
1443	0.201647	0.199675	0.199675	0.199346	0.196388	0.197703	0.199018
1444	0.204113	0.199018	0.198196	0.199018	0.199018	0.199675	0.195895
1445	0.202469	0.200004	0.201976	0.202305	0.200004	0.199018	0.197703
1446	0.201976	0.199675	0.196059	0.199346	0.198524	0.198196	0.197045
1447	0.202469	0.20099	0.199839	0.203455	0.199675	0.201154	0.197374
1448	0.199511	0.199675	0.198524	0.198689	0.199018	0.198196	0.200825
1449	0.193922	0.200168	0.199182	0.199839	0.201154	0.199182	0.200168
1450	0.197374	0.200168	0.199675	0.197703	0.199675	0.199346	0.203455
1451	0.196552	0.198689	0.200497	0.196388	0.199346	0.197374	0.199346
1452	0.198196	0.202962	0.198524	0.198031	0.197703	0.197867	0.203948
1453	0.19836	0.199675	0.201483	0.19836	0.199018	0.199182	0.199182
1454	0.197867	0.19836	0.202962	0.197045	0.19573	0.200168	0.200004
1455	0.202962	0.199511	0.199511	0.197045	0.196717	0.195073	0.197374
1456	0.198196	0.19836	0.200497	0.199511	0.196552	0.20099	0.193429
1457	0.202305	0.197045	0.199346	0.197374	0.194909	0.194744	0.194251
1458	0.198196	0.200497	0.197538	0.202469	0.197045	0.19836	0.195895
1459	0.203291	0.19721	0.19836	0.196223	0.199839	0.197703	0.19573
1460	0.201812	0.197538	0.199346	0.199018	0.202962	0.195895	0.196552
1461	0.202798	0.198196	0.193265	0.198524	0.199839	0.196388	0.194744
1462	0.200661	0.20099	0.19721	0.199839	0.197374	0.201812	0.195895
1463	0.202305	0.199839	0.197538	0.199018	0.195566	0.20099	0.197045
1464	0.202633	0.199675	0.197867	0.199511	0.201647	0.200004	0.200332
1465	0.201647	0.201154	0.199511	0.193758	0.197045	0.199018	0.201976
1466	0.200825	0.201483	0.199839	0.197867	0.20099	0.199675	0.199511
1467	0.207071	0.202469	0.199346	0.197374	0.199675	0.20099	0.199839
1468	0.200661	0.197703	0.201154	0.196717	0.197045	0.195402	0.198853
1469	0.202798	0.201647	0.200497	0.194909	0.200004	0.199018	0.200825
1470	0.203126	0.197867	0.20099	0.194744	0.197867	0.196717	0.198031
1471	0.197867	0.201976	0.200661	0.193922	0.195402	0.198196	0.199018
1472	0.201319	0.199018	0.200332	0.192772	0.197867	0.19721	0.200497
1473	0.197703	0.20099	0.200825	0.194416	0.196223	0.19573	0.198689
1474	0.201812	0.197538	0.199675	0.193265	0.195402	0.194744	0.199182
1475	0.199018	0.198524	0.20099	0.195237	0.19836	0.197867	0.198689
1476	0.202305	0.199346	0.199018	0.196717	0.195073	0.197045	0.200661
1477	0.201812	0.202305	0.198524	0.196223	0.199182	0.199018	0.201483
1478	0.205427	0.198689	0.196552	0.197703	0.19573	0.193101	0.198524
1479	0.201483	0.197867	0.201319	0.199839	0.195073	0.195895	0.197045
1480	0.205592	0.20099	0.197867	0.197538	0.19573	0.197374	0.19836
1481	0.201647	0.199346	0.199018	0.195895	0.192608	0.198031	0.19836
1482	0.201154	0.201647	0.199675	0.194251	0.173214	0.198031	0.200825
1483	0.201154	0.202633	0.199839	0.195895	0.172063	0.197374	0.198524
1484	0.197703	0.201319	0.199346	0.196388	0.170913	0.200004	0.19836
1485	0.202798	0.201319	0.203455	0.19721	0.170584	0.197374	0.198031
1486	0.199346	0.201812	0.201812	0.193594	0.170419	0.200661	0.199839
1487	0.201647	0.199346	0.202962	0.196388	0.152833	0.197703	0.199839
1488	0.198689	0.20477	0.201647	0.195402	0.130152	0.197374	0.200332
1489	0.201154	0.197703	0.200661	0.196059	0.107471	0.19721	0.198196
1490	0.200332	0.200168	0.19836	0.19573	0.10139	0.199182	0.197538
1491	0.204606	0.197867	0.193101	0.193922	0.061122	0.195895	0.197703
1492	0.202305	0.198524	0.198853	0.194251	0.028251	0.198689	0.197867
1493	0.202305	0.197538	0.197538	0.197703	0.013294	0.197703	0.19721
1494	0.202305	0.19836	0.196388	0.196552	0.009843	0.198689	0.197374
1495	0.205263	0.201154	0.198524	0.197867	0.008857	0.198031	0.198196
1496	0.202798	0.198031	0.199018	0.199511	0.007542	0.198196	0.197045
1497	0.202305	0.199018	0.197703	0.195566	0.008199	0.200004	0.198853
1498	0.202305	0.200497	0.200004	0.201483	0.009678	0.200004	0.20099
1499	0.198853	0.202469	0.197867	0.198031	0.013623	0.199182	0.202469
1500	0.201154	0.199839	0.201319	0.200332	0.02069	0.199675	0.196881
1501	0.19573	0.201812	0.196059	0.198853	0.023977	0.199346	0.198524
1502	0.199839	0.200497	0.200004	0.196223	0.033674	0.19721	0.20099
1503	0.19721	0.202798	0.200004	0.196881	0.038769	0.197867	0.199511
1504	0.201812	0.197538	0.199675	0.200332	0.034496	0.199675	0.19721
1505	0.199675	0.199182	0.201483	0.19836	0.014609	0.201647	0.198196
1506	0.202962	0.198853	0.19836	0.199839	0.017239	0.197703	0.20099
1507	0.198689	0.199018	0.198689	0.196881	0.020197	0.199839	0.203455
1508	0.200825	0.197045	0.196059	0.196552	0.026936	0.19836	0.197538
1509	0.198524	0.200332	0.199675	0.19836	0.034332	0.198689	0.200168
1510	0.205592	0.200168	0.198196	0.197538	0.035318	0.199346	0.196717
1511	0.200004	0.196552	0.19721	0.199839	0.043536	0.197045	0.197374
1512	0.201647	0.201154	0.194909	0.197703	0.047645	0.197374	0.196717
1513	0.201976	0.198524	0.202962	0.198196	0.057013	0.20099	0.195402
1514	0.200825	0.201319	0.197045	0.198196	0.061286	0.201319	0.199182
1515	0.204606	0.200332	0.197703	0.199839	0.061122	0.196881	0.196388
1516	0.199675	0.198853	0.198524	0.198689	0.064409	0.198853	0.201483
1517	0.200661	0.199346	0.200004	0.19836	0.072134	0.197703	0.199346
1518	0.199346	0.200497	0.200825	0.199346	0.072134	0.198196	0.199018
1519	0.19836	0.202962	0.200825	0.198524	0.078215	0.200661	0.199511
1520	0.199018	0.202962	0.201812	0.194744	0.081174	0.199346	0.204441
1521	0.198853	0.201976	0.199675	0.195895	0.085776	0.19573	0.198524
1522	0.196059	0.201483	0.200825	0.196552	0.085447	0.19836	0.199018
1523	0.201483	0.199675	0.198853	0.198031	0.089227	0.197374	0.198853
1524	0.199018	0.200497	0.200168	0.19721	0.094158	0.197703	0.199511
1525	0.198853	0.199346	0.198524	0.194251	0.097116	0.195237	0.197045
1526	0.200661	0.199018	0.199018	0.197538	0.101718	0.197703	0.196717
1527	0.198689	0.199182	0.200168	0.19458	0.10139	0.199839	0.201483
1528	0.201976	0.199182	0.199511	0.197045	0.108293	0.196881	0.199675
1529	0.198853	0.200004	0.200004	0.197867	0.106485	0.197538	0.198031
1530	0.199018	0.200332	0.200004	0.195073	0.109114	0.196552	0.19836
1531	0.197867	0.201154	0.201812	0.199018	0.110429	0.198689	0.201319
1532	0.200168	0.200168	0.198689	0.199511	0.113388	0.197538	0.198853
1533	0.196717	0.201483	0.198196	0.198031	0.105827	0.197703	0.20099
1534	0.198689	0.199839	0.19836	0.19836	0.116182	0.199018	0.196223
1535	0.198031	0.201976	0.200168	0.199511	0.118811	0.199182	0.202469
1536	0.198031	0.199018	0.200168	0.197538	0.120126	0.199182	0.197867
1537	0.197045	0.201483	0.199018	0.196717	0.122592	0.198524	0.198031
1538	0.19836	0.198689	0.197374	0.194251	0.126043	0.196388	0.198524
1539	0.19458	0.198031	0.201319	0.192279	0.125221	0.201319	0.200661
1540	0.199182	0.197703	0.200004	0.196388	0.126043	0.200168	0.199182
1541	0.196388	0.198853	0.200168	0.192608	0.127029	0.198853	0.198031
1542	0.195895	0.199675	0.199346	0.192772	0.125386	0.197703	0.199018
1543	0.197538	0.20099	0.199182	0.19721	0.130481	0.198031	0.196717
1544	0.196059	0.198689	0.198689	0.195237	0.11914	0.197374	0.197867
1545	0.196717	0.199511	0.200004	0.197374	0.127358	0.198031	0.198524
1546	0.195237	0.199839	0.197703	0.199675	0.129988	0.199346	0.19836
1547	0.195237	0.197374	0.199675	0.198853	0.12933	0.196717	0.198031
1548	0.192936	0.201483	0.19721	0.198524	0.124235	0.19836	0.197867
1549	0.197703	0.198031	0.199182	0.198853	0.119797	0.197867	0.195895
1550	0.196059	0.198031	0.19836	0.198524	0.115195	0.198196	0.198689
1551	0.198031	0.199675	0.199675	0.199346	0.110593	0.199182	0.19836
1552	0.196059	0.201647	0.201319	0.197374	0.108786	0.199675	0.198689
1553	0.199675	0.201647	0.201647	0.200004	0.106978	0.194744	0.200004
1554	0.195237	0.20362	0.199346	0.20099	0.104184	0.197538	0.19836
1555	0.199018	0.198196	0.198196	0.198031	0.081667	0.198031	0.198853
1556	0.196552	0.198031	0.199018	0.200004	0.08331	0.199675	0.200332
1557	0.197374	0.20099	0.194909	0.199018	0.082982	0.19836	0.198524
1558	0.193429	0.197867	0.200168	0.199346	0.066217	0.19836	0.196059
1559	0.193265	0.19721	0.199839	0.197374	0.056027	0.200661	0.198196
1560	0.197045	0.196223	0.200332	0.198689	0.063423	0.197867	0.19573
1561	0.197538	0.199182	0.201319	0.198031	0.04633	0.196717	0.197867
1562	0.196881	0.199839	0.202305	0.196059	0.028251	0.199346	0.195402
1563	0.19458	0.201483	0.196717	0.197703	0.013623	0.200497	0.201976
1564	0.196717	0.198196	0.199018	0.199346	0.003761	0.196223	0.201812
1565	0.198031	0.202305	0.196059	0.200168	0.007706	0.192772	0.195073
1566	0.192608	0.197538	0.197867	0.199182	0.005734	0.195895	0.198689
1567	0.009678	0.20214	0.197703	0.197703	0.007706	0.19836	0.201483
1568	0.019704	0.201154	0.194416	0.200004	0.010829	0.197867	0.197045
1569	0.026771	0.198689	0.198689	0.200332	0.010336	0.200004	0.199511
1570	0.035318	0.202469	0.196881	0.196388	0.010993	0.199346	0.199018
1571	0.041564	0.19721	0.199839	0.203126	0.009021	0.199018	0.199511
1572	0.053562	0.201483	0.199182	0.197703	0.009185	0.195566	0.199675
1573	0.057506	0.201319	0.200661	0.200661	0.008528	0.200004	0.199675
1574	0.058492	0.200497	0.199839	0.197703	0.007377	0.201976	0.199675
1575	0.067696	0.198853	0.203455	0.199182	0.0105	0.195402	0.204277
1576	0.072627	0.202633	0.199182	0.196059	0.007049	0.191128	0.199018
1577	0.0769	0.198689	0.200825	0.200004	0.00787	0.197867	0.19836
1578	0.082817	0.202305	0.20099	0.197867	0.003433	0.199511	0.199839
1579	0.08857	0.198524	0.199346	0.198031	0.006062	0.197374	0.199346
1580	0.090213	0.200004	0.199182	0.198853	0.002611	0.196717	0.198853
1581	0.094815	0.199839	0.199346	0.198196	0.005898	0.197703	0.198524
1582	0.099417	0.199182	0.200004	0.198853	0.002447	0.199346	0.201976
1583	0.104512	0.200332	0.198853	0.199511	0.00672	0.196717	0.200497
1584	0.102869	0.199018	0.200661	0.196717	0.006884	0.199511	0.203948
1585	0.107635	0.199675	0.198031	0.200825	0.004255	0.197867	0.196717
1586	0.112894	0.198196	0.200661	0.200004	0.004748	0.200168	0.199839
1587	0.116182	0.206249	0.198031	0.198524	0.003104	0.190964	0.198196
1588	0.118483	0.200661	0.197703	0.198524	0.012308	0.199839	0.198853
1589	0.122263	0.202962	0.199182	0.192608	0.001625	0.202633	0.199839
1590	0.124728	0.200168	0.203126	0.19721	0.006556	0.201483	0.200497
1591	0.127029	0.202798	0.199839	0.196717	0.000639	0.201154	0.19721
1592	0.129823	0.19836	0.199018	0.194251	0.002611	0.200661	0.200332
1593	0.135247	0.200661	0.202633	0.195402	0.001954	0.199839	0.200168
1594	0.138699	0.201154	0.199839	0.196881	0.00409	0.199018	0.199675
1595	0.136398	0.199346	0.199018	0.198031	0.004419	0.199675	0.200004
1596	0.142643	0.20099	0.198524	0.195402	0.002611	0.198853	0.199182
1597	0.143136	0.201154	0.202633	0.198031	0.004912	0.199018	0.200661
1598	0.144451	0.200661	0.19721	0.197045	0.003597	0.188334	0.199675
1599	0.146588	0.200168	0.199675	0.199018	0.008035	0.198689	0.196881
1600	0.14971	0.199511	0.198196	0.196881	0.003104	0.197538	0.196717
1601	0.150532	0.199511	0.199018	0.199839	0.004255	0.198689	0.198524
1602	0.15497	0.199675	0.197374	0.19721	0.004748	0.199675	0.196223
1603	0.15612	0.197867	0.200004	0.199675	0.005405	0.195237	0.197867
1604	0.157435	0.197374	0.198853	0.196881	0.004748	0.199182	0.199018
1605	0.159736	0.200497	0.199018	0.201154	0.006884	0.198524	0.199346
1606	0.160558	0.198853	0.199839	0.199675	0.00294	0.199018	0.199018
1607	0.164338	0.199839	0.197374	0.197867	0.003926	0.201483	0.198031
1608	0.164996	0.200168	0.201647	0.199839	0.00294	0.199182	0.193594
1609	0.166475	0.201812	0.201812	0.201483	0.005569	0.193429	0.19836
1610	0.167954	0.202305	0.200497	0.197045	0.008528	0.199346	0.198031
1611	0.169269	0.200825	0.200661	0.199018	0.002282	0.197045	0.196881
1612	0.166475	0.201319	0.199511	0.199675	0.003597	0.199346	0.199839
1613	0.171406	0.200661	0.195895	0.197703	0.003761	0.196059	0.199346
1614	0.169433	0.200004	0.195566	0.197538	0.004419	0.195895	0.20099
1615	0.169762	0.198689	0.200497	0.198524	0.008035	0.197045	0.199511
1616	0.175186	0.200825	0.198689	0.198689	0.006062	0.19836	0.200825
1617	0.173378	0.197538	0.197538	0.199839	0.004419	0.198689	0.199346
1618	0.176008	0.199346	0.201647	0.196881	0.003597	0.197374	0.198853
1619	0.178966	0.194744	0.196552	0.200497	0.006391	0.200332	0.199346
1620	0.179459	0.199182	0.200168	0.199018	0.005569	0.195566	0.198196
1621	0.180116	0.198853	0.197703	0.198853	0.005405	0.197703	0.197867
1622	0.181267	0.19836	0.199511	0.201319	0.004255	0.199346	0.201154
1623	0.176336	0.196717	0.199018	0.200332	0.004419	0.197374	0.198689
1624	0.180774	0.20099	0.199675	0.200168	0.004912	0.198196	0.199018
1625	0.181431	0.202633	0.199346	0.199018	0.005734	0.200332	0.202962
1626	0.182253	0.19836	0.200004	0.199675	0.006391	0.197045	0.201483
1627	0.182746	0.202633	0.202469	0.198524	0.00787	0.198196	0.202633
1628	0.185705	0.201319	0.201154	0.197867	0.005734	0.19836	0.200168
1629	0.180445	0.20214	0.202469	0.197374	0.005898	0.201976	0.202633
1630	0.185705	0.201154	0.198196	0.197703	0.005898	0.197703	0.201319
1631	0.184718	0.201647	0.201483	0.199675	0.005241	0.199839	0.200661
1632	0.184554	0.200332	0.199511	0.19573	0.008363	0.19721	0.200825
1633	0.186691	0.201319	0.203291	0.200004	0.005076	0.196881	0.200661
1634	0.186526	0.198689	0.201154	0.197374	0.008035	0.199839	0.201483
1635	0.188006	0.199346	0.199839	0.194909	0.007049	0.19721	0.199018
1636	0.188499	0.198689	0.197867	0.194909	0.008692	0.199182	0.197867
1637	0.189814	0.19836	0.200497	0.200497	0.010993	0.199839	0.199839
1638	0.189814	0.19721	0.198031	0.197703	0.015595	0.200168	0.198689
1639	0.191293	0.197374	0.197867	0.201647	0.017074	0.204277	0.197538
1640	0.192115	0.196059	0.202962	0.195895	0.026114	0.200661	0.201647
1641	0.191457	0.196059	0.199511	0.19836	0.032688	0.200168	0.199675
1642	0.188992	0.201483	0.201483	0.199839	0.034003	0.204441	0.197374
1643	0.193429	0.199839	0.199675	0.201976	0.041235	0.196881	0.199839
1644	0.192279	0.20099	0.199346	0.199018	0.0437	0.200004	0.199839
1645	0.191128	0.200661	0.198524	0.200332	0.049124	0.199346	0.198689
1646	0.190307	0.200825	0.20099	0.196717	0.055205	0.199182	0.198031
1647	0.192772	0.20099	0.199018	0.197538	0.059972	0.198689	0.196881
1648	0.186033	0.200168	0.201154	0.198031	0.065724	0.198689	0.202305
1649	0.189156	0.201154	0.199675	0.198031	0.069833	0.198689	0.19721
1650	0.195237	0.200825	0.197538	0.199511	0.07312	0.201812	0.19721
1651	0.192279	0.197374	0.199346	0.196059	0.078051	0.199675	0.198031
1652	0.196223	0.19836	0.200332	0.199346	0.085283	0.200004	0.197867
1653	0.195073	0.199346	0.197538	0.198853	0.08709	0.203455	0.196059
1654	0.196388	0.194744	0.199018	0.199675	0.092843	0.197703	0.197703
1655	0.196388	0.199018	0.198031	0.19836	0.094815	0.200661	0.198689
1656	0.19458	0.198689	0.199346	0.201483	0.099746	0.198196	0.197538
1657	0.194087	0.197045	0.199018	0.197703	0.102047	0.199346	0.200497
1658	0.198031	0.197867	0.200168	0.199018	0.107142	0.199018	0.195895
1659	0.194416	0.198853	0.201647	0.199839	0.111251	0.199839	0.20099
1660	0.196881	0.200332	0.199511	0.199018	0.114538	0.199511	0.19836
1661	0.194909	0.202962	0.19836	0.199346	0.115195	0.201154	0.20099
1662	0.194251	0.200168	0.199675	0.196388	0.119797	0.200004	0.199675
1663	0.19458	0.201976	0.198524	0.199675	0.12555	0.196552	0.200497
1664	0.196059	0.201812	0.19836	0.198031	0.12933	0.204113	0.196552
1665	0.195402	0.200332	0.204441	0.196552	0.134097	0.19721	0.198853
1666	0.192279	0.201647	0.199675	0.195237	0.13311	0.198524	0.199182
1667	0.197045	0.200661	0.202305	0.200332	0.13574	0.199511	0.197867
1668	0.195237	0.200825	0.199839	0.19573	0.136398	0.197538	0.197703
1669	0.196717	0.201647	0.198689	0.194087	0.140013	0.200004	0.197867
1670	0.199839	0.204606	0.19721	0.195566	0.143465	0.200332	0.199346
1671	0.197045	0.198689	0.199182	0.194744	0.145766	0.197045	0.19721
1672	0.198524	0.200332	0.201319	0.19573	0.148067	0.201483	0.200332
1673	0.195402	0.199839	0.199511	0.196881	0.15119	0.200332	0.196717
1674	0.200168	0.199839	0.196552	0.198524	0.15119	0.20099	0.200332
1675	0.200168	0.200168	0.197538	0.198031	0.156942	0.203784	0.198196
1676	0.197538	0.199346	0.201319	0.200168	0.157107	0.196388	0.199511
1677	0.197703	0.199839	0.200168	0.19721	0.156449	0.196552	0.199182
1678	0.199018	0.201647	0.199182	0.201812	0.159079	0.201319	0.200004
1679	0.195237	0.201319	0.200825	0.196223	0.160229	0.204277	0.198524
1680	0.196388	0.201647	0.199018	0.197374	0.162695	0.198196	0.201812
1681	0.196717	0.200497	0.198196	0.197703	0.163352	0.198853	0.201812
1682	0.196059	0.203291	0.199182	0.199018	0.166804	0.200332	0.200497
1683	0.198031	0.202962	0.196059	0.196388	0.167132	0.200661	0.202305
1684	0.196388	0.197867	0.200168	0.19721	0.171406	0.20099	0.202798
1685	0.197374	0.201154	0.199018	0.19721	0.169269	0.200825	0.200004
1686	0.199346	0.199182	0.198524	0.19721	0.175186	0.201976	0.19836
1687	0.195237	0.196881	0.199018	0.197867	0.173214	0.200825	0.200168
1688	0.197538	0.199182	0.198196	0.193594	0.172227	0.199018	0.19836
1689	0.197045	0.200168	0.198853	0.20214	0.171734	0.202798	0.200168
1690	0.200332	0.199839	0.203291	0.195895	0.176336	0.196388	0.197867
1691	0.197867	0.20099	0.199675	0.19836	0.176336	0.19721	0.199511
1692	0.198196	0.198031	0.199839	0.199346	0.174364	0.198031	0.19836
1693	0.19458	0.200661	0.199675	0.199018	0.177158	0.199346	0.199018
1694	0.198524	0.202305	0.198689	0.199675	0.178802	0.199018	0.199346
1695	0.196881	0.201319	0.196881	0.198524	0.181267	0.201483	0.200661
1696	0.20099	0.199675	0.198689	0.196717	0.178473	0.199018	0.199511
1697	0.199018	0.200004	0.20362	0.197867	0.183568	0.20477	0.200332
1698	0.195566	0.201483	0.196717	0.196059	0.183239	0.198196	0.199675
1699	0.19195	0.198524	0.200004	0.201483	0.184225	0.200004	0.200004
1700	0.195402	0.201483	0.198524	0.199511	0.182746	0.202469	0.197703
1701	0.198853	0.19836	0.200332	0.196881	0.184225	0.202469	0.201647
1702	0.196881	0.199675	0.197867	0.19836	0.185047	0.201812	0.200332
1703	0.199018	0.199018	0.198524	0.199346	0.186198	0.200825	0.19721
1704	0.198031	0.198031	0.200168	0.199346	0.18554	0.200332	0.201812
1705	0.201154	0.197374	0.199018	0.199511	0.184718	0.198689	0.199675
1706	0.196552	0.20099	0.199346	0.199839	0.186198	0.199839	0.199839
1707	0.20099	0.196552	0.198031	0.200497	0.185376	0.199511	0.19721
1708	0.198689	0.196059	0.202798	0.200497	0.186691	0.200497	0.199675
1709	0.200332	0.197045	0.198853	0.201647	0.190635	0.196059	0.19721
1710	0.192772	0.196552	0.200004	0.200332	0.190471	0.197374	0.200661
1711	0.198524	0.202305	0.195895	0.200168	0.189649	0.200497	0.198524
1712	0.199511	0.200661	0.197045	0.200661	0.192772	0.198524	0.199511
1713	0.198689	0.201154	0.196223	0.198853	0.189485	0.201154	0.197867
1714	0.200661	0.200661	0.200004	0.20099	0.191786	0.201154	0.199018
1715	0.200497	0.202305	0.195895	0.199346	0.192279	0.200004	0.200004
1716	0.199018	0.196223	0.197867	0.200661	0.19195	0.200497	0.200332
1717	0.200004	0.200661	0.198031	0.199346	0.190635	0.202469	0.202469
1718	0.202305	0.199346	0.196881	0.202305	0.191128	0.201154	0.197045
1719	0.19721	0.20099	0.19836	0.201154	0.191128	0.201976	0.203455
1720	0.203126	0.194744	0.200004	0.200004	0.194416	0.197703	0.198689
1721	0.191128	0.202633	0.199675	0.203291	0.191786	0.19836	0.199675
1722	0.200004	0.198689	0.198689	0.200332	0.192279	0.195237	0.202633
1723	0.198853	0.201319	0.199018	0.200332	0.19721	0.198031	0.197045
1724	0.203784	0.199346	0.198031	0.200661	0.192443	0.19721	0.195895
1725	0.199018	0.199511	0.200168	0.199675	0.194087	0.198853	0.201154
1726	0.200004	0.199675	0.19836	0.199018	0.194909	0.19573	0.198031
1727	0.200332	0.199675	0.203291	0.201483	0.196223	0.20099	0.199839
1728	0.197703	0.201319	0.201154	0.199018	0.195073	0.200825	0.199511
1729	0.199839	0.199839	0.195895	0.202962	0.196388	0.200497	0.197538
1730	0.201812	0.201647	0.197703	0.200825	0.194909	0.204441	0.198853
1731	0.200332	0.199346	0.198031	0.201647	0.197045	0.201154	0.199675
1732	0.190635	0.200825	0.20362	0.200661	0.196223	0.20362	0.199839
1733	0.198853	0.200661	0.198524	0.203455	0.195402	0.199182	0.201154
1734	0.199675	0.201319	0.199511	0.199839	0.198196	0.201154	0.201647
1735	0.201812	0.199018	0.19721	0.199018	0.195073	0.199839	0.197374
1736	0.197867	0.202633	0.199675	0.19836	0.195895	0.201483	0.203784
1737	0.202305	0.202633	0.199511	0.19721	0.198196	0.197703	0.198689
1738	0.199182	0.204441	0.200004	0.199675	0.19836	0.200661	0.199182
1739	0.201319	0.196388	0.200661	0.19573	0.195895	0.198689	0.200825
1740	0.199839	0.200661	0.200332	0.19836	0.196223	0.197374	0.198853
1741	0.202798	0.196059	0.200168	0.19458	0.193594	0.197045	0.197703
1742	0.202305	0.194087	0.203455	0.197538	0.199182	0.196059	0.199346
1743	0.194087	0.200497	0.19836	0.197045	0.195895	0.201319	0.197703
1744	0.195895	0.197703	0.201154	0.20214	0.194744	0.195566	0.199182
1745	0.199675	0.200004	0.196881	0.199346	0.198031	0.200168	0.198524
1746	0.199675	0.200004	0.200497	0.203126	0.198031	0.203784	0.196223
1747	0.198524	0.197703	0.197867	0.202633	0.196881	0.200661	0.200497
1748	0.200004	0.198196	0.197703	0.20362	0.20099	0.19721	0.201154
1749	0.200497	0.201647	0.199346	0.201647	0.197045	0.201154	0.202469
1750	0.196717	0.199182	0.199182	0.200497	0.199346	0.201483	0.198689
1751	0.199675	0.200168	0.196388	0.202798	0.201812	0.204606	0.199346
1752	0.20362	0.197703	0.199511	0.201319	0.196223	0.200825	0.199018
1753	0.200497	0.200332	0.200661	0.201483	0.198031	0.200497	0.20099
1754	0.198689	0.20099	0.198524	0.20099	0.197374	0.201154	0.198853
1755	0.199182	0.199511	0.200661	0.20477	0.198031	0.19836	0.201319
1756	0.199182	0.198031	0.198196	0.196717	0.192772	0.19721	0.202633
1757	0.200332	0.198689	0.199839	0.200825	0.196388	0.199346	0.19573
1758	0.201154	0.197867	0.201647	0.199346	0.19836	0.196552	0.197703
1759	0.200168	0.196552	0.201647	0.201319	0.200004	0.197538	0.199511
1760	0.201976	0.199182	0.197867	0.199839	0.199346	0.199018	0.200661
1761	0.198524	0.198689	0.199018	0.200497	0.19721	0.197538	0.195895
1762	0.20214	0.201483	0.193594	0.20099	0.198689	0.200661	0.197867
1763	0.204277	0.196717	0.195566	0.202305	0.201812	0.20362	0.197538
1764	0.200332	0.199182	0.197045	0.202469	0.199839	0.199675	0.199511
1765	0.205427	0.201976	0.194744	0.202305	0.200332	0.200168	0.199675
1766	0.199511	0.201483	0.194744	0.204441	0.195895	0.201319	0.199182
1767	0.20362	0.200661	0.197045	0.19836	0.201647	0.199511	0.199511
1768	0.201976	0.203126	0.198853	0.199839	0.20099	0.200004	0.199346
1769	0.202305	0.197538	0.200332	0.201483	0.199018	0.200497	0.200825
1770	0.200004	0.200497	0.201812	0.198853	0.201647	0.197374	0.202305
1771	0.20099	0.199346	0.199839	0.201647	0.200332	0.197867	0.199511
1772	0.198689	0.200661	0.200004	0.202633	0.198853	0.19721	0.202798
1773	0.199675	0.199511	0.196388	0.20099	0.198196	0.196552	0.198196
1774	0.199511	0.196717	0.198524	0.200661	0.198031	0.199839	0.199675
1775	0.198853	0.201483	0.199018	0.199182	0.199511	0.195895	0.199346
1776	0.203784	0.200332	0.200661	0.202469	0.199182	0.19573	0.199675
1777	0.198524	0.199839	0.198689	0.201483	0.19836	0.199511	0.199675
1778	0.200168	0.200332	0.200661	0.200497	0.196717	0.196059	0.198196
1779	0.200661	0.20099	0.197045	0.200332	0.198689	0.200661	0.197867
1780	0.20214	0.196388	0.199018	0.200661	0.199182	0.196881	0.20099
1781	0.198853	0.20099	0.199511	0.200661	0.200332	0.196717	0.199839
1782	0.201812	0.200661	0.200168	0.201319	0.201976	0.199839	0.198196
1783	0.199511	0.202305	0.197867	0.202305	0.201319	0.201483	0.200332
1784	0.202469	0.199182	0.19836	0.200168	0.201319	0.198689	0.195237
1785	0.200332	0.201647	0.200332	0.199018	0.19836	0.203291	0.200661
1786	0.201319	0.200825	0.197867	0.200825	0.200168	0.199182	0.200004
1787	0.203948	0.201812	0.199839	0.199346	0.200332	0.200332	0.201812
1788	0.199675	0.19836	0.200168	0.197867	0.197374	0.198031	0.199511
1789	0.198524	0.199182	0.201812	0.194744	0.198524	0.198524	0.201154
1790	0.197538	0.200497	0.199018	0.198689	0.199018	0.196388	0.199182
1791	0.201319	0.198031	0.200168	0.201647	0.197703	0.19458	0.199675
1792	0.198853	0.203126	0.201976	0.199018	0.200332	0.190635	0.198853
1793	0.200332	0.203784	0.198689	0.204113	0.201319	0.194416	0.199346
1794	0.200332	0.200004	0.196223	0.198853	0.198689	0.193594	0.197538
1795	0.199839	0.201319	0.195895	0.201483	0.199675	0.189814	0.195566
1796	0.197867	0.200661	0.197374	0.201647	0.199018	0.192115	0.198689
1797	0.201483	0.196717	0.19836	0.200661	0.201812	0.190307	0.195895
1798	0.20099	0.200661	0.196717	0.203455	0.199346	0.189485	0.20214
1799	0.196388	0.200825	0.196059	0.201976	0.198196	0.184225	0.200497
1800	0.194909	0.199675	0.200004	0.200825	0.201976	0.185376	0.201154
1801	0.199839	0.201812	0.197045	0.200661	0.200661	0.181924	0.197374
1802	0.202469	0.199511	0.200004	0.200168	0.201483	0.186526	0.202633
1803	0.202469	0.201483	0.198524	0.200004	0.199182	0.180281	0.201154
1804	0.198853	0.20099	0.200661	0.200004	0.200661	0.180445	0.20099
1805	0.200004	0.200004	0.196552	0.197703	0.199839	0.176829	0.197538
1806	0.199839	0.198689	0.19836	0.199839	0.199346	0.173049	0.199511
1807	0.199346	0.200825	0.200004	0.197374	0.194744	0.176172	0.198853
1808	0.196059	0.196717	0.201976	0.200497	0.202962	0.172227	0.197374
1809	0.203455	0.200004	0.199346	0.197703	0.200168	0.17157	0.200004
1810	0.200332	0.201319	0.198689	0.199675	0.199182	0.171406	0.193429
1811	0.200004	0.201319	0.198031	0.19836	0.197538	0.174364	0.195895
1812	0.201976	0.199182	0.197045	0.200168	0.19836	0.17157	0.197374
1813	0.199839	0.197538	0.19721	0.199675	0.200004	0.171241	0.201483
1814	0.202469	0.198853	0.199839	0.198524	0.199839	0.171241	0.198524
1815	0.201319	0.199018	0.195073	0.201319	0.203291	0.174693	0.199346
1816	0.20099	0.199839	0.192115	0.199839	0.200825	0.173378	0.193758
1817	0.204277	0.197538	0.202305	0.201319	0.202798	0.177487	0.198853
1818	0.202962	0.201976	0.195895	0.19721	0.203455	0.180445	0.199018
1819	0.201483	0.200004	0.197703	0.200168	0.20362	0.178637	0.200168
1820	0.202798	0.204277	0.199018	0.198524	0.199675	0.177158	0.200004
1821	0.198196	0.201976	0.200332	0.198689	0.200497	0.181267	0.201647
1822	0.200004	0.200332	0.199675	0.198196	0.199018	0.179295	0.20362
1823	0.200497	0.199839	0.197867	0.198689	0.201647	0.177322	0.20099
1824	0.19836	0.199839	0.200825	0.196223	0.199182	0.181596	0.20362
1825	0.200332	0.201319	0.200825	0.199346	0.201319	0.180938	0.200332
1826	0.200332	0.202469	0.198524	0.19836	0.200661	0.18176	0.200825
1827	0.203948	0.200004	0.195073	0.19721	0.201647	0.182089	0.192936
1828	0.200825	0.19458	0.197538	0.199511	0.199346	0.186033	0.198524
1829	0.202305	0.198689	0.19836	0.200497	0.199346	0.1908	0.196059
1830	0.201319	0.200825	0.193758	0.200004	0.203126	0.18439	0.20099
1831	0.201319	0.199839	0.199346	0.200168	0.199511	0.186033	0.197867
1832	0.199182	0.199182	0.201976	0.200661	0.198196	0.18817	0.200004
1833	0.201154	0.199511	0.199182	0.200497	0.202962	0.18817	0.195895
1834	0.199346	0.200825	0.200004	0.20214	0.205592	0.189814	0.196388
1835	0.201154	0.200661	0.198031	0.198196	0.200661	0.189156	0.200332
1836	0.199346	0.201812	0.201483	0.201812	0.20099	0.189978	0.201483
1837	0.200332	0.196552	0.19836	0.196881	0.200825	0.190635	0.201483
1838	0.199511	0.200661	0.194251	0.196717	0.201483	0.191786	0.192608
1839	0.199182	0.193265	0.196881	0.200497	0.199018	0.193101	0.199018
1840	0.194909	0.198031	0.201812	0.200661	0.200661	0.192443	0.200661
1841	0.198853	0.201976	0.198689	0.197374	0.200661	0.19195	0.200004
1842	0.20099	0.20099	0.200004	0.199839	0.199511	0.19195	0.199675
1843	0.195895	0.198524	0.200168	0.196059	0.198853	0.19721	0.199511
1844	0.202305	0.19721	0.199839	0.195895	0.199346	0.193265	0.198196
1845	0.198853	0.200004	0.194087	0.196881	0.201154	0.193922	0.19836
1846	0.199839	0.197538	0.199675	0.198031	0.197045	0.192608	0.198853
1847	0.199839	0.200004	0.199018	0.199839	0.199839	0.193758	0.200825
1848	0.200332	0.199675	0.197045	0.198689	0.201812	0.193594	0.198196
1849	0.19721	0.199839	0.192443	0.200168	0.201812	0.193265	0.192936
1850	0.20099	0.194087	0.195566	0.200004	0.199675	0.193594	0.19836
1851	0.202798	0.199018	0.200004	0.201812	0.201154	0.192443	0.201319
1852	0.201976	0.200168	0.197538	0.201319	0.200168	0.193265	0.199018
1853	0.199675	0.199346	0.199018	0.197374	0.20099	0.195237	0.201154
1854	0.197374	0.199346	0.199018	0.200497	0.196881	0.195895	0.200825
1855	0.199182	0.198031	0.200825	0.201976	0.198853	0.193594	0.199675
1856	0.199839	0.198689	0.200497	0.199675	0.19458	0.199182	0.199839
1857	0.200168	0.198196	0.201647	0.196717	0.196552	0.19458	0.199346
1858	0.200168	0.202633	0.201647	0.198853	0.200332	0.197045	0.197867
1859	0.198031	0.198689	0.198853	0.200661	0.198031	0.198196	0.19836
1860	0.200332	0.202798	0.191293	0.196881	0.201976	0.19573	0.192608
1861	0.201812	0.192772	0.19573	0.200004	0.200332	0.193758	0.192279
1862	0.201647	0.199839	0.197867	0.199511	0.200661	0.196223	0.199018
1863	0.201812	0.198524	0.19573	0.198853	0.199346	0.193265	0.199346
1864	0.197703	0.202469	0.199018	0.20214	0.196717	0.196552	0.200332
1865	0.202962	0.199346	0.198031	0.200004	0.199346	0.195895	0.199511
1866	0.197374	0.200497	0.201647	0.202798	0.20099	0.196388	0.199018
1867	0.203455	0.200661	0.202469	0.199675	0.198196	0.195402	0.19836
1868	0.200825	0.199675	0.199839	0.20214	0.200004	0.196388	0.200661
1869	0.20099	0.201154	0.198524	0.196388	0.196881	0.199346	0.200168
1870	0.202962	0.200497	0.201319	0.201976	0.200497	0.197374	0.199182
1871	0.199675	0.206249	0.189978	0.196717	0.19573	0.196881	0.192608
1872	0.200332	0.193922	0.199511	0.195402	0.199675	0.198031	0.200332
1873	0.200661	0.201154	0.20099	0.200004	0.199511	0.197867	0.200332
1874	0.201647	0.20099	0.199511	0.197867	0.200004	0.197538	0.199839
1875	0.202633	0.205756	0.199511	0.197538	0.199511	0.197538	0.201483
1876	0.20214	0.198689	0.201319	0.201154	0.198196	0.195237	0.199182
1877	0.202633	0.202305	0.203126	0.198853	0.19836	0.196388	0.201319
1878	0.202962	0.201976	0.201154	0.198689	0.19836	0.198196	0.198853
1879	0.198524	0.198524	0.202962	0.199346	0.19836	0.19836	0.201319
1880	0.200497	0.201319	0.194909	0.198524	0.196388	0.20362	0.200825
1881	0.201319	0.20099	0.200661	0.201483	0.199675	0.200497	0.20099
1882	0.20214	0.200497	0.190635	0.197374	0.197703	0.199346	0.19195
1883	0.200168	0.194087	0.199018	0.200661	0.200825	0.197867	0.196881
1884	0.199839	0.197867	0.199346	0.200661	0.200168	0.199511	0.199675
1885	0.200332	0.200661	0.201154	0.198524	0.198689	0.197867	0.198689
1886	0.200332	0.197867	0.197703	0.196717	0.197703	0.198689	0.204277
1887	0.200661	0.200168	0.201647	0.199018	0.199182	0.197374	0.199182
1888	0.198853	0.202469	0.20099	0.202305	0.198031	0.199018	0.200661
1889	0.201319	0.199675	0.201812	0.198196	0.199839	0.198853	0.198524
1890	0.197045	0.201483	0.204277	0.196717	0.197867	0.201154	0.200168
1891	0.200004	0.200168	0.200332	0.198031	0.196552	0.200661	0.199018
1892	0.201483	0.199839	0.201319	0.199511	0.202633	0.200825	0.201647
1893	0.202469	0.200168	0.190635	0.199018	0.197045	0.201647	0.195073
1894	0.197374	0.198196	0.200004	0.198853	0.197538	0.200332	0.197703
1895	0.204277	0.201647	0.198031	0.201483	0.199839	0.199182	0.19836
1896	0.199675	0.200497	0.200004	0.20099	0.197703	0.199675	0.198196
1897	0.200168	0.200661	0.200661	0.199839	0.197538	0.200661	0.201647
1898	0.197703	0.200661	0.200825	0.203291	0.199018	0.199346	0.199511
1899	0.197538	0.199675	0.200168	0.198031	0.196881	0.198031	0.199182
1900	0.202962	0.200004	0.200497	0.199018	0.201319	0.197374	0.195566
1901	0.199346	0.199182	0.200332	0.199675	0.195895	0.199839	0.200332
1902	0.196717	0.198524	0.199182	0.198689	0.197045	0.200004	0.200004
1903	0.202305	0.202305	0.200825	0.198853	0.20099	0.200825	0.200168
1904	0.202962	0.199675	0.196059	0.198853	0.199839	0.199182	0.19721
1905	0.199346	0.196388	0.198524	0.200168	0.201154	0.200168	0.199839
1906	0.204441	0.194251	0.198524	0.199346	0.201812	0.197703	0.197374
1907	0.20099	0.200825	0.199018	0.201483	0.200497	0.199018	0.198689
1908	0.201647	0.198031	0.201812	0.200004	0.194251	0.198853	0.199839
1909	0.200168	0.196388	0.200004	0.201647	0.199675	0.200332	0.198524
1910	0.20099	0.199018	0.198853	0.197538	0.199346	0.200004	0.199675
1911	0.199182	0.199839	0.201154	0.198031	0.197374	0.201483	0.197703
1912	0.201319	0.199182	0.200332	0.199346	0.199511	0.206742	0.199511
1913	0.200661	0.19836	0.20099	0.20099	0.198689	0.206249	0.201647
1914	0.20214	0.200661	0.19836	0.199511	0.199839	0.199675	0.202305
1915	0.200497	0.201976	0.197703	0.195895	0.198689	0.200004	0.201319
1916	0.19458	0.201812	0.200332	0.161544	0.19836	0.199346	0.198031
1917	0.202305	0.199346	0.200168	0.156778	0.199511	0.196223	0.199346
1918	0.201647	0.201319	0.195402	0.15875	0.196717	0.199839	0.199018
1919	0.200661	0.201154	0.198853	0.160887	0.194087	0.197703	0.19836
1920	0.200661	0.202633	0.198524	0.162695	0.198031	0.199018	0.197703
1921	0.199839	0.198689	0.198689	0.164831	0.197045	0.198524	0.199839
1922	0.200332	0.203126	0.201319	0.164667	0.198031	0.200004	0.199182
1923	0.201483	0.20099	0.198853	0.166146	0.203126	0.200497	0.199839
1924	0.200497	0.200004	0.200004	0.169598	0.19836	0.200004	0.199675
1925	0.204113	0.200825	0.20099	0.168283	0.199675	0.197538	0.198031
1926	0.203126	0.200661	0.202962	0.172556	0.202469	0.201647	0.204113
1927	0.201319	0.202305	0.19721	0.174857	0.200661	0.197867	0.196717
1928	0.200004	0.200332	0.200825	0.173542	0.20099	0.199018	0.201647
1929	0.199182	0.201647	0.202962	0.171899	0.20099	0.200004	0.200168
1930	0.20099	0.199018	0.200497	0.176994	0.201154	0.197703	0.201812
1931	0.19721	0.201812	0.200004	0.175679	0.197374	0.195895	0.199346
1932	0.198524	0.200004	0.201976	0.177815	0.196881	0.19836	0.200661
1933	0.197703	0.199675	0.203126	0.175843	0.196223	0.199346	0.20477
1934	0.199675	0.200004	0.197538	0.178637	0.200497	0.200661	0.202305
1935	0.197867	0.201647	0.201319	0.178802	0.196552	0.199675	0.200825
1936	0.201976	0.199182	0.20099	0.177158	0.198853	0.199511	0.202305
1937	0.203948	0.203948	0.205756	0.179623	0.200497	0.201812	0.205592
1938	0.202962	0.204441	0.197045	0.182582	0.198031	0.199346	0.195566
1939	0.201154	0.197867	0.200497	0.17913	0.200004	0.20099	0.198689
1940	0.201812	0.201154	0.19573	0.179952	0.201319	0.199511	0.198031
1941	0.201647	0.198853	0.199182	0.185705	0.199675	0.199675	0.199346
1942	0.201154	0.200332	0.193922	0.182746	0.199346	0.200497	0.196717
1943	0.200661	0.203784	0.200661	0.186033	0.197867	0.20362	0.20214
1944	0.20099	0.202305	0.201647	0.186526	0.196223	0.199018	0.200661
1945	0.199839	0.201812	0.199346	0.187019	0.201483	0.199182	0.200661
1946	0.197867	0.203126	0.198524	0.186033	0.198196	0.196388	0.200168
1947	0.200332	0.201976	0.203126	0.187677	0.200497	0.198031	0.201483
1948	0.199346	0.203291	0.206085	0.185869	0.200332	0.198031	0.206742
1949	0.198196	0.204113	0.199839	0.188334	0.200168	0.196717	0.197538
1950	0.199675	0.200661	0.200004	0.186855	0.197867	0.201319	0.203291
1951	0.198524	0.200004	0.199675	0.188006	0.20099	0.197867	0.19721
1952	0.200825	0.200168	0.20099	0.18932	0.198031	0.199511	0.201647
1953	0.199018	0.200825	0.19836	0.188006	0.198524	0.199346	0.198524
1954	0.199346	0.201483	0.199346	0.191128	0.199018	0.200332	0.200332
1955	0.201812	0.199511	0.202469	0.188334	0.199346	0.196388	0.200332
1956	0.19836	0.196059	0.197538	0.192772	0.194087	0.201154	0.199018
1957	0.202305	0.198031	0.197045	0.192115	0.196059	0.200497	0.196552
1958	0.202962	0.200661	0.198524	0.192608	0.198031	0.199839	0.19721
1959	0.202962	0.19836	0.202962	0.191293	0.195073	0.200332	0.203126
1960	0.202305	0.202633	0.195566	0.19573	0.199511	0.198524	0.195073
1961	0.200168	0.199182	0.199018	0.190964	0.199182	0.199018	0.197538
1962	0.20099	0.20099	0.198524	0.195073	0.202633	0.199346	0.204606
1963	0.20099	0.199675	0.199675	0.196223	0.199346	0.199018	0.203126
1964	0.198689	0.199182	0.199511	0.196059	0.200004	0.19836	0.201154
1965	0.198524	0.201812	0.199018	0.192115	0.198196	0.199346	0.203784
1966	0.196552	0.201647	0.201976	0.196717	0.198853	0.199839	0.201154
1967	0.196717	0.201647	0.20214	0.191457	0.198853	0.201483	0.202469
1968	0.198853	0.200004	0.201483	0.190964	0.199511	0.19836	0.201812
1969	0.198853	0.20362	0.199182	0.193922	0.197703	0.204441	0.199182
1970	0.200825	0.200825	0.206578	0.192115	0.202469	0.198524	0.202962
1971	0.200004	0.205263	0.199182	0.198524	0.200168	0.196717	0.196881
1972	0.20214	0.200661	0.199675	0.196223	0.19721	0.197703	0.19836
1973	0.19836	0.201319	0.200004	0.19458	0.203948	0.195895	0.198853
1974	0.203784	0.19836	0.20099	0.19573	0.199018	0.198031	0.198031
1975	0.203455	0.201319	0.200825	0.196552	0.200497	0.200497	0.197703
1976	0.19836	0.201812	0.199675	0.195237	0.199182	0.199675	0.200004
1977	0.200825	0.201319	0.201483	0.196881	0.201812	0.201812	0.203126
1978	0.20099	0.201647	0.202469	0.197045	0.200004	0.201812	0.201483
1979	0.197045	0.201483	0.202633	0.19721	0.199182	0.201647	0.198524
1980	0.199182	0.202962	0.20099	0.197538	0.200168	0.203948	0.198853
1981	0.200332	0.200661	0.205099	0.197703	0.200168	0.201319	0.205756
1982	0.199675	0.206742	0.199182	0.194744	0.199675	0.200825	0.201976
1983	0.199675	0.200661	0.199182	0.196059	0.197703	0.198689	0.197703
1984	0.197374	0.202305	0.198853	0.193429	0.197867	0.20099	0.199675
1985	0.201154	0.198689	0.200332	0.196717	0.198196	0.199018	0.199182
1986	0.197045	0.206414	0.199182	0.193758	0.198524	0.200497	0.199182
1987	0.202633	0.201319	0.200332	0.192608	0.199018	0.199839	0.200661
1988	0.201483	0.203126	0.200825	0.193758	0.200004	0.199839	0.201647
1989	0.201976	0.198689	0.20099	0.194087	0.197867	0.198031	0.19836
1990	0.201319	0.202633	0.195895	0.196881	0.198853	0.201812	0.198524
1991	0.202469	0.200497	0.196223	0.197045	0.198689	0.199018	0.198031
1992	0.204113	0.19836	0.202798	0.197867	0.199346	0.201483	0.203126
1993	0.201976	0.204606	0.196388	0.198196	0.196881	0.199511	0.195566
1994	0.201483	0.198689	0.199018	0.196717	0.201483	0.202633	0.197703
1995	0.200332	0.199018	0.199182	0.196388	0.19836	0.198853	0.202962
1996	0.197374	0.199018	0.198853	0.197538	0.199511	0.207071	0.198689
1997	0.19573	0.20099	0.199511	0.196388	0.199018	0.203291	0.200825
1998	0.198853	0.199675	0.198689	0.195895	0.200497	0.199346	0.201976
1999	0.19836	0.202962	0.201483	0.19836	0.201154	0.202962	0.198524
2000	0.19721	0.203126	0.203126	0.19836	0.200004	0.20099	0.203455
2001	0.193594	0.202469	0.200168	0.196059	0.196223	0.201483	0.204441
2002	0.201812	0.202962	0.199346	0.197538	0.199675	0.201812	0.202305
2003	0.200004	0.200332	0.198524	0.198524	0.199675	0.201647	0.203291
2004	0.200825	0.201319	0.198689	0.198524	0.200004	0.198853	0.196717
2005	0.201976	0.196717	0.200497	0.200004	0.200332	0.201812	0.199182
2006	0.200825	0.198689	0.200168	0.197374	0.197867	0.201647	0.196552
2007	0.197867	0.196717	0.196717	0.197867	0.19836	0.199839	0.196223
2008	0.201319	0.199182	0.195073	0.196717	0.195237	0.200004	0.19573
2009	0.200825	0.198689	0.199675	0.199182	0.194087	0.199675	0.201483
2010	0.201154	0.203948	0.199675	0.198524	0.195895	0.200825	0.200168
2011	0.201976	0.202305	0.195566	0.200825	0.196388	0.199346	0.197045
2012	0.198689	0.204113	0.198196	0.19836	0.194744	0.200661	0.201812
2013	0.203948	0.201483	0.199182	0.199346	0.202469	0.199346	0.199182
2014	0.199018	0.201319	0.199018	0.197867	0.199511	0.202633	0.205263
2015	0.200332	0.205263	0.196881	0.20099	0.201319	0.199511	0.196881
2016	0.200661	0.202469	0.197867	0.197867	0.20099	0.200661	0.200497
2017	0.201812	0.199018	0.201647	0.196552	0.200004	0.199511	0.199182
2018	0.198853	0.204441	0.201319	0.199182	0.199511	0.199675	0.202305
2019	0.19836	0.199839	0.197374	0.196059	0.201976	0.200497	0.198524
2020	0.199346	0.199018	0.207235	0.196059	0.200168	0.200825	0.201976
2021	0.199018	0.200497	0.201647	0.200168	0.20099	0.198689	0.20214
2022	0.200332	0.202633	0.201319	0.200332	0.197867	0.196552	0.200004
2023	0.200168	0.201976	0.201647	0.199182	0.198031	0.197374	0.198853
2024	0.201319	0.198196	0.200497	0.197703	0.201154	0.199346	0.199018
2025	0.202962	0.200332	0.200168	0.199346	0.198853	0.197045	0.203784
2026	0.202962	0.201154	0.19836	0.201154	0.199346	0.196717	0.19721
2027	0.200661	0.201812	0.19836	0.199018	0.198853	0.201154	0.201647
2028	0.201154	0.199346	0.200825	0.203784	0.198524	0.198196	0.199675
2029	0.19721	0.202633	0.202305	0.19573	0.200004	0.200825	0.201154
2030	0.201154	0.201812	0.199182	0.197703	0.200825	0.200332	0.19836
2031	0.196881	0.200004	0.202633	0.199675	0.201319	0.199346	0.198689
2032	0.19836	0.201812	0.202305	0.197703	0.200168	0.199675	0.200825
2033	0.199346	0.203948	0.198524	0.198031	0.200661	0.20099	0.200168
2034	0.201154	0.202962	0.199182	0.195566	0.198689	0.198031	0.199511
2035	0.19836	0.198689	0.20099	0.197374	0.200004	0.198031	0.20214
2036	0.199346	0.204934	0.200661	0.197374	0.203126	0.19721	0.202798
2037	0.198196	0.204606	0.199839	0.192608	0.199675	0.200661	0.198689
2038	0.199182	0.202469	0.197867	0.193922	0.198853	0.198853	0.20214
2039	0.200332	0.198853	0.199675	0.201319	0.201319	0.198031	0.199018
2040	0.200004	0.201319	0.201483	0.192936	0.19573	0.198689	0.200332
2041	0.199675	0.199346	0.203126	0.196552	0.196552	0.199018	0.198031
2042	0.198524	0.201976	0.200168	0.20099	0.196552	0.199675	0.199018
2043	0.199511	0.198853	0.201976	0.200004	0.199018	0.196881	0.198689
2044	0.198524	0.202633	0.197374	0.19836	0.197703	0.199675	0.199675
2045	0.199346	0.199839	0.200004	0.197374	0.195237	0.197703	0.197867
2046	0.197374	0.199839	0.200004	0.20362	0.200332	0.200497	0.198524
2047	0.200661	0.201154	0.198524	0.200497	0.201319	0.199018	0.201154
2048	0.197703	0.204934	0.200168	0.201812	0.199839	0.20214	0.198196
2049	0.199182	0.199346	0.199839	0.199018	0.199675	0.201483	0.199182
2050	0.200497	0.201647	0.199675	0.201319	0.200497	0.200825	0.197867
2051	0.198689	0.20099	0.198031	0.192608	0.197867	0.200332	0.196223
2052	0.196059	0.200332	0.202798	0.19836	0.200332	0.203455	0.200332
2053	0.199182	0.201976	0.199511	0.199018	0.199346	0.200825	0.200004
2054	0.199839	0.198853	0.202962	0.199346	0.200168	0.199839	0.200497
2055	0.199675	0.200332	0.199839	0.196552	0.195895	0.196552	0.202633
2056	0.199346	0.198196	0.201483	0.201319	0.194416	0.199511	0.198196
2057	0.198689	0.199839	0.203291	0.199511	0.199346	0.202633	0.200497
2058	0.202469	0.199182	0.202469	0.198196	0.199346	0.199839	0.199675
2059	0.200168	0.202305	0.198031	0.199346	0.197703	0.199346	0.201976
2060	0.200661	0.198524	0.201319	0.199346	0.195073	0.199346	0.19836
2061	0.200332	0.201483	0.199018	0.199346	0.200004	0.20099	0.197374
2062	0.203126	0.201812	0.197045	0.191786	0.197374	0.197867	0.19721
2063	0.19721	0.201812	0.200168	0.198031	0.197867	0.198689	0.200497
2064	0.200332	0.201483	0.198031	0.196717	0.199511	0.199182	0.198196
2065	0.200497	0.202633	0.199346	0.198689	0.198524	0.200497	0.197538
2066	0.200497	0.203784	0.196059	0.197867	0.198689	0.197045	0.19721
2067	0.203948	0.201319	0.199511	0.199346	0.200661	0.202798	0.200332
2068	0.201483	0.201319	0.199675	0.197703	0.201483	0.200004	0.201812
2069	0.200168	0.200168	0.20214	0.199182	0.201154	0.20362	0.202962
2070	0.201154	0.203455	0.203126	0.198853	0.199839	0.200661	0.200497
2071	0.199511	0.198524	0.201976	0.200168	0.201647	0.201483	0.200661
2072	0.200004	0.20214	0.200332	0.200168	0.199675	0.198031	0.201483
2073	0.205592	0.201647	0.200332	0.195073	0.19836	0.19573	0.199675
2074	0.197703	0.202305	0.200168	0.197045	0.197374	0.197374	0.201976
2075	0.200825	0.201976	0.201154	0.198853	0.199675	0.195073	0.200004
2076	0.197867	0.200332	0.199018	0.200825	0.19721	0.198689	0.201976
2077	0.200661	0.20214	0.198689	0.199511	0.197867	0.194087	0.201483
2078	0.199346	0.201647	0.20099	0.199346	0.197538	0.199675	0.201154
2079	0.198853	0.199839	0.200825	0.199839	0.200497	0.200332	0.199018
2080	0.205263	0.200497	0.202633	0.199511	0.200004	0.199018	0.202305
2081	0.20214	0.202469	0.198031	0.199182	0.20099	0.198196	0.195566
2082	0.201154	0.200661	0.200168	0.201319	0.200825	0.202633	0.201154
2083	0.201976	0.198031	0.197703	0.199182	0.202305	0.199511	0.200004
2084	0.203948	0.202962	0.198689	0.191621	0.200825	0.203126	0.198524
2085	0.199018	0.201483	0.197703	0.197538	0.19721	0.200332	0.202305
2086	0.196059	0.197867	0.201647	0.20099	0.201812	0.199839	0.199346
2087	0.19836	0.204606	0.201319	0.197374	0.201483	0.201976	0.201483
2088	0.201483	0.20214	0.200825	0.194744	0.199346	0.200168	0.201976
2089	0.19721	0.199018	0.202633	0.19836	0.199018	0.201812	0.201647
2090	0.199018	0.201483	0.200825	0.199675	0.199839	0.200825	0.200004
2091	0.201647	0.202305	0.203784	0.19458	0.198689	0.200332	0.20099
2092	0.201647	0.20099	0.199018	0.199018	0.201812	0.200332	0.197045
2093	0.199182	0.199346	0.200661	0.199346	0.199182	0.200168	0.199511
2094	0.199018	0.198524	0.199018	0.196223	0.197538	0.197374	0.198689
2095	0.201812	0.201154	0.199675	0.192279	0.197703	0.200004	0.200825
2096	0.199839	0.202962	0.199675	0.200825	0.196881	0.197703	0.198031
2097	0.200004	0.201812	0.199346	0.198196	0.199511	0.199346	0.200661
2098	0.203455	0.200661	0.199675	0.197867	0.199182	0.199346	0.19836
2099	0.20362	0.20099	0.199675	0.203455	0.197867	0.199182	0.200332
2100	0.20099	0.202633	0.200004	0.199346	0.199675	0.201154	0.196059
2101	0.198689	0.201154	0.200168	0.201483	0.20099	0.200661	0.19458
2102	0.20099	0.199675	0.201483	0.197045	0.198853	0.202305	0.200825
2103	0.201812	0.201483	0.201154	0.201319	0.201647	0.199675	0.198524
2104	0.198689	0.199839	0.201812	0.200661	0.200332	0.206249	0.198524
2105	0.199839	0.198689	0.201319	0.200661	0.199182	0.199675	0.198853
2106	0.201319	0.199675	0.201976	0.196059	0.19721	0.200825	0.202798
2107	0.199839	0.199018	0.202305	0.200004	0.197538	0.197045	0.198689
2108	0.198196	0.20099	0.202469	0.200825	0.196717	0.19721	0.198524
2109	0.200497	0.199018	0.201647	0.198689	0.199675	0.197867	0.199839
2110	0.199511	0.199346	0.204934	0.199346	0.195237	0.197045	0.200332
2111	0.199839	0.197867	0.200825	0.199675	0.195237	0.198689	0.197867
2112	0.198524	0.201483	0.199675	0.199511	0.201154	0.199511	0.19721
2113	0.201483	0.201647	0.199839	0.199675	0.19836	0.200332	0.198031
2114	0.200825	0.202305	0.199346	0.202798	0.200497	0.200332	0.200332
2115	0.201647	0.198524	0.201154	0.199511	0.198196	0.199675	0.199675
2116	0.199346	0.198853	0.200004	0.202962	0.201319	0.199675	0.200004
2117	0.201976	0.200497	0.200497	0.196223	0.199346	0.200004	0.198196
2118	0.199182	0.199675	0.200332	0.200168	0.201319	0.200004	0.19836
2119	0.200661	0.199675	0.20099	0.199675	0.198524	0.199346	0.19836
2120	0.199675	0.201647	0.205592	0.200168	0.20099	0.199018	0.199839
2121	0.200661	0.202469	0.199511	0.198853	0.198689	0.199675	0.200004
2122	0.201154	0.201483	0.20099	0.202305	0.195237	0.199839	0.199675
2123	0.198853	0.20362	0.199675	0.201647	0.200661	0.199018	0.201483
2124	0.201812	0.201483	0.203291	0.199511	0.196388	0.196717	0.199018
2125	0.200825	0.203126	0.201483	0.201319	0.198689	0.200004	0.201812
2126	0.201483	0.200661	0.198031	0.200497	0.198524	0.20099	0.200168
2127	0.195895	0.200497	0.201812	0.199675	0.198031	0.200004	0.201812
2128	0.201483	0.202633	0.20099	0.197045	0.195237	0.19836	0.200168
2129	0.198524	0.199675	0.201812	0.20099	0.197867	0.199511	0.200497
2130	0.200497	0.201483	0.200661	0.197538	0.196223	0.196552	0.198524
2131	0.195402	0.199511	0.201154	0.201812	0.199511	0.197703	0.199511
2132	0.1908	0.20099	0.202962	0.199018	0.197538	0.199839	0.202305
2133	0.187513	0.200168	0.201812	0.201483	0.198853	0.199346	0.200004
2134	0.183897	0.201319	0.200332	0.198853	0.200497	0.202962	0.199839
2135	0.184061	0.199839	0.201812	0.199839	0.201483	0.200168	0.199346
2136	0.174528	0.198196	0.201483	0.199675	0.19836	0.194744	0.200168
2137	0.17535	0.19836	0.201483	0.200332	0.202469	0.198689	0.199511
2138	0.171241	0.203455	0.202469	0.199018	0.200168	0.199346	0.201976
2139	0.169598	0.198524	0.20099	0.202798	0.199346	0.19721	0.196223
2140	0.16401	0.202633	0.20099	0.196717	0.198524	0.200661	0.202469
2141	0.165817	0.198196	0.202633	0.19836	0.198031	0.198524	0.20099
2142	0.160722	0.20099	0.202633	0.200004	0.198196	0.201812	0.205592
2143	0.157928	0.201812	0.202469	0.200168	0.199182	0.198524	0.199839
2144	0.154806	0.199675	0.202469	0.200661	0.197538	0.198196	0.201976
2145	0.153819	0.200497	0.201976	0.19836	0.198524	0.199839	0.201319
2146	0.153984	0.201319	0.201647	0.196223	0.197867	0.200004	0.198031
2147	0.152505	0.20362	0.201154	0.195073	0.199018	0.199018	0.19836
2148	0.151847	0.196881	0.201647	0.200661	0.200168	0.199346	0.200004
2149	0.145437	0.198689	0.199182	0.201647	0.198853	0.200497	0.198031
2150	0.145602	0.198689	0.201483	0.205592	0.197703	0.19836	0.199675
2151	0.146095	0.199511	0.200825	0.201319	0.197538	0.202798	0.200497
2152	0.148396	0.198524	0.20214	0.200661	0.197867	0.199675	0.197374
2153	0.148067	0.200825	0.201319	0.201319	0.201812	0.199018	0.20099
2154	0.148396	0.200825	0.201154	0.201812	0.201319	0.199018	0.199511
2155	0.148396	0.201812	0.203784	0.201812	0.197867	0.195402	0.201319
2156	0.146752	0.200332	0.202962	0.202962	0.199839	0.196388	0.198689
2157	0.150697	0.199511	0.204113	0.196223	0.199182	0.201976	0.206085
2158	0.153326	0.200004	0.199675	0.199675	0.198196	0.199675	0.19836
2159	0.153819	0.201319	0.20099	0.201154	0.200168	0.201812	0.200168
2160	0.156778	0.198689	0.199675	0.199182	0.198853	0.201319	0.199182
2161	0.156942	0.196881	0.202305	0.206578	0.19836	0.199346	0.197538
2162	0.158257	0.198689	0.199839	0.196059	0.19836	0.198031	0.198524
2163	0.16138	0.198524	0.200332	0.203126	0.199018	0.201154	0.195895
2164	0.162202	0.199018	0.200661	0.199675	0.194744	0.199346	0.198853
2165	0.165817	0.200661	0.199839	0.199675	0.203126	0.197867	0.199511
2166	0.165489	0.201154	0.201319	0.201976	0.197538	0.201319	0.199182
2167	0.169762	0.199018	0.203455	0.201483	0.200825	0.200004	0.199182
2168	0.168283	0.201976	0.203455	0.199346	0.200168	0.201647	0.202633
2169	0.171406	0.200332	0.199182	0.201319	0.200332	0.200497	0.194909
2170	0.170584	0.200004	0.203126	0.201976	0.200497	0.201154	0.201154
2171	0.174528	0.202798	0.199346	0.200332	0.201483	0.199346	0.199018
2172	0.171406	0.203126	0.202305	0.208057	0.196059	0.200004	0.201154
2173	0.173707	0.201812	0.198689	0.200004	0.200004	0.197374	0.200332
2174	0.176501	0.202305	0.203126	0.201812	0.200497	0.20099	0.198689
2175	0.174693	0.201483	0.20362	0.199182	0.198689	0.201154	0.202633
2176	0.176172	0.202798	0.201319	0.200004	0.200825	0.197374	0.198689
2177	0.180445	0.202469	0.201154	0.199346	0.199839	0.20099	0.202305
2178	0.176829	0.201319	0.202962	0.200661	0.19836	0.199675	0.199839
2179	0.179788	0.200168	0.203126	0.197045	0.195237	0.201812	0.202469
2180	0.183075	0.200825	0.201319	0.200661	0.200825	0.200497	0.198689
2181	0.177487	0.200332	0.201154	0.20099	0.196881	0.201483	0.200661
2182	0.185376	0.199839	0.20099	0.199511	0.200661	0.200497	0.198524
2183	0.183239	0.20099	0.200497	0.205427	0.199675	0.199675	0.199346
2184	0.185212	0.196552	0.20214	0.195895	0.199346	0.200004	0.199182
2185	0.184061	0.200825	0.200661	0.196717	0.201812	0.201483	0.198689
2186	0.185212	0.199182	0.202962	0.201319	0.199839	0.200661	0.197867
2187	0.186198	0.196552	0.201976	0.200825	0.200661	0.202798	0.201319
2188	0.187348	0.199346	0.199511	0.196223	0.199511	0.200661	0.20099
2189	0.18554	0.200332	0.209043	0.204277	0.201154	0.201812	0.199346
2190	0.189156	0.199839	0.204113	0.19721	0.199675	0.201976	0.203291
2191	0.187841	0.201483	0.201647	0.201647	0.203784	0.200332	0.199346
2192	0.188663	0.200332	0.20362	0.201154	0.198689	0.202798	0.200497
2193	0.18817	0.201483	0.203126	0.20099	0.199346	0.200661	0.197374
2194	0.18932	0.199675	0.200332	0.201647	0.19721	0.201319	0.201154
2195	0.189978	0.200825	0.201812	0.199675	0.200497	0.200004	0.201812
2196	0.188006	0.200661	0.200168	0.198853	0.199182	0.201154	0.19721
2197	0.18932	0.199346	0.205921	0.198031	0.200168	0.199675	0.199675
2198	0.188663	0.196223	0.20099	0.20362	0.200332	0.199346	0.200497
2199	0.192936	0.19836	0.200825	0.201812	0.200004	0.201483	0.199839
2200	0.190471	0.201647	0.202633	0.200825	0.198196	0.201154	0.201154
2201	0.195073	0.198031	0.200332	0.200825	0.20099	0.200825	0.200004
2202	0.194909	0.200332	0.201154	0.199511	0.201812	0.199182	0.199839
2203	0.196552	0.199018	0.201319	0.201483	0.198524	0.197374	0.198689
2204	0.190635	0.19836	0.203126	0.202469	0.200825	0.200004	0.198853
2205	0.198196	0.198853	0.199511	0.203291	0.201154	0.199839	0.198031
2206	0.193265	0.200661	0.20099	0.201319	0.199346	0.201319	0.193101
2207	0.192443	0.200004	0.199839	0.197374	0.198524	0.199018	0.195895
2208	0.193758	0.197538	0.205592	0.201647	0.197045	0.199182	0.200661
2209	0.195402	0.201154	0.203784	0.197867	0.19721	0.197538	0.199018
2210	0.195402	0.202305	0.201154	0.200332	0.198689	0.201319	0.196881
2211	0.194087	0.200497	0.19836	0.201154	0.198853	0.200497	0.198031
2212	0.195402	0.200332	0.202469	0.19573	0.199511	0.199346	0.200332
2213	0.195402	0.203291	0.199182	0.200497	0.199018	0.201647	0.200825
2214	0.197374	0.197374	0.200661	0.202305	0.203784	0.201319	0.198689
2215	0.194909	0.203948	0.201647	0.197538	0.199675	0.20099	0.201812
2216	0.19836	0.200168	0.199346	0.202962	0.199018	0.200497	0.19721
2217	0.195402	0.200168	0.202469	0.199675	0.199346	0.198689	0.202798
2218	0.197045	0.199839	0.201483	0.199182	0.200168	0.200168	0.19836
2219	0.198689	0.200332	0.203948	0.200004	0.200332	0.201483	0.201812
2220	0.197867	0.202633	0.201976	0.199182	0.198196	0.197045	0.199675
2221	0.196552	0.202305	0.201976	0.20099	0.200497	0.197703	0.200168
2222	0.19721	0.200661	0.204113	0.20214	0.198853	0.199182	0.199675
2223	0.199018	0.200497	0.201154	0.199182	0.202962	0.198524	0.199675
2224	0.198853	0.201812	0.201976	0.20099	0.202305	0.199346	0.199346
2225	0.198853	0.200497	0.203948	0.202305	0.20477	0.200168	0.200332
2226	0.196717	0.20099	0.200661	0.200661	0.200332	0.198853	0.19573
2227	0.199018	0.199675	0.20362	0.201812	0.20477	0.199675	0.204934
2228	0.197703	0.201319	0.202798	0.198853	0.199675	0.202633	0.20362
2229	0.196717	0.199511	0.198031	0.199839	0.200168	0.200332	0.199346
2230	0.196552	0.200332	0.203948	0.199675	0.201483	0.201647	0.204113
2231	0.196717	0.201154	0.201319	0.200332	0.199675	0.201154	0.200497
2232	0.1908	0.200825	0.201154	0.199182	0.199018	0.201812	0.20099
2233	0.195073	0.201483	0.200332	0.198853	0.201319	0.202305	0.199839
2234	0.195237	0.200168	0.208715	0.196881	0.200168	0.199018	0.201319
2235	0.197703	0.20099	0.200825	0.197538	0.204277	0.199018	0.199511
2236	0.196059	0.198853	0.20099	0.201647	0.199018	0.200004	0.199839
2237	0.200004	0.201483	0.20214	0.195895	0.199675	0.196717	0.200004
2238	0.198689	0.196059	0.201483	0.200004	0.200168	0.200004	0.201647
2239	0.19836	0.199839	0.199839	0.19836	0.198853	0.199675	0.199018
2240	0.199346	0.197867	0.199839	0.201647	0.201483	0.199346	0.197374
2241	0.199018	0.197374	0.199675	0.200825	0.196223	0.20214	0.200004
2242	0.198524	0.201483	0.199675	0.202633	0.199675	0.200661	0.196881
2243	0.199675	0.199346	0.199346	0.198524	0.200004	0.201647	0.200004
2244	0.200825	0.199018	0.199346	0.200332	0.202469	0.200497	0.198689
2245	0.20362	0.201483	0.202305	0.203784	0.200332	0.20362	0.200332
2246	0.201319	0.199839	0.200497	0.202305	0.201812	0.199675	0.196552
2247	0.19721	0.200332	0.202305	0.201319	0.201647	0.204934	0.203126
2248	0.200661	0.194087	0.199018	0.204113	0.201976	0.200332	0.199675
2249	0.199018	0.201976	0.202305	0.201319	0.200168	0.203455	0.200825
2250	0.198031	0.201483	0.199182	0.198031	0.201483	0.202305	0.201483
2251	0.195566	0.200168	0.199839	0.200497	0.200661	0.200332	0.199346
2252	0.198196	0.197538	0.201647	0.199018	0.198689	0.199675	0.201154
2253	0.199182	0.201154	0.202305	0.199675	0.200497	0.200497	0.201976
2254	0.198853	0.201319	0.201976	0.199346	0.198689	0.201483	0.200332
2255	0.200497	0.198031	0.199675	0.200661	0.199346	0.199182	0.200825
2256	0.200168	0.196881	0.202962	0.20099	0.19836	0.199675	0.200168
2257	0.200004	0.200332	0.20099	0.201647	0.200004	0.200497	0.198524
2258	0.19836	0.199346	0.196717	0.201154	0.198853	0.200332	0.195073
2259	0.200825	0.19836	0.196881	0.199839	0.200004	0.200497	0.195073
2260	0.203455	0.200004	0.198031	0.202305	0.197538	0.201154	0.200004
2261	0.198689	0.199675	0.197867	0.200004	0.200332	0.201647	0.191786
2262	0.197374	0.201483	0.195895	0.197867	0.200332	0.202798	0.197045
2263	0.202469	0.199018	0.197867	0.201154	0.202305	0.20099	0.199346
2264	0.198853	0.201976	0.208386	0.199346	0.20099	0.201319	0.200168
2265	0.199511	0.201154	0.203291	0.199182	0.20099	0.202305	0.199018
2266	0.198689	0.201319	0.204441	0.20099	0.198689	0.201483	0.202305
2267	0.200825	0.202305	0.202962	0.201154	0.201319	0.200332	0.202469
2268	0.198689	0.203291	0.201154	0.200004	0.20099	0.200661	0.20099
2269	0.199675	0.200168	0.199346	0.198031	0.199511	0.200661	0.201154
2270	0.200497	0.200004	0.201319	0.199018	0.20214	0.199511	0.199675
2271	0.201319	0.19721	0.200661	0.20214	0.198196	0.198031	0.199675
2272	0.198524	0.199346	0.200661	0.198196	0.200661	0.19836	0.199675
2273	0.201483	0.201319	0.19721	0.198689	0.201319	0.201976	0.198689
2274	0.20362	0.197703	0.200332	0.20099	0.202469	0.199346	0.199018
2275	0.202305	0.202469	0.198689	0.200004	0.200661	0.198853	0.203784
2276	0.202633	0.199018	0.199839	0.202469	0.201319	0.200168	0.196881
2277	0.199018	0.200168	0.199675	0.201976	0.206085	0.202962	0.196881
2278	0.203948	0.201154	0.197045	0.201976	0.20362	0.201319	0.198853
2279	0.199346	0.202798	0.200497	0.200497	0.202305	0.203455	0.197374
2280	0.199675	0.200004	0.198689	0.201319	0.202798	0.201812	0.19836
2281	0.200332	0.201647	0.200004	0.200661	0.203455	0.202469	0.199018
2282	0.202305	0.201319	0.201483	0.199182	0.199839	0.20362	0.200168
2283	0.198853	0.201812	0.200825	0.199511	0.201976	0.200825	0.200332
2284	0.19836	0.200661	0.194087	0.198524	0.199346	0.201647	0.198853
2285	0.199018	0.198689	0.201647	0.198031	0.201812	0.200004	0.201812
2286	0.197703	0.206414	0.200825	0.196388	0.198853	0.202469	0.202962
2287	0.197867	0.20477	0.200497	0.196717	0.199346	0.198196	0.199675
2288	0.19836	0.204606	0.200332	0.196388	0.199675	0.197374	0.202798
2289	0.202962	0.200661	0.201319	0.197374	0.20099	0.199839	0.201319
2290	0.198689	0.203948	0.197045	0.198524	0.197867	0.201319	0.199182
2291	0.200332	0.197703	0.198524	0.200661	0.200497	0.199346	0.197867
2292	0.204606	0.199839	0.198689	0.200168	0.203291	0.202633	0.197867
2293	0.204277	0.198853	0.196552	0.203455	0.200825	0.200825	0.198031
2294	0.196881	0.201647	0.198031	0.197045	0.200332	0.202633	0.199839
2295	0.201154	0.198524	0.196059	0.200661	0.201812	0.199675	0.197374
2296	0.199675	0.199182	0.201319	0.199346	0.201483	0.202305	0.200332
2297	0.200004	0.201812	0.199346	0.200168	0.20099	0.200661	0.199839
2298	0.196717	0.201976	0.197867	0.201812	0.201154	0.203455	0.199675
2299	0.19836	0.204934	0.198031	0.198196	0.200168	0.200825	0.202633
2300	0.19836	0.204113	0.201976	0.198853	0.201647	0.202469	0.203455
2301	0.19836	0.205427	0.198031	0.199346	0.199511	0.202305	0.200004
2302	0.198031	0.200497	0.200825	0.200332	0.201154	0.20099	0.200497
2303	0.199018	0.201812	0.197867	0.197538	0.199839	0.19836	0.200825
2304	0.200004	0.198853	0.201976	0.201812	0.199182	0.196059	0.199182
2305	0.199018	0.202469	0.199182	0.19836	0.198524	0.200332	0.199839
2306	0.200825	0.19836	0.196223	0.200004	0.198031	0.198031	0.197867
2307	0.200497	0.196552	0.199675	0.198853	0.198031	0.200168	0.204113
2308	0.201154	0.197538	0.198524	0.20099	0.200497	0.199511	0.199511
2309	0.20099	0.201483	0.198689	0.203291	0.198689	0.204277	0.202633
2310	0.202633	0.19836	0.19836	0.205099	0.201483	0.200661	0.198031
2311	0.200168	0.19836	0.198689	0.205756	0.201319	0.200497	0.19836
2312	0.202633	0.201976	0.194744	0.200661	0.204606	0.202305	0.197538
2313	0.201154	0.198853	0.194909	0.203126	0.201647	0.201154	0.199346
2314	0.203455	0.201483	0.192936	0.201319	0.20477	0.200004	0.199346
2315	0.196717	0.201319	0.196552	0.201976	0.201483	0.201812	0.196388
2316	0.20099	0.201154	0.197045	0.200004	0.199182	0.199675	0.203291
2317	0.19836	0.202305	0.196881	0.200825	0.200168	0.200004	0.201154
2318	0.200825	0.201812	0.199018	0.19836	0.199511	0.201483	0.201647
2319	0.199511	0.200168	0.199675	0.198524	0.20099	0.197045	0.202798
2320	0.199018	0.200825	0.201154	0.197867	0.199346	0.200825	0.201483
2321	0.199839	0.199675	0.199346	0.203291	0.20099	0.199839	0.200168
2322	0.200497	0.200825	0.20099	0.199675	0.199511	0.199839	0.20099
2323	0.198031	0.199675	0.196552	0.198196	0.204113	0.196717	0.19836
2324	0.196717	0.200661	0.199346	0.200661	0.19836	0.20214	0.198853
2325	0.202469	0.199346	0.197867	0.199839	0.199839	0.199346	0.19721
2326	0.199346	0.201154	0.196881	0.201812	0.200497	0.201483	0.197374
2327	0.20099	0.199839	0.198031	0.200004	0.200825	0.198853	0.19836
2328	0.200332	0.19721	0.197703	0.200168	0.201976	0.205427	0.202633
2329	0.201154	0.199675	0.197374	0.203126	0.200497	0.199511	0.20099
2330	0.200661	0.202633	0.200168	0.201647	0.20099	0.201976	0.201976
2331	0.20214	0.202633	0.196388	0.20099	0.199675	0.20214	0.200825
2332	0.199675	0.20099	0.199182	0.203948	0.200661	0.199182	0.198689
2333	0.200004	0.200332	0.197045	0.199018	0.200168	0.197703	0.202305
2334	0.200497	0.200332	0.19721	0.201647	0.201483	0.200168	0.201319
2335	0.200332	0.201976	0.201483	0.197374	0.200168	0.201647	0.200332
2336	0.198689	0.200661	0.199182	0.201319	0.200825	0.199018	0.201812
2337	0.200168	0.200168	0.197867	0.200661	0.199675	0.203455	0.202798
2338	0.198031	0.201976	0.200661	0.192936	0.200497	0.202469	0.199018
2339	0.200004	0.200168	0.198196	0.196223	0.199675	0.20214	0.20214
2340	0.201976	0.198853	0.199839	0.197703	0.20214	0.200825	0.20099
2341	0.199346	0.201812	0.198524	0.197867	0.199346	0.201154	0.199182
2342	0.200004	0.199182	0.195566	0.197374	0.197703	0.199346	0.20214
2343	0.192443	0.200168	0.198031	0.20099	0.200497	0.204606	0.199839
2344	0.204113	0.199839	0.197538	0.202798	0.200004	0.201154	0.199839
2345	0.201976	0.200004	0.19836	0.201154	0.201812	0.20214	0.200004
2346	0.202305	0.200497	0.196388	0.203291	0.201647	0.201154	0.19836
2347	0.201812	0.200168	0.199182	0.201812	0.200004	0.200497	0.199675
2348	0.198853	0.201483	0.196881	0.200825	0.198853	0.201483	0.200332
2349	0.197374	0.201154	0.199346	0.198524	0.201483	0.201812	0.198853
2350	0.20099	0.20214	0.197045	0.197703	0.198689	0.201154	0.201483
2351	0.197867	0.20214	0.200661	0.200332	0.202962	0.201976	0.200332
2352	0.197374	0.200661	0.199182	0.199675	0.200825	0.200332	0.201812
2353	0.199675	0.203291	0.200004	0.200004	0.201483	0.197374	0.201483
2354	0.199018	0.204113	0.197867	0.200168	0.201483	0.201483	0.203948
2355	0.20099	0.199346	0.199346	0.20362	0.200497	0.199839	0.203948
2356	0.199346	0.20099	0.198689	0.199018	0.200004	0.201483	0.197867
2357	0.202633	0.196717	0.19836	0.200332	0.198196	0.20099	0.195566
2358	0.200497	0.196881	0.19836	0.200497	0.19836	0.200004	0.199018
2359	0.201154	0.197045	0.195402	0.201647	0.197538	0.198853	0.198196
2360	0.201976	0.198689	0.197867	0.201812	0.197703	0.199346	0.19836
2361	0.201483	0.197867	0.192936	0.201976	0.196717	0.199182	0.19836
2362	0.200004	0.198031	0.201647	0.200004	0.199839	0.201812	0.202633
2363	0.202962	0.201319	0.197538	0.200825	0.200497	0.197867	0.201976
2364	0.199839	0.199839	0.195073	0.202633	0.197374	0.201154	0.201319
2365	0.200004	0.202469	0.194251	0.200497	0.206414	0.201483	0.200332
2366	0.201976	0.201154	0.198031	0.202962	0.199018	0.200825	0.20099
2367	0.200004	0.202962	0.199675	0.199675	0.197374	0.201976	0.20099
2368	0.200661	0.201319	0.19836	0.202633	0.200661	0.201812	0.201154
2369	0.200168	0.20477	0.200168	0.200332	0.200004	0.200497	0.200661
2370	0.200168	0.20099	0.199346	0.200332	0.20099	0.197867	0.200004
2371	0.199839	0.20362	0.197374	0.19573	0.201154	0.201483	0.204441
2372	0.200497	0.199675	0.200004	0.196388	0.201154	0.199675	0.200332
2373	0.202305	0.201812	0.20099	0.198689	0.199018	0.202798	0.202962
2374	0.201483	0.202633	0.196717	0.199182	0.201319	0.197374	0.201483
2375	0.201976	0.200825	0.201976	0.200332	0.199675	0.20214	0.20362
2376	0.199182	0.200825	0.200004	0.200661	0.200168	0.20099	0.203291
2377	0.202469	0.20099	0.201812	0.203948	0.20099	0.202798	0.201483
2378	0.200825	0.200661	0.200004	0.199675	0.201154	0.20099	0.200004
2379	0.200497	0.200661	0.199675	0.201483	0.201647	0.201154	0.198196
2380	0.200661	0.201154	0.198524	0.200168	0.197374	0.200168	0.200661
2381	0.200661	0.199346	0.200168	0.202962	0.201647	0.199511	0.199018
2382	0.200168	0.201647	0.19836	0.197045	0.198853	0.203948	0.201319
2383	0.201154	0.200661	0.199182	0.198031	0.201154	0.201483	0.199346
2384	0.199182	0.198196	0.202633	0.197703	0.198689	0.199675	0.202962
2385	0.200497	0.201483	0.19836	0.200661	0.207564	0.200332	0.200825
2386	0.198853	0.204934	0.200004	0.197045	0.198853	0.202305	0.201976
2387	0.200825	0.199839	0.200825	0.195895	0.205756	0.200497	0.20099
2388	0.200497	0.197703	0.202469	0.204113	0.203948	0.206085	0.20214
2389	0.201812	0.200661	0.199018	0.201483	0.201647	0.202962	0.201319
2390	0.200004	0.200004	0.201483	0.199839	0.200661	0.203784	0.20099
2391	0.200332	0.199182	0.199018	0.181924	0.200168	0.202962	0.198031
2392	0.197703	0.199839	0.20099	0.107471	0.199839	0.201647	0.203291
2393	0.201812	0.201154	0.198689	0.108128	0.198689	0.200332	0.201154
2394	0.200661	0.199839	0.201319	0.115524	0.199182	0.201319	0.198524
2395	0.194416	0.199182	0.201154	0.117003	0.199018	0.200497	0.202633
2396	0.197867	0.200661	0.201483	0.122756	0.199511	0.198689	0.200168
2397	0.198524	0.201154	0.200332	0.12292	0.197374	0.202305	0.200497
2398	0.197867	0.200497	0.202305	0.129001	0.199675	0.199346	0.200825
2399	0.196881	0.201319	0.199839	0.131631	0.199346	0.20362	0.200825
2400	0.200497	0.198031	0.20099	0.133603	0.201483	0.200825	0.200004
2401	0.199675	0.200825	0.20099	0.140835	0.199839	0.202633	0.201812
2402	0.202962	0.197374	0.200004	0.143301	0.203126	0.199346	0.198524
2403	0.200332	0.200004	0.199182	0.145766	0.201812	0.198689	0.198524
2404	0.200332	0.198524	0.200168	0.144451	0.200168	0.202633	0.199018
2405	0.201483	0.199182	0.200004	0.146752	0.202305	0.202469	0.199675
2406	0.200497	0.200004	0.200497	0.149053	0.199182	0.200661	0.200332
2407	0.200661	0.196881	0.203291	0.15119	0.200332	0.201483	0.200332
2408	0.201319	0.198031	0.200825	0.150368	0.199839	0.201976	0.200168
2409	0.199018	0.19836	0.202962	0.154641	0.20099	0.200332	0.196552
2410	0.201154	0.201319	0.198524	0.154806	0.199182	0.203948	0.199511
2411	0.200825	0.199511	0.199182	0.161709	0.199182	0.201976	0.199346
2412	0.201647	0.199675	0.199346	0.159736	0.197374	0.201319	0.200004
2413	0.202798	0.201647	0.197703	0.162202	0.201976	0.200825	0.19721
2414	0.200825	0.201154	0.199182	0.162037	0.192115	0.20214	0.199511
2415	0.20214	0.199511	0.199018	0.163845	0.195895	0.195073	0.199675
2416	0.199018	0.202305	0.199018	0.166639	0.194416	0.203126	0.199839
2417	0.200825	0.200004	0.201812	0.168118	0.197867	0.200497	0.201483
2418	0.200825	0.201647	0.20099	0.167461	0.199346	0.199839	0.200497
2419	0.202798	0.201647	0.198031	0.169926	0.200004	0.20099	0.199182
2420	0.202798	0.20362	0.202962	0.170419	0.202469	0.20214	0.200168
2421	0.202798	0.200497	0.197045	0.175021	0.200004	0.200497	0.201154
2422	0.201319	0.201647	0.202469	0.175843	0.201812	0.202798	0.201319
2423	0.202798	0.201647	0.20362	0.17913	0.200004	0.198689	0.197538
2424	0.202305	0.20099	0.202469	0.176994	0.205099	0.201319	0.205427
2425	0.204113	0.201647	0.199675	0.177487	0.199018	0.200004	0.201647
2426	0.201976	0.201319	0.204934	0.178309	0.200497	0.197867	0.20099
2427	0.202469	0.201976	0.200497	0.178637	0.201812	0.19721	0.199346
2428	0.200168	0.199346	0.20362	0.181103	0.199839	0.197703	0.203948
2429	0.200825	0.202469	0.202962	0.178802	0.199346	0.200004	0.205099
2430	0.200497	0.200661	0.204277	0.179459	0.19836	0.198524	0.203126
2431	0.199346	0.202305	0.201647	0.180774	0.199182	0.198196	0.202633
2432	0.202469	0.200661	0.204606	0.182911	0.199839	0.199018	0.203126
2433	0.198853	0.199839	0.202633	0.181596	0.199511	0.201319	0.201812
2434	0.201319	0.199839	0.200168	0.182253	0.200004	0.199018	0.199018
2435	0.201812	0.201154	0.20214	0.185212	0.201319	0.201483	0.202469
2436	0.203455	0.200168	0.202469	0.184718	0.200825	0.201154	0.200004
2437	0.20099	0.200168	0.201319	0.18554	0.196881	0.20099	0.199511
2438	0.202633	0.203784	0.199346	0.185869	0.204606	0.197867	0.199346
2439	0.201319	0.197867	0.20214	0.190635	0.204277	0.209043	0.201154
2440	0.201483	0.201319	0.20099	0.189978	0.199675	0.199511	0.201647
2441	0.20362	0.19836	0.201812	0.190635	0.199346	0.203291	0.200004
2442	0.202305	0.201483	0.201647	0.187184	0.201483	0.204934	0.201154
2443	0.202962	0.20099	0.203948	0.193101	0.202305	0.199018	0.201154
2444	0.201154	0.202798	0.200661	0.190964	0.197703	0.200168	0.20099
2445	0.204113	0.200004	0.20099	0.190471	0.200825	0.200332	0.199182
2446	0.201154	0.200825	0.201483	0.189649	0.199182	0.199346	0.204277
2447	0.201319	0.202469	0.200825	0.189156	0.200004	0.200168	0.199675
2448	0.200004	0.203291	0.199675	0.193429	0.198196	0.20099	0.201647
2449	0.198689	0.198524	0.200332	0.190964	0.199675	0.199511	0.198689
2450	0.200168	0.200168	0.201154	0.191621	0.20099	0.201483	0.200497
2451	0.200332	0.198689	0.199675	0.196223	0.200004	0.199018	0.199018
2452	0.200332	0.194251	0.201154	0.196552	0.200004	0.199182	0.200497
2453	0.203291	0.198853	0.198524	0.192608	0.202305	0.204934	0.200332
2454	0.20362	0.199346	0.202305	0.195073	0.201647	0.204441	0.201154
2455	0.205427	0.202633	0.201812	0.194744	0.200004	0.203455	0.198524
2456	0.202633	0.201319	0.199018	0.196717	0.198689	0.201483	0.198196
2457	0.201976	0.199182	0.201647	0.193265	0.199839	0.202305	0.201319
2458	0.203784	0.200332	0.199182	0.19195	0.203948	0.201154	0.201319
2459	0.200004	0.200332	0.197867	0.193101	0.198031	0.200661	0.20214
2460	0.200661	0.200661	0.200497	0.195073	0.197703	0.198853	0.197703
2461	0.200168	0.200661	0.199839	0.192115	0.198196	0.20362	0.201647
2462	0.202305	0.201976	0.200825	0.196223	0.200332	0.196717	0.200332
2463	0.200332	0.203455	0.202962	0.192936	0.200497	0.200004	0.202305
2464	0.201976	0.200825	0.202633	0.192608	0.202305	0.200332	0.201154
2465	0.201812	0.201647	0.206249	0.195237	0.202798	0.201154	0.204934
2466	0.20214	0.201483	0.201483	0.197867	0.200168	0.201154	0.199346
2467	0.202962	0.201812	0.199839	0.19573	0.201154	0.201812	0.199018
2468	0.203126	0.200497	0.201812	0.19573	0.201812	0.197867	0.198196
2469	0.20214	0.197703	0.201976	0.195895	0.20099	0.198524	0.20099
2470	0.200825	0.198524	0.199182	0.196717	0.201319	0.200332	0.199675
2471	0.200004	0.19836	0.200168	0.199675	0.200332	0.197538	0.199346
2472	0.202962	0.200332	0.200661	0.193922	0.200661	0.198853	0.201976
2473	0.201154	0.201647	0.200825	0.198524	0.201812	0.199346	0.20214
2474	0.200497	0.201976	0.204934	0.197703	0.199346	0.199346	0.199182
2475	0.198853	0.201976	0.200825	0.197867	0.205756	0.197703	0.199018
2476	0.202798	0.205099	0.201647	0.198031	0.199018	0.199018	0.199675
2477	0.200497	0.200825	0.203291	0.198196	0.201483	0.200332	0.200661
2478	0.200497	0.202962	0.200497	0.196388	0.201319	0.20099	0.202798
2479	0.20099	0.200825	0.203455	0.196388	0.201154	0.200168	0.199346
2480	0.199018	0.203291	0.203948	0.19573	0.198853	0.200661	0.201647
2481	0.200661	0.202633	0.199346	0.196717	0.200168	0.197867	0.199018
2482	0.200332	0.201647	0.204606	0.196552	0.200497	0.199018	0.201154
2483	0.202633	0.19836	0.195073	0.194416	0.199675	0.198689	0.199182
2484	0.200661	0.204441	0.200168	0.195895	0.200332	0.199018	0.200168
2485	0.201154	0.201976	0.200168	0.196552	0.202962	0.200004	0.199346
2486	0.201154	0.200168	0.198689	0.195237	0.205263	0.200497	0.199839
2487	0.203126	0.198853	0.199511	0.196717	0.205263	0.198689	0.200004
2488	0.20214	0.20099	0.201812	0.196552	0.203126	0.196881	0.199346
2489	0.201483	0.202633	0.199839	0.196552	0.201154	0.203291	0.199839
2490	0.20362	0.202305	0.201647	0.197374	0.20362	0.201647	0.199018
2491	0.200497	0.201154	0.201154	0.199018	0.199346	0.20099	0.201319
2492	0.198689	0.201154	0.201647	0.199346	0.200497	0.200332	0.200332
2493	0.198196	0.201976	0.200661	0.196717	0.199839	0.201647	0.198853
2494	0.200168	0.199675	0.202305	0.198196	0.199182	0.198524	0.20099
2495	0.198524	0.20477	0.20214	0.19836	0.199511	0.200168	0.201319
2496	0.195073	0.201976	0.201483	0.198524	0.199839	0.201812	0.200825
2497	0.195237	0.200825	0.20214	0.196388	0.199511	0.200332	0.203784
2498	0.199018	0.203291	0.200825	0.202633	0.200168	0.198524	0.199675
2499	0.198524	0.20099	0.201976	0.196881	0.198853	0.201812	0.199675
