Ladekurvenmessung
Zeit: 2018_05_04 09.57.12
Info: FVA3, v = 0.533, T = 23, F = 20, h = 381.9
Ladewiderstand[Ohm]: 1012700
Störkapazität[pF]: 0.000000
Entladezeit[ms]: 200
Abtastrate[Hz]: 250000
Anzahl der Messwerte: 2500.000000
Verzögerung[ms]: 3
Ladespannung[V]: 0.200000
	Kurve_1	Kurve_2	Kurve_3	Kurve_4	Kurve_5
0	-0.001498	-0.000841	0.000639	-0.000841	-0.005443
1	0.00294	0.001296	0.005898	-0.000676	0.001625
2	0.003761	0.001296	0.001296	0.002775	-0.000512
3	0.003926	-0.001334	0.000474	-0.001827	-0.000512
4	0.004912	-0.008072	0.00031	0.000474	0.000803
5	-0.002155	-0.004456	0.000967	0.00031	-0.002484
6	-0.006429	-0.001498	-1.9e-05	0.00294	-0.000183
7	0.000967	-0.000183	-0.000512	0.003597	0.00146
8	-0.0061	-0.002813	-0.001498	0.001954	0.000146
9	-0.001662	-0.001005	0.00031	0.001789	-0.000841
10	-0.002155	0.000474	-0.001334	0.003433	0.004419
11	-0.000347	0.003597	0.001132	-1.9e-05	-0.000512
12	-0.002648	0.001625	-1.9e-05	0.000803	-1.9e-05
13	-0.000512	0.003597	0.00031	0.005241	-0.000841
14	-1.9e-05	0.000803	0.000146	0.000639	0.00146
15	0.001954	-0.00725	0.000474	-1.9e-05	-0.001005
16	-0.000512	-0.001169	0.000146	0.000146	0.001296
17	-0.000347	0.004912	0.000146	0.000639	-0.002648
18	0.000146	0.002118	0.001789	-0.002648	-0.004785
19	0.003926	0.000639	0.000803	-0.001498	-0.00347
20	-0.003306	-0.000512	-1.9e-05	-0.001334	-0.00347
21	-0.002155	0.001954	-0.000512	-0.002813	-0.002813
22	-0.001334	-0.000841	-1.9e-05	-0.00347	-0.003799
23	-0.000676	-0.000183	-1.9e-05	-0.001827	-0.001827
24	0.00409	-0.001498	0.00031	0.000639	-0.001169
25	-0.001991	0.000474	0.000146	0.002447	0.003104
26	0.003268	-0.005443	-1.9e-05	0.003761	0.00031
27	-0.003963	-0.000183	0.00031	0.00146	0.002118
28	-0.004785	-0.000347	-0.002648	0.000639	-0.000676
29	-0.00347	-0.003142	-0.000347	0.003926	0.001132
30	-0.003142	-0.000512	-0.000347	0.002775	-0.001498
31	-0.005278	-0.004785	-0.000676	0.000474	-0.001169
32	-0.001005	0.002611	-0.000676	0.002775	-0.002648
33	-1.9e-05	-0.000512	0.000146	0.000146	-0.002813
34	-0.001827	0.00031	-1.9e-05	0.001789	-0.006757
35	-0.000676	0.000474	0.000146	0.003761	-0.001991
36	0.000146	0.001954	0.000967	0.00294	-0.00347
37	0.00294	-0.001498	0.005076	-0.002155	-0.000841
38	-0.002155	-0.002155	0.00031	0.001296	0.00146
39	0.00294	-0.001662	0.000146	-0.000841	0.001296
40	-0.00347	-0.002648	-0.000347	0.00031	0.001625
41	0.000967	-0.001827	-0.000347	-0.000676	0.001625
42	-0.002813	-0.003142	-0.001005	0.004255	-0.000676
43	-0.001991	0.001132	-0.000183	0.001954	0.005734
44	-0.000347	-0.001334	-0.004785	0.00935	0.002447
45	-0.002648	-0.002155	-0.003306	0.004419	-0.000183
46	-0.00232	0.002775	-0.005443	0.002611	0.003104
47	0.000967	0.000803	-0.002484	0.00409	0.00031
48	-0.001991	-0.002155	-0.002648	0.001296	0.002775
49	-0.003635	0.001954	-0.006264	0.00146	0.001132
50	-0.003142	-0.001334	-0.003306	0.000967	-0.000512
51	-0.001991	0.004419	-0.003799	0.000474	-0.001169
52	-0.000676	0.00031	-0.001169	-0.000676	-0.000512
53	-0.003963	0.000474	-0.003635	0.001132	-0.004456
54	-0.001334	-0.001169	0.000803	-0.00232	-0.00347
55	-1.9e-05	-0.002155	0.000146	0.002118	-0.000676
56	-0.002977	-0.003306	-0.001498	0.000146	-0.005278
57	-0.004949	-0.00232	0.00031	0.003268	0.002447
58	0.003761	-0.003142	-0.000347	-0.003142	0.001954
59	-0.006922	-0.004785	-0.001827	-1.9e-05	0.001296
60	-0.004949	-0.002977	0.000967	0.002118	0.00146
61	-0.001991	-0.001334	-0.001005	0.00031	-1.9e-05
62	-0.001662	0.001132	-0.001005	-0.001334	-0.001827
63	-0.000512	-0.002813	0.000474	-0.001005	0.003597
64	-0.001991	0.00031	-0.003142	0.001625	-0.001827
65	-0.001991	0.000639	-0.001334	-0.000512	-0.001005
66	-0.00232	-0.001169	-0.002484	0.001132	-0.001169
67	-0.001334	-0.001991	-0.000347	0.000803	0.001132
68	-0.002813	0.003761	-1.9e-05	0.001296	-0.001662
69	0.001296	0.000967	-0.000676	0.00031	0.002447
70	-0.002648	0.000474	-0.000512	0.000639	-0.000512
71	0.000146	-0.001827	0.000146	-0.001169	0.002775
72	0.003761	0.000803	0.001132	0.00146	-1.9e-05
73	0.002447	-0.002648	0.000639	-0.001662	-0.000347
74	0.001132	-0.002155	0.003104	-0.000347	0.000803
75	-0.000347	-0.002648	-0.000183	0.001296	-0.002155
76	-0.001827	0.00031	-0.001169	-0.001827	-0.001005
77	0.000639	-0.000347	-0.00232	0.000146	-0.002813
78	0.002775	-0.002484	-0.000512	0.001132	0.00031
79	0.00031	-0.004128	-0.000512	0.002282	-0.002484
80	0.000639	-0.00347	-0.001498	0.000803	0.001296
81	-0.002484	0.00031	-0.003799	0.001789	0.000803
82	-0.001334	-0.003635	0.000639	0.00031	0.001132
83	-0.002813	0.00146	-0.002484	0.001789	-0.004456
84	0.000803	-0.004292	-0.001991	-0.003306	-0.004949
85	-0.002155	-0.000841	0.000146	0.001625	-0.000676
86	-0.001334	0.000146	0.000967	-0.000841	-0.004128
87	-0.001827	0.004255	-1.9e-05	-0.001169	-0.001827
88	-0.001334	0.004912	0.000803	-0.000512	-0.003799
89	-0.000676	-0.001169	0.00031	0.000803	-0.005443
90	-0.000347	-0.000512	-0.001005	-0.001498	-0.005114
91	-0.001169	-0.002813	0.00031	-0.001662	0.002447
92	-0.002155	-0.004456	-1.9e-05	-0.001334	-0.002484
93	-0.001169	-0.000183	-0.001334	-0.002155	-0.004456
94	-0.001827	-0.002155	-0.001827	-0.001334	-0.003306
95	-1.9e-05	-0.003963	0.003104	0.000474	-0.001662
96	-0.000512	-1.9e-05	0.002282	0.000146	-0.003635
97	0.001954	-0.003306	0.002447	0.000639	0.002775
98	-0.003306	0.00031	-0.005936	0.00146	-0.001498
99	0.001954	-0.000676	0.00294	-0.000183	-0.001827
100	-0.000512	0.001625	-0.001991	0.00146	-0.000347
101	0.000146	0.000639	-0.002484	-0.002484	-0.002484
102	-0.000841	-0.000183	-0.001662	-0.000512	-0.000841
103	-0.001662	0.00146	-0.000183	-0.001005	-0.000183
104	-0.002484	-0.001827	-0.002813	0.000474	-0.002648
105	0.001625	-0.001498	-0.000183	-0.002484	-0.001005
106	0.002775	-0.005278	0.000639	-0.000183	0.000146
107	-0.004456	-0.005607	0.000639	-0.001334	-0.002813
108	-0.002484	-0.001991	0.002447	-0.00232	-0.001827
109	-0.000841	-0.003142	-0.001991	-0.005443	-0.003963
110	-0.003963	-0.00725	-0.003306	0.000146	-0.002155
111	-0.003142	-0.001662	-0.003142	0.001789	-0.000512
112	0.00294	-0.001991	-0.00232	-0.002484	-0.004128
113	-0.004292	-0.000841	-0.0061	-0.003799	0.000146
114	-0.000183	-0.001662	-0.000183	-0.002813	0.003104
115	0.001132	-0.000676	-0.003306	-0.000676	-0.001991
116	0.001296	-0.002813	-0.002648	-0.002977	-0.003635
117	-0.001827	-0.004785	-0.000676	0.000474	-1.9e-05
118	-0.001005	-0.000512	-0.001334	-0.003142	-0.003306
119	0.000639	0.001296	-0.000183	0.001625	-0.002155
120	-0.000183	0.00031	-0.005936	0.000639	-0.002813
121	0.000474	-0.000841	-0.002977	-0.000183	-0.003142
122	0.000967	-0.002484	-0.001991	-0.000347	-0.000841
123	-0.002155	-0.001498	-0.001005	-0.000512	0.001789
124	-0.002648	-0.000841	-0.001169	-0.000512	-0.001169
125	-0.004128	-0.002155	0.001954	-0.003142	0.003268
126	-1.9e-05	-0.001005	-0.003963	-0.00347	-0.00232
127	0.00031	-0.005936	-0.004292	-0.002155	-0.002977
128	0.00031	-1.9e-05	-0.001334	-0.001005	-0.004949
129	-0.000676	-0.005443	-1.9e-05	-0.002155	-0.000676
130	-0.001334	-0.003799	-0.003963	0.00146	-0.004292
131	0.001954	0.000803	-0.00232	0.000639	-0.002648
132	-0.001005	-0.001169	-0.000512	0.000146	-0.004128
133	-0.001169	-0.000347	-0.000676	-0.00347	-0.002155
134	0.00146	0.000803	-0.004949	0.002775	-0.001169
135	-0.003799	-0.000512	-0.001498	-0.001498	-0.001334
136	-0.003142	-0.003635	0.001132	0.000639	0.000639
137	0.001954	0.001954	0.000146	-1.9e-05	-0.00347
138	-0.001662	-0.000676	0.001132	-0.000512	-0.002484
139	-0.002648	-0.003142	-0.000676	-0.000183	-0.002813
140	-0.002813	-0.001005	0.000639	-0.001169	0.003926
141	-0.002484	-0.001991	-0.001005	-0.001169	-0.006922
142	-0.001334	-0.002155	-0.000512	0.000967	0.000474
143	-0.001662	0.000967	-0.000676	-0.000183	-0.003306
144	-0.000512	-0.004621	-0.000183	-0.003799	-0.001334
145	-0.000183	-0.001169	-0.001334	0.003926	-0.002155
146	0.001132	-0.002977	-0.002977	-0.002813	-0.001662
147	-0.001827	-0.00232	0.00031	-0.002155	-0.000676
148	0.000967	0.000639	-0.001662	-0.001827	-0.000347
149	-0.000347	0.000146	-0.001991	-0.000347	-0.000512
150	-0.001991	-0.001827	0.000146	-0.001498	-0.001662
151	0.001954	-0.003963	-0.001334	-1.9e-05	0.005898
152	0.000967	-0.001827	-0.002155	-0.000347	-0.004456
153	-0.002484	-0.001991	-0.000183	0.000474	-0.000183
154	-0.000676	-0.002813	0.00409	0.002282	-0.001991
155	-0.003799	-0.001662	-0.002155	0.002611	-0.003799
156	0.000146	0.000474	0.001296	0.003433	0.001132
157	-0.000183	-0.004292	0.001954	-0.001991	0.000146
158	-0.006264	-0.001334	-0.001005	0.001132	-0.004621
159	0.00031	-0.001827	-0.001334	0.001132	-0.000676
160	-0.001991	-0.002484	0.00031	0.004748	-0.005771
161	-0.001169	-0.003963	0.000803	-0.000347	0.00031
162	-0.00232	-0.004128	0.000803	0.003433	-0.002648
163	0.005569	0.001296	0.000146	-0.000347	-0.004292
164	-0.001991	-0.000347	-0.000183	-0.001827	-0.001662
165	0.000803	-0.004456	-0.000347	-0.001991	-0.004785
166	0.000474	0.001789	-0.001169	0.000474	-0.003142
167	0.000967	0.002447	-0.001991	0.001954	-0.004456
168	0.000146	-0.001991	-0.000512	-0.001991	0.003104
169	-0.001991	-0.004292	-0.003799	0.001296	-0.003306
170	-0.001334	0.001132	-0.000183	0.004583	-0.000512
171	0.003268	-0.001334	-0.004456	0.000967	0.000146
172	-0.002813	-0.00347	0.001625	-0.000512	-0.001334
173	-0.006429	0.001296	-0.002813	0.000146	-0.007086
174	0.00146	-0.001827	-0.001498	-0.000183	0.00031
175	-0.003799	0.001132	-0.001334	0.001954	-0.002648
176	-0.000183	-0.001827	-0.000676	-0.000183	0.000967
177	-0.001169	-0.002648	-0.003142	0.000639	-0.003306
178	-0.002484	-0.002484	-0.00232	-0.001991	-0.004292
179	-0.002977	0.00146	-0.001662	0.000967	-0.004785
180	-0.003142	-0.003635	-0.001169	-0.002155	-0.005607
181	0.00031	0.004583	-0.001827	-0.002648	-0.001334
182	0.001625	-0.000841	-0.002648	-0.001498	-0.002977
183	0.000967	-0.000347	-0.003142	-0.003635	-0.001005
184	0.002611	0.001625	-0.002484	-0.000841	-0.01251
185	0.004748	-0.002977	-0.001991	0.002118	-0.001005
186	0.00031	-0.001991	-0.003306	0.000639	0.000803
187	-0.001991	-0.002648	0.001296	0.002447	-0.000676
188	-0.002648	0.00146	-0.004785	-0.000512	-0.00347
189	0.001132	-0.001498	-0.000347	-0.000347	0.002118
190	-0.004785	-0.000183	-0.002484	0.00031	-1.9e-05
191	-0.00232	-0.001662	-0.004785	0.000146	-0.001827
192	-0.000841	0.000639	-0.001827	0.000803	-0.000841
193	0.000474	0.00031	-0.002648	-0.000183	0.000639
194	-0.000183	-0.00232	0.000639	-0.000347	0.00146
195	0.000803	-0.002155	-0.000676	-0.002813	-0.00873
196	0.000639	-0.000676	0.000967	-0.001991	-0.004949
197	-0.000347	-0.001662	0.000803	0.000967	-0.002155
198	-0.002648	-0.004949	-1.9e-05	-0.00232	-0.002484
199	0.002118	-0.000183	-0.001334	-0.000841	-0.003142
200	-0.000512	-0.002648	0.00031	-1.9e-05	-0.00232
201	0.00146	0.00031	-0.002484	0.00294	0.000474
202	0.000474	-0.001827	0.00031	-1.9e-05	-0.001662
203	-0.000183	-0.000841	-0.001169	-1.9e-05	-0.002977
204	0.000967	-0.002648	0.000639	0.001296	0.00146
205	-0.000841	-0.000841	0.00031	0.002118	-0.000676
206	0.005569	-0.001169	0.001954	-0.002813	-0.001169
207	0.002118	0.00031	-0.000841	0.002775	-1.9e-05
208	-0.002155	-0.002155	-0.002648	-0.000676	-0.002155
209	-0.002648	-0.004621	-0.001498	0.00146	-0.000347
210	0.000474	-0.001662	-0.001498	-0.001169	-0.005114
211	-0.003306	0.00146	-0.000676	0.002447	0.000803
212	-0.001498	-0.002813	-0.00347	-0.002648	-0.004292
213	-0.001498	-0.000841	0.001132	-0.002813	-0.002648
214	0.001954	0.000639	-0.000183	-0.002813	-0.001662
215	0.001132	-0.001498	0.001296	-0.004292	0.00409
216	0.002118	0.000146	-0.001991	-0.00347	-0.000841
217	0.003761	-0.001827	0.002282	-0.001498	-0.002977
218	0.000146	0.005405	-0.003306	-0.000841	-0.001498
219	0.001296	-0.001498	0.002282	-0.007086	0.000146
220	0.000474	-0.003963	-0.000841	-0.000676	-0.001334
221	0.00146	0.001296	-0.001005	0.001625	0.000639
222	-0.004128	0.000967	-0.001827	0.007706	-0.002977
223	-0.002155	0.001625	-0.001662	-0.001334	0.000639
224	-0.001498	0.000474	-0.003142	0.002611	0.002447
225	0.000146	0.000803	-0.002977	-0.000676	0.00031
226	-0.001827	-0.000183	-0.002484	0.000803	0.000146
227	0.002447	-0.000183	-1.9e-05	0.00031	-0.003142
228	-0.001498	-0.001005	0.000474	-0.002977	-0.003142
229	0.002118	-1.9e-05	-0.001991	-0.000512	-0.00347
230	0.002775	-0.001169	-1.9e-05	-0.001498	-0.004456
231	0.000474	0.000146	-0.002155	-0.002155	-0.004621
232	0.002611	0.005241	-0.000676	-0.001991	-0.003142
233	0.002118	-0.000347	-0.003963	0.003104	-0.005278
234	0.00294	-0.005936	-0.002155	-0.003799	-0.001005
235	-0.000347	0.000146	-0.000512	0.000474	-0.002484
236	0.00146	-0.00347	0.000474	-0.002155	-0.000841
237	-0.000841	-0.003142	-0.000512	-0.000512	0.000146
238	0.000967	-0.002484	-0.001334	-0.002155	-1.9e-05
239	-0.00232	-0.001498	-0.001334	0.000639	0.001954
240	-0.001662	-0.001498	-0.003142	-0.001005	-0.001334
241	-0.000347	0.00031	-0.004621	0.001296	0.002775
242	-0.001498	-0.002977	0.000803	-0.000676	-0.000841
243	-0.001991	0.000474	-0.001498	-0.002977	-0.001662
244	0.001296	0.001132	-0.003142	0.004748	-0.002648
245	-0.001827	-0.002648	0.001132	-0.004128	-0.003963
246	0.00031	0.000474	0.001132	-0.004785	-0.007579
247	0.001132	0.00146	-0.002648	-0.002484	-0.002813
248	-0.000841	-0.000183	-0.001334	-0.003799	-0.004949
249	0.001132	0.000803	0.001954	0.001296	-0.000183
250	0.000967	-1.9e-05	-0.000676	-0.00347	-0.001005
251	-0.000183	-0.002484	0.002447	-0.006922	-0.003142
252	-0.001662	-0.001334	0.000474	-0.001169	-0.002484
253	0.001296	-0.002648	0.002447	-0.004949	-0.001498
254	-0.00232	0.001954	-0.005443	-0.001498	0.000967
255	-0.000512	-0.001991	-0.001005	0.002775	-0.000183
256	-0.000183	-0.005114	-0.002977	-0.003635	0.00146
257	0.000803	0.000146	-0.003799	-0.000841	-0.001662
258	-0.000347	0.001296	-0.00347	0.002447	0.000146
259	-0.001169	-0.005114	-0.0061	-0.003142	0.001132
260	-0.003635	0.00031	0.00146	-0.001991	0.000146
261	-0.001827	0.002118	-0.002155	-0.001169	-0.001169
262	-0.001334	-0.000841	0.000639	-0.001827	-0.001827
263	0.001132	0.001789	-0.000841	-0.001827	-0.001498
264	-0.000512	-0.000512	0.000803	-0.002813	-0.003306
265	-0.001498	0.00146	-0.002813	-0.00347	-0.000676
266	0.00031	-0.001662	-1.9e-05	-0.003306	0.00031
267	-0.001498	-0.005443	-0.000841	-0.004292	-0.000347
268	-0.000183	-0.002813	0.001954	-0.004621	-0.004128
269	0.001132	0.002282	-0.000347	-0.001334	0.001132
270	0.001132	-0.003963	-0.004949	-0.002977	0.00146
271	-0.000183	-0.002977	0.001296	-0.00873	-0.000183
272	-0.000841	-0.001005	-0.002484	-0.004456	-0.00232
273	-0.00347	-0.000183	-0.000183	0.000967	-0.001662
274	0.00409	0.000146	-0.000512	-0.003142	0.000146
275	-0.001662	0.000474	-0.001334	-0.000841	0.000146
276	0.000146	0.000639	-0.005443	-0.003142	-0.001827
277	-0.000183	-0.001334	-0.002484	-0.004128	0.000639
278	-0.001169	0.00294	-0.00347	-0.002648	-0.001498
279	0.000146	-0.000841	-0.001991	-0.002813	-0.002813
280	0.002118	0.002447	-0.002484	-0.000512	0.001789
281	0.002447	0.000803	-0.00232	-0.00347	0.000803
282	-0.001334	-0.000183	-1.9e-05	-0.002155	-0.005936
283	0.000474	-0.001498	0.003597	-0.002648	-0.000841
284	0.000474	-0.001169	0.00146	0.000803	-0.001005
285	-0.001991	-0.003306	0.001132	-0.003799	-0.003635
286	-0.002813	-0.000841	0.002447	-0.001991	-0.003306
287	0.002775	-0.001991	0.000639	-0.003963	-0.001334
288	0.000639	-0.001827	0.000474	-0.011031	0.00409
289	0.000803	-0.001169	0.00031	-0.004292	0.002611
290	-1.9e-05	-0.000676	-1.9e-05	-0.002648	-0.001662
291	0.001625	0.000967	-0.002648	-0.002813	0.00146
292	0.000474	-0.001498	0.000803	-0.001827	0.001789
293	-0.000676	-0.004128	-0.002813	-0.00347	-0.000841
294	0.000146	0.000474	0.00031	-0.001498	0.001789
295	-0.000347	-0.001169	-0.001169	0.00146	-0.001005
296	-0.004128	-0.001498	0.003104	-0.003306	-0.00232
297	0.001625	0.001296	-0.002155	-0.001005	0.000803
298	-0.000841	-0.000512	-0.001827	-0.007086	-0.000183
299	-0.001827	0.00146	-0.001005	-0.011195	0.000474
300	0.00146	-0.000347	-0.000676	-0.003306	0.000474
301	-0.003635	-0.000347	-0.000676	0.000967	-0.002484
302	0.001296	-0.001498	-0.000183	-0.00347	-0.000512
303	-0.000841	-0.001169	-0.002977	-0.002648	-0.000841
304	0.000803	-0.001827	0.001132	-0.00232	-0.003799
305	0.001132	-0.002155	0.005076	-0.002813	-1.9e-05
306	0.00294	-0.004785	-0.00347	-0.001334	-0.000676
307	-0.001991	-0.001827	0.003597	-0.00347	-0.001662
308	-1.9e-05	-0.000347	-0.000676	-0.00232	-0.003142
309	0.00031	-0.003306	0.000146	-0.001991	-0.000841
310	-0.002977	-0.001169	0.002282	-0.010373	-0.001334
311	-0.002484	0.001954	-0.001991	-0.004785	-1.9e-05
312	-0.000512	0.00031	-0.003306	-0.002648	-0.002155
313	-0.000676	-1.9e-05	-0.001005	-0.005936	-0.000676
314	-0.001005	0.000967	-0.001662	-0.002977	-0.002484
315	-0.000183	-0.000347	-0.001169	-0.001169	-0.001662
316	-0.003963	0.000803	-0.001005	-0.001498	-0.002155
317	-1.9e-05	-0.002155	0.000146	-0.00347	-0.001334
318	-0.003963	-0.001334	-0.001662	-0.001827	0.000639
319	0.002118	-0.001334	-0.001498	-0.001498	-0.000841
320	-0.002813	-0.001005	-0.002155	-0.005443	-0.001005
321	0.004748	-0.00232	-1.9e-05	-0.009058	-0.001498
322	-0.002813	-0.001005	-0.000512	-0.001662	-0.003635
323	-0.001005	0.001296	-0.001991	-0.004128	-0.007744
324	0.001625	-0.002484	0.00146	-0.003142	-0.000347
325	-0.000183	-0.001498	-0.001991	0.000639	0.001789
326	0.00294	-0.001662	0.000474	-0.003306	-0.001005
327	0.000803	-0.001991	-0.0061	-0.000676	-0.004456
328	-1.9e-05	-0.001169	-0.003799	-0.002484	0.001296
329	-0.003799	-0.001498	-0.001169	0.003104	-0.000841
330	0.003597	-0.000347	-0.001662	-0.003142	-0.001827
331	-0.006429	0.001132	-0.003799	0.001296	-0.000841
332	-0.004621	-0.000841	-0.003142	-0.005936	-0.001991
333	-0.003635	-0.000183	-0.005114	-0.003799	-0.000676
334	-0.001662	0.002447	-0.002977	-0.000347	-0.001498
335	-0.002977	-0.003306	-0.001991	-0.002813	0.000639
336	-0.000512	-0.000183	-0.008072	-0.002648	-0.002648
337	0.000146	-0.001334	0.000146	-0.002155	0.003104
338	-0.000512	-0.001005	0.000146	-0.001662	0.000639
339	-0.001005	-0.001498	-0.001005	-0.003142	0.004419
340	-0.001498	-0.001827	-0.000183	-0.001827	-0.002977
341	-0.000347	-0.001169	0.003597	-0.003142	-0.000676
342	-0.000512	-0.000676	-0.003799	-0.001169	0.001132
343	-0.001991	-0.004292	0.002775	-0.004621	0.00031
344	-0.003306	0.00031	-0.001498	-0.002977	-0.000183
345	0.00031	-0.001827	0.001132	-0.000183	0.00031
346	-0.004949	-0.002484	-0.002155	-0.001991	0.004255
347	-0.000841	-0.002648	-0.000347	-0.000512	0.004583
348	-0.001334	0.002447	-0.000183	0.002118	0.00294
349	-0.002155	-0.000183	-0.000841	0.002447	0.000803
350	-0.004128	0.00031	-0.000841	-0.002977	0.003597
351	-0.000676	0.000639	-0.003799	-0.003306	-0.001991
352	-0.002484	-0.001991	0.002447	0.00031	-0.000183
353	-0.001498	0.00146	-0.00347	-0.002648	0.001132
354	-0.001662	-0.001498	0.003597	0.00031	-0.001498
355	-0.002155	0.001296	0.000967	-0.003635	-0.002977
356	0.00146	-0.001498	0.003433	-0.003635	-1.9e-05
357	-0.002813	-0.001498	-1.9e-05	-0.001662	-0.002155
358	-0.001827	-0.003963	0.000639	-0.004456	-0.000841
359	-0.001169	-0.000512	-0.000512	-0.000676	-0.001005
360	0.000146	-0.004621	-1.9e-05	-0.001991	-0.001169
361	-0.000676	-0.004456	0.000146	-0.002648	0.002282
362	0.001296	-0.002813	0.000474	-0.001334	0.000967
363	-0.001498	0.000474	0.005898	-0.001169	0.000803
364	-0.000512	-0.001334	-0.004128	-0.002484	-0.000347
365	-0.002155	0.001132	-0.002813	-0.001662	0.000474
366	-0.000676	0.000146	-0.002648	-0.00347	-0.001991
367	-0.002977	-0.000183	-0.001005	-0.000347	-0.000676
368	0.00031	-0.000841	-0.001169	-0.005114	0.001954
369	0.000803	-0.000512	-0.000841	-0.009058	0.001954
370	-0.001005	-0.000347	-0.00232	-0.002484	-0.000841
371	0.001296	-0.000841	-0.000676	-0.000841	-0.002813
372	0.00294	-0.000512	0.000803	0.00031	-0.005278
373	0.002282	-0.000676	0.002118	-0.005114	-0.000347
374	-0.001005	0.002447	0.003597	-0.003635	-0.000841
375	-0.002813	-0.000841	0.000146	-0.004292	-0.003799
376	0.001954	0.002282	0.000146	-0.002484	-0.000512
377	0.002282	-0.000841	-0.003963	-0.003142	-0.004621
378	-0.002155	-0.003142	-0.001498	-0.000676	-0.002648
379	0.002118	-0.000841	-0.001827	-0.004785	0.000803
380	-0.001662	-0.001498	-0.00232	0.001296	-0.005443
381	-0.00347	0.000146	-0.000676	-0.000841	-0.000841
382	-0.001827	-0.000676	-0.000841	-0.000676	-0.000512
383	0.000639	0.00031	-0.00232	0.00031	0.001954
384	-0.00232	-0.000183	-0.005278	0.000639	0.001954
385	-0.000347	0.000639	0.004748	0.000474	-0.000676
386	0.000146	0.000474	-0.00347	-0.00232	0.000803
387	-0.002155	0.002447	-0.002813	0.000639	-0.000347
388	0.000803	-0.000347	-0.00232	-0.004621	0.00146
389	-0.002648	0.000474	-0.002977	-0.001827	-0.001005
390	-0.001005	0.001132	-0.001662	-0.003306	0.00031
391	-0.002977	-0.00347	-0.000512	-0.001169	0.000474
392	-0.000841	-0.001991	0.004583	-0.002813	-0.003142
393	-0.001334	0.003926	-0.001005	-0.000841	-0.003306
394	0.001625	-0.002484	0.00146	-0.002813	0.003104
395	-0.002977	0.000967	0.000639	-0.000512	-0.000676
396	-0.002648	0.001132	0.00031	-0.000183	0.000803
397	-0.002648	-0.003635	-0.000347	0.000146	-0.002155
398	-0.000841	0.000803	-0.002484	-0.000512	-0.001005
399	-0.000183	0.002118	-0.001827	0.000146	-0.001827
400	-0.001662	0.003597	-0.002648	-0.001662	-0.003142
401	-0.003635	-0.001991	-0.001827	-0.001991	0.002118
402	0.000639	-0.000183	-0.001498	-0.000183	-0.001991
403	-0.003635	-0.001169	0.001789	-0.00232	0.000639
404	-0.003799	-1.9e-05	-0.003635	-0.001169	0.001296
405	-0.001662	-0.002484	-0.001827	-0.002813	0.000803
406	-0.003142	0.000474	-0.004128	0.000639	-0.000841
407	-0.00232	-0.001662	-0.006757	-0.001991	-0.001827
408	-0.006593	-0.001498	-0.001991	-0.000841	-0.00232
409	-0.002155	-0.003306	-0.001005	-0.001169	-0.002155
410	-0.000676	-0.002813	-0.000512	-0.002155	-0.001005
411	-0.001498	-0.000512	-0.001169	-0.000512	-0.003963
412	-0.000347	-0.000512	0.000474	-0.001662	0.002118
413	0.001954	0.000967	-0.001169	-0.002155	0.000803
414	0.000474	-0.000841	-0.001827	-0.000183	0.000639
415	-0.001169	-0.001005	-0.00232	-0.003142	-0.001334
416	0.000474	-0.001169	-0.001827	-0.003963	0.001296
417	-0.000347	0.000146	-0.001498	-0.000183	0.000146
418	-0.000512	-0.000512	-0.007908	-0.005443	0.000803
419	-0.000841	0.001625	-0.007744	0.00294	-0.00347
420	-0.001169	0.000803	0.000967	-0.002648	-0.002484
421	-0.001827	0.003104	-0.002155	-0.000183	-0.000841
422	0.002611	-0.000512	-0.001169	-0.003635	-0.004456
423	0.00031	0.00409	-0.001005	-0.001827	0.001132
424	0.001296	-0.002813	0.000967	-0.000183	-0.001991
425	0.001625	0.000146	0.000146	-0.002648	-0.004128
426	-0.000841	-0.000676	0.000803	-0.001662	-0.002484
427	-0.002977	-0.002977	-0.002155	-0.001334	0.002447
428	-0.000183	-0.001169	-0.003306	-0.001991	-0.007415
429	-0.000347	-0.001827	-0.009551	-0.001005	-0.007086
430	-0.001169	-0.000347	-0.0061	-0.001334	-0.001005
431	-0.001005	0.000146	-0.004949	-0.004128	-0.001991
432	-0.001991	-0.002484	-0.003635	0.000474	-0.004456
433	0.004255	-0.000183	-0.000841	-0.001662	-0.000183
434	0.00031	-0.000512	-0.000841	0.001132	-0.000841
435	0.001789	-0.001498	0.003268	0.001789	-0.002813
436	-0.000183	0.000803	0.000474	0.000146	0.001132
437	0.000639	-0.000676	0.00146	-0.004621	-0.002155
438	-0.003142	0.001789	0.00031	-0.001334	-0.003142
439	-0.001005	-0.000347	-0.000512	-0.000676	-0.000347
440	-0.001827	0.00031	-0.011195	-0.000512	-0.001827
441	0.00031	0.00031	-0.001169	-0.002155	0.000146
442	-0.001334	-0.001169	-0.003635	0.000803	-0.001169
443	-1.9e-05	0.00031	0.001789	-0.00347	-0.002484
444	0.00031	-0.002813	0.001296	-0.000347	-0.001662
445	-0.001498	-0.000841	-0.001827	-0.001498	-0.003142
446	-0.000347	-0.006429	0.003268	-0.001662	-0.001334
447	0.000639	-0.000841	-0.003142	-0.002484	-0.006429
448	-0.001827	-0.001662	0.000967	-0.005936	-0.002977
449	0.001625	-0.00232	-0.001827	-0.003306	-0.002813
450	0.00031	0.003926	-0.000183	-0.001662	-0.001662
451	-0.000183	-0.001662	-0.007744	-0.001827	-0.004292
452	-0.000347	-0.000841	-0.003306	-0.005443	-0.001169
453	-0.001662	0.001789	-0.006429	-0.00347	-0.00347
454	0.003761	-0.000512	-0.003635	-0.001169	-0.002484
455	-0.002484	0.001954	-0.00232	-0.000512	-0.001662
456	-0.004785	-0.001662	-0.00347	-0.00232	-0.000347
457	-0.002648	-0.001662	0.001954	-0.000512	-0.001662
458	-0.00725	-0.003306	0.002775	-0.000512	-0.001005
459	-0.003142	-0.004949	0.00146	0.000146	-0.000841
460	-0.000841	-0.003142	0.000967	-0.004292	-0.001827
461	-0.006429	-0.006429	0.002447	-0.000841	-0.003306
462	-0.000347	-0.003799	-0.003799	-0.001827	-0.005278
463	-0.001334	-0.001498	-0.003963	-0.004785	-0.002155
464	-0.00232	-0.001662	-0.001991	-0.002648	-0.004456
465	0.000803	-0.001334	-1.9e-05	-0.001498	-0.003963
466	-0.001005	0.001296	-0.002648	-0.001498	-0.003142
467	0.000474	-0.001169	0.003104	-0.0061	-0.002484
468	-0.000841	-0.000841	-0.000347	-1.9e-05	-0.002155
469	0.001132	-0.001498	-0.003306	0.000803	-0.001334
470	-0.001005	-0.000841	-0.002648	0.001954	-0.000512
471	0.002118	-0.000183	-0.002155	-0.003306	-0.002155
472	-0.00347	-0.003306	-0.001169	0.00672	-0.000183
473	0.002118	-1.9e-05	-0.002648	-0.000347	-0.000183
474	-0.001334	-0.003799	-0.005278	0.003597	-0.000676
475	-0.000512	-0.004456	-0.004785	0.000474	-0.002155
476	-0.001498	-0.003142	-1.9e-05	0.002447	-0.000183
477	-0.002813	-0.000676	-0.003142	-0.001169	-0.004456
478	-0.000512	-0.001498	-0.002155	-0.00347	-0.002155
479	-0.000183	-0.000676	-0.003142	0.00031	-0.003635
480	-0.000347	-0.004292	0.000474	-0.002484	-0.004292
481	-1.9e-05	-0.001005	-0.002648	-0.000841	-0.004292
482	0.001625	-0.003799	-0.002484	-0.004128	-0.008072
483	0.003433	0.001296	-0.00232	0.000474	-0.007579
484	0.004583	-0.003142	-0.000183	-0.002648	-0.003142
485	-0.001991	-0.001827	-0.003142	-0.002155	-0.003799
486	0.002118	-0.000347	0.001625	-0.002813	0.000967
487	-0.000183	-0.002155	0.003433	0.002447	-0.007086
488	-0.00232	0.001954	0.001625	-0.0061	-0.008072
489	0.000803	-0.000512	-0.000512	0.001132	-0.001498
490	0.000639	-0.00232	-0.00232	-0.001169	-0.001662
491	-0.004621	-0.001827	-0.000841	0.001132	0.000639
492	-0.000183	-0.002484	-0.000347	0.002611	-0.002648
493	0.000639	-0.006429	0.000146	-0.006429	-0.002155
494	0.002775	-0.000676	-0.001662	0.001296	-0.001827
495	-0.001169	-0.005443	0.001296	0.000146	-0.003799
496	-0.001005	0.000474	-0.004292	0.000639	-0.002155
497	0.002611	-0.001005	0.000967	0.003761	-0.001498
498	-0.001827	0.000967	-1.9e-05	-0.000183	-0.002813
499	-0.000676	-0.001169	0.000639	-0.002648	-0.003306
500	0.001296	0.000639	-0.006593	-0.002155	-0.001498
501	0.001296	-0.003142	0.003597	-0.001169	-0.002977
502	-0.001498	-0.002484	-0.003799	0.001132	-0.001169
503	0.001625	-0.000512	-0.00347	-0.002977	-0.002155
504	-0.001005	-0.001827	0.001132	-0.001827	-0.003142
505	-0.001005	0.00031	-0.001662	-0.000512	-0.004949
506	0.001954	-0.00347	0.00031	0.00031	-0.001991
507	-0.001662	0.000803	-0.001169	-0.001498	-0.003963
508	-0.003142	0.001132	-0.003142	-0.001005	-0.000841
509	-0.002813	-0.001005	-0.006264	0.001954	-0.004128
510	-0.005936	-0.002648	-0.002813	-0.001827	-0.002813
511	-0.002648	0.002447	-0.006757	-0.000183	-0.006757
512	0.000803	0.001789	-0.003142	-0.001498	-0.003306
513	-0.002648	0.002118	-0.002813	-0.000841	-0.004949
514	0.000803	0.000474	-0.000841	-0.001169	-0.004128
515	-0.001827	0.001296	-0.001334	-0.001334	-0.004128
516	0.000146	-0.001498	-0.000183	-0.005443	-0.005607
517	-1.9e-05	-0.000676	0.000474	-0.000841	-0.003306
518	-0.001662	0.000146	-0.001005	-0.002155	-0.005607
519	0.000803	0.000474	0.002118	-0.003799	-0.002155
520	0.001132	0.001132	-0.001169	-0.001991	-0.005607
521	-0.001991	0.000146	-0.000512	-0.001662	-0.000676
522	-0.001334	0.002611	-0.001991	0.00031	0.001132
523	-0.002977	0.001296	-0.001334	0.000474	0.002282
524	-0.001169	0.003104	-0.000183	-0.006264	-0.002813
525	-0.002484	0.001789	-0.005278	-0.000512	-1.9e-05
526	-0.001827	0.00146	-0.008401	-0.000512	-0.003963
527	-0.001827	-1.9e-05	-0.000512	-1.9e-05	-0.003306
528	-0.002484	0.00294	-0.005771	-0.001498	-0.003635
529	-0.001334	0.003104	-0.005607	-0.001005	-0.003306
530	-0.001991	0.002282	-0.00347	-1.9e-05	-0.004292
531	0.000474	0.003433	0.00146	0.000803	-0.005278
532	-0.003306	0.001954	0.001296	-0.000841	-0.006593
533	-0.000183	0.003597	-0.000183	-0.004128	-0.005771
534	-0.000512	0.002447	0.001132	-0.001169	-0.003142
535	-0.00232	0.003597	-0.001169	-0.005114	-0.006593
536	-0.002648	0.002775	-0.000841	-0.001662	0.001132
537	0.002775	-0.000841	0.001789	-0.001005	-0.004785
538	-0.003963	0.002611	0.002447	0.000146	-0.007086
539	-0.000512	0.002118	-0.001334	-0.000676	-0.005443
540	-0.000512	0.003104	-0.000512	0.000639	-0.00232
541	-0.00347	0.001789	-0.001498	0.000639	-0.003306
542	-0.004785	-0.000183	-0.000347	0.002282	-0.001498
543	-0.003306	0.008528	-0.00347	-1.9e-05	-0.000183
544	0.000639	0.004912	-0.002977	-0.002484	0.001132
545	-0.005114	0.006884	-0.002155	0.000639	-0.001498
546	0.000639	0.007213	-0.004456	-0.005114	-0.004292
547	-0.001827	0.003926	-0.000841	-0.00232	-0.003306
548	0.000967	0.004912	-0.001334	0.000639	-0.001827
549	-0.003142	0.002611	0.000474	-0.00347	-0.001169
550	-0.003306	0.001789	-1.9e-05	-0.002484	0.000474
551	-0.000183	0.005076	0.002118	-0.001662	-0.001005
552	-0.000676	0.004583	-1.9e-05	0.00031	-0.004292
553	0.000146	0.000967	0.003597	0.003268	-0.000183
554	-0.003306	-1.9e-05	-0.001169	-0.000676	-0.003799
555	0.000967	-0.004456	-1.9e-05	-0.003963	-0.001827
556	0.001625	-1.9e-05	0.002447	0.000967	-0.000841
557	0.000146	-0.001498	0.001132	-0.002484	-0.001827
558	-0.002813	0.002447	-0.002484	-0.000347	-0.001498
559	0.001296	0.003433	-0.002484	-0.001169	0.003761
560	-0.002977	0.000803	-0.000183	0.002611	-0.004621
561	0.000146	-0.001827	0.001296	-0.002155	0.000639
562	-0.000183	0.003597	-0.002648	0.001789	-0.003306
563	-0.000183	0.00294	-0.003799	-0.001169	-0.003306
564	-0.001169	0.000639	-0.001662	0.000146	-0.002813
565	-0.002155	0.001625	-0.001662	-0.003306	-0.003635
566	-0.001169	0.000474	0.00031	-0.002977	-0.001498
567	-0.000183	-0.001005	-0.000347	-0.003963	-0.001334
568	-0.001334	0.003761	-0.002813	-0.002977	-0.002813
569	0.000146	0.00146	0.001296	-0.007415	-0.003963
570	0.001954	-0.002648	0.001954	-0.00232	0.00031
571	-0.003306	0.00031	-0.000183	-0.000347	-0.00347
572	-0.000512	-0.002813	0.002282	-0.001827	-0.004128
573	-0.001334	0.004912	-0.001334	-0.001169	-0.005278
574	0.000639	0.002282	-0.000512	0.000803	-0.001169
575	-0.00347	-0.000183	-0.001662	0.005734	-0.004292
576	-0.001827	0.004583	-0.008565	0.000146	-0.004785
577	-0.000512	-0.002813	-0.004949	0.001954	-0.002977
578	0.00031	0.000474	-0.001662	-0.001991	-0.002155
579	-0.001005	0.002447	-0.006593	-1.9e-05	-0.002155
580	0.00031	0.000803	-0.010045	-0.000676	-0.004949
581	-0.001334	0.001954	-0.001334	-0.001498	0.000639
582	-1.9e-05	0.001789	-0.001827	0.000803	-0.004456
583	-0.002155	0.001132	-0.000347	-0.000183	-0.001498
584	-0.002484	0.004419	-0.000347	-0.00232	-0.002813
585	-0.004456	0.001789	0.003268	0.000474	-0.000841
586	-0.00347	0.00294	-0.003799	-0.000512	-0.002813
587	-0.000347	0.000639	-0.002155	-0.00232	-0.000512
588	-0.001991	0.007377	-0.001334	-0.000347	-0.001991
589	-0.001498	0.000474	0.00146	-0.002155	-0.004785
590	-0.001827	0.000146	-0.002155	0.001789	-0.003306
591	-0.001334	0.001789	0.000803	-0.002977	-0.003142
592	-0.005114	0.002611	0.000146	-0.001498	-0.001169
593	-0.003306	0.000639	-0.001334	-1.9e-05	-0.001334
594	-0.001991	0.000146	-0.001827	0.000967	-0.001334
595	-0.000676	0.003268	0.000474	0.002447	-0.001169
596	-0.001827	0.005241	-0.001662	-0.000676	0.000474
597	-0.001498	0.001954	-0.001334	-0.001827	-0.001498
598	-0.001991	-0.000347	-0.001005	-0.000676	-0.001005
599	0.000967	-0.000512	-0.001827	-0.000183	-0.000841
600	-0.002813	-0.002155	-0.002977	-0.002484	0.000967
601	-0.001662	0.000639	-0.001334	-0.004292	-0.004456
602	0.001954	-0.001498	0.001625	-0.004456	-0.002155
603	-0.004456	0.002118	0.003268	0.004583	-0.004292
604	-0.004949	-0.000512	0.004748	-0.002977	0.000474
605	-0.002813	-0.001169	-0.000347	0.000474	-0.001991
606	-0.004292	-0.000347	0.003104	-0.001991	-0.003799
607	-0.004128	0.00146	-0.000183	0.000803	-0.002155
608	-0.00232	-0.001334	-1.9e-05	-0.001662	-0.00232
609	-0.002155	0.000146	0.001625	-0.001827	0.002447
610	0.001954	0.000146	0.001132	-0.00232	0.00146
611	-0.000676	0.001132	0.00146	-0.001991	0.00031
612	0.001296	0.002775	-1.9e-05	0.001296	-0.001334
613	-0.000183	0.00294	-0.000347	-0.001827	-0.000347
614	-0.000347	0.00294	-0.005278	-0.000841	-0.001169
615	-0.003306	0.00294	0.002775	-0.000183	0.00146
616	-0.002813	0.005405	-0.002648	-0.003963	-0.000676
617	-0.001169	0.001132	0.00294	-0.002813	-0.000676
618	-0.001498	0.005898	-0.001334	-0.006757	-0.001498
619	-0.001498	0.002282	-0.002977	-0.005443	-0.000347
620	-0.002813	0.002775	-0.001991	-0.002484	-0.002648
621	0.001296	0.004255	-0.000183	-0.002977	-0.00232
622	-0.001334	0.002775	-0.001498	0.00031	-0.00347
623	0.005241	0.001789	-0.000347	-0.003142	-0.002977
624	0.001625	-1.9e-05	-0.000841	0.001954	-0.00232
625	0.000803	-0.002484	0.000146	0.00031	-0.001498
626	-0.000841	0.00294	-0.001334	-0.001498	-0.002977
627	0.00294	0.00146	-0.003963	-0.001005	-0.005278
628	-0.001005	0.003761	0.002118	-0.001827	-0.003635
629	0.001132	0.006062	-0.002155	-0.001662	-0.001991
630	0.000967	0.004419	-0.004456	0.00031	0.00031
631	0.001625	0.005405	-0.004128	-0.001169	-0.002484
632	-0.001662	0.007542	-0.000512	-0.000676	0.00031
633	0.00146	0.005241	-0.00347	0.000474	-0.000676
634	-0.001169	0.005076	-0.000183	0.002118	0.000967
635	-0.002977	0.008035	-0.000347	-0.001005	-1.9e-05
636	0.000146	0.005076	0.000146	-0.000347	0.00146
637	-0.001498	0.008363	-0.005936	-0.000183	-0.00347
638	-0.000512	0.005898	-0.002484	-0.00232	0.003433
639	-0.002648	0.007377	0.000639	0.001296	-0.001827
640	-0.001334	0.006884	-0.003142	-0.002813	-0.002813
641	-0.001827	0.007213	-0.001498	-0.000183	-0.001334
642	-0.001169	0.007213	0.001625	-0.00232	-0.004292
643	-0.002484	0.003104	-0.000183	-0.001005	-0.000512
644	0.00031	0.004419	-0.001169	-0.001334	-0.003142
645	-0.001334	0.004583	0.000474	0.002447	-0.002484
646	-0.000183	0.008857	-0.001498	0.000803	-0.003799
647	0.004255	0.008035	0.000639	-0.000183	0.003926
648	-0.001827	0.011486	-0.000676	-0.002484	-0.001827
649	0.001296	0.008363	-0.000183	-0.002155	-0.001334
650	-0.003799	0.013294	0.00031	-0.000512	-0.002813
651	-0.000183	0.008199	-0.000841	-0.00347	-0.002977
652	-0.00232	0.012965	0.000146	-0.000512	-0.001827
653	-0.002484	0.014609	-0.001005	-0.003306	-0.000841
654	-0.00347	0.014445	-0.001005	0.000474	-0.002813
655	-0.003799	0.009514	-0.001334	-0.001662	-0.001334
656	-0.004785	0.010336	-0.004292	-0.000676	-0.001334
657	-0.001498	0.010829	-0.000512	-0.003142	-0.001498
658	0.00294	0.008528	-0.000512	-0.002648	-0.003963
659	-0.004292	0.008035	0.000146	0.000967	-0.000183
660	-1.9e-05	0.00935	-0.002484	-0.004949	-0.000512
661	-0.000347	0.013623	-0.005114	0.002447	-0.003799
662	-0.000183	0.008363	0.00031	-0.001991	-0.00232
663	0.000474	0.012308	-0.00347	-0.004621	-0.00347
664	0.00146	0.008363	-0.000183	-0.00232	-0.002484
665	0.001296	0.008692	-0.001498	-0.001827	-0.001827
666	-0.000347	0.007377	0.000639	-0.002484	0.000803
667	0.003268	0.008363	-0.002813	-0.00347	-0.001169
668	-0.001005	0.007377	-0.001169	-0.003963	-0.001662
669	0.00031	0.00672	-0.00347	0.000146	0.001625
670	0.001132	0.007377	-0.001334	-0.002648	-0.001005
671	-0.00347	0.008857	-0.00347	0.002118	-0.005607
672	-0.002648	0.011651	-0.001498	0.000474	-0.00232
673	-0.005443	0.005569	0.00146	-0.001005	-0.000512
674	0.001625	0.009514	-0.003142	-0.00232	-0.005114
675	0.000639	0.002118	-0.002155	-0.002813	-0.00232
676	0.002118	0.00294	-0.003306	-0.008565	-0.002484
677	0.00294	0.001789	-0.001005	-0.002977	-0.003635
678	-0.000841	0.004583	-0.007086	-0.002648	-0.006264
679	0.000803	0.001789	0.002447	-0.003799	-0.002813
680	0.000967	0.006227	0.002118	0.000474	-0.008072
681	0.000146	0.001625	0.000474	-0.001991	-0.0061
682	-0.001827	0.002118	0.002282	0.000639	-0.003142
683	-0.000183	0.004748	0.002282	-0.000512	-0.002155
684	-0.001005	0.005241	-0.001169	0.002118	-0.002155
685	0.001296	0.003104	0.00031	-0.002648	-0.001169
686	0.000967	0.003926	-0.004292	0.000639	-0.001005
687	0.008528	0.004419	-0.004128	-0.001334	-0.002648
688	-0.004128	0.003104	-0.003799	0.001625	-0.000347
689	0.001625	0.003433	-0.003635	-0.001498	0.002775
690	0.00146	0.001789	-0.000183	-0.00232	-0.001169
691	-0.008237	0.002118	-0.001498	-0.00347	-0.001005
692	-0.001662	-0.003635	-0.000347	-0.002484	-0.002155
693	-0.001827	0.001296	-0.001827	-0.003963	-0.004456
694	-0.000183	0.001625	0.004912	-0.005443	-0.002155
695	-0.001334	0.002447	-0.00347	-0.001169	-0.004621
696	0.000639	0.002447	0.003433	-0.002648	-0.003963
697	0.001625	0.002775	-0.001498	0.00031	-0.00347
698	0.003268	-0.000183	0.001132	-0.002977	-0.002155
699	-0.001334	-0.001005	0.000639	-0.000676	-0.002155
700	0.000146	0.000474	-0.001498	-0.001169	-0.001662
701	-0.001827	0.00031	-0.000841	-0.000676	-0.001005
702	-0.009387	0.002775	-1.9e-05	-0.004621	-0.003799
703	-0.004621	0.000639	-0.005114	-0.002484	0.000474
704	0.000639	0.003761	-0.002648	-0.002155	-0.000512
705	0.000639	-0.001169	0.001296	-0.001334	-0.000183
706	-0.001169	0.004255	-0.004456	-0.001169	-0.002155
707	-0.00232	-0.002484	-0.000841	-0.001334	-0.004292
708	-0.001827	0.003761	-0.001827	-0.005607	-0.008401
709	-0.003306	0.007542	-0.001498	-0.001827	-0.000841
710	-0.002155	0.003104	-0.000512	-0.004128	-0.0061
711	0.000639	0.001296	0.001296	-0.001991	-0.002155
712	-0.00347	0.000967	-0.001005	-0.002648	-0.004128
713	-0.009387	-0.001334	0.003104	-0.008401	-0.002648
714	-0.001991	0.001954	-0.000512	-0.002813	-0.005607
715	0.000967	0.00146	0.00294	-0.002813	-0.005936
716	-0.003142	0.003761	0.000967	-0.00347	-0.001169
717	0.001132	-0.000512	-0.000183	-0.004128	-0.000841
718	0.001954	-0.000347	-0.004128	-0.001662	-0.002813
719	-0.002484	-0.001005	-0.001169	0.001296	-0.002977
720	0.000474	-0.000512	-1.9e-05	0.000146	-0.00232
721	0.00031	-0.000347	-0.003142	0.002118	-0.000841
722	-0.001498	0.002775	-0.001334	-0.002155	0.002282
723	-0.003142	0.00031	-0.001991	-0.000183	-0.002155
724	-0.011688	0.000146	-0.001005	-0.002155	-0.000512
725	-0.003963	0.00031	-0.004621	-0.005114	-0.006922
726	-0.001827	0.000474	-0.002648	-0.000183	-0.004456
727	-0.001334	-1.9e-05	-0.002648	0.002447	-0.006757
728	-1.9e-05	-0.000183	-0.00347	-0.001169	-0.003635
729	-0.000676	-0.000512	-0.00347	0.003761	-0.002813
730	0.00146	-0.000676	-0.001662	-0.00347	-0.006757
731	-0.001498	-0.00347	-0.001169	-1.9e-05	-0.001662
732	-0.002648	-1.9e-05	-0.002155	-0.001662	-0.005114
733	-0.000512	-0.000183	-0.000512	-0.000512	-1.9e-05
734	0.000639	0.00031	-0.002484	-0.001498	-0.002484
735	-0.001498	0.00031	-1.9e-05	-0.000512	-0.001827
736	-0.001334	0.000639	-0.003799	-0.000183	-0.000676
737	0.002447	0.000639	-0.002648	0.002282	-0.003142
738	-0.000183	-1.9e-05	-0.003963	0.000967	-0.004456
739	-0.005771	-0.000183	-0.002648	0.00031	-0.004128
740	-0.00347	-0.001334	-0.004456	0.002611	-0.001827
741	0.000803	-0.008072	-0.000183	-0.002977	-0.001991
742	-0.003799	-0.012017	-0.001991	0.000967	-0.000347
743	-0.001005	-0.005114	-0.000841	-0.001498	-0.002484
744	-0.002813	0.000803	-0.002813	-0.000183	-0.00232
745	0.000639	-0.000676	0.000967	-0.00232	-0.002813
746	-0.001827	0.001789	0.000474	-0.00232	-0.000512
747	-0.003306	-0.000676	0.00146	-0.001169	-0.003142
748	-0.001169	0.000474	0.000474	-0.000183	-0.001662
749	0.000146	0.003104	0.000803	-0.000841	-0.002648
750	-0.002813	0.000639	-0.000841	-0.000347	-0.001005
751	0.004583	0.006391	0.00294	0.004419	0.001625
752	0.011979	0.013294	0.011979	0.007377	0.009514
753	0.018061	0.013952	0.015431	0.017074	0.025292
754	0.028415	0.024635	0.02332	0.026607	0.028086
755	0.028744	0.033346	0.031538	0.03351	0.032688
756	0.036797	0.000639	0.04107	0.038605	0.042878
757	0.044193	0.003104	0.045508	0.047645	0.046494
758	0.04896	0.009678	0.054219	0.052411	0.04896
759	0.058657	0.024635	0.057999	0.062108	0.05652
760	0.066053	0.022334	0.06408	0.065231	0.061779
761	0.068025	0.00031	0.071641	0.070326	0.067368
762	0.076572	0.013952	0.074271	0.075914	0.075421
763	0.078544	0.017732	0.081174	0.081995	0.077393
764	0.084296	0.020197	0.086104	0.085283	0.084625
765	0.087584	0.030223	0.089885	0.090706	0.090213
766	0.097445	0.039263	0.0935	0.093007	0.094158
767	0.096459	0.040742	0.101554	0.094487	0.100568
768	0.103691	0.049453	0.104019	0.103033	0.105992
769	0.105663	0.057013	0.107635	0.107306	0.103691
770	0.1101	0.060465	0.108786	0.111087	0.109114
771	0.114867	0.066381	0.117168	0.112566	0.117496
772	0.117825	0.061944	0.117168	0.118483	0.114374
773	0.12292	0.06408	0.122098	0.118976	0.123578
774	0.131796	0.069669	0.122592	0.123413	0.123906
775	0.1267	0.072298	0.127358	0.130645	0.124235
776	0.128344	0.068189	0.130481	0.131467	0.129495
777	0.134097	0.007377	0.132124	0.136891	0.131138
778	0.13196	0.017896	0.135247	0.136726	0.135576
779	0.139849	0.020197	0.135576	0.136069	0.142314
780	0.136398	0.001625	0.138699	0.143958	0.138041
781	0.141164	-0.001991	0.142972	0.139849	0.140013
782	0.144451	0.00672	0.146095	0.147574	0.144287
783	0.146752	0.013952	0.147409	0.147081	0.146752
784	0.149382	0.018061	0.14971	0.146423	0.152505
785	0.154641	-0.001005	0.150697	0.152833	0.15119
786	0.152669	0.000967	0.15497	0.153655	0.156778
787	0.154148	0.000474	0.152011	0.15497	0.154641
788	0.160065	0.000639	0.157271	0.156285	0.159079
789	0.165817	0.000803	0.159079	0.159736	0.156942
790	0.162859	-0.001662	0.161215	0.159736	0.163188
791	0.162695	0.008857	0.160722	0.163516	0.159736
792	0.166311	0.021841	0.165982	0.163516	0.163352
793	0.165817	0.012965	0.16516	0.169762	0.164338
794	0.166311	0.017567	0.164667	0.168283	0.168283
795	0.16253	0.023484	0.16894	0.169269	0.16894
796	0.167954	0.033839	0.168776	0.170419	0.168612
797	0.168776	0.036962	0.171406	0.169598	0.172885
798	0.1742	0.042878	0.172885	0.17157	0.17157
799	0.174693	0.051589	0.172063	0.173871	0.174035
800	0.174035	0.054712	0.1742	0.173378	0.172556
801	0.174035	0.061286	0.177487	0.176829	0.176994
802	0.171899	0.068847	0.177158	0.176829	0.17272
803	0.173542	0.073613	0.177158	0.170584	0.179295
804	0.176336	0.079037	0.175679	0.178473	0.179952
805	0.179952	0.081338	0.177322	0.176829	0.183075
806	0.176829	0.08594	0.178144	0.177487	0.180281
807	0.182417	0.08972	0.180774	0.179459	0.182582
808	0.17913	0.095308	0.180774	0.181596	0.183897
809	0.184225	0.099089	0.182253	0.180116	0.182911
810	0.183239	0.10517	0.18061	0.183239	0.184554
811	0.183897	0.105334	0.183732	0.183239	0.182089
812	0.183897	0.110265	0.180281	0.183568	0.185047
813	0.182417	0.114702	0.180445	0.186033	0.180445
814	0.184061	0.11651	0.184883	0.185376	0.186691
815	0.185047	0.122098	0.183568	0.185705	0.182746
816	0.18817	0.121934	0.185212	0.185869	0.186526
817	0.186198	0.126207	0.185376	0.182911	0.18817
818	0.188499	0.125879	0.187019	0.182911	0.18817
819	0.190142	0.132289	0.186526	0.186033	0.187184
820	0.190471	0.131302	0.192279	0.185869	0.188663
821	0.187513	0.137877	0.187841	0.189649	0.186526
822	0.194251	0.138699	0.191128	0.187841	0.189814
823	0.188499	0.142972	0.191786	0.187348	0.181431
824	0.192279	0.143465	0.18554	0.190307	0.187677
825	0.1908	0.148231	0.192279	0.19195	0.19195
826	0.191128	0.150861	0.192936	0.191293	0.189156
827	0.19195	0.152833	0.191293	0.19458	0.192279
828	0.195895	0.153655	0.191293	0.187019	0.192443
829	0.191293	0.156613	0.190635	0.190964	0.194251
830	0.185705	0.159408	0.186362	0.1908	0.190964
831	0.192608	0.154806	0.194251	0.191786	0.196717
832	0.191293	0.160229	0.193922	0.194087	0.188992
833	0.191621	0.16138	0.192772	0.191786	0.199182
834	0.193758	0.163516	0.193594	0.190964	0.184061
835	0.196717	0.163681	0.196552	0.192772	0.192608
836	0.193101	0.16779	0.192443	0.194251	0.193758
837	0.194251	0.164338	0.191621	0.191293	0.193101
838	0.193758	0.168776	0.193429	0.19458	0.193922
839	0.195895	0.167132	0.195402	0.194087	0.194416
840	0.194251	0.16894	0.194744	0.196059	0.201483
841	0.196881	0.173707	0.194087	0.1908	0.199018
842	0.195073	0.172227	0.195566	0.195566	0.197045
843	0.197538	0.1742	0.192443	0.194087	0.198524
844	0.195237	0.174035	0.196388	0.196223	0.198689
845	0.194087	0.178309	0.197374	0.196223	0.188499
846	0.197045	0.176336	0.194251	0.199675	0.196388
847	0.196881	0.175515	0.19458	0.198524	0.199346
848	0.196388	0.178144	0.19573	0.194909	0.19721
849	0.199018	0.180281	0.193922	0.197538	0.199675
850	0.201154	0.173542	0.196552	0.196388	0.19721
851	0.19573	0.178802	0.195402	0.196552	0.197374
852	0.199675	0.180938	0.200168	0.192608	0.197374
853	0.196552	0.183568	0.195566	0.194416	0.19721
854	0.198031	0.183897	0.197045	0.195073	0.196223
855	0.193922	0.179788	0.198689	0.195566	0.193922
856	0.19836	0.179952	0.197045	0.193265	0.189814
857	0.196388	0.183239	0.198524	0.200332	0.196552
858	0.195895	0.182089	0.19836	0.199018	0.196223
859	0.196552	0.183404	0.197867	0.198524	0.197374
860	0.193758	0.187677	0.195402	0.199018	0.197703
861	0.199018	0.185705	0.194744	0.199018	0.199511
862	0.198031	0.187513	0.195566	0.198524	0.198524
863	0.193922	0.187841	0.193594	0.195566	0.20099
864	0.198689	0.188663	0.197538	0.198853	0.199839
865	0.197538	0.179459	0.197867	0.198031	0.196552
866	0.195895	0.182746	0.197045	0.197538	0.19836
867	0.199346	0.183897	0.199182	0.191128	0.193265
868	0.197045	0.181103	0.198031	0.195402	0.196059
869	0.199675	0.182911	0.197703	0.197538	0.19721
870	0.197374	0.185047	0.199839	0.198524	0.19573
871	0.198689	0.18176	0.200332	0.195402	0.198031
872	0.199346	0.18554	0.19721	0.198853	0.200004
873	0.200332	0.183239	0.198031	0.196388	0.199182
874	0.196717	0.183568	0.196388	0.19721	0.201976
875	0.199511	0.187841	0.194251	0.199018	0.19836
876	0.196881	0.183568	0.200004	0.198853	0.199675
877	0.199018	0.190471	0.199018	0.200168	0.196881
878	0.199182	0.186033	0.198031	0.195073	0.198689
879	0.19836	0.18817	0.199018	0.201483	0.196881
880	0.193265	0.188499	0.197045	0.200497	0.197538
881	0.195402	0.189978	0.19721	0.199839	0.19721
882	0.196388	0.188663	0.199346	0.20099	0.20099
883	0.19836	0.192443	0.197374	0.20099	0.200332
884	0.200661	0.190307	0.198689	0.19836	0.200825
885	0.191457	0.191621	0.199346	0.198853	0.201812
886	0.201976	0.193758	0.198689	0.197703	0.199346
887	0.199511	0.188499	0.198196	0.198524	0.200168
888	0.198689	0.190964	0.200168	0.19721	0.200497
889	0.198524	0.189814	0.200168	0.198689	0.19836
890	0.201319	0.183897	0.200497	0.200497	0.19721
891	0.19836	0.18439	0.200825	0.197374	0.200661
892	0.198689	0.184718	0.200332	0.196059	0.198196
893	0.198196	0.182253	0.200497	0.196881	0.200497
894	0.200004	0.185705	0.198524	0.201319	0.202305
895	0.201319	0.182417	0.200332	0.200004	0.203784
896	0.195895	0.185047	0.198524	0.197045	0.199839
897	0.201483	0.185376	0.199346	0.200004	0.202633
898	0.200497	0.183404	0.196552	0.199839	0.200004
899	0.196059	0.184061	0.199839	0.19836	0.200497
900	0.199675	0.18817	0.197374	0.197867	0.200332
901	0.198031	0.190307	0.200661	0.197538	0.196552
902	0.196388	0.191128	0.204277	0.196223	0.201319
903	0.197703	0.189156	0.200168	0.19573	0.199511
904	0.196388	0.188992	0.200332	0.198689	0.200168
905	0.197703	0.188663	0.199182	0.19836	0.198524
906	0.197867	0.186855	0.199511	0.198524	0.201976
907	0.198524	0.186362	0.200332	0.199182	0.198524
908	0.199839	0.191128	0.200661	0.199675	0.201319
909	0.199182	0.015266	0.197374	0.200661	0.198853
910	0.20099	0.020033	0.20099	0.195073	0.19836
911	0.198524	0.036962	0.199018	0.199182	0.201319
912	0.203291	0.038441	0.200825	0.201154	0.198524
913	0.199018	0.046659	0.197703	0.199839	0.198853
914	0.199675	0.053562	0.204934	0.198196	0.199182
915	0.198196	0.060465	0.196717	0.199675	0.193758
916	0.204277	0.067203	0.199675	0.199839	0.192772
917	0.20099	0.075421	0.200168	0.197703	0.199346
918	0.197374	0.077886	0.199511	0.192279	0.195895
919	0.200497	0.084625	0.200497	0.199018	0.199675
920	0.198689	0.089227	0.196388	0.200004	0.199018
921	0.197867	0.090049	0.200825	0.198689	0.199511
922	0.200168	0.09498	0.199839	0.198031	0.197045
923	0.201319	0.09876	0.199182	0.200661	0.200825
924	0.199182	0.099746	0.196881	0.199182	0.198031
925	0.198853	0.10632	0.196388	0.200004	0.19573
926	0.19836	0.111087	0.196388	0.200168	0.198031
927	0.201976	0.115524	0.197703	0.199839	0.192608
928	0.20362	0.119633	0.197374	0.198689	0.20214
929	0.201319	0.121934	0.199675	0.20214	0.201154
930	0.204934	0.125879	0.199839	0.203126	0.200825
931	0.203291	0.12818	0.198524	0.200004	0.199346
932	0.199182	0.129659	0.200661	0.202469	0.199511
933	0.202469	0.134754	0.200661	0.198031	0.201812
934	0.20214	0.136562	0.200661	0.201812	0.200332
935	0.200168	0.140013	0.199182	0.200332	0.19836
936	0.195895	0.142479	0.19836	0.200825	0.201647
937	0.199346	0.145108	0.203455	0.200004	0.200497
938	0.198689	0.14593	0.201483	0.199182	0.200168
939	0.197045	0.148396	0.199511	0.199839	0.20099
940	0.197703	0.149053	0.201154	0.202633	0.200332
941	0.196717	0.157435	0.198689	0.196388	0.200004
942	0.20099	0.155299	0.200004	0.197867	0.200332
943	0.19721	0.155299	0.201154	0.201483	0.199182
944	0.200661	0.157107	0.198853	0.198524	0.202798
945	0.20214	0.158093	0.200661	0.201647	0.203784
946	0.200332	0.16138	0.199839	0.201812	0.202633
947	0.196881	0.160722	0.20099	0.20214	0.201154
948	0.19721	0.164667	0.198853	0.194087	0.198196
949	0.199346	0.165489	0.199346	0.201647	0.201647
950	0.199511	0.168447	0.200332	0.198524	0.200168
951	0.202798	0.172885	0.200168	0.199018	0.201976
952	0.201483	0.174857	0.198689	0.195895	0.198689
953	0.198031	0.170091	0.205921	0.200004	0.201976
954	0.200168	0.171077	0.201154	0.201647	0.200168
955	0.196881	0.17157	0.20362	0.200004	0.201319
956	0.200168	0.177158	0.200332	0.20099	0.202469
957	0.195895	0.17157	0.20099	0.20099	0.199346
958	0.196388	0.176665	0.200825	0.199018	0.200661
959	0.199018	0.174364	0.200332	0.197703	0.200497
960	0.197703	0.174857	0.197703	0.199018	0.19721
961	0.199839	0.175679	0.199511	0.197374	0.200661
962	0.200004	0.175843	0.199182	0.200661	0.199018
963	0.201976	0.177158	0.200332	0.198031	0.195073
964	0.202305	0.178966	0.201154	0.19573	0.200661
965	0.205263	0.179952	0.200825	0.197703	0.203948
966	0.201647	0.180445	0.199182	0.199182	0.206414
967	0.202633	0.185047	0.199182	0.200004	0.197538
968	0.200332	0.18176	0.199182	0.203948	0.200168
969	0.199346	0.183239	0.199018	0.199346	0.198853
970	0.198524	0.186855	0.199839	0.202798	0.199511
971	0.200332	0.185869	0.199182	0.199018	0.201976
972	0.198196	0.18554	0.200661	0.200004	0.201483
973	0.202469	0.186691	0.200497	0.199018	0.199839
974	0.201976	0.188006	0.199182	0.199346	0.198031
975	0.193594	0.186855	0.195073	0.20099	0.196881
976	0.202962	0.186526	0.200497	0.199346	0.199346
977	0.20099	0.190142	0.19836	0.202305	0.200004
978	0.198031	0.187184	0.198689	0.198524	0.200497
979	0.19836	0.192608	0.199839	0.204113	0.193758
980	0.197045	0.185212	0.199511	0.200497	0.198196
981	0.201976	0.190471	0.198524	0.196717	0.201647
982	0.203784	0.189978	0.196717	0.201647	0.197374
983	0.199511	0.189156	0.200825	0.197538	0.198031
984	0.203455	0.193429	0.199182	0.197703	0.199511
985	0.201812	0.190964	0.197867	0.200168	0.201154
986	0.199675	0.193101	0.199182	0.199675	0.19836
987	0.199346	0.18932	0.206414	0.200825	0.202633
988	0.199839	0.193594	0.19836	0.203126	0.199675
989	0.199182	0.193429	0.203126	0.201154	0.202469
990	0.197703	0.190307	0.19836	0.205099	0.200661
991	0.198689	0.193922	0.198689	0.201154	0.199839
992	0.198196	0.195237	0.197538	0.201647	0.200168
993	0.199675	0.195402	0.202305	0.203126	0.200004
994	0.197538	0.195402	0.197538	0.200332	0.196717
995	0.199675	0.19573	0.20214	0.197703	0.192772
996	0.202305	0.195237	0.200497	0.198031	0.196388
997	0.202633	0.192936	0.197867	0.196881	0.197703
998	0.20477	0.193758	0.202469	0.19721	0.198524
999	0.202962	0.194416	0.199675	0.201647	0.198689
1000	0.203126	0.191786	0.202633	0.199346	0.201483
1001	0.204934	0.194744	0.199182	0.20214	0.199675
1002	0.199511	0.194416	0.201483	0.203126	0.201812
1003	0.197703	0.191786	0.197703	0.200004	0.199511
1004	0.197538	0.192772	0.203455	0.202305	0.199346
1005	0.197703	0.193429	0.200661	0.201154	0.200661
1006	0.197374	0.193758	0.199018	0.196717	0.200497
1007	0.19836	0.196223	0.200004	0.20099	0.202305
1008	0.196881	0.192936	0.196223	0.19836	0.199018
1009	0.197538	0.196223	0.199018	0.200332	0.200168
1010	0.201647	0.19721	0.200825	0.17157	0.197703
1011	0.20099	0.200004	0.201154	0.169926	0.201319
1012	0.197703	0.194909	0.200497	0.168776	0.196059
1013	0.198031	0.195237	0.202305	0.171241	0.199018
1014	0.20214	0.199182	0.200661	0.170748	0.19836
1015	0.198196	0.194909	0.200004	0.173049	0.20214
1016	0.20099	0.194416	0.197045	0.172556	0.193101
1017	0.201319	0.195073	0.199018	0.174857	0.197538
1018	0.200497	0.197045	0.19836	0.179295	0.200004
1019	0.200661	0.193922	0.197374	0.181267	0.199511
1020	0.198031	0.196717	0.199346	0.180774	0.200332
1021	0.202305	0.197045	0.198689	0.185869	0.202962
1022	0.200825	0.196881	0.200661	0.180116	0.204606
1023	0.196881	0.19721	0.200497	0.18176	0.199182
1024	0.200004	0.19836	0.204113	0.184883	0.201647
1025	0.20099	0.199346	0.196059	0.185047	0.196881
1026	0.19836	0.197867	0.196881	0.183897	0.199018
1027	0.20099	0.203126	0.199675	0.182582	0.198853
1028	0.199346	0.198524	0.19836	0.183075	0.199182
1029	0.20214	0.199346	0.197703	0.183239	0.196881
1030	0.197045	0.19721	0.198524	0.185869	0.19836
1031	0.192772	0.197703	0.200332	0.181924	0.195895
1032	0.202469	0.198524	0.202469	0.187019	0.19721
1033	0.200004	0.200004	0.198853	0.189485	0.19836
1034	0.195566	0.193922	0.202305	0.186198	0.198689
1035	0.200661	0.196881	0.202798	0.18932	0.19573
1036	0.200004	0.199018	0.203291	0.189485	0.200332
1037	0.197867	0.197374	0.200497	0.192936	0.201976
1038	0.200004	0.198853	0.199346	0.186033	0.203455
1039	0.198524	0.198689	0.197703	0.192443	0.200497
1040	0.200332	0.197374	0.198689	0.193429	0.202633
1041	0.199018	0.195237	0.199675	0.192772	0.201812
1042	0.199839	0.200661	0.204113	0.1908	0.198196
1043	0.197867	0.200497	0.199182	0.197374	0.201483
1044	0.201483	0.200004	0.198031	0.194744	0.20362
1045	0.196223	0.199018	0.202305	0.191786	0.200825
1046	0.201154	0.199839	0.198524	0.191293	0.195566
1047	0.203784	0.198853	0.200004	0.1908	0.195402
1048	0.200168	0.199346	0.199346	0.196059	0.196717
1049	0.199511	0.197703	0.202305	0.190471	0.199018
1050	0.197374	0.197703	0.198524	0.193594	0.195237
1051	0.201483	0.199839	0.20099	0.19458	0.199675
1052	0.195073	0.195566	0.20362	0.198196	0.200497
1053	0.201483	0.193265	0.200497	0.191457	0.198689
1054	0.195237	0.196059	0.196223	0.196059	0.200332
1055	0.199018	0.19573	0.199182	0.198689	0.201154
1056	0.197867	0.197045	0.198031	0.196059	0.200004
1057	0.19721	0.197374	0.199511	0.195237	0.199675
1058	0.19836	0.199675	0.197867	0.19573	0.201154
1059	0.199182	0.19836	0.19721	0.200168	0.197374
1060	0.19836	0.200825	0.19836	0.196717	0.201976
1061	0.19836	0.197703	0.19721	0.191786	0.194744
1062	0.199346	0.196881	0.200661	0.193922	0.199182
1063	0.199182	0.202633	0.20099	0.192443	0.19836
1064	0.202469	0.20099	0.20214	0.195073	0.195895
1065	0.19836	0.199182	0.198031	0.19573	0.19573
1066	0.200661	0.195566	0.198689	0.197045	0.201483
1067	0.197374	0.198853	0.199839	0.196881	0.199018
1068	0.202798	0.19721	0.202962	0.192279	0.199018
1069	0.19836	0.199182	0.199839	0.199182	0.200332
1070	0.199182	0.199346	0.199511	0.202962	0.200004
1071	0.197867	0.198031	0.200497	0.196223	0.200332
1072	0.200332	0.201812	0.201483	0.198853	0.198524
1073	0.199839	0.200661	0.203291	0.199182	0.20362
1074	0.202305	0.198196	0.19836	0.198524	0.19836
1075	0.200332	0.200661	0.202798	0.199018	0.200168
1076	0.199182	0.204113	0.197045	0.201483	0.197703
1077	0.204277	0.199511	0.198524	0.196881	0.196717
1078	0.19721	0.201319	0.200661	0.201483	0.199675
1079	0.199346	0.197867	0.200497	0.196717	0.196223
1080	0.201647	0.202469	0.197867	0.19836	0.195402
1081	0.199839	0.199346	0.200661	0.197045	0.196881
1082	0.199511	0.200825	0.199675	0.189649	0.198689
1083	0.198524	0.196388	0.202305	0.198524	0.196881
1084	0.199182	0.198853	0.20099	0.197703	0.200168
1085	0.19836	0.199346	0.203291	0.196059	0.19836
1086	0.197867	0.198689	0.197538	0.200168	0.200004
1087	0.199346	0.19836	0.200332	0.198031	0.198196
1088	0.198196	0.19836	0.199675	0.196717	0.201812
1089	0.200332	0.200168	0.198196	0.197538	0.201647
1090	0.199511	0.197538	0.202798	0.199182	0.200004
1091	0.196388	0.199839	0.196223	0.197538	0.199018
1092	0.198853	0.193101	0.199511	0.192772	0.201154
1093	0.199511	0.198031	0.199675	0.196223	0.194416
1094	0.199675	0.201812	0.200661	0.197867	0.198689
1095	0.199839	0.199511	0.197867	0.200497	0.200661
1096	0.199018	0.19836	0.202305	0.199018	0.201647
1097	0.199346	0.200825	0.201812	0.199018	0.199839
1098	0.19573	0.197538	0.201647	0.198689	0.198031
1099	0.197045	0.20099	0.198853	0.197703	0.200661
1100	0.199511	0.198524	0.202305	0.200661	0.198853
1101	0.196388	0.198524	0.20214	0.196717	0.198524
1102	0.202469	0.198689	0.198524	0.194087	0.199511
1103	0.200004	0.199018	0.203291	0.187513	0.198196
1104	0.194744	0.201812	0.20099	0.196059	0.198853
1105	0.194744	0.198031	0.200332	0.197703	0.199839
1106	0.201647	0.19721	0.199511	0.198524	0.200168
1107	0.200168	0.197867	0.199511	0.200332	0.199346
1108	0.197538	0.200004	0.201483	0.197538	0.19836
1109	0.199182	0.197045	0.200497	0.197867	0.199018
1110	0.199182	0.195237	0.198853	0.19836	0.199675
1111	0.200004	0.199839	0.198524	0.199675	0.199018
1112	0.198853	0.203126	0.199511	0.199839	0.198524
1113	0.19836	0.200168	0.198524	0.196223	0.19573
1114	0.198689	0.205921	0.198524	0.1908	0.196552
1115	0.196717	0.201154	0.200497	0.192443	0.198031
1116	0.196717	0.202305	0.199511	0.200497	0.199018
1117	0.200497	0.20099	0.199511	0.197374	0.196223
1118	0.196552	0.199018	0.205921	0.198689	0.196717
1119	0.199346	0.201812	0.202633	0.19721	0.197374
1120	0.19836	0.200004	0.202798	0.195073	0.199511
1121	0.198853	0.196881	0.199182	0.19836	0.198689
1122	0.199018	0.201483	0.198524	0.19836	0.200661
1123	0.200661	0.19836	0.195895	0.198853	0.19836
1124	0.199839	0.199018	0.197538	0.198853	0.195895
1125	0.197374	0.202469	0.197867	0.197538	0.196717
1126	0.200332	0.198524	0.198853	0.197703	0.19836
1127	0.196388	0.199182	0.198689	0.199018	0.197867
1128	0.201647	0.200168	0.197867	0.199182	0.201319
1129	0.199675	0.196552	0.202962	0.201647	0.197703
1130	0.200661	0.199839	0.203784	0.199346	0.200004
1131	0.203126	0.201154	0.199675	0.201483	0.200332
1132	0.200825	0.199346	0.199018	0.196223	0.199346
1133	0.195237	0.199182	0.19836	0.200332	0.201976
1134	0.200168	0.200497	0.199346	0.201647	0.198031
1135	0.19573	0.199839	0.200497	0.200168	0.200332
1136	0.197538	0.201319	0.201483	0.201647	0.199182
1137	0.200168	0.198689	0.201812	0.195566	0.200332
1138	0.196388	0.200004	0.200825	0.192115	0.197867
1139	0.200332	0.199675	0.201319	0.197703	0.200825
1140	0.200004	0.197703	0.202633	0.197538	0.195566
1141	0.200168	0.196717	0.203126	0.196059	0.198689
1142	0.200004	0.202305	0.199346	0.200497	0.201647
1143	0.201647	0.193429	0.202633	0.197538	0.201483
1144	0.198689	0.199018	0.197538	0.200825	0.198524
1145	0.200661	0.196059	0.203455	0.199839	0.199018
1146	0.197867	0.200004	0.196223	0.201319	0.201976
1147	0.193429	0.197867	0.199839	0.199346	0.200661
1148	0.199182	0.201976	0.198689	0.199839	0.203291
1149	0.194744	0.198524	0.199018	0.199839	0.200497
1150	0.195402	0.202962	0.199018	0.200004	0.203455
1151	0.199675	0.199839	0.200497	0.198853	0.200168
1152	0.196552	0.197538	0.202798	0.201319	0.199182
1153	0.193101	0.199675	0.201154	0.197703	0.20099
1154	0.198196	0.201812	0.201319	0.199182	0.199182
1155	0.195402	0.035811	0.200497	0.200661	0.196059
1156	0.197538	0.015924	0.208386	0.198524	0.198853
1157	0.198524	0.02332	0.197374	0.199182	0.197538
1158	0.201812	0.031373	0.201319	0.19836	0.198689
1159	0.201154	0.039591	0.196223	0.200004	0.19836
1160	0.199346	0.04255	0.200332	0.197538	0.19721
1161	0.203948	0.051918	0.199346	0.199346	0.200825
1162	0.19836	0.057671	0.201154	0.200497	0.199182
1163	0.199839	0.065067	0.199839	0.200168	0.19836
1164	0.202469	0.073778	0.202633	0.197045	0.202798
1165	0.196059	0.076079	0.199511	0.198689	0.203291
1166	0.198689	0.08331	0.196717	0.199346	0.19836
1167	0.197374	0.086269	0.206907	0.201154	0.20099
1168	0.198689	0.091364	0.201976	0.198689	0.201319
1169	0.198689	0.094651	0.201319	0.202469	0.204934
1170	0.198524	0.100075	0.19836	0.204277	0.200497
1171	0.198689	0.102376	0.195402	0.203784	0.200497
1172	0.200497	0.107471	0.197703	0.198196	0.20099
1173	0.200497	0.109936	0.201647	0.19721	0.199511
1174	0.201812	0.114538	0.197703	0.199675	0.196059
1175	0.204277	0.109772	0.200661	0.197867	0.194744
1176	0.200825	0.121605	0.199346	0.196552	0.199839
1177	0.200332	0.123742	0.200168	0.200168	0.195402
1178	0.200004	0.121112	0.201319	0.203455	0.198031
1179	0.199511	0.130645	0.197045	0.19836	0.200661
1180	0.198853	0.132946	0.200004	0.201976	0.198196
1181	0.202798	0.137384	0.199018	0.198689	0.201812
1182	0.201647	0.134754	0.19836	0.198853	0.202798
1183	0.200661	0.144287	0.195073	0.200825	0.200168
1184	0.202633	0.145602	0.197374	0.204934	0.203784
1185	0.198853	0.143794	0.201154	0.202469	0.199346
1186	0.197703	0.147574	0.19721	0.201647	0.202305
1187	0.198524	0.14971	0.195073	0.194744	0.19458
1188	0.199182	0.153491	0.201319	0.199018	0.199346
1189	0.199675	0.153655	0.19573	0.200661	0.198196
1190	0.200497	0.155134	0.197538	0.199182	0.19836
1191	0.198689	0.158257	0.198853	0.199346	0.19721
1192	0.199346	0.161544	0.201154	0.199182	0.196881
1193	0.19836	0.163352	0.199839	0.200332	0.200332
1194	0.202633	0.162202	0.202469	0.201154	0.198196
1195	0.199675	0.163023	0.201647	0.199839	0.20099
1196	0.198853	0.165653	0.200004	0.200332	0.199346
1197	0.193758	0.164996	0.202633	0.201154	0.20099
1198	0.198689	0.165982	0.197045	0.196881	0.20214
1199	0.199511	0.17157	0.196881	0.20214	0.201319
1200	0.19721	0.167461	0.189814	0.20362	0.201319
1201	0.199511	0.172392	0.196717	0.200332	0.203126
1202	0.19836	0.174857	0.196388	0.202305	0.198689
1203	0.193265	0.173871	0.200004	0.199511	0.200332
1204	0.196717	0.178144	0.194744	0.199839	0.197374
1205	0.202633	0.178802	0.196059	0.198524	0.20099
1206	0.197374	0.177322	0.196717	0.198689	0.196223
1207	0.199675	0.175186	0.197374	0.197538	0.199346
1208	0.200332	0.177322	0.197538	0.199018	0.199675
1209	0.197703	0.176008	0.199346	0.19721	0.197538
1210	0.197703	0.176336	0.199346	0.202305	0.197374
1211	0.199839	0.176008	0.188006	0.199675	0.195895
1212	0.199346	0.177815	0.200661	0.20099	0.20099
1213	0.200661	0.182417	0.19836	0.199675	0.201154
1214	0.199511	0.182746	0.19721	0.200004	0.203948
1215	0.205921	0.184225	0.198196	0.197045	0.200497
1216	0.20099	0.185705	0.199511	0.201976	0.203455
1217	0.197374	0.184061	0.19836	0.198524	0.20099
1218	0.201154	0.185047	0.201154	0.199182	0.203784
1219	0.199839	0.18817	0.198853	0.197045	0.203455
1220	0.201976	0.185869	0.201154	0.193429	0.199346
1221	0.198689	0.188992	0.19573	0.199182	0.200332
1222	0.200661	0.187019	0.191293	0.200497	0.196881
1223	0.196223	0.190142	0.19573	0.201647	0.199675
1224	0.200168	0.190307	0.199511	0.199675	0.198031
1225	0.200332	0.186691	0.199346	0.205592	0.196552
1226	0.198689	0.19195	0.200168	0.196717	0.19721
1227	0.200825	0.188334	0.200004	0.200332	0.198853
1228	0.199675	0.189649	0.199511	0.198196	0.195073
1229	0.198689	0.189814	0.198853	0.200004	0.197374
1230	0.201154	0.190307	0.194416	0.200332	0.19721
1231	0.200004	0.191128	0.192772	0.200825	0.204277
1232	0.201319	0.191457	0.198524	0.202469	0.199018
1233	0.199839	0.1908	0.19458	0.200004	0.202633
1234	0.198689	0.192608	0.195237	0.200825	0.201154
1235	0.201976	0.191293	0.200825	0.200004	0.197045
1236	0.197374	0.194251	0.196388	0.205099	0.201647
1237	0.196717	0.195237	0.201647	0.199675	0.199182
1238	0.199346	0.196552	0.195895	0.199182	0.199839
1239	0.201647	0.193101	0.201483	0.19836	0.200004
1240	0.196552	0.194744	0.196059	0.199511	0.201319
1241	0.200004	0.193758	0.200825	0.200497	0.197538
1242	0.200004	0.188334	0.200661	0.200825	0.198031
1243	0.196223	0.192772	0.204113	0.201812	0.196388
1244	0.198524	0.194416	0.201483	0.200332	0.201976
1245	0.19721	0.193594	0.196223	0.198196	0.197867
1246	0.197703	0.195073	0.200825	0.201154	0.199018
1247	0.197867	0.19573	0.19836	0.20099	0.197538
1248	0.197374	0.193594	0.200004	0.200004	0.199182
1249	0.20099	0.195566	0.196552	0.198031	0.201483
1250	0.201483	0.192936	0.200825	0.197045	0.201483
1251	0.198524	0.194251	0.193594	0.196881	0.202798
1252	0.200497	0.194416	0.202469	0.199675	0.198196
1253	0.197867	0.197045	0.199018	0.198031	0.201319
1254	0.202962	0.19195	0.200332	0.198853	0.199018
1255	0.20099	0.192443	0.19836	0.200825	0.200004
1256	0.19836	0.196059	0.198853	0.198031	0.197374
1257	0.196223	0.195073	0.199018	0.201976	0.199675
1258	0.197867	0.195402	0.198853	0.201812	0.197045
1259	0.196552	0.193101	0.196881	0.197867	0.19836
1260	0.199346	0.198689	0.195895	0.197045	0.200825
1261	0.197703	0.193758	0.198853	0.196388	0.201976
1262	0.199018	0.193429	0.195566	0.197867	0.199018
1263	0.200168	0.19573	0.199675	0.195895	0.203455
1264	0.195073	0.196717	0.198689	0.199182	0.201154
1265	0.200497	0.193594	0.201154	0.19721	0.199182
1266	0.200004	0.196388	0.194251	0.198196	0.200497
1267	0.201812	0.196552	0.198689	0.198196	0.199511
1268	0.199346	0.198853	0.199839	0.196881	0.198031
1269	0.201154	0.197374	0.198689	0.197538	0.198689
1270	0.197538	0.198031	0.200004	0.197538	0.192608
1271	0.203455	0.199675	0.20099	0.19573	0.198689
1272	0.200168	0.199511	0.193922	0.201154	0.200332
1273	0.199018	0.198524	0.194087	0.20099	0.198524
1274	0.197703	0.199839	0.199018	0.200661	0.201812
1275	0.197374	0.201647	0.196717	0.194744	0.19836
1276	0.195895	0.196717	0.198031	0.199018	0.200825
1277	0.195566	0.19721	0.198524	0.199182	0.199511
1278	0.197703	0.199511	0.196717	0.197538	0.199675
1279	0.199018	0.199182	0.197538	0.200497	0.198689
1280	0.196881	0.196717	0.197867	0.20362	0.199018
1281	0.196223	0.198524	0.195073	0.195895	0.199511
1282	0.202962	0.197374	0.198853	0.198853	0.198196
1283	0.199511	0.198524	0.19573	0.202305	0.198524
1284	0.201483	0.196717	0.193922	0.196059	0.197045
1285	0.200497	0.196881	0.198031	0.196552	0.200332
1286	0.201976	0.199182	0.19458	0.198196	0.199675
1287	0.197703	0.198031	0.19458	0.200332	0.200497
1288	0.201483	0.200661	0.195566	0.19836	0.199511
1289	0.199675	0.203948	0.193101	0.201647	0.201647
1290	0.19836	0.19836	0.195402	0.200497	0.197703
1291	0.198853	0.196881	0.195073	0.201976	0.203784
1292	0.197045	0.202798	0.193758	0.20099	0.20362
1293	0.199675	0.197045	0.19721	0.194744	0.201319
1294	0.196552	0.197538	0.194416	0.199511	0.203455
1295	0.198853	0.197867	0.190142	0.195895	0.200004
1296	0.196059	0.195566	0.197867	0.198689	0.20214
1297	0.201976	0.198524	0.196223	0.199511	0.199182
1298	0.196881	0.198853	0.195895	0.199346	0.196059
1299	0.198689	0.197374	0.19836	0.200497	0.200332
1300	0.201976	0.200004	0.193922	0.200661	0.197538
1301	0.201976	0.199018	0.199675	0.197045	0.198524
1302	0.199346	0.19721	0.194744	0.202469	0.200661
1303	0.200004	0.198196	0.196223	0.199182	0.199182
1304	0.198689	0.201154	0.19836	0.198689	0.201483
1305	0.203948	0.197538	0.196059	0.201483	0.200497
1306	0.198196	0.194744	0.190142	0.200332	0.205592
1307	0.198196	0.194251	0.197538	0.199182	0.198524
1308	0.199182	0.198689	0.197538	0.200497	0.203948
1309	0.195566	0.196717	0.197045	0.202798	0.199839
1310	0.199018	0.200004	0.200497	0.201647	0.200004
1311	0.199346	0.201976	0.196388	0.202305	0.201976
1312	0.199839	0.195895	0.198196	0.199346	0.202305
1313	0.198031	0.203126	0.19721	0.199018	0.202962
1314	0.199511	0.199018	0.196717	0.196717	0.200661
1315	0.200661	0.200497	0.196717	0.199839	0.197703
1316	0.197703	0.198524	0.200497	0.193922	0.199346
1317	0.200332	0.199182	0.196717	0.197867	0.200661
1318	0.201483	0.198031	0.200497	0.195895	0.196881
1319	0.201319	0.199346	0.200168	0.198031	0.200825
1320	0.203126	0.200661	0.19836	0.200825	0.199182
1321	0.198524	0.19836	0.198524	0.201976	0.203784
1322	0.203126	0.200825	0.198524	0.200332	0.201319
1323	0.202633	0.200168	0.195402	0.201647	0.199675
1324	0.197374	0.198031	0.196717	0.208222	0.201319
1325	0.196059	0.198524	0.200825	0.205592	0.201647
1326	0.202469	0.204441	0.193429	0.199018	0.198524
1327	0.199182	0.196388	0.198524	0.199675	0.199182
1328	0.197867	0.199346	0.194087	0.202469	0.200168
1329	0.200661	0.199182	0.199018	0.197538	0.200332
1330	0.201976	0.200661	0.200497	0.200332	0.202633
1331	0.199839	0.199182	0.195073	0.200825	0.200661
1332	0.200004	0.199511	0.200168	0.197703	0.196881
1333	0.200825	0.199346	0.201483	0.196059	0.199675
1334	0.200004	0.200825	0.198853	0.196881	0.199839
1335	0.201319	0.200168	0.201812	0.198524	0.197045
1336	0.20099	0.201483	0.197538	0.198524	0.200004
1337	0.204113	0.203455	0.199346	0.199839	0.199182
1338	0.200332	0.194909	0.202305	0.200004	0.200168
1339	0.201319	0.199018	0.197538	0.198853	0.200661
1340	0.200004	0.194251	0.20099	0.202798	0.199675
1341	0.199675	0.199675	0.199675	0.199839	0.202469
1342	0.197703	0.197538	0.199675	0.203126	0.202633
1343	0.198689	0.202305	0.198031	0.202305	0.200168
1344	0.200332	0.202633	0.205592	0.200497	0.201812
1345	0.197867	0.204606	0.200004	0.20855	0.198689
1346	0.19836	0.202469	0.196223	0.199018	0.201319
1347	0.194744	0.202305	0.199675	0.199839	0.199839
1348	0.202305	0.205921	0.199839	0.197045	0.193101
1349	0.197867	0.196388	0.198196	0.199182	0.197867
1350	0.201812	0.201319	0.20214	0.192772	0.200004
1351	0.197538	0.199018	0.199839	0.197703	0.195402
1352	0.202962	0.200497	0.200661	0.198524	0.197374
1353	0.196059	0.197867	0.201483	0.197867	0.200332
1354	0.199018	0.198196	0.199839	0.202305	0.197045
1355	0.195073	0.199511	0.203126	0.201319	0.201154
1356	0.190964	0.198853	0.200168	0.198853	0.201483
1357	0.202962	0.196059	0.199675	0.201647	0.200497
1358	0.198031	0.201647	0.198524	0.200661	0.19836
1359	0.201976	0.204113	0.200332	0.200825	0.20214
1360	0.199182	0.200825	0.19573	0.20362	0.200332
1361	0.200497	0.200661	0.201976	0.19573	0.201812
1362	0.200497	0.203126	0.198689	0.201976	0.205921
1363	0.202469	0.201154	0.19836	0.19721	0.200332
1364	0.197867	0.199346	0.202798	0.197045	0.196881
1365	0.200004	0.200497	0.198524	0.196552	0.19721
1366	0.200661	0.200168	0.203784	0.199182	0.199346
1367	0.199839	0.202469	0.201154	0.196388	0.19721
1368	0.200497	0.202469	0.200004	0.197045	0.200004
1369	0.202469	0.199018	0.199675	0.197538	0.197703
1370	0.203126	0.197045	0.203126	0.199839	0.200004
1371	0.200497	0.200168	0.199346	0.199839	0.199346
1372	0.199675	0.195402	0.202798	0.201154	0.199511
1373	0.202305	0.202633	0.199675	0.198853	0.19458
1374	0.206249	0.201812	0.19836	0.195895	0.200168
1375	0.198031	0.202798	0.199346	0.199839	0.198524
1376	0.201647	0.197045	0.199346	0.202798	0.199675
1377	0.20099	0.203455	0.199675	0.203948	0.199018
1378	0.194416	0.201976	0.201319	0.197703	0.19836
1379	0.201319	0.200661	0.197867	0.202633	0.203126
1380	0.203126	0.20099	0.204113	0.197703	0.195237
1381	0.194909	0.193101	0.205099	0.19721	0.201812
1382	0.204606	0.200497	0.201647	0.197538	0.198853
1383	0.200332	0.196059	0.201483	0.199675	0.199346
1384	0.200497	0.201154	0.200661	0.199018	0.198689
1385	0.207235	0.198853	0.20099	0.200168	0.201154
1386	0.195895	0.201647	0.20362	0.199675	0.19721
1387	0.200332	0.197703	0.201812	0.199018	0.199018
1388	0.19836	0.202798	0.202798	0.201976	0.200497
1389	0.199839	0.198524	0.203126	0.19836	0.19721
1390	0.198031	0.199182	0.199018	0.200497	0.196717
1391	0.200825	0.197867	0.200497	0.201154	0.19721
1392	0.200661	0.189814	0.198853	0.20099	0.201154
1393	0.201812	0.198031	0.202633	0.200661	0.20099
1394	0.200497	0.200004	0.19721	0.199346	0.201483
1395	0.201319	0.201319	0.199675	0.192443	0.199675
1396	0.203126	0.199839	0.104348	0.195566	0.201812
1397	0.194416	0.202633	0.093336	0.201647	0.197867
1398	0.197867	0.203291	0.098595	0.200497	0.198031
1399	0.198196	0.205756	0.103855	0.199839	0.198524
1400	0.199018	0.204441	0.107799	0.20099	0.200004
1401	0.199018	0.204934	0.10632	0.199018	0.19836
1402	0.19836	0.19721	0.116675	0.199346	0.198524
1403	0.199839	0.197045	0.119304	0.199346	0.199018
1404	0.199675	0.196552	0.124399	0.197703	0.201154
1405	0.19573	0.198196	0.123578	0.201647	0.206249
1406	0.198031	0.19836	0.129659	0.198196	0.196388
1407	0.196223	0.198196	0.130974	0.203455	0.200825
1408	0.204277	0.194744	0.13196	0.197538	0.199018
1409	0.199839	0.197538	0.135411	0.199018	0.201483
1410	0.203291	0.20099	0.139356	0.201319	0.198689
1411	0.199182	0.200825	0.140506	0.202633	0.199839
1412	0.20362	0.20099	0.143465	0.199675	0.19836
1413	0.200497	0.200825	0.144615	0.200168	0.199511
1414	0.203784	0.198689	0.149546	0.199182	0.197538
1415	0.20099	0.197538	0.15234	0.19721	0.199675
1416	0.200168	0.203455	0.148396	0.198689	0.198031
1417	0.199675	0.199675	0.155627	0.20099	0.199839
1418	0.188499	0.199839	0.159079	0.198689	0.199839
1419	0.199839	0.199511	0.158093	0.199018	0.195895
1420	0.195073	0.201483	0.1576	0.199839	0.199018
1421	0.19836	0.203948	0.165489	0.200168	0.194416
1422	0.197374	0.204113	0.161873	0.203126	0.189485
1423	0.199346	0.199839	0.165324	0.201812	0.191786
1424	0.199675	0.200497	0.165489	0.203455	0.187184
1425	0.202962	0.197867	0.166311	0.198689	0.189156
1426	0.200497	0.198689	0.167132	0.195402	0.18439
1427	0.201319	0.196717	0.167297	0.197867	0.168283
1428	0.202305	0.199346	0.169433	0.199839	0.112237
1429	0.1908	0.200332	0.168283	0.198689	0.112566
1430	0.200661	0.199346	0.173378	0.201647	0.111908
1431	0.200168	0.20099	0.170419	0.199346	0.115524
1432	0.202305	0.203126	0.171899	0.201812	0.118976
1433	0.202962	0.201647	0.174528	0.201647	0.11536
1434	0.20214	0.200661	0.182089	0.201812	0.120126
1435	0.201319	0.200661	0.177487	0.200661	0.116182
1436	0.203784	0.201976	0.180116	0.198524	0.12292
1437	0.195895	0.200661	0.181103	0.199182	0.121605
1438	0.201483	0.200661	0.18176	0.197538	0.123906
1439	0.19836	0.199675	0.181596	0.200168	0.123413
1440	0.193922	0.198031	0.186691	0.19721	0.120619
1441	0.198853	0.199018	0.18554	0.202633	0.123578
1442	0.199182	0.197045	0.182089	0.200497	0.121112
1443	0.198853	0.200004	0.18554	0.195402	0.123413
1444	0.20362	0.201154	0.182746	0.199018	0.119962
1445	0.200825	0.19836	0.186362	0.20099	0.121605
1446	0.201812	0.200825	0.185376	0.202305	0.120784
1447	0.199346	0.203291	0.187513	0.199511	0.124399
1448	0.19836	0.20099	0.185047	0.200004	0.120455
1449	0.201154	0.20099	0.189649	0.199675	0.121441
1450	0.200004	0.202962	0.189156	0.201647	0.118318
1451	0.199018	0.199346	0.191128	0.198031	0.116346
1452	0.19573	0.201812	0.18932	0.202962	0.120619
1453	0.198196	0.200332	0.191128	0.199182	0.117003
1454	0.196552	0.203291	0.1908	0.201812	0.115853
1455	0.196881	0.201976	0.191293	0.201812	0.115195
1456	0.202962	0.199018	0.190471	0.200168	0.115524
1457	0.203455	0.201154	0.194744	0.198031	0.110758
1458	0.201319	0.194909	0.191621	0.200332	0.111908
1459	0.197867	0.199675	0.1908	0.200168	0.107799
1460	0.203948	0.195402	0.194416	0.198524	0.108457
1461	0.201647	0.198524	0.189978	0.201154	0.103526
1462	0.200825	0.197867	0.190635	0.19836	0.101061
1463	0.19836	0.20099	0.19573	0.197374	0.098595
1464	0.202798	0.200168	0.191786	0.197867	0.072134
1465	0.199018	0.20214	0.194087	0.205427	0.069176
1466	0.204441	0.201812	0.196552	0.199511	0.063587
1467	0.201647	0.20099	0.192443	0.200497	0.061451
1468	0.202305	0.202305	0.195895	0.200661	0.06408
1469	0.201319	0.206907	0.195402	0.200661	0.064245
1470	0.201812	0.201154	0.194087	0.20099	0.061615
1471	0.196717	0.204441	0.194416	0.203291	0.064902
1472	0.199511	0.201483	0.19458	0.198196	0.059972
1473	0.198031	0.20099	0.196552	0.199346	0.062108
1474	0.196881	0.20214	0.194909	0.200497	0.038112
1475	0.199346	0.200497	0.197538	0.202633	0.02447
1476	0.202798	0.203455	0.196223	0.203784	0.015924
1477	0.200168	0.197538	0.200332	0.19836	0.011651
1478	0.201154	0.201319	0.191293	0.198524	0.005076
1479	0.20362	0.19836	0.198689	0.198524	0.012144
1480	0.202633	0.203948	0.19836	0.201154	0.015266
1481	0.206742	0.198853	0.199346	0.200332	0.018554
1482	0.203948	0.198853	0.201812	0.202305	0.020033
1483	0.204441	0.201812	0.201976	0.200332	0.026114
1484	0.197045	0.200004	0.19721	0.20214	0.036633
1485	0.200661	0.198196	0.201647	0.203948	0.039263
1486	0.199182	0.20477	0.194416	0.202798	0.050768
1487	0.199346	0.202305	0.196552	0.201812	0.054055
1488	0.201483	0.200661	0.198524	0.200332	0.058492
1489	0.198689	0.201812	0.197538	0.198524	0.066217
1490	0.201483	0.198689	0.198853	0.201154	0.072463
1491	0.199839	0.201483	0.199018	0.198853	0.077722
1492	0.199346	0.196388	0.19836	0.200332	0.07953
1493	0.203784	0.199346	0.200332	0.19836	0.082488
1494	0.20214	0.199182	0.200661	0.203126	0.089556
1495	0.200497	0.199346	0.198689	0.200825	0.093007
1496	0.200332	0.20099	0.198853	0.198031	0.098102
1497	0.199511	0.198689	0.198524	0.203126	0.101883
1498	0.199346	0.197045	0.205427	0.201319	0.103526
1499	0.199018	0.200497	0.199346	0.19836	0.109279
1500	0.199182	0.198031	0.199675	0.202305	0.115031
1501	0.202305	0.200168	0.198524	0.20214	0.118976
1502	0.201319	0.200004	0.196388	0.200004	0.12292
1503	0.196552	0.200004	0.19836	0.203455	0.127522
1504	0.200004	0.200004	0.197867	0.199182	0.127029
1505	0.199675	0.197703	0.201647	0.202798	0.133439
1506	0.19721	0.202305	0.197538	0.200004	0.13311
1507	0.196223	0.199018	0.19836	0.20099	0.134425
1508	0.200497	0.201483	0.201154	0.201154	0.135904
1509	0.199018	0.199018	0.20099	0.200661	0.139356
1510	0.199346	0.19836	0.200497	0.19836	0.141164
1511	0.201154	0.201483	0.206414	0.200825	0.145273
1512	0.202633	0.201647	0.199511	0.200661	0.148724
1513	0.202633	0.201319	0.203291	0.198524	0.153326
1514	0.204277	0.195402	0.202305	0.201647	0.148889
1515	0.200825	0.178802	0.202798	0.199675	0.154312
1516	0.197867	0.177815	0.200497	0.200825	0.156613
1517	0.202633	0.181103	0.200497	0.199839	0.158914
1518	0.19836	0.180281	0.199182	0.20099	0.160229
1519	0.202633	0.185047	0.20099	0.201812	0.161215
1520	0.203948	0.183075	0.20099	0.199675	0.16253
1521	0.200168	0.183239	0.198196	0.199346	0.166475
1522	0.200168	0.185047	0.193101	0.205756	0.167461
1523	0.200825	0.187019	0.198689	0.205427	0.170584
1524	0.200497	0.185212	0.197538	0.197538	0.171077
1525	0.197867	0.187348	0.199346	0.19721	0.168283
1526	0.202633	0.186198	0.198196	0.201647	0.171077
1527	0.200661	0.004748	0.202305	0.202305	0.16894
1528	0.202633	0.01691	0.207564	0.201319	0.170091
1529	0.201154	0.022827	0.203126	0.199182	0.168447
1530	0.202305	0.029566	0.205099	0.20477	0.169433
1531	0.204934	0.038605	0.203948	0.202798	0.176501
1532	0.200661	0.043865	0.20099	0.199511	0.17798
1533	0.201154	0.046494	0.195566	0.201647	0.178966
1534	0.203784	0.060136	0.197538	0.20099	0.18176
1535	0.199675	0.063752	0.201647	0.200332	0.182911
1536	0.201976	0.069833	0.199839	0.201483	0.180938
1537	0.201647	0.074435	0.199018	0.201319	0.18061
1538	0.200825	0.080023	0.200332	0.201647	0.18176
1539	0.198853	0.086433	0.200332	0.201976	0.185869
1540	0.203291	0.090049	0.199839	0.201976	0.179459
1541	0.199346	0.092843	0.20214	0.200168	0.185212
1542	0.200004	0.098102	0.201483	0.202962	0.183897
1543	0.201154	0.102869	0.201812	0.199675	0.185705
1544	0.199839	0.106649	0.199675	0.19836	0.185869
1545	0.203455	0.109772	0.200168	0.198524	0.18554
1546	0.202305	0.115853	0.20099	0.200497	0.189485
1547	0.206578	0.118154	0.201812	0.200497	0.183732
1548	0.194416	0.120784	0.200004	0.202633	0.187348
1549	0.201154	0.127029	0.202962	0.197703	0.18817
1550	0.20362	0.12933	0.201647	0.199675	0.1908
1551	0.201154	0.130316	0.199511	0.201319	0.187184
1552	0.197703	0.133932	0.201319	0.199346	0.191457
1553	0.200168	0.135904	0.201483	0.201483	0.190142
1554	0.199511	0.137548	0.201154	0.202469	0.192608
1555	0.197045	0.141657	0.196388	0.202305	0.190471
1556	0.201812	0.142479	0.198853	0.199839	0.192772
1557	0.20099	0.145437	0.19836	0.201319	0.19195
1558	0.199346	0.146588	0.199346	0.199511	0.192279
1559	0.195895	0.149217	0.197374	0.201483	0.192936
1560	0.201154	0.152669	0.197867	0.199675	0.191621
1561	0.198689	0.156285	0.197374	0.199675	0.19573
1562	0.20214	0.155299	0.203455	0.200825	0.191786
1563	0.200004	0.157928	0.201976	0.199839	0.195237
1564	0.197867	0.158914	0.202633	0.197538	0.193101
1565	0.199346	0.161544	0.202305	0.197374	0.193101
1566	0.199839	0.161873	0.200661	0.201483	0.192443
1567	0.202469	0.168283	0.201319	0.198196	0.198031
1568	0.20099	0.163845	0.20099	0.197867	0.194744
1569	0.20362	0.16779	0.200497	0.199675	0.195402
1570	0.203948	0.167625	0.198031	0.201154	0.197045
1571	0.199182	0.170419	0.20099	0.199675	0.195402
1572	0.206249	0.172556	0.200661	0.196552	0.196223
1573	0.202962	0.170913	0.198524	0.202469	0.192608
1574	0.200004	0.175021	0.200825	0.202305	0.193429
1575	0.201812	0.175021	0.201647	0.201483	0.193758
1576	0.200168	0.178966	0.196881	0.200004	0.196059
1577	0.201976	0.175186	0.201154	0.199511	0.187513
1578	0.200168	0.177322	0.202633	0.201154	0.197867
1579	0.20099	0.178802	0.198524	0.197374	0.197374
1580	0.200168	0.178966	0.203126	0.20099	0.197374
1581	0.199675	0.179459	0.200825	0.196717	0.197538
1582	0.201483	0.179952	0.200168	0.204934	0.197045
1583	0.201319	0.18176	0.204277	0.198853	0.200497
1584	0.20214	0.181596	0.204934	0.199675	0.196552
1585	0.200168	0.182911	0.202798	0.203455	0.197703
1586	0.200497	0.182417	0.202469	0.200168	0.192608
1587	0.199839	0.18817	0.201812	0.201812	0.195073
1588	0.203784	0.182582	0.200661	0.199675	0.196223
1589	0.199675	0.182582	0.198853	0.199839	0.197045
1590	0.200168	0.184718	0.201647	0.200004	0.195237
1591	0.200661	0.189156	0.196881	0.200825	0.19836
1592	0.204934	0.187019	0.202305	0.197538	0.198031
1593	0.200168	0.187841	0.203784	0.199511	0.196059
1594	0.203291	0.185705	0.201483	0.19836	0.199675
1595	0.199511	0.187184	0.200332	0.202962	0.197867
1596	0.199018	0.188827	0.200661	0.201319	0.196717
1597	0.201319	0.186362	0.202798	0.196388	0.194744
1598	0.200825	0.191128	0.200825	0.19836	0.194744
1599	0.199839	0.185376	0.200332	0.199182	0.196223
1600	0.201483	0.186198	0.201154	0.199346	0.195895
1601	0.197538	0.191786	0.201483	0.198524	0.200332
1602	0.198524	0.1908	0.196223	0.200332	0.196881
1603	0.200168	0.187841	0.201976	0.201319	0.196223
1604	0.201812	0.191457	0.20099	0.198031	0.199182
1605	0.199675	0.189485	0.203126	0.200004	0.199675
1606	0.20214	0.192443	0.200168	0.200332	0.196881
1607	0.199182	0.189649	0.202305	0.199346	0.197538
1608	0.198853	0.192115	0.200661	0.202305	0.196881
1609	0.204113	0.193101	0.199675	0.200004	0.199346
1610	0.202962	0.193922	0.19836	0.202633	0.200332
1611	0.20214	0.194416	0.197867	0.199675	0.198524
1612	0.199018	0.19458	0.201483	0.20214	0.201154
1613	0.201483	0.196881	0.197703	0.199346	0.201976
1614	0.199182	0.193429	0.199675	0.199018	0.201483
1615	0.200168	0.195073	0.200825	0.19836	0.197867
1616	0.199675	0.193758	0.201154	0.197867	0.197703
1617	0.20099	0.201483	0.201483	0.190142	0.196223
1618	0.197703	0.195237	0.202305	0.175679	0.197538
1619	0.198689	0.195895	0.200661	0.158914	0.19836
1620	0.201154	0.197045	0.201319	0.140178	0.196717
1621	0.198031	0.195566	0.199511	0.130809	0.198853
1622	0.203126	0.191786	0.201976	0.109114	0.198853
1623	0.198524	0.196388	0.199675	0.096459	0.198853
1624	0.203948	0.196717	0.198524	0.085611	0.192279
1625	0.200825	0.194251	0.19836	0.076079	0.196059
1626	0.202469	0.197538	0.199182	0.055863	0.198689
1627	0.200825	0.194909	0.196881	0.044522	0.189814
1628	0.205263	0.195566	0.191128	0.048302	0.195566
1629	0.197703	0.197867	0.200825	0.049946	0.201319
1630	0.194416	0.196388	0.200661	0.044193	0.200661
1631	0.197374	0.197867	0.196388	0.040084	0.201154
1632	0.197045	0.198524	0.201154	0.021348	0.199839
1633	0.200332	0.197374	0.198689	0.014938	0.202469
1634	0.197538	0.199511	0.201319	0.006884	0.196223
1635	0.200825	0.197703	0.198689	0.00935	0.199182
1636	0.201647	0.198524	0.198689	0.00146	0.205427
1637	0.202305	0.195895	0.203948	0.004912	0.197703
1638	0.199675	0.197538	0.200004	0.004748	0.188663
1639	0.203455	0.195895	0.202633	0.003761	0.197374
1640	0.200168	0.196717	0.201647	0.009021	0.199511
1641	0.201647	0.195402	0.200332	0.006062	0.198031
1642	0.201319	0.19573	0.200004	0.010336	0.19573
1643	0.200168	0.199346	0.200004	0.00935	0.200004
1644	0.199346	0.19721	0.200661	0.012637	0.200168
1645	0.19836	0.198853	0.199346	0.007049	0.197045
1646	0.199018	0.201976	0.199839	0.006062	0.20099
1647	0.201976	0.198853	0.198853	0.005241	0.197374
1648	0.202305	0.19721	0.202798	0.008528	0.199018
1649	0.201319	0.199675	0.194909	0.004912	0.192443
1650	0.203291	0.19573	0.202633	0.005405	0.19573
1651	0.19836	0.197703	0.20099	0.004255	0.197045
1652	0.199839	0.196059	0.201647	0.003926	0.198689
1653	0.198031	0.198689	0.200497	0.007706	0.197374
1654	0.200004	0.195073	0.201647	0.007542	0.197374
1655	0.132617	0.195073	0.19836	0.008528	0.197703
1656	0.133603	0.19573	0.200497	0.009021	0.197045
1657	0.137384	0.197374	0.200825	0.008035	0.200332
1658	0.143465	0.193101	0.194909	0.004583	0.195566
1659	0.145273	0.19721	0.20099	0.007049	0.199839
1660	0.148889	0.201812	0.200168	-1.9e-05	0.194909
1661	0.150039	0.197703	0.201483	0.007213	0.198689
1662	0.14971	0.19836	0.196717	0.00409	0.197374
1663	0.153326	0.198031	0.200332	0.004912	0.202633
1664	0.152669	0.201154	0.198196	0.003926	0.202798
1665	0.151847	0.200332	0.200168	0.003433	0.202469
1666	0.157928	0.203126	0.200497	0.003433	0.200661
1667	0.1576	0.197045	0.200004	0.004912	0.198689
1668	0.1576	0.198196	0.197703	0.003268	0.199346
1669	0.16401	0.19836	0.203291	0.000967	0.198689
1670	0.163188	0.195073	0.200825	0.004419	0.199018
1671	0.164667	0.195073	0.201483	0.003433	0.197045
1672	0.168118	0.201154	0.198853	0.006884	0.197374
1673	0.169269	0.19836	0.199839	0.001954	0.197374
1674	0.171406	0.194909	0.201319	0.002447	0.199839
1675	0.170748	0.20099	0.197538	0.002118	0.196059
1676	0.171899	0.199182	0.198196	0.004583	0.201812
1677	0.1742	0.196717	0.197045	0.001132	0.199675
1678	0.1742	0.197703	0.19836	0.001789	0.195402
1679	0.175186	0.200661	0.199511	0.002118	0.203126
1680	0.175679	0.19721	0.199346	0.003433	0.203126
1681	0.1742	0.199675	0.200332	0.003104	0.193265
1682	0.176501	0.197867	0.201154	0.001296	0.181267
1683	0.175021	0.200168	0.198689	0.00672	0.178966
1684	0.179788	0.202633	0.199839	0.005405	0.180938
1685	0.178802	0.018882	0.204441	0.004255	0.180938
1686	0.179295	0.00935	0.20477	-0.000676	0.183404
1687	0.180938	0.015924	0.199182	0.007542	0.183075
1688	0.180281	0.023156	0.201812	-0.000512	0.182253
1689	0.182417	0.029237	0.203291	0.00146	0.183075
1690	0.183568	0.038276	0.201154	-0.000512	0.183732
1691	0.182582	0.043207	0.201647	0.00146	0.186855
1692	0.188334	0.04896	0.202798	0.003926	0.182911
1693	0.183897	0.054383	0.201154	0.007049	0.187841
1694	0.187677	0.063423	0.197045	0.004255	0.185047
1695	0.188663	0.064245	0.202469	-0.001169	0.188992
1696	0.185705	0.07312	0.199675	0.000146	0.188992
1697	0.186362	0.080187	0.199346	0.000803	0.188334
1698	0.185212	0.086104	0.198524	0.004912	0.19195
1699	0.18932	0.091528	0.200497	-0.001662	0.189649
1700	0.187184	0.097774	0.199346	0.00031	0.190471
1701	0.190307	0.100896	0.201319	-1.9e-05	0.191128
1702	0.189814	0.103362	0.199182	0.000803	0.192772
1703	0.1908	0.105992	0.202633	-0.001005	0.1908
1704	0.189156	0.109936	0.202469	-0.000183	0.195237
1705	0.191293	0.08709	0.206085	-0.000183	0.1908
1706	0.187841	0.094158	0.199018	-1.9e-05	0.192279
1707	0.191128	0.093993	0.201812	-0.000512	0.193101
1708	0.190142	0.098595	0.203455	-0.000347	0.192608
1709	0.190635	0.105334	0.199182	0.000639	0.190471
1710	0.192443	0.106649	0.20214	0.000146	0.193922
1711	0.194744	0.112894	0.201154	0.000146	0.036304
1712	0.19458	0.112566	0.204113	0.000146	0.005405
1713	0.191786	0.090706	0.199182	0.00031	0.011322
1714	0.19458	0.005241	0.202305	0.00031	0.022334
1715	0.195073	0.005898	0.200497	-1.9e-05	0.028086
1716	0.196388	0.015595	0.201319	0.000146	0.031209
1717	0.197045	0.022169	0.200332	-0.000347	0.044522
1718	0.196223	0.032688	0.199675	-0.000512	0.050932
1719	0.194251	0.039756	0.198853	-0.000676	0.055863
1720	0.196388	0.045837	0.200825	0.000146	0.060465
1721	0.192608	0.054383	0.199182	-0.000183	0.067532
1722	0.195895	0.060136	0.20099	-1.9e-05	0.067861
1723	0.197867	0.06408	0.200168	0.000146	0.077229
1724	0.19458	0.069504	0.199182	0.000146	0.081009
1725	0.197538	0.072463	0.20362	0.000474	0.087419
1726	0.196059	0.077722	0.198524	0.00031	0.092186
1727	0.199018	0.080681	0.200168	-0.000183	0.097609
1728	0.199346	0.090213	0.200825	-0.000512	0.101718
1729	0.197538	0.091364	0.201812	-0.000347	0.110265
1730	0.197703	0.09498	0.199839	-0.000512	0.108128
1731	0.201319	0.105992	0.201483	0.000639	0.112401
1732	0.200332	0.103197	0.198196	-0.000183	0.116675
1733	0.198524	0.111251	0.201647	-0.000183	0.114045
1734	0.199675	0.11651	0.20214	-1.9e-05	0.124893
1735	0.198524	0.116839	0.202633	0.000146	0.125221
1736	0.198524	0.121934	0.202633	0.000474	0.131631
1737	0.200004	0.124728	0.202305	0.00031	0.131796
1738	0.19721	0.125057	0.20362	-0.000183	0.133439
1739	0.196059	0.128508	0.200332	-0.000347	0.13952
1740	0.197374	0.131796	0.203948	-0.000676	0.138041
1741	0.197374	0.135411	0.200332	-0.000676	0.140671
1742	0.197374	0.136891	0.202962	0.000146	0.144615
1743	0.198196	0.140013	0.198689	-0.000347	0.144944
1744	0.200825	0.140506	0.202305	0.000146	0.147081
1745	0.200004	0.14593	0.200332	-1.9e-05	0.151518
1746	0.199839	0.144287	0.202305	0.00031	0.153162
1747	0.199511	0.148396	0.201483	0.000146	0.160229
1748	0.198689	0.152669	0.202633	0.00031	0.158586
1749	0.198853	0.151025	0.200497	-1.9e-05	0.158093
1750	0.196388	0.155627	0.200004	-0.000183	0.160722
1751	0.196717	0.160722	0.202469	-0.000512	0.162859
1752	0.198031	0.159079	0.199346	-0.000512	0.16253
1753	0.196717	0.159572	0.20099	-0.000512	0.167297
1754	0.198031	0.165653	0.198689	-0.000183	0.168447
1755	0.197867	0.159901	0.203948	0.00031	0.165817
1756	0.199675	0.163188	0.200168	-1.9e-05	0.172556
1757	0.200004	0.162859	0.200497	0.001296	0.169105
1758	0.198853	0.167461	0.201647	-0.001005	0.170748
1759	0.201812	0.16894	0.203126	0.003597	0.172392
1760	0.199675	0.166146	0.201483	0.012965	0.17535
1761	0.197045	0.170913	0.204113	0.018225	0.174035
1762	0.196223	0.171241	0.206085	0.028744	0.174857
1763	0.198853	0.169762	0.200332	0.031045	0.175021
1764	0.199511	0.172885	0.201483	0.033181	0.17157
1765	0.202305	0.174528	0.203455	0.043043	0.175186
1766	0.20362	0.174528	0.200168	0.051425	0.178637
1767	0.203948	0.182911	0.201647	0.056027	0.179295
1768	0.203948	0.177487	0.20099	0.065231	0.181924
1769	0.202469	0.178802	0.202633	0.071641	0.181431
1770	0.201647	0.18176	0.202962	0.075585	0.18439
1771	0.19721	0.178966	0.198853	0.082817	0.185376
1772	0.200661	0.178966	0.202798	0.08216	0.185212
1773	0.198689	0.180116	0.198689	0.090706	0.182582
1774	0.200825	0.181267	0.198524	0.093993	0.18554
1775	0.198031	0.182089	0.199675	0.098102	0.184718
1776	0.200497	0.183897	0.200497	0.099089	0.187184
1777	0.200497	0.184718	0.197867	0.109279	0.187019
1778	0.202962	0.183404	0.205592	0.111744	0.184225
1779	0.204441	0.186526	0.200497	0.115853	0.186526
1780	0.205427	0.185047	0.205592	0.117168	0.184554
1781	0.202962	0.184554	0.20362	0.120126	0.189649
1782	0.206085	0.18554	0.201319	0.12555	0.190635
1783	0.197045	0.186033	0.202305	0.127851	0.186198
1784	0.20362	0.188827	0.201483	0.129001	0.188663
1785	0.201647	0.186033	0.199511	0.134261	0.188499
1786	0.199839	0.186526	0.198031	0.136069	0.191128
1787	0.200661	0.188992	0.200332	0.138534	0.192936
1788	0.197703	0.190142	0.197867	0.142314	0.19195
1789	0.201154	0.189485	0.201319	0.143136	0.195566
1790	0.198853	0.1908	0.195895	0.147574	0.192772
1791	0.202633	0.189978	0.201319	0.146916	0.192772
1792	0.199675	0.190471	0.20099	0.15234	0.193429
1793	0.201154	0.191457	0.20099	0.152505	0.196388
1794	0.199018	0.19195	0.200497	0.15497	0.192772
1795	0.201154	0.194251	0.207564	0.155299	0.192772
1796	0.200661	0.193265	0.200168	0.155956	0.196388
1797	0.203948	0.193265	0.200497	0.158093	0.1908
1798	0.208222	0.193101	0.202305	0.155956	0.194087
1799	0.20477	0.193922	0.202305	0.16253	0.193922
1800	0.200661	0.190635	0.202962	0.165324	0.194087
1801	0.201812	0.193922	0.193265	0.170255	0.194909
1802	0.200004	0.192772	0.205099	0.170255	0.196717
1803	0.19836	0.192608	0.200332	0.169433	0.195073
1804	0.200332	0.192608	0.199839	0.1742	0.199346
1805	0.199346	0.193758	0.197867	0.174035	0.196717
1806	0.199675	0.193922	0.201812	0.17272	0.193922
1807	0.200168	0.19458	0.19573	0.174528	0.197045
1808	0.200332	0.191786	0.199675	0.173871	0.19573
1809	0.199675	0.196552	0.199839	0.175515	0.197045
1810	0.201483	0.19573	0.198689	0.177487	0.197703
1811	0.200825	0.195073	0.199839	0.176008	0.199839
1812	0.198196	0.194087	0.204606	0.179788	0.195073
1813	0.20099	0.194416	0.204277	0.178802	0.200004
1814	0.199511	0.195566	0.202633	0.176501	0.197703
1815	0.201812	0.195073	0.205921	0.179459	0.199346
1816	0.20362	0.198031	0.200661	0.178802	0.195566
1817	0.201483	0.191786	0.207564	0.182417	0.197703
1818	0.201812	0.197867	0.199018	0.181431	0.196059
1819	0.202305	0.195237	0.201319	0.18439	0.197045
1820	0.199511	0.19573	0.20099	0.185705	0.196388
1821	0.201647	0.196881	0.200497	0.186198	0.201154
1822	0.201483	0.197538	0.199839	0.189156	0.199675
1823	0.200661	0.20214	0.197867	0.183075	0.196717
1824	0.199839	0.199182	0.19836	0.191128	0.199018
1825	0.201647	0.197374	0.198031	0.188663	0.198524
1826	0.200332	0.198196	0.196552	0.19195	0.200332
1827	0.201647	0.198689	0.200004	0.192115	0.197703
1828	0.199346	0.198196	0.207235	0.190307	0.190307
1829	0.198196	0.197703	0.20214	0.188663	0.196059
1830	0.198853	0.197538	0.201976	0.191128	0.197045
1831	0.199182	0.199675	0.203784	0.186691	0.194251
1832	0.201976	0.196388	0.202962	0.18932	0.201976
1833	0.200497	0.198031	0.200004	0.190142	0.197374
1834	0.202305	0.192772	0.204606	0.189978	0.197867
1835	0.197374	0.197374	0.202962	0.193101	0.199675
1836	0.202469	0.197538	0.199018	0.193429	0.199018
1837	0.200661	0.19721	0.200168	0.194416	0.201812
1838	0.196881	0.197045	0.200661	0.193594	0.198196
1839	0.194744	0.197045	0.200497	0.19573	0.199018
1840	0.201647	0.199182	0.200168	0.193594	0.197045
1841	0.199346	0.202962	0.198031	0.196223	0.202633
1842	0.200004	0.196223	0.200168	0.19573	0.197867
1843	0.200332	0.196717	0.199839	0.193101	0.19836
1844	0.202305	0.198196	0.199346	0.191457	0.19836
1845	0.199511	0.19573	0.200168	0.196059	0.199182
1846	0.201319	0.200004	0.20362	0.191786	0.196717
1847	0.201647	0.198031	0.201812	0.196552	0.199675
1848	0.20214	0.200497	0.201812	0.193101	0.19836
1849	0.201647	0.19836	0.202469	0.193429	0.196552
1850	0.200332	0.195237	0.195895	0.196552	0.197045
1851	0.199675	0.193922	0.20099	0.193594	0.198689
1852	0.19836	0.19836	0.203948	0.192115	0.198524
1853	0.19573	0.196717	0.20362	0.193922	0.197867
1854	0.197374	0.196059	0.200168	0.196059	0.202798
1855	0.197374	0.196059	0.200004	0.19573	0.199839
1856	0.199839	0.197538	0.197538	0.197538	0.198524
1857	0.199182	0.19721	0.199839	0.196223	0.200168
1858	0.203784	0.197867	0.19721	0.20099	0.200332
1859	0.199018	0.199346	0.200661	0.197045	0.198524
1860	0.200825	0.199346	0.200332	0.197867	0.199346
1861	0.201154	0.202305	0.189156	0.196059	0.199182
1862	0.200332	0.199346	0.202469	0.197703	0.201319
1863	0.200332	0.201976	0.200661	0.19573	0.196881
1864	0.200661	0.201319	0.201647	0.197374	0.196059
1865	0.199018	0.201154	0.201154	0.194416	0.201812
1866	0.202469	0.200661	0.202962	0.193758	0.197867
1867	0.200168	0.19721	0.201647	0.189814	0.200825
1868	0.200497	0.196059	0.204606	0.194087	0.198524
1869	0.200168	0.200004	0.20099	0.200661	0.199675
1870	0.202962	0.196388	0.199018	0.197374	0.196552
1871	0.199182	0.198853	0.198196	0.198853	0.199346
1872	0.202633	0.199675	0.190471	0.198689	0.199675
1873	0.203126	0.20099	0.196717	0.200332	0.199346
1874	0.204113	0.197374	0.197538	0.197867	0.195895
1875	0.204606	0.19573	0.19721	0.20214	0.19836
1876	0.201154	0.200004	0.19721	0.199675	0.197374
1877	0.202798	0.199018	0.200168	0.202633	0.19721
1878	0.201154	0.20214	0.199018	0.201976	0.195566
1879	0.202305	0.198853	0.205756	0.197538	0.196388
1880	0.200661	0.200825	0.200168	0.20214	0.200168
1881	0.205099	0.199511	0.201647	0.197703	0.199182
1882	0.201647	0.200332	0.201812	0.200332	0.20099
1883	0.201812	0.199675	0.195566	0.194416	0.202798
1884	0.198196	0.202633	0.199182	0.204277	0.19836
1885	0.199182	0.199839	0.200168	0.19573	0.199018
1886	0.198689	0.20099	0.201647	0.201647	0.199346
1887	0.201319	0.195566	0.203455	0.197703	0.195895
1888	0.001789	0.200332	0.20362	0.198524	0.200497
1889	0.011979	0.198031	0.201154	0.199182	0.198853
1890	0.01691	0.198689	0.203291	0.200004	0.19836
1891	0.027429	0.199511	0.199346	0.198853	0.198196
1892	0.036633	0.19836	0.200168	0.202305	0.199511
1893	0.038934	0.201647	0.199675	0.198524	0.198031
1894	0.046001	0.196059	0.197867	0.199182	0.201154
1895	0.051754	0.201319	0.197538	0.201976	0.199346
1896	0.059643	0.199839	0.201647	0.19721	0.202633
1897	0.063752	0.201976	0.199511	0.201483	0.204606
1898	0.07312	0.199675	0.199675	0.19836	0.199018
1899	0.074599	0.201976	0.200497	0.198689	0.200825
1900	0.080516	0.200004	0.201976	0.197538	0.199182
1901	0.083146	0.195073	0.201812	0.196059	0.199839
1902	0.088734	0.194416	0.201976	0.195402	0.199839
1903	0.0935	0.197703	0.202798	0.199346	0.199182
1904	0.099582	0.197867	0.201812	0.197867	0.199182
1905	0.099746	0.194251	0.203784	0.199018	0.200661
1906	0.10517	0.199675	0.196552	0.200004	0.19721
1907	0.109936	0.198524	0.199675	0.201483	0.198196
1908	0.115195	0.199182	0.199182	0.199839	0.198524
1909	0.119469	0.197867	0.19836	0.198031	0.19836
1910	0.124399	0.199182	0.197867	0.201483	0.199511
1911	0.125386	0.199018	0.201647	0.200004	0.200168
1912	0.126865	0.20099	0.203126	0.200168	0.199018
1913	0.132946	0.198524	0.203784	0.197374	0.201319
1914	0.134261	0.201647	0.200168	0.198853	0.202305
1915	0.13459	0.201483	0.202469	0.200004	0.195237
1916	0.137384	0.199511	0.199839	0.197703	0.19836
1917	0.142643	0.197867	0.200004	0.198196	0.197867
1918	0.140671	0.198196	0.19836	0.196717	0.197538
1919	0.147081	0.200497	0.200332	0.199511	0.198031
1920	0.147738	0.197538	0.199182	0.199675	0.201647
1921	0.152011	0.200825	0.197867	0.196881	0.196881
1922	0.155463	0.199018	0.201647	0.19721	0.201812
1923	0.154641	0.196881	0.200661	0.200497	0.195073
1924	0.158257	0.195402	0.200168	0.198689	0.198853
1925	0.162037	0.197703	0.198524	0.199675	0.197374
1926	0.162859	0.199182	0.200497	0.206085	0.196223
1927	0.162695	0.198853	0.196388	0.202305	0.19836
1928	0.147245	0.20099	0.200168	0.201154	0.200168
1929	0.14593	0.199182	0.198196	0.20099	0.200332
1930	0.152011	0.199511	0.201483	0.202798	0.199346
1931	0.150039	0.201154	0.197703	0.200168	0.200004
1932	0.152505	0.200168	0.201319	0.199182	0.197374
1933	0.154641	0.198524	0.201647	0.200825	0.202962
1934	0.156449	0.201154	0.203291	0.197703	0.198853
1935	0.156778	0.200332	0.198689	0.199182	0.198196
1936	0.159572	0.199346	0.20099	0.197867	0.198689
1937	0.161544	0.198689	0.204934	0.200661	0.200004
1938	0.162366	0.198853	0.202633	0.199182	0.196059
1939	0.163023	0.199675	0.200497	0.198689	0.197867
1940	0.165489	0.200661	0.203126	0.196388	0.198031
1941	0.169762	0.198031	0.198689	0.202633	0.197703
1942	0.16894	0.202798	0.199346	0.201154	0.198031
1943	0.173542	0.201647	0.200332	0.203291	0.198524
1944	0.171241	0.198853	0.202305	0.200661	0.200825
1945	0.175515	0.199511	0.201319	0.202633	0.199675
1946	0.173707	0.200825	0.199018	0.20099	0.19721
1947	0.176994	0.198031	0.20099	0.198031	0.19836
1948	0.173707	0.201647	0.200497	0.202305	0.200332
1949	0.177487	0.199675	0.197703	0.19836	0.197374
1950	0.176336	0.200497	0.19836	0.201976	0.201647
1951	0.176172	0.198196	0.196059	0.200004	0.199346
1952	0.1742	0.199182	0.199675	0.203455	0.200168
1953	0.176336	0.200168	0.200004	0.199346	0.199839
1954	0.181596	0.196059	0.199839	0.202798	0.205592
1955	0.179952	0.202962	0.201812	0.200004	0.198196
1956	0.181103	0.197867	0.201154	0.199182	0.204113
1957	0.181431	0.200004	0.199346	0.200661	0.197867
1958	0.184554	0.196059	0.20214	0.197703	0.198196
1959	0.183404	0.197538	0.199839	0.20099	0.199018
1960	0.186691	0.197045	0.201647	0.200332	0.196059
1961	0.18554	0.198689	0.203291	0.200004	0.200168
1962	0.188006	0.197703	0.200332	0.200168	0.198031
1963	0.185376	0.196552	0.199018	0.205099	0.197867
1964	0.186691	0.200332	0.200168	0.197538	0.197703
1965	0.189156	0.202633	0.200332	0.204113	0.202962
1966	0.187184	0.199182	0.203126	0.199182	0.200497
1967	0.187513	0.196223	0.199839	0.201319	0.202469
1968	0.18932	0.199839	0.199839	0.198853	0.197703
1969	0.190307	0.198524	0.20099	0.198196	0.203948
1970	0.186362	0.201647	0.202962	0.200661	0.201647
1971	0.191293	0.199675	0.198689	0.199675	0.196388
1972	0.191621	0.20214	0.200004	0.198689	0.182746
1973	0.190307	0.200497	0.199346	0.199018	0.184061
1974	0.191621	0.200825	0.198196	0.200825	0.183404
1975	0.064902	0.202469	0.202469	0.198031	0.182911
1976	0.017896	0.203948	0.199346	0.202633	0.186198
1977	0.024635	0.19836	0.200497	0.199675	0.186362
1978	0.02973	0.199675	0.192936	0.197703	0.184883
1979	0.038112	0.200825	0.197045	0.20099	0.190471
1980	0.044686	0.196552	0.199018	0.198689	0.190471
1981	0.05011	0.201647	0.199839	0.19836	0.188827
1982	0.058821	0.199511	0.19836	0.202305	0.192279
1983	0.060793	0.201976	0.200332	0.200661	0.18932
1984	0.062108	0.200168	0.199346	0.200004	0.192608
1985	0.063752	0.203126	0.199182	0.202305	0.191621
1986	0.073613	0.199675	0.200825	0.199511	0.194416
1987	0.080352	0.202633	0.199839	0.199346	0.192772
1988	0.081831	0.197374	0.201154	0.199182	0.190307
1989	0.082817	0.204934	0.195073	0.19836	0.193922
1990	0.090542	0.199839	0.201154	0.199511	0.186691
1991	0.058164	0.198031	0.198853	0.197867	0.189814
1992	0.037783	0.198524	0.202469	0.199675	0.195237
1993	0.029072	0.197538	0.198524	0.207893	0.192279
1994	0.022991	0.199675	0.202305	0.200661	0.1908
1995	0.02069	0.199675	0.201154	0.208057	0.197538
1996	0.018718	0.20099	0.201483	0.199675	0.193922
1997	0.016746	0.19836	0.199839	0.201812	0.195566
1998	0.017896	0.203126	0.201483	0.199839	0.194416
1999	0.012308	0.199018	0.199839	0.201154	0.19721
2000	0.010993	0.199511	0.198689	0.200661	0.194087
2001	0.01691	0.196881	0.198524	0.200661	0.198853
2002	0.025292	0.201812	0.197867	0.20099	0.197703
2003	0.031209	0.199182	0.201812	0.202633	0.195895
2004	0.030059	0.19721	0.196552	0.203948	0.197867
2005	0.034661	0.200168	0.201812	0.200661	0.194744
2006	0.037126	0.201483	0.200004	0.200661	0.196223
2007	0.045837	0.19836	0.201319	0.201319	0.19573
2008	0.047645	0.197867	0.20099	0.199346	0.196552
2009	0.058492	0.199511	0.20362	0.196717	0.193922
2010	0.058164	0.197538	0.200168	0.201647	0.19721
2011	0.060793	0.201154	0.201154	0.198524	0.194087
2012	0.059972	0.198196	0.200168	0.199675	0.19836
2013	0.063423	0.200004	0.200004	0.197538	0.195073
2014	0.056027	0.199018	0.200332	0.20099	0.196717
2015	0.058657	0.201319	0.199182	0.202798	0.194744
2016	0.052411	0.19836	0.200332	0.204606	0.19836
2017	0.044358	0.196717	0.200497	0.202305	0.197703
2018	0.002611	0.199018	0.199839	0.200004	0.198031
2019	-0.000183	0.201154	0.197867	0.200661	0.196059
2020	0.003268	0.198031	0.201976	0.195566	0.200004
2021	0.008857	0.202305	0.197374	0.199511	0.203455
2022	0.017567	0.199839	0.193101	0.197374	0.199182
2023	0.016581	0.201154	0.198524	0.200332	0.197538
2024	0.026607	0.201319	0.200497	0.198689	0.196059
2025	0.019047	0.200004	0.199346	0.202798	0.19721
2026	0.031373	0.199182	0.199675	0.197703	0.195237
2027	0.032853	0.199675	0.199511	0.197867	0.198031
2028	0.034661	0.200332	0.204113	0.196717	0.195402
2029	0.035318	0.198689	0.197867	0.199018	0.197538
2030	0.035811	0.199018	0.198689	0.19836	0.193101
2031	0.032688	0.19836	0.199839	0.199018	0.198853
2032	0.034003	0.200661	0.198524	0.205427	0.197538
2033	0.029401	0.199346	0.200332	0.203784	0.20214
2034	0.022169	0.201154	0.199346	0.199018	0.199675
2035	0.024635	0.198689	0.201154	0.201319	0.195895
2036	0.018554	0.199511	0.198853	0.201976	0.200497
2037	0.023977	0.193429	0.201976	0.200825	0.199346
2038	0.020526	0.205263	0.201483	0.201976	0.199182
2039	0.017896	0.200332	0.196223	0.196717	0.197045
2040	0.008857	0.199511	0.198853	0.203455	0.203126
2041	0.012965	0.20099	0.200332	0.199346	0.202962
2042	0.016581	0.195895	0.200661	0.200825	0.20362
2043	0.007213	0.19836	0.201812	0.199018	0.201483
2044	0.007049	0.196717	0.198689	0.203291	0.201483
2045	0.009185	0.200004	0.202633	0.201154	0.197703
2046	0.006227	0.197867	0.202305	0.199182	0.199839
2047	0.00935	0.199675	0.199675	0.200168	0.191786
2048	0.011322	0.194909	0.202305	0.200332	0.201154
2049	0.011815	0.20099	0.199675	0.200497	0.200004
2050	0.014116	0.196552	0.206907	0.201319	0.198031
2051	0.009843	0.196717	0.19836	0.19721	0.199018
2052	0.010336	0.19836	0.201319	0.202305	0.199018
2053	0.013952	0.199511	0.197867	0.20099	0.198853
2054	0.014609	0.197538	0.200497	0.199018	0.202633
2055	0.008363	0.199182	0.196223	0.199675	0.20099
2056	0.011979	0.201319	0.200004	0.197538	0.197538
2057	0.007377	0.198031	0.199018	0.201483	0.201154
2058	0.016581	0.203455	0.20099	0.199675	0.197538
2059	0.021676	0.19721	0.201976	0.199675	0.200168
2060	0.025292	0.200168	0.200825	0.198853	0.197867
2061	0.001132	0.199018	0.198031	0.198031	0.19836
2062	0.001789	0.197538	0.197703	0.198524	0.197045
2063	0.00146	0.199182	0.20099	0.196388	0.200332
2064	0.004255	0.199675	0.198524	0.193922	0.199182
2065	0.003268	0.195402	0.200004	0.196059	0.199182
2066	0.004912	0.200332	0.199182	0.199018	0.198524
2067	0.010336	0.194087	0.201154	0.197045	0.198689
2068	0.002282	0.19721	0.200661	0.199018	0.200497
2069	0.022334	0.199511	0.200825	0.200497	0.197703
2070	0.025621	0.195402	0.198031	0.202469	0.197374
2071	0.033181	0.201812	0.200004	0.199018	0.193265
2072	0.039098	0.201319	0.199182	0.202305	0.199346
2073	0.047316	0.198196	0.196881	0.200168	0.19721
2074	0.044193	0.199182	0.197867	0.200168	0.197538
2075	0.045837	0.202798	0.199018	0.200004	0.198853
2076	0.038441	0.193594	0.202633	0.19836	0.201319
2077	0.031373	0.196388	0.20362	0.199675	0.198689
2078	0.024306	0.196881	0.201483	0.200168	0.197374
2079	0.014116	0.19836	0.202798	0.199018	0.19836
2080	0.017896	0.197045	0.202633	0.200332	0.199018
2081	0.009514	0.197703	0.201647	0.20099	0.199018
2082	0.014773	0.197703	0.204606	0.199018	0.198689
2083	0.010664	0.200004	0.199018	0.201976	0.199675
2084	0.014773	0.197538	0.201647	0.19836	0.198524
2085	0.011322	0.197045	0.200332	0.201319	0.199511
2086	0.013294	0.199018	0.197538	0.197538	0.198689
2087	0.009678	0.194909	0.200168	0.20214	0.200661
2088	0.00294	0.196717	0.200497	0.201647	0.199018
2089	0.000146	0.197374	0.197045	0.20099	0.20362
2090	-0.001498	0.19573	0.200168	0.20099	0.201812
2091	-0.001827	0.192115	0.20362	0.200497	0.196059
2092	0.000967	0.194909	0.200661	0.199839	0.19458
2093	-0.000183	0.197703	0.203948	0.198196	0.201812
2094	-0.000347	0.194909	0.199675	0.19836	0.197374
2095	0.000474	0.192936	0.200332	0.200825	0.199018
2096	0.000803	0.194087	0.199018	0.200661	0.194909
2097	0.00031	0.194087	0.20099	0.199675	0.202305
2098	-0.000841	0.193922	0.200168	0.198524	0.196881
2099	-0.000512	0.193101	0.204934	0.196881	0.198524
2100	-0.000183	0.191128	0.202962	0.201483	0.199182
2101	-0.001005	0.195237	0.202469	0.19836	0.197538
2102	-0.000512	0.193429	0.201154	0.199346	0.206249
2103	0.000146	0.194087	0.199511	0.199018	0.193758
2104	-0.000183	0.193101	0.201976	0.200497	0.199182
2105	0.000146	0.18932	0.199511	0.198689	0.199511
2106	-0.000183	0.188006	0.198196	0.199182	0.199839
2107	0.000146	0.189485	0.199675	0.201154	0.197867
2108	-0.000183	0.187019	0.199182	0.20099	0.201812
2109	-0.000676	0.188827	0.200332	0.200004	0.199182
2110	-0.000676	0.18817	0.197867	0.200497	0.200332
2111	-0.000512	0.191457	0.200825	0.199839	0.20099
2112	-0.000841	0.186362	0.200332	0.199839	0.199511
2113	-0.000347	0.18932	0.201319	0.19836	0.198853
2114	-1.9e-05	0.191621	0.204113	0.194744	0.198853
2115	-1.9e-05	0.190635	0.202305	0.197703	0.197374
2116	0.000146	0.189649	0.200825	0.195566	0.199675
2117	0.00031	0.184718	0.199675	0.199346	0.199182
2118	0.000146	0.18439	0.201647	0.197045	0.196552
2119	-0.000183	0.182911	0.201154	0.200332	0.202633
2120	-0.000676	0.18439	0.198524	0.198853	0.199675
2121	-0.000676	0.183404	0.197045	0.200004	0.200004
2122	-0.000512	0.182582	0.198689	0.201812	0.19721
2123	-0.000676	0.182582	0.200168	0.201812	0.199182
2124	-0.000512	0.183404	0.199346	0.201319	0.196223
2125	-0.000183	0.183239	0.199511	0.202633	0.198689
2126	0.000146	0.183239	0.199675	0.204277	0.198196
2127	0.000146	0.177322	0.200004	0.202305	0.200168
2128	0.000146	0.179788	0.196552	0.201812	0.200661
2129	-1.9e-05	0.176829	0.202798	0.200661	0.199018
2130	-1.9e-05	0.175021	0.201812	0.201319	0.201976
2131	-0.000347	0.175515	0.201483	0.199839	0.199839
2132	-0.000347	0.16894	0.199182	0.200661	0.199839
2133	-0.000347	0.166639	0.206414	0.19721	0.198853
2134	-0.000676	0.165817	0.200004	0.198524	0.201976
2135	-0.000183	0.165489	0.200004	0.198031	0.195237
2136	0.000146	0.168612	0.203126	0.200661	0.200332
2137	0.00031	0.168118	0.203126	0.199511	0.197703
2138	0.000146	0.159901	0.199346	0.200332	0.200497
2139	0.00031	0.164503	0.199675	0.200661	0.198031
2140	0.000146	0.163352	0.204113	0.201483	0.195073
2141	0.000146	0.160558	0.20099	0.196388	0.201319
2142	-0.000512	0.157271	0.201647	0.202305	0.202962
2143	-0.000512	0.160887	0.19836	0.203291	0.201154
2144	-0.000676	0.154806	0.200825	0.198524	0.200661
2145	-0.000512	0.158093	0.200168	0.201154	0.20214
2146	-0.000512	0.15612	0.198689	0.198524	0.199182
2147	-1.9e-05	0.158093	0.198196	0.201319	0.200332
2148	0.00031	0.160065	0.200004	0.198689	0.197867
2149	0.00031	0.154477	0.200332	0.200497	0.19836
2150	0.000146	0.155463	0.202962	0.199511	0.197703
2151	0.00031	0.159408	0.20099	0.199346	0.196552
2152	0.000474	0.153162	0.203291	0.197867	0.200332
2153	-0.000512	0.151025	0.201154	0.200004	0.202962
2154	0.000474	0.152176	0.200004	0.200497	0.199675
2155	0.000146	0.148396	0.202305	0.199675	0.19836
2156	-0.000841	0.153326	0.198689	0.199839	0.200168
2157	0.000146	0.150204	0.200004	0.204606	0.194744
2158	0.000474	0.155134	0.19836	0.201976	0.199182
2159	0.001296	0.152669	0.199511	0.201483	0.200004
2160	0.002447	0.152011	0.198196	0.201976	0.199182
2161	0.002611	0.153819	0.204606	0.200825	0.198853
2162	0.010664	0.155299	0.199675	0.204606	0.198853
2163	0.015595	0.141657	0.200004	0.199182	0.200661
2164	0.022498	0.119797	0.205921	0.195402	0.201812
2165	0.031867	0.109443	0.199511	0.201812	0.200004
2166	0.036469	0.075585	0.199346	0.196881	0.200004
2167	0.044522	0.054548	0.203126	0.197045	0.19836
2168	0.049288	0.04633	0.200332	0.199182	0.198524
2169	0.056356	0.052247	0.201319	0.196388	0.19721
2170	0.063587	0.047809	0.205099	0.199839	0.199346
2171	0.068354	0.052247	0.199839	0.198689	0.200497
2172	0.072298	0.05389	0.200825	0.200661	0.198524
2173	0.075914	0.049124	0.200004	0.200661	0.195895
2174	0.083803	0.036633	0.202469	0.202305	0.199511
2175	0.086926	0.040413	0.197045	0.202798	0.199839
2176	0.094487	0.044686	0.198196	0.20099	0.199346
2177	0.102869	0.053069	0.199675	0.201154	0.196223
2178	0.104677	0.054383	0.200332	0.198031	0.199839
2179	0.105498	0.052411	0.193594	0.202305	0.199182
2180	0.111087	0.058985	0.199018	0.200004	0.19721
2181	0.113388	0.062601	0.199675	0.201976	0.199675
2182	0.119469	0.066546	0.198524	0.201154	0.199018
2183	0.118811	0.058164	0.201647	0.200825	0.200332
2184	0.122427	0.065888	0.200661	0.19573	0.19836
2185	0.129166	0.056027	0.201319	0.200497	0.200661
2186	0.127358	0.060465	0.200661	0.201483	0.199018
2187	0.132617	0.065724	0.201483	0.200825	0.199675
2188	0.132289	0.067368	0.202798	0.200004	0.195566
2189	0.13837	0.070326	0.202305	0.199346	0.198524
2190	0.140506	0.00031	0.20214	0.202469	0.198689
2191	0.142807	-0.000512	0.199675	0.200497	0.199182
2192	0.143629	0.007049	0.200661	0.201319	0.197703
2193	0.148396	0.011651	0.198031	0.202633	0.196717
2194	0.148889	0.018882	0.195402	0.20855	0.199182
2195	0.153819	0.027429	0.200168	0.202633	0.196552
2196	0.153984	0.033674	0.196717	0.19836	0.200168
2197	0.155792	0.036304	0.195073	0.201647	0.199018
2198	0.156613	0.042057	0.200004	0.200661	0.202305
2199	0.160394	0.049288	0.197374	0.19836	0.199511
2200	0.161544	0.048302	0.202469	0.201976	0.201976
2201	0.157107	0.042057	0.200004	0.198689	0.199346
2202	0.160558	0.026443	0.201483	0.200004	0.198031
2203	0.163188	0.019704	0.201154	0.199346	0.198853
2204	0.165324	0.012144	0.201483	0.198689	0.198689
2205	0.164831	0.009021	0.199182	0.202305	0.198524
2206	0.173214	0.014609	0.198853	0.199511	0.19458
2207	0.169926	0.020526	0.199675	0.206907	0.201647
2208	0.171734	0.013294	0.201154	0.201154	0.197703
2209	0.174857	0.014445	0.19836	0.200825	0.198689
2210	0.176336	0.01576	0.200332	0.200825	0.200497
2211	0.17535	0.00294	0.195073	0.205099	0.20099
2212	0.173214	0.00409	0.197703	0.202798	0.193101
2213	0.17798	0.005076	0.200168	0.203784	0.202633
2214	0.178637	0.004748	0.197374	0.199839	0.197867
2215	0.178966	-1.9e-05	0.199511	0.20214	0.202962
2216	0.177158	0.002447	0.200332	0.199346	0.199182
2217	0.183239	0.000639	0.20099	0.199182	0.198524
2218	0.180774	0.006227	0.199839	0.199675	0.203784
2219	0.181267	-1.9e-05	0.199511	0.196881	0.20214
2220	0.182417	0.001789	0.196881	0.195402	0.202305
2221	0.181924	-1.9e-05	0.200168	0.197703	0.199018
2222	0.180445	0.000803	0.197045	0.202305	0.202305
2223	0.183075	-0.000512	0.196552	0.199182	0.197703
2224	0.185047	0.002118	0.201319	0.204113	0.198524
2225	0.185705	0.001132	0.185869	0.199839	0.198031
2226	0.188663	-0.000183	0.115524	0.197374	0.200825
2227	0.189485	-0.000347	0.078051	0.200825	0.195895
2228	0.186033	-0.000841	0.046987	0.199511	0.194909
2229	0.187348	0.000474	0.041892	0.199346	0.199018
2230	0.192279	-0.000183	0.041728	0.202305	0.202305
2231	0.187841	-0.000183	0.045179	0.199839	0.199018
2232	0.191786	0.000146	0.050274	0.201976	0.201647
2233	0.190142	0.000146	0.051754	0.200661	0.200004
2234	0.190307	0.000474	0.059643	0.201154	0.197703
2235	0.189485	0.00031	0.061615	0.198853	0.200661
2236	0.189978	0.000146	0.066381	0.199018	0.199511
2237	0.18932	-0.000347	0.067039	0.200332	0.200332
2238	0.194251	-0.000512	0.072791	0.199346	0.19836
2239	0.190307	-0.000512	0.065231	0.197867	0.203291
2240	0.19195	-0.000512	0.048138	0.198196	0.202798
2241	0.191786	-0.000183	0.03351	0.201154	0.202798
2242	0.194087	-1.9e-05	0.001954	0.199346	0.199018
2243	0.194416	0.000146	0.000803	0.199018	0.200332
2244	0.19573	0.000146	-0.000347	0.194416	0.201154
2245	0.194416	0.000146	-0.000347	0.204441	0.199511
2246	0.195402	0.00031	-0.002484	0.200332	0.200497
2247	0.196059	0.000146	-0.000841	0.20362	0.201319
2248	0.193101	-0.000347	0.00031	0.199346	0.198196
2249	0.195073	-0.000676	-0.000183	0.202305	0.201647
2250	0.197703	-0.000512	-0.001005	0.202469	0.20099
2251	0.195402	-0.000512	0.001296	0.198524	0.202962
2252	0.193594	-0.000183	0.00031	0.197538	0.20362
2253	0.194416	-0.000347	-0.000183	0.19836	0.198853
2254	0.192772	0.00031	0.00031	0.197374	0.201976
2255	0.19195	-1.9e-05	0.000146	0.19573	0.200825
2256	0.191128	0.000146	-0.000512	0.196881	0.200497
2257	0.195895	0.000146	0.000474	0.200661	0.199182
2258	0.196223	0.000146	-0.000347	0.20099	0.198031
2259	0.196881	-0.000347	0.001132	0.195566	0.198031
2260	0.198524	-0.000512	0.000639	0.197045	0.200497
2261	0.200004	-0.000676	0.000967	0.197374	0.19721
2262	0.196717	0.000474	0.00031	0.195402	0.200661
2263	0.199018	-0.000183	0.001625	0.192772	0.199182
2264	0.199182	0.000146	-0.000183	0.191786	0.200332
2265	0.19721	-1.9e-05	0.000474	0.191786	0.200004
2266	0.199511	0.00031	0.000803	0.191621	0.204934
2267	0.197374	0.000474	0.003926	0.192936	0.189156
2268	0.196552	0.000474	0.011651	0.190964	0.200004
2269	0.196552	0.000146	0.014938	0.192936	0.201812
2270	0.201154	-0.000512	0.018061	0.188663	0.197538
2271	0.19458	-0.000347	0.025621	0.193429	0.197045
2272	0.194087	-0.000512	0.034661	0.189649	0.195073
2273	0.198196	-0.001662	0.040906	0.195402	0.200168
2274	0.198689	-0.000347	0.045672	0.191128	0.196881
2275	0.199182	-1.9e-05	0.054383	0.195073	0.196717
2276	0.199675	-1.9e-05	0.054712	0.192443	0.197538
2277	0.19721	0.00031	0.059807	0.193594	0.205921
2278	0.197538	0.000639	0.063094	0.191786	0.19573
2279	0.199675	-0.001498	0.072627	0.197703	0.197703
2280	0.198524	-0.000676	0.079859	0.19573	0.19721
2281	0.200168	-1.9e-05	0.079366	0.195402	0.197045
2282	0.200168	0.006227	0.084625	0.197045	0.199511
2283	0.200497	0.015431	0.091035	0.194087	0.200661
2284	0.196717	0.013623	0.091364	0.197374	0.202633
2285	0.200825	0.028415	0.09613	0.195402	0.201812
2286	0.198031	0.039263	0.097445	0.197538	0.201483
2287	0.199511	0.045344	0.104677	0.194909	0.198524
2288	0.196552	0.046659	0.107964	0.195895	0.210851
2289	0.200004	0.058164	0.111415	0.195895	0.195402
2290	0.19721	0.060958	0.116182	0.197538	0.200497
2291	0.196059	0.067039	0.120126	0.195237	0.198689
2292	0.199511	0.072463	0.121605	0.197045	0.19836
2293	0.199018	0.07838	0.120784	0.199675	0.200661
2294	0.19836	0.084789	0.130316	0.19458	0.19836
2295	0.198031	0.08709	0.131467	0.192279	0.19836
2296	0.198031	0.090871	0.137712	0.19458	0.199182
2297	0.200168	0.095966	0.133439	0.196223	0.199018
2298	0.201483	0.098924	0.138699	0.196717	0.198196
2299	0.192115	0.103526	0.14215	0.196881	0.199839
2300	0.202469	0.105005	0.144287	0.198689	0.196881
2301	0.199675	0.11158	0.142807	0.199839	0.199839
2302	0.197538	0.113716	0.146752	0.197374	0.200497
2303	0.19836	0.119797	0.143958	0.200825	0.201812
2304	0.198689	0.12177	0.151683	0.199511	0.201154
2305	0.196388	0.126865	0.149382	0.199675	0.20477
2306	0.192608	0.129823	0.153655	0.198524	0.200497
2307	0.19721	0.12933	0.1576	0.199511	0.200332
2308	0.197703	0.134425	0.156285	0.19721	0.200332
2309	0.199511	0.135247	0.160229	0.194251	0.200004
2310	0.199182	0.140671	0.166475	0.192279	0.189485
2311	0.202798	0.141493	0.164338	0.196223	0.197374
2312	0.199675	0.14478	0.164667	0.197538	0.198689
2313	0.199511	0.143794	0.168776	0.195073	0.200332
2314	0.199346	0.149217	0.166639	0.197374	0.199346
2315	0.201319	0.149382	0.170255	0.197374	0.198524
2316	0.198524	0.151518	0.170419	0.19721	0.20362
2317	0.200661	0.150532	0.170255	0.197045	0.201319
2318	0.201647	0.141328	0.171077	0.198524	0.200825
2319	0.200497	0.156285	0.168776	0.19836	0.200825
2320	0.201319	0.156778	0.173049	0.201812	0.200661
2321	0.201647	0.154312	0.172227	0.197867	0.193594
2322	0.206249	0.159901	0.173871	0.202633	0.19836
2323	0.199839	0.163188	0.176336	0.199018	0.194416
2324	0.20099	0.155627	0.177815	0.199675	0.200332
2325	0.201154	0.163188	0.17798	0.198196	0.196223
2326	0.20214	0.163352	0.177158	0.197045	0.198031
2327	0.19721	0.164996	0.180938	0.196552	0.199018
2328	0.199675	0.16516	0.183075	0.195402	0.202798
2329	0.205756	0.161873	0.181924	0.202962	0.199675
2330	0.204113	0.163188	0.185376	0.200004	0.199182
2331	0.199839	0.168776	0.185705	0.200332	0.200497
2332	0.20477	0.169433	0.186198	0.195402	0.192772
2333	0.200661	0.169762	0.188006	0.201483	0.199675
2334	0.201647	0.172885	0.189649	0.198524	0.199018
2335	0.199511	0.169762	0.187841	0.200332	0.199346
2336	0.199839	0.180116	0.186198	0.202633	0.199346
2337	0.201812	0.176665	0.188499	0.199675	0.202962
2338	0.199018	0.177322	0.183075	0.200004	0.198689
2339	0.199346	0.179459	0.185212	0.200497	0.200825
2340	0.199675	0.178309	0.186033	0.200497	0.197703
2341	0.201319	0.178966	0.18554	0.199018	0.196552
2342	0.198689	0.180445	0.183239	0.200004	0.201976
2343	0.20214	0.179952	0.185047	0.197703	0.196223
2344	0.199346	0.180938	0.184883	0.202305	0.196552
2345	0.20099	0.180938	0.187513	0.204277	0.197374
2346	0.197538	0.17798	0.186033	0.202305	0.199675
2347	0.201483	0.182417	0.18817	0.198524	0.197045
2348	0.200825	0.180774	0.184718	0.200497	0.201154
2349	0.203948	0.182253	0.190635	0.196388	0.199511
2350	0.196552	0.18439	0.188499	0.20099	0.203948
2351	0.200168	0.185212	0.188663	0.199839	0.199346
2352	0.202469	0.185376	0.188827	0.200332	0.199182
2353	0.197045	0.186033	0.188827	0.199675	0.199182
2354	0.197538	0.184061	0.184883	0.200168	0.201976
2355	0.201319	0.18439	0.192115	0.201976	0.199675
2356	0.194909	0.184718	0.191457	0.201812	0.200332
2357	0.199839	0.183732	0.187677	0.202305	0.198524
2358	0.20099	0.185212	0.191293	0.199839	0.199839
2359	0.199018	0.187677	0.18932	0.204277	0.200661
2360	0.19836	0.18554	0.187348	0.202962	0.200004
2361	0.197703	0.187841	0.190471	0.204934	0.202305
2362	0.201647	0.188663	0.191128	0.200332	0.200168
2363	0.199346	0.188827	0.188334	0.200825	0.200825
2364	0.200332	0.189978	0.195237	0.198689	0.198196
2365	0.200661	0.188663	0.189814	0.19836	0.198689
2366	0.201812	0.190142	0.192936	0.198196	0.19573
2367	0.20099	0.195073	0.194087	0.200497	0.200168
2368	0.201483	0.192608	0.192936	0.200004	0.199018
2369	0.200825	0.189814	0.193101	0.194909	0.200825
2370	0.201647	0.193758	0.189814	0.199346	0.19836
2371	0.203291	0.191128	0.18932	0.200168	0.203784
2372	0.203291	0.191293	0.190142	0.201483	0.203784
2373	0.203784	0.190635	0.192279	0.202633	0.199839
2374	0.20099	0.193429	0.189485	0.201647	0.200825
2375	0.202633	0.190142	0.194744	0.199839	0.201976
2376	0.200168	0.199675	0.192608	0.201319	0.203126
2377	0.204113	0.193758	0.193101	0.20099	0.194909
2378	0.199018	0.194087	0.193101	0.201319	0.201647
2379	0.198031	0.194744	0.197538	0.20099	0.199346
2380	0.194087	0.194416	0.195073	0.202305	0.198031
2381	0.199182	0.197374	0.196059	0.200497	0.202962
2382	0.202305	0.196388	0.195073	0.203948	0.207564
2383	0.197045	0.196059	0.197867	0.194909	0.196552
2384	0.200825	0.192608	0.199675	0.201812	0.203948
2385	0.201812	0.192115	0.19573	0.200004	0.199346
2386	0.200332	0.192279	0.199182	0.200004	0.199018
2387	0.201319	0.19573	0.196388	0.201812	0.197703
2388	0.203291	0.191457	0.19836	0.200168	0.195237
2389	0.199839	0.193265	0.197374	0.201976	0.199346
2390	0.203126	0.191293	0.19721	0.201647	0.200004
2391	0.199839	0.194251	0.194416	0.197703	0.200168
2392	0.200497	0.193758	0.198524	0.204934	0.200168
2393	0.202305	0.198689	0.196223	0.200497	0.203291
2394	0.202633	0.196717	0.198689	0.199839	0.202305
2395	0.199182	0.199182	0.195073	0.201319	0.205427
2396	0.201976	0.196059	0.195073	0.200168	0.203126
2397	0.196388	0.193101	0.200332	0.20214	0.200004
2398	0.200332	0.199018	0.198524	0.198196	0.199675
2399	0.202469	0.197538	0.199511	0.196881	0.200332
2400	0.142972	0.199018	0.200004	0.19573	0.198689
2401	0.012472	0.195073	0.20099	0.198196	0.199675
2402	0.016417	0.201319	0.196223	0.197703	0.199675
2403	0.014116	0.193101	0.196223	0.199511	0.196717
2404	0.000474	0.19573	0.192936	0.200825	0.200004
2405	0.003104	0.194416	0.197703	0.200661	0.198853
2406	0.010993	0.004419	0.194744	0.199839	0.201154
2407	0.018061	0.010829	0.19836	0.201319	0.200004
2408	0.027429	0.019047	0.196881	0.201812	0.199346
2409	0.034003	0.027922	0.199346	0.200332	0.199675
2410	0.045179	0.03614	0.196717	0.203948	0.200332
2411	0.04896	0.044193	0.19836	0.201154	0.19836
2412	0.051425	0.051096	0.200332	0.203455	0.202305
2413	0.060793	0.057342	0.196717	0.201154	0.199511
2414	0.06671	0.061944	0.199839	0.198689	0.200497
2415	0.071477	0.069011	0.198196	0.200168	0.199675
2416	0.077558	0.072791	0.201976	0.19721	0.196388
2417	0.084296	0.082653	0.196388	0.197374	0.201647
2418	0.089391	0.086433	0.202469	0.198853	0.198031
2419	0.093336	0.092021	0.196223	0.196717	0.194087
2420	0.097774	0.090706	0.201647	0.199182	0.197867
2421	0.106649	0.099746	0.19573	0.199511	0.196881
2422	0.106649	0.100403	0.196717	0.19836	0.199018
2423	0.107799	0.103197	0.201483	0.201319	0.201812
2424	0.115853	0.109772	0.165982	0.201319	0.200004
2425	0.117003	0.113388	0.127522	0.200661	0.199182
2426	0.120784	0.117168	0.131302	0.199018	0.199182
2427	0.124399	0.120126	0.135247	0.20214	0.198524
2428	0.1267	0.125386	0.137219	0.199839	0.196717
2429	0.127358	0.130481	0.138534	0.20214	0.201812
2430	0.131467	0.127358	0.142479	0.201976	0.194744
2431	0.136891	0.13459	0.14856	0.198196	0.202305
2432	0.140342	0.14215	0.146259	0.201812	0.201483
2433	0.14215	0.138534	0.143958	0.20099	0.19836
2434	0.140835	0.139027	0.151683	0.200004	0.19836
2435	0.14593	0.142643	0.15875	0.20099	0.197867
2436	0.14593	0.145602	0.151354	0.20099	0.19721
2437	0.149053	0.145602	0.157107	0.197703	0.198031
2438	0.150204	0.149546	0.154806	0.202469	0.195566
2439	0.153819	0.15234	0.155463	0.19721	0.203291
2440	0.155299	0.150368	0.157764	0.198524	0.199839
2441	0.159079	0.153326	0.158586	0.202305	0.200497
2442	0.161709	0.154477	0.159572	0.202962	0.20099
2443	0.162695	0.159901	0.162202	0.200332	0.200332
2444	0.161215	0.158586	0.161873	0.200825	0.201319
2445	0.165489	0.160887	0.163845	0.200004	0.196059
2446	0.16401	0.163516	0.16401	0.20099	0.197374
2447	0.163681	0.167132	0.163681	0.203126	0.197538
2448	0.165489	0.161709	0.168776	0.200004	0.198689
2449	0.166968	0.167954	0.168447	0.202633	0.200168
2450	0.171406	0.166804	0.169926	0.199182	0.200168
2451	0.167461	0.170091	0.167297	0.198031	0.201154
2452	0.174364	0.167132	0.175679	0.194744	0.199018
2453	0.171899	0.168283	0.171241	0.199675	0.19836
2454	0.1742	0.173871	0.175186	0.197703	0.201319
2455	0.178966	0.171406	0.180938	0.201483	0.197703
2456	0.179952	0.172227	0.177158	0.199182	0.198196
2457	0.1742	0.171241	0.175679	0.199675	0.200332
2458	0.179459	0.17272	0.176336	0.203455	0.196881
2459	0.177651	0.171077	0.176008	0.199511	0.198031
2460	0.180938	0.176501	0.178637	0.198689	0.196717
2461	0.184225	0.174035	0.175679	0.202305	0.199182
2462	0.181924	0.175515	0.175515	0.200004	0.200661
2463	0.185212	0.131631	0.180116	0.199511	0.200825
2464	0.182911	0.135904	0.175843	0.198196	0.203126
2465	0.186526	0.139356	0.181431	0.19836	0.204277
2466	0.183075	0.141164	0.177487	0.200168	0.199511
2467	0.187513	0.140178	0.177322	0.197703	0.20214
2468	0.18554	0.145437	0.177322	0.201319	0.200497
2469	0.185047	0.148396	0.177487	0.204934	0.198031
2470	0.187184	0.149217	0.177651	0.19836	0.199018
2471	0.189814	0.149217	0.181596	0.193429	0.197703
2472	0.186526	0.155627	0.177322	0.199182	0.199346
2473	0.188827	0.154806	0.178802	0.197538	0.199675
2474	0.1908	0.15497	0.180938	0.196388	0.200825
2475	0.189649	0.157271	0.176336	0.201154	0.194416
2476	0.192115	0.15875	0.172392	0.203455	0.20099
2477	0.190471	0.162859	0.159901	0.199675	0.198031
2478	0.008528	0.160722	0.093993	0.20214	0.197374
2479	0.012472	0.165489	0.049617	0.200497	0.199018
2480	0.029401	0.165653	0.037455	0.208715	0.200497
2481	0.033017	0.169433	0.000474	0.199675	0.200825
2482	0.040577	0.170584	0.005405	0.198689	0.199346
2483	0.046166	0.177487	-1.9e-05	0.200332	0.199182
2484	0.052411	0.169433	-0.000183	0.197703	0.199018
2485	0.05537	0.169926	0.002118	0.199839	0.202798
2486	0.063423	0.061944	0.010993	0.200004	0.196552
2487	0.069011	0.008857	0.010171	0.202633	0.203784
2488	0.072298	0.018389	0.020526	0.197538	0.200004
2489	0.078544	0.024142	0.02595	0.199346	0.200825
2490	0.081995	0.033181	0.031867	0.19836	0.197867
2491	0.088077	0.041564	0.039427	0.204934	0.200825
2492	0.094322	0.047973	0.04255	0.198031	0.198689
2493	0.097445	0.047152	0.05537	0.199018	0.197538
2494	0.102704	0.060629	0.054712	0.197374	0.201154
2495	0.108128	0.03236	0.06293	0.201976	0.197374
2496	0.112073	0.015595	0.069176	0.198689	0.201812
2497	0.112237	0.024635	0.074599	0.204934	0.202962
2498	0.11914	0.033839	0.07838	0.202305	0.20099
2499	0.122098	0.040742	0.084132	0.201976	0.200825
