Ladekurvenmessung

Zeit: 2018_05_04 08.58.49

Info: FVA3, v = 0.272, T = 23, F = 20, h = 212.6

Ladewiderstand[Ohm]: 1012700

Störkapazität[pF]: 0.000000

Entladezeit[ms]: 200

Abtastrate[Hz]: 250000

Anzahl der Messwerte: 2500.000000

Verzögerung[ms]: 3

Ladespannung[V]: 0.200000


	Kurve_1	Kurve_2	Kurve_3	Kurve_4	Kurve_5
0	-0.000183	-0.002484	-0.000676	-0.004128	-0.000676
1	-0.000512	-0.00232	-0.001827	0.000803	0.001132
2	-0.000512	-0.001827	-0.002648	-0.001334	0.000146
3	-0.000347	-0.001991	0.001625	-0.000347	0.000967
4	-1.9e-05	-0.002484	0.000967	-0.001334	-0.000676
5	0.000146	-0.000183	0.000967	0.00146	-0.002484
6	0.000146	-0.002484	-1.9e-05	-0.001827	-0.000841
7	0.000146	-0.00232	0.003761	-0.001169	-0.000183
8	0.00031	-0.001662	-0.001662	-0.002977	-0.002155
9	-1.9e-05	0.00146	-1.9e-05	-0.004456	-0.000183
10	-0.000512	-0.004292	-0.00347	-0.004785	-1.9e-05
11	-0.000183	0.000639	0.00031	-0.004456	0.001296
12	-0.000347	-0.001169	0.000474	-0.001334	0.003433
13	-0.000676	-0.000512	-0.003142	-0.001498	-0.001005
14	-0.000183	-0.000347	-0.000512	0.000474	-0.001334
15	-0.000183	0.000146	0.000803	-0.001005	-0.001498
16	0.00031	-0.001991	-0.001662	0.00294	-0.001498
17	0.000146	-0.002648	-1.9e-05	-0.002484	-0.001334
18	0.00031	-0.004292	-0.001498	0.000967	-0.001169
19	0.000146	-0.002648	-0.00232	-0.000512	-0.002484
20	-1.9e-05	-0.001827	-0.004128	-0.00232	-0.002155
21	-0.000347	-0.004621	-0.002484	-0.00347	-0.00232
22	-0.000512	0.002611	-0.000183	-0.001991	-0.001005
23	-0.000347	0.001132	0.00146	-0.002155	-0.001991
24	-0.000512	0.00031	-0.002648	-0.002813	-0.000841
25	-0.000183	-0.002484	-0.001498	-0.003142	-0.004785
26	-1.9e-05	0.000474	-1.9e-05	-0.005114	0.000639
27	-1.9e-05	-0.001662	-0.001991	-0.000512	-0.002648
28	0.000146	-0.001169	-0.002648	-0.005771	-0.002648
29	0.000146	-0.002813	-0.001827	-0.001991	0.001296
30	0.00031	-0.001334	-0.000512	-0.001005	-0.005114
31	-0.000183	-0.001334	-0.004949	-0.002648	-0.001827
32	-0.000183	-0.00347	-0.002484	-0.000347	-0.001498
33	-0.000512	-0.001005	-0.005114	0.000639	-0.001498
34	-0.000512	-0.001334	-0.002484	-0.001498	-0.001169
35	-0.000512	-0.001334	-0.003635	-0.003799	-0.000676
36	-0.000347	-0.001827	-0.001827	0.000967	-0.001827
37	-1.9e-05	-0.000347	-0.001991	-0.000841	-0.001005
38	-1.9e-05	-0.005278	-0.002155	-0.004128	-0.004128
39	0.00031	-0.000676	-0.001005	-0.002813	-0.00232
40	0.00031	-0.000841	0.001132	-0.003306	-0.002155
41	0.000146	0.003597	-0.001827	-0.003799	-0.000183
42	-0.000183	-0.004456	-0.000676	-0.002155	-0.000841
43	-0.000183	-0.003635	0.004748	-0.003142	-0.002155
44	-0.000512	-0.003963	-0.001498	-0.001991	-0.001498
45	-0.000512	-0.00347	-1.9e-05	-0.002155	0.001625
46	-0.000183	-0.004128	-0.001334	-0.001334	-0.001334
47	-0.000347	-0.001498	0.00031	-0.001498	0.000146
48	-0.000183	-0.003142	-0.001005	0.001296	-0.002648
49	-1.9e-05	-0.004621	-0.001662	-0.001334	-0.001991
50	0.000146	-0.001991	-0.002155	-0.001662	-0.000512
51	0.00031	-0.002484	-0.003306	-0.001662	-0.002813
52	0.000146	-0.000347	-0.005114	-0.002977	-0.001169
53	-1.9e-05	-0.000512	-0.002648	0.000639	-0.005936
54	-0.000183	-0.002977	-0.000841	-0.006264	-0.003142
55	-0.000347	-0.00347	-0.003635	-0.006593	-0.001991
56	-0.000347	0.00031	-0.000676	-0.002648	-0.000512
57	-0.000841	-0.001991	-0.003142	-0.004785	-0.001005
58	-0.000183	-0.00232	-0.002155	-0.003142	-0.00347
59	-1.9e-05	-1.9e-05	-0.001991	-0.003635	-0.001991
60	0.000146	-1.9e-05	0.002611	-0.002648	0.000474
61	0.000146	-0.003142	-0.001827	-0.001005	-1.9e-05
62	0.00031	-0.001827	0.000967	-0.002155	-0.001005
63	-1.9e-05	-0.001498	-0.001991	-0.001005	-0.001169
64	-1.9e-05	-0.002648	0.000967	0.00031	-0.002155
65	-0.000512	-0.001005	-0.002813	-0.001991	-0.000347
66	-0.000347	-0.002484	-0.003963	-0.001334	-0.003306
67	-0.000512	0.003268	-0.001991	-0.000512	-0.000183
68	-0.001005	-0.002648	-0.002484	-0.000512	-0.002648
69	-0.000183	-0.001334	-0.002813	-0.001169	-0.000676
70	0.00031	-0.000347	-0.002977	-0.000676	-0.004621
71	0.000146	-0.000183	-0.001005	0.000146	-0.002484
72	0.000146	-0.00347	-0.001662	-0.002648	-0.006264
73	0.000146	0.000146	-0.002155	-0.004292	-0.005936
74	0.00031	-0.001169	-0.003306	-0.000676	-0.004785
75	-1.9e-05	-0.003142	0.000639	-0.003963	-0.006922
76	-0.000347	-0.002648	-0.005936	-0.005607	-0.004128
77	-0.000183	-0.000183	-0.002484	-0.003635	-0.001498
78	-0.000512	-0.002155	-0.002484	-0.000183	-0.001169
79	-0.000676	-0.001169	-0.002648	-0.004292	0.000803
80	-0.000183	-0.002155	-0.001498	-0.00232	0.000639
81	-1.9e-05	-0.001169	-0.003963	-0.001827	-0.002648
82	0.000146	-0.001662	0.00031	0.001296	-0.000676
83	0.00031	-0.002813	-0.002484	-0.001662	-0.002484
84	0.00031	-0.003142	-0.002813	-0.000512	-0.000676
85	0.000146	-0.004128	-0.002977	-0.001334	-0.001662
86	-1.9e-05	-0.001991	-0.0061	0.000146	-0.001498
87	-0.000183	-0.003142	-0.002484	-0.000512	-0.005114
88	-0.000512	-0.001498	-0.002484	-0.00347	-0.001169
89	-0.000676	-0.001169	-0.004456	-0.000183	-0.001991
90	0.00031	0.00409	-0.003142	-0.004785	-0.000512
91	-0.000183	-0.003142	-0.002155	-0.002648	-0.001827
92	-0.000183	-0.002813	-0.001498	-0.003635	-0.001498
93	0.00031	-0.002484	-0.003635	-0.000676	0.00146
94	0.000146	-0.00232	0.000474	-0.004456	-0.001498
95	-1.9e-05	-0.003963	-0.001334	-0.002813	-0.001498
96	0.000146	0.002611	-0.001991	-0.002813	-0.001334
97	-0.000183	-0.002813	-0.002648	-0.003142	-0.001005
98	-0.000183	-0.003635	-0.001991	-0.002484	-0.000676
99	-0.000512	-0.001662	-0.001991	-0.001334	0.000639
100	-0.000512	-0.002484	-0.004128	0.00031	-0.001662
101	0.000474	-0.001498	-0.003306	-0.000183	0.00031
102	-0.000183	-0.00232	-0.002977	-0.001334	0.00031
103	-1.9e-05	0.001296	-0.001498	-0.002813	-0.003799
104	0.000146	-0.002155	-0.002155	-0.002813	-0.002155
105	0.000146	-0.001334	-0.001169	-0.004949	-0.001991
106	0.00031	-0.003963	-0.003799	-0.003142	-0.001498
107	-1.9e-05	-0.001827	0.003433	-0.003963	-0.000183
108	-0.000183	-0.001991	-0.004785	-0.004456	-0.003963
109	-0.000347	-0.003799	-0.003635	-0.001498	-0.001169
110	-0.000347	-0.001991	-0.001991	0.002118	-0.00232
111	-0.000512	-0.002813	-0.005771	-0.002813	-0.001498
112	0.00031	-0.001005	-0.004456	-0.001662	-0.001662
113	-0.000183	-0.002813	-0.002977	-0.000676	0.00294
114	-1.9e-05	-1.9e-05	-0.005278	-0.00232	-0.001005
115	0.000474	-0.001498	-0.005443	-0.00232	-0.003635
116	0.00031	-0.003306	-0.001991	-0.001991	-0.001005
117	0.000474	-0.001662	-0.000347	-0.001169	-0.002648
118	-1.9e-05	0.000146	-0.001991	-0.001334	-0.001662
119	-0.000183	-0.000347	-0.003306	-0.000347	-0.003799
120	-0.000183	-0.001005	-0.001662	-0.00232	-0.001498
121	-0.000347	-0.004128	-0.002484	-0.001991	-0.003142
122	-0.000347	-0.001991	-0.000841	-0.001334	-0.005278
123	-1.9e-05	-0.002977	-0.004949	-0.000841	-0.004456
124	-1.9e-05	0.002447	-0.002813	-0.001498	-1.9e-05
125	0.000146	0.000967	-0.004621	0.001789	-0.001169
126	0.00031	-0.004621	-0.003963	-0.002484	-0.005114
127	0.000146	-0.001662	-0.003635	-0.001827	-0.00232
128	0.000639	-0.004128	-0.000676	-0.003799	-0.003799
129	0.000474	-0.00232	-0.004292	-0.002155	-0.001334
130	-0.000347	-0.003799	-0.001662	-0.001662	-0.001827
131	-0.000841	-0.003306	-0.005278	-0.001991	-0.000841
132	0.00031	-0.001827	0.000967	-0.003635	-0.000841
133	-0.001827	-0.001169	-0.000512	-0.00347	-0.001827
134	0.002775	-0.001498	-0.004128	-0.001662	0.000146
135	-0.002484	-0.001498	0.001296	-0.002813	-0.000183
136	-0.000512	-0.000183	-0.001169	0.000639	-0.002813
137	-0.001498	-0.001005	-0.002977	-0.001334	-0.001991
138	-0.000512	-0.002484	-0.002977	-0.00347	-0.002813
139	0.000474	0.000639	0.000967	-0.003799	-0.001334
140	-0.001827	-0.000841	-0.004949	0.000146	-0.001334
141	0.000803	-0.002813	-0.002155	-0.005443	-0.001662
142	0.00031	-0.003963	-0.002155	-0.002813	-0.000183
143	0.00146	-0.00347	-0.007086	-0.00347	-0.007579
144	-0.001662	-0.002484	-0.005936	-0.00232	-0.001005
145	0.001789	-0.000347	-0.003963	-0.00232	-0.005607
146	-0.001827	0.003433	-0.001827	-0.003306	-0.00232
147	0.000967	0.000474	-0.001169	-0.0061	-0.003142
148	-0.002813	-0.000183	-0.001827	-0.001005	-0.001498
149	-0.003799	-0.000676	-0.001498	-0.001169	-0.00232
150	-0.002155	-0.000841	-0.000347	-0.004621	0.000474
151	-0.004128	0.001789	-0.003635	-0.001991	-0.001334
152	-0.003635	0.00409	-0.000841	-0.003142	0.001625
153	-0.003142	0.000967	-0.001005	-0.00232	-0.000512
154	0.003597	0.000803	-0.001169	-0.004292	0.00146
155	-0.002484	0.002282	-0.001991	-0.00232	-0.000841
156	-0.000676	0.001789	-0.002813	-0.004128	-0.003635
157	-0.002813	0.000146	-0.002648	-0.000347	0.000474
158	-0.000512	0.00146	-0.002648	-0.005771	-0.004785
159	-0.003142	0.000474	-0.002977	0.00031	-0.003799
160	-0.002155	-0.000841	-0.004785	0.000146	-0.004292
161	-0.001827	-1.9e-05	-0.00232	-0.001169	-0.001662
162	-0.001662	-0.001334	-0.006264	-0.003963	-0.002648
163	-0.000676	0.001625	-0.004456	-0.001827	0.000967
164	-0.001498	-0.001334	-0.004128	-0.001662	0.000474
165	-0.001169	-0.000512	0.000474	-0.004621	-0.000841
166	-0.001498	-0.000512	-0.001005	-0.000841	-0.000676
167	-0.001334	-0.001169	-0.001005	-0.000512	0.003268
168	-0.003306	-0.000841	-0.00232	-0.000183	-0.002648
169	-0.00232	0.00294	-0.000512	-0.004949	0.001296
170	-0.002813	-0.001827	-0.002977	-0.000841	0.001296
171	-0.004128	-0.001498	-0.000841	-0.00232	-0.002648
172	-0.002648	0.001296	-0.000347	-0.001662	-0.001169
173	-0.00347	-0.004949	-0.003635	-0.002484	0.00031
174	-0.001498	0.001789	-0.005278	-1.9e-05	-0.001334
175	-0.000676	0.00146	-0.004456	-0.000512	-0.002977
176	-0.005114	-0.00232	-0.004128	0.001954	-0.001334
177	-0.001827	0.001296	-0.005771	-0.000183	-0.000183
178	-0.002813	-0.000841	-0.004128	-0.001498	0.00146
179	-0.004785	-0.00347	-0.003963	-1.9e-05	-0.002484
180	-0.003306	-1.9e-05	-0.001169	-0.002484	-1.9e-05
181	-0.000183	-0.003799	-0.00232	-0.002977	-0.000183
182	0.002447	-0.001498	-0.001005	-0.001334	0.003268
183	-0.002484	-0.002813	-0.001662	-0.001991	0.00294
184	-0.001169	-0.000841	-0.00347	-0.004456	0.002611
185	0.00031	-0.000676	-0.001169	-0.001334	0.002611
186	-0.002648	-0.001498	-0.001334	-0.002977	-0.000676
187	-0.00232	-0.001169	-0.005771	-0.005936	0.001954
188	-0.002484	0.000803	-0.001498	-0.004949	0.000967
189	-0.002155	-1.9e-05	-0.001005	-0.002813	0.003268
190	-0.002648	-0.004128	-0.000183	-0.003963	-0.002813
191	-0.004128	-0.000841	-0.001334	-0.002813	-0.000183
192	-0.001334	-0.00232	-0.001991	-0.001498	-0.001005
193	-0.001827	-0.003142	0.000803	-0.002155	-0.000347
194	-0.003799	-0.00232	-0.004949	-0.001991	-0.001991
195	-0.002813	-0.001334	-0.00347	-0.003799	0.001954
196	-0.002155	-0.007086	-0.002648	0.000639	-0.001498
197	-0.001827	-0.005936	-0.001827	-0.006922	-0.000841
198	-0.001169	-0.001991	-0.004785	-0.002813	-0.0061
199	-0.004292	-0.002813	-0.00232	-0.003306	-0.002813
200	0.001954	-0.004128	-0.003635	-0.003142	-0.00232
201	-0.002484	-0.003142	-0.004128	-0.004456	-0.002484
202	-0.005443	-0.001334	-0.001991	-0.001169	0.000474
203	-0.001005	-0.003306	0.000803	-0.002977	-0.001827
204	-0.006922	-0.001498	-0.002813	-0.001991	0.001132
205	-0.005114	-0.003635	-0.000841	-0.005771	-0.001662
206	-0.007908	-0.001498	-0.003142	-0.004292	0.001789
207	-0.007415	0.000639	-0.002484	-0.00347	-1.9e-05
208	-0.002484	0.000639	-0.003306	-0.00347	-0.000347
209	-0.000676	-0.002813	-0.005936	-0.002813	-0.000676
210	-0.00232	-0.001498	-0.001334	-0.004949	-0.001334
211	-0.001827	-0.002155	-0.00232	-0.002484	-0.001827
212	-0.004128	-0.003306	-0.002155	-0.003306	-0.001005
213	-0.004949	-0.003142	-0.004621	-0.001005	-0.004785
214	-0.001991	-0.00232	-0.001662	-0.002155	-0.001498
215	-0.001991	-0.001827	-0.004949	-0.004621	-0.000347
216	-0.002155	-0.001005	-0.007415	-0.001169	-0.002813
217	-0.003306	-0.001498	-0.003142	-0.001498	-0.000183
218	-0.001498	-0.001334	-0.003306	-0.003799	0.001296
219	-0.003635	-0.000183	-0.001334	-0.001827	-0.005443
220	-0.001334	-0.003142	-0.001005	-0.00873	-0.001662
221	-0.003142	-0.002484	-0.002813	-0.002484	-0.001169
222	-0.003142	-0.004292	-0.001005	-0.002155	-0.005936
223	-0.005114	-0.004621	-0.001991	-0.003799	-0.002484
224	-0.002977	-0.005771	-0.003306	0.001625	-0.002484
225	-0.004456	-0.000512	-0.004621	-0.001827	-0.001827
226	-0.001498	-0.004456	-0.006593	-0.002977	-0.000347
227	-0.001827	-0.000347	-0.001498	-0.000347	0.001296
228	-0.003799	-0.001662	-0.00725	0.000639	-0.000512
229	-0.003142	-0.003142	-0.005443	-0.002155	0.000474
230	-0.002813	-0.002813	-0.004785	0.000146	-0.000512
231	-0.000347	-0.002648	-0.001827	-0.003963	-0.000183
232	-0.006429	-0.001827	-0.001662	-0.001334	0.000146
233	-0.001005	-0.004128	-0.004128	-0.00347	-0.008072
234	-0.002155	-0.003799	-0.002648	-0.000347	-0.001498
235	-0.003799	-0.005607	-0.000512	-0.001991	-0.001498
236	-0.004292	-0.003799	-0.001991	-0.001991	-0.001169
237	-0.001498	-0.003635	-1.9e-05	-0.007086	-0.000512
238	-0.00347	-0.001991	-0.001827	-0.006922	0.001296
239	-0.002155	-0.005443	-0.002813	-0.003799	-0.001827
240	-0.00232	-0.003306	-0.001005	-0.003306	0.00146
241	-0.002648	-0.003635	-0.00347	-0.001991	-0.000676
242	-0.003142	-0.001334	-0.001991	-0.003799	0.000474
243	-0.001991	-0.003142	-0.001991	-0.001991	-0.000512
244	-0.002813	-0.001169	0.002611	-0.001991	-0.00988
245	-0.00232	-0.001169	-0.001662	0.000146	-0.003799
246	-0.003799	-0.004456	-0.000183	-0.002484	-0.003799
247	-0.00232	-0.004456	-0.001334	-0.002813	-0.003635
248	-0.000676	-0.000676	-0.001334	-0.005278	-0.004785
249	0.002447	-0.003799	-0.002813	-0.003142	-0.004128
250	-0.001169	-0.004785	-0.001991	-0.005443	-0.006593
251	-0.001169	-0.002813	-0.002484	-0.002484	0.00031
252	-1.9e-05	-0.001005	-0.001662	-0.004456	-0.002977
253	-0.001498	-0.001662	-0.000841	-0.003799	-0.000841
254	-0.000676	-0.001991	-0.002813	-0.002977	-0.001991
255	0.003268	0.00031	-0.001169	-0.003799	-0.00725
256	-0.001498	-0.001334	-0.00232	-0.003635	-0.002813
257	-0.004456	-0.001498	0.00031	-0.005936	-0.000676
258	-0.001498	-0.001991	-0.004621	-0.005278	-0.005936
259	-0.004456	-0.000183	-0.000347	-0.0061	-0.000676
260	-0.00347	-0.000841	0.00146	-0.00725	-0.00232
261	-0.005114	-0.001662	-0.002813	-0.004456	-0.001662
262	-0.002155	0.001789	-0.004128	-0.002484	-0.001334
263	-0.000676	-0.001827	-0.00347	-0.004292	-0.002155
264	-0.003306	-0.003306	-0.003799	-0.002648	-0.001827
265	-1.9e-05	-0.001005	-0.005443	-0.003306	-0.004128
266	-0.000676	-0.002484	-0.004292	-0.001334	-0.001498
267	-0.00232	-0.004949	0.001296	-0.002484	-0.007579
268	-0.002484	-0.001498	-0.001827	-0.002648	-0.001169
269	-0.000512	-0.002977	-0.003142	-0.002155	-0.006429
270	-0.001498	-0.002155	-0.000512	-0.004128	-0.002813
271	0.000146	-0.00232	-0.001991	-0.005443	-0.003142
272	-0.001498	-0.001827	-0.002155	-0.001991	-0.003142
273	0.00031	-0.002648	-0.003963	-0.003142	-0.000676
274	-0.000676	-0.002484	-0.002484	-0.001662	-0.001169
275	-0.001827	-0.001169	-0.006264	-0.005443	-0.002813
276	-0.006429	0.000474	-0.00347	-0.004621	-0.002977
277	-0.003963	-0.002484	-0.006264	-0.00347	0.002282
278	-0.001827	-0.006264	-0.001169	-0.001498	-0.005278
279	-0.003963	-0.002484	-0.004949	-0.000512	-0.00347
280	-0.002155	-0.003799	-0.004292	-0.001005	-0.005114
281	-0.004128	-0.001827	-0.003142	-0.000676	-0.002155
282	-0.002648	-0.004621	-0.001005	-0.003306	0.001296
283	-0.007579	-0.003635	-0.004128	-0.000347	-0.002484
284	-0.001334	-0.004128	-0.002813	-0.005114	-0.003306
285	-0.001827	-0.000676	-0.001498	-0.001991	0.000967
286	-0.00232	-0.002977	-0.00347	-0.001498	-0.002977
287	-0.000512	-0.004292	0.000146	-0.001334	-0.001498
288	-0.00232	-0.001334	-0.000512	-0.001005	0.003104
289	-0.005443	-0.014153	-0.000347	-0.004128	-0.002813
290	-0.003142	-0.008894	-0.001169	0.001625	-0.001169
291	0.000803	-0.002648	-0.001005	-0.00232	-0.001662
292	-0.006429	-0.002484	-0.003963	-0.001005	-0.000676
293	-0.005607	-0.001827	-0.000183	-0.003799	-0.001169
294	-0.004128	-0.004292	-0.004128	-0.001498	-0.002484
295	-0.004785	-0.003799	0.00146	-0.001498	-0.001827
296	-0.001334	-0.000841	-0.000676	-1.9e-05	-0.000183
297	-0.00347	-0.001334	-0.001334	-0.001991	-0.000183
298	-0.000347	-0.003963	-0.002484	0.00031	-1.9e-05
299	-0.002813	-0.006922	-0.003142	-0.001334	-0.001827
300	-0.004621	-0.00988	-0.001334	-0.001169	-0.003799
301	-0.002813	-0.004621	-0.002813	-0.000676	-0.002648
302	-0.00347	-0.002648	0.000474	-0.001334	-0.001498
303	-0.002813	-0.002813	-0.002155	-0.002813	-0.003306
304	-0.003963	-0.002648	0.002118	-0.003635	-0.001662
305	-0.001662	-0.003799	-0.002155	-0.002813	-0.00347
306	-0.005278	-0.001991	-0.001991	-0.004785	-0.002155
307	-0.004949	-0.000841	-0.000841	-0.003635	0.000967
308	-0.004292	-0.001827	-0.000512	-0.008072	-0.002484
309	-0.002813	-0.001169	-0.006593	-0.001334	0.000639
310	-0.003142	-0.000183	-0.000841	-0.001827	-0.003142
311	-0.002648	-0.001662	-0.003963	-0.001005	-0.001991
312	-0.003799	-0.001498	-0.001827	-0.00347	-0.003306
313	-0.002813	-0.001169	-0.001991	-0.000183	-0.001662
314	-0.001169	-0.006757	-0.001991	-0.001827	-0.004621
315	-0.004621	-0.001827	0.001789	-0.002155	-0.000676
316	-0.001169	0.000474	-0.004621	-0.001662	-0.005278
317	-0.002813	-0.002813	-0.000676	-0.000347	-0.001662
318	-0.002484	-0.000841	-0.003963	-0.001827	-0.004785
319	0.000474	0.000803	-0.001991	-0.003635	-0.007579
320	-0.001334	-0.002813	-0.002484	-0.000841	-0.005607
321	0.001296	-0.001498	-0.003306	-0.002155	-0.002648
322	-0.001662	0.002447	-0.003799	-0.001991	-0.001827
323	-0.001827	-0.004621	-0.004949	-0.002813	-0.004785
324	-0.00232	-0.004621	-0.001827	0.000146	-0.005114
325	-0.000183	-0.000841	-0.001169	-0.004785	-0.001005
326	-0.003306	0.001296	-0.002977	-0.005936	-0.004292
327	-0.002155	-0.003306	-0.002484	-0.005443	-0.0061
328	-0.002155	-0.000676	-0.00232	-0.004785	-0.004128
329	-0.002484	0.000803	-0.000512	-0.001827	-0.001005
330	-0.002155	-0.000676	-0.001498	-0.006264	-0.001005
331	-0.001334	-0.001498	-0.005607	-0.002155	-0.002648
332	-0.002977	-1.9e-05	-0.000512	-0.001991	0.000474
333	-0.004785	0.004255	-0.001991	-0.004621	-0.00347
334	-0.002813	-0.002813	-0.00232	-0.002648	-0.002484
335	-0.002155	-0.000841	-0.002648	0.000146	-0.003799
336	-0.00347	-0.001334	-0.003963	-0.00347	-0.002648
337	-0.002977	-0.000841	-0.003306	-0.003963	-0.001991
338	-0.002648	-0.001662	-0.001662	-0.004292	-0.004621
339	-0.001662	-0.004949	-0.00347	0.001132	-0.000841
340	-0.001662	-0.003142	-0.002813	0.000639	-0.001991
341	-0.006593	-0.00232	-0.003635	-0.004621	-0.001498
342	-0.001498	-0.002648	-0.002155	-0.005443	-0.001169
343	-0.004292	-0.002155	-0.005607	-0.002813	0.000639
344	-0.004949	0.003268	-0.002648	-0.003799	-0.002813
345	-0.004621	-0.005114	-0.003306	-0.001334	-0.002155
346	-0.002484	-0.005607	-0.001991	0.00031	-0.000347
347	-0.003799	-0.001498	-0.002484	-0.002484	-0.001662
348	-0.002813	-0.005771	-0.000512	-0.001827	-0.002977
349	-0.008894	-0.005443	-0.001662	-0.000841	-0.000841
350	-0.002155	-0.006429	-0.002977	-0.001991	-0.002155
351	-0.005607	-0.000347	-0.001827	-0.000183	-1.9e-05
352	-0.003635	-0.001169	-0.002155	-0.000676	-0.001827
353	-0.003799	-0.002648	-0.001334	-0.002155	-0.002484
354	-0.005278	-0.002813	-0.003799	0.00031	0.000639
355	-0.008237	-0.000347	-0.001169	-0.00347	-0.001334
356	-0.008894	-0.004128	-0.004128	-0.002813	-0.000676
357	-0.0061	-0.003142	-0.003306	0.000639	0.000146
358	-0.005114	-0.001662	-0.001334	-0.000183	-1.9e-05
359	-0.004292	-0.003963	-0.001991	-0.001827	0.000474
360	-0.006264	-0.002155	-0.006429	-0.004785	0.000146
361	-0.002484	-0.004128	-0.00347	-0.001334	-1.9e-05
362	-0.00347	-0.000183	-0.00232	-0.001991	-0.000183
363	-0.001662	-0.002155	-0.002484	-0.001662	-0.000183
364	-0.003799	-0.001334	-0.001827	-0.001169	-0.000183
365	-0.00232	-0.002155	0.000146	-1.9e-05	0.002118
366	-0.005443	0.000474	-0.001169	-0.001005	0.000146
367	-0.002484	-0.004128	-0.003963	-0.001005	-0.002648
368	-0.004785	-0.00232	-0.003799	0.000639	-0.001827
369	-0.004292	-0.001169	-0.002977	-0.000183	-1.9e-05
370	-0.002977	-0.002648	0.00146	-0.002977	-0.003963
371	-0.004621	-0.003799	-0.004949	-0.000512	-0.003306
372	-0.001991	-0.004456	-0.000841	-0.001827	0.001296
373	-0.002484	-0.003963	-0.004785	-0.001662	-0.0061
374	-0.001169	-0.003963	-0.006593	-0.001005	-0.000676
375	-1.9e-05	-0.004949	-0.001169	-0.000841	0.000803
376	-0.001005	0.00031	-0.004128	-0.001334	0.000474
377	-0.002648	-0.002484	-0.002977	-0.000347	-0.002648
378	0.000146	-0.004785	-0.004128	-0.002155	-0.004128
379	-0.00347	-0.002813	-0.001005	-0.001827	0.002447
380	-0.001662	-0.001334	-0.000512	-0.001991	-0.000676
381	-0.002484	-0.001169	0.000474	-0.002484	0.005405
382	-0.004621	-0.003799	-0.001334	-0.001827	-0.000512
383	-0.002155	0.001296	-0.000841	-0.00347	0.000803
384	-0.002648	-0.002648	-0.00232	-0.002813	0.000146
385	-0.004128	0.000803	-0.000347	-0.003142	0.000474
386	-0.003799	-1.9e-05	-0.000676	0.001132	-0.000347
387	-0.001005	-0.001169	-0.003635	-0.0061	-0.000347
388	-0.004949	0.002611	-0.003799	-0.000841	-0.001662
389	-0.002813	-0.004456	-0.001827	-0.004128	-0.001005
390	-0.004621	-0.004128	-0.003963	0.001132	0.001132
391	-0.00347	-0.003306	-0.003963	-0.004949	-0.001005
392	-0.003799	-0.000183	-0.001662	-0.004785	0.000474
393	-0.004128	-0.00347	-0.003142	-0.0061	-0.001005
394	-0.00347	-0.002648	-0.004128	-0.0061	-0.001334
395	0.000803	-0.002977	-0.004785	-0.003635	0.00031
396	-0.003799	-0.00347	-0.004292	-0.000676	0.001954
397	-0.000676	-0.002813	-0.003142	-0.004621	0.000803
398	-0.002648	-0.003799	-0.002155	-0.00347	0.00031
399	-0.006264	-0.002813	-0.00232	-0.003799	0.000146
400	-0.00347	-0.002648	-0.001334	-0.003799	0.000146
401	-0.003306	-0.000183	-0.003799	-0.001169	0.00031
402	-0.004785	0.000639	-0.002977	-0.00347	0.00031
403	-0.002155	-1.9e-05	-0.001005	-0.00232	0.00031
404	-0.004621	-0.001169	-0.004785	-0.003142	0.000146
405	-0.005771	-0.00232	-0.004292	-0.001498	-0.000183
406	-0.00347	-0.001498	-0.003799	-0.004128	-0.000183
407	0.000146	-0.001498	-0.003963	-0.003142	-0.000347
408	-0.000676	-0.000183	-0.004456	-0.000676	-0.000183
409	-0.003635	-0.001498	-0.0061	-0.003799	-0.000347
410	-0.002977	-0.002155	-0.007415	-0.006593	-0.000183
411	-0.002648	-0.002648	-0.00232	-0.006593	0.00031
412	-0.000512	-0.002813	-0.003306	-0.002977	0.000146
413	-0.001991	-0.001662	-0.004128	-0.004128	0.00031
414	-0.002484	-0.000347	0.002118	-0.00232	0.000474
415	-0.003306	0.000803	-0.00232	-0.003306	0.000967
416	-0.001991	-0.001005	-0.003799	-0.001005	0.00031
417	-0.002648	0.002611	-0.00232	-0.001334	-1.9e-05
418	-0.004621	0.000146	-0.001498	-0.001827	-0.000347
419	-0.002648	0.000474	0.000803	0.000803	0.000803
420	-0.003799	-1.9e-05	-0.000841	-0.001498	0.001789
421	-0.002155	-0.000841	-0.004949	-0.000676	0.00031
422	-0.007415	0.00146	-0.002484	-0.000183	0.000967
423	-0.003963	-0.003635	-0.002813	-0.003306	0.00031
424	-0.008565	0.000474	-0.006429	-0.001827	0.000146
425	-0.00347	-0.000347	-0.003635	-0.001991	0.00031
426	-0.005607	-0.001005	-0.003799	-0.00232	0.00031
427	-0.001498	-0.004456	-0.006757	-0.001334	-1.9e-05
428	-0.003635	0.00031	-0.004621	0.00031	-0.000183
429	-0.002155	-0.002813	-0.003306	0.000639	-0.000347
430	-0.002813	0.000967	-0.00232	-0.001662	-0.000512
431	-0.001991	-0.003963	-0.002155	-0.001334	-0.000347
432	-0.001662	-0.001498	-0.000676	-0.003963	0.000967
433	-0.003306	-0.001827	-0.003799	-0.001498	0.001132
434	-0.001991	-0.002155	-1.9e-05	-0.002155	-0.000676
435	-0.002155	0.001296	0.001789	-0.003963	0.001625
436	-0.001827	0.000803	0.001132	-0.002977	-0.001005
437	-0.004292	0.001789	-0.000183	-0.00232	-0.000183
438	-0.00232	-0.001991	-0.003963	-0.002155	-1.9e-05
439	-0.004456	0.003268	-0.00232	0.00031	-0.000841
440	-0.001991	-0.001169	-0.003635	-0.003799	0.000967
441	-0.004292	-0.000347	-0.001827	-0.005607	-0.001827
442	-0.002813	-0.001169	-0.001827	-0.005278	-0.002484
443	-0.003799	0.00031	0.000639	-0.007908	-0.000512
444	-0.003306	-0.003799	-0.004621	-0.002648	-0.00232
445	-0.001991	-0.002813	-0.002977	-0.008072	-0.000676
446	-0.001169	-0.002813	-0.005278	-0.005936	-0.000183
447	-0.001169	-0.001334	-0.002813	-0.001827	0.00031
448	-0.0061	-0.00232	-0.00347	-0.003963	0.00031
449	-0.002977	-0.001827	-0.001991	-0.005771	0.000803
450	-0.002155	0.003597	-0.002484	-0.001991	0.000146
451	-0.000512	0.000967	-0.001005	-0.002813	-0.000347
452	-0.004621	0.000803	0.001954	-0.001334	-0.000347
453	-0.000347	-0.000512	-0.001334	-0.001169	-0.000183
454	-0.004785	0.00409	-0.000676	-0.003306	-1.9e-05
455	-0.004128	0.000803	-0.001334	-0.002813	0.000146
456	-0.004621	0.00146	-0.001169	-0.006429	0.00031
457	-0.002648	-0.000183	-0.003963	-0.0061	0.00031
458	-0.005936	-0.000347	-0.003799	-0.004621	0.00031
459	-0.006429	0.000803	-0.007415	-0.003306	0.000146
460	-0.003799	-0.000512	-0.0061	-0.005771	-1.9e-05
461	-0.003963	-0.00347	-0.005114	-0.001662	-0.000347
462	-0.003306	-0.000841	-0.001991	-0.001169	-0.000512
463	0.002282	-0.003799	-0.002813	-0.002977	-0.000512
464	-0.000676	-0.001005	-0.002484	-0.002813	-0.000183
465	-0.001827	0.002118	-0.00232	-0.002155	-0.000183
466	-0.000512	-0.001991	-0.004292	-0.004621	0.000146
467	-0.001991	0.000803	-0.00347	-0.004292	0.000146
468	-0.000347	-0.000676	-0.001169	-0.004785	0.000146
469	-0.004621	0.00031	-0.000183	-0.003306	0.00031
470	-0.001334	-0.000676	-0.006429	-0.005607	-1.9e-05
471	-0.002484	0.00031	-0.001662	-0.005936	-0.000183
472	-0.002977	-0.002484	-0.002648	-0.002484	-0.000347
473	-0.002813	0.00409	-0.002648	-0.001991	-0.000347
474	-0.005607	-1.9e-05	-0.004456	-0.00347	-0.000347
475	-0.003635	0.00146	-0.002813	-0.004128	-0.000183
476	-0.003963	0.00031	-0.001169	-0.001005	0.000146
477	-0.004456	0.000146	-0.00347	-0.001827	0.000146
478	-0.004456	-0.003142	-0.005771	-0.002484	-1.9e-05
479	-0.001005	-0.001991	-0.004456	-0.001991	0.000146
480	-0.003142	-0.000841	-0.00347	-0.000347	0.00031
481	-0.00347	-0.003142	-0.002977	-0.000512	0.000146
482	-0.001827	-0.001169	-0.001991	-0.00347	-0.000347
483	-0.003142	-0.004785	-0.002813	-0.002484	-0.000183
484	-0.004785	-1.9e-05	-0.004949	-0.000512	-0.000183
485	-0.001827	-0.001005	-0.001334	-0.003142	-0.000512
486	-0.002155	-0.000841	-0.001662	-0.003306	-0.000512
487	-0.002648	-0.000183	0.00031	-0.002155	-1.9e-05
488	-0.002484	-0.001827	0.002118	-0.003963	0.000146
489	-0.003142	0.001789	-0.00347	-0.002813	0.00031
490	-0.004456	0.002775	-0.001005	-0.003635	0.00031
491	-0.003306	-0.002155	-0.00232	-0.001991	0.00031
492	-0.005278	-0.000841	-0.000183	-0.002977	0.000146
493	-0.005278	-0.001005	-0.001169	-0.001827	-0.000183
494	-0.002648	-0.002155	-0.001991	-0.002155	-0.000183
495	-0.004292	-0.001334	-0.005278	0.000803	-0.000347
496	-0.001827	-0.002977	-0.000183	-0.001498	-0.000512
497	-0.000183	-0.00347	-0.001498	-0.00232	0.000146
498	-0.003635	-0.00232	-0.003635	-0.00232	-0.000183
499	-0.005443	-0.004128	-0.001498	-0.006757	0.000967
500	-0.003306	-0.003963	-0.001005	-0.004456	0.000146
501	-0.001498	-0.003799	-0.002484	-0.00873	0.000474
502	-0.001662	-0.005114	-0.001662	-0.004128	0.000146
503	-0.003963	-0.00232	-0.002155	-0.008072	0.000146
504	-0.000841	-0.001334	-0.001169	-0.004128	0.000146
505	-0.000183	0.000146	-1.9e-05	-0.00347	-0.000347
506	-0.00232	-0.001662	-0.003142	0.000474	-0.000512
507	-0.002813	0.001625	0.000639	-0.002813	-0.000347
508	-0.001991	0.001789	-0.001991	-0.003306	-0.000347
509	-0.007908	0.002447	-0.001169	-0.003799	0.000146
510	-0.004621	-0.001005	-0.006264	-0.010373	-0.000183
511	-0.005607	-0.00232	-0.002648	-0.00725	-0.000347
512	-0.003799	-0.002648	-0.007086	-0.004456	0.000474
513	-0.004292	-0.001334	-0.004128	-0.002813	-0.001169
514	-0.008072	-0.001827	-0.003306	0.000967	-0.000183
515	-0.00232	-0.001334	-0.002155	-0.002813	0.000146
516	-0.001334	0.00031	-0.001991	-0.002648	-0.001827
517	-0.000841	-0.001991	-0.003142	-0.001334	-0.003799
518	-0.001662	-0.000841	-0.001498	-0.004456	-0.002813
519	0.000639	0.000639	-0.002648	-0.004128	-0.00232
520	-0.001169	0.000803	-0.007415	-0.002648	-0.000676
521	-1.9e-05	-0.001991	-0.003142	-0.01251	-0.002484
522	0.000146	0.001789	-0.002813	-0.006593	0.003926
523	-0.001827	0.001296	-0.013003	-0.001827	0.001954
524	-0.002977	0.000474	-0.00347	-0.004292	0.001132
525	-0.001991	-0.000841	-0.004456	-0.003142	0.000639
526	-0.001498	0.00031	-0.005278	-0.002977	-0.000183
527	-0.002977	0.001789	-0.005114	-0.001991	-0.000183
528	-0.000347	-0.001991	-0.00232	-0.003306	-1.9e-05
529	-0.003635	-1.9e-05	-0.002484	-1.9e-05	-0.000183
530	0.00146	-0.001334	-1.9e-05	-0.002648	-0.001827
531	-0.003963	-0.000512	-0.005936	-0.002977	-0.000512
532	-0.002813	-0.002813	-0.003963	-0.004128	-0.000841
533	-0.009058	-0.000347	-0.001991	-0.007908	0.003761
534	0.00031	-0.000841	-0.014153	-0.002977	-0.001662
535	-0.002648	-0.000512	-0.003963	-0.005443	-0.000841
536	-0.001498	-0.002813	-0.004128	-0.002155	0.002118
537	-0.001991	-0.001334	-0.002648	-0.004128	-0.001334
538	-0.001169	-0.001169	-0.002977	-0.003963	0.001954
539	-0.002813	-0.000841	-0.003306	-0.002977	-1.9e-05
540	-0.003635	0.005898	-0.001334	-0.002977	-0.000183
541	-0.00347	0.000967	0.000146	-0.00347	0.001625
542	-0.003306	0.00031	-0.001334	-0.002484	0.00146
543	-0.003142	0.000803	-0.003799	-0.001005	-0.002484
544	-0.004128	-0.000841	-0.001662	-0.00232	-0.000512
545	-0.002813	-0.003635	-0.009058	-0.002484	0.000146
546	-0.003799	-0.001169	-0.005278	-0.000676	0.001296
547	-0.002155	-0.001991	-0.001005	-0.001662	-0.000676
548	-0.002648	-0.003799	-0.003306	-0.000183	-0.000512
549	-0.005443	-0.002648	-0.002977	-0.001827	-0.000841
550	-0.004128	-0.001005	-0.000841	-0.001334	0.000639
551	-0.003306	-0.004621	-0.00232	-0.001827	-0.004456
552	-0.002484	-0.001662	0.00031	-0.001662	-0.000512
553	-0.002977	-0.002484	-0.001662	0.000474	-0.002648
554	-0.004292	-0.001498	-0.00232	0.006391	-0.00347
555	-0.003799	-0.001827	-0.000841	-0.004785	-0.000676
556	-0.003963	-0.000676	0.00146	-0.005771	-0.001498
557	-0.002155	-0.001827	-0.003306	-0.002155	-0.001005
558	-0.001005	-0.000512	-0.000183	-0.005771	-0.001498
559	-0.006429	0.000474	-0.002484	-0.0061	0.001132
560	-0.000676	0.001954	-0.003306	-0.005771	-0.002155
561	-0.000512	-0.000676	-0.00347	-0.00347	0.000639
562	-0.00232	-0.001662	-0.002977	-0.001169	-0.000841
563	-0.003142	-0.000347	-0.001827	0.001789	0.000639
564	0.00031	0.000803	-0.003142	-0.001334	-0.002155
565	-0.00347	0.00031	-0.001005	0.00294	-0.004292
566	-0.003635	-0.001334	-0.002484	-0.001991	-0.004128
567	-0.001827	-0.000183	0.004748	-0.00347	-0.003306
568	-0.000183	-0.000183	-0.004949	-0.001334	-0.002977
569	0.000639	-0.001169	-0.001991	-0.002155	-0.003142
570	-0.001498	-0.001169	-0.005114	0.00031	-0.002813
571	0.000474	-0.000841	-0.000512	-0.004456	-0.000183
572	-0.001498	0.000639	-0.00347	-0.001498	-0.001169
573	0.001789	-0.001991	-0.003306	-0.003306	-0.00347
574	-0.001334	-0.001498	-0.001991	-0.003142	-0.002648
575	-1.9e-05	0.002447	-0.000183	-0.003142	-0.004128
576	-0.001334	-0.002977	-0.00347	-0.001662	-0.004128
577	-0.003142	0.00031	-0.001991	-0.002977	-0.002813
578	-0.001169	-1.9e-05	0.003104	-0.004128	0.00146
579	-0.001334	-0.000347	-0.002648	-0.002648	-0.002648
580	-0.001334	0.000803	0.000146	-0.003306	-0.000512
581	-0.001005	-0.001498	-0.00232	0.000474	-0.002813
582	-0.005114	0.002447	-0.001334	-0.002813	-0.002813
583	-0.003142	0.000474	0.000474	-0.004621	-0.003306
584	-0.000183	0.001296	-0.003306	-0.003799	-0.001991
585	-0.000841	-0.000347	-0.003799	-0.001169	-0.002977
586	-0.001498	0.000803	-0.001991	-0.004128	-0.005114
587	-0.001827	-0.001005	-0.003142	-0.001991	-0.003635
588	-0.003142	-0.001662	-0.002484	-0.004621	-0.003963
589	-0.000676	0.000146	-0.001334	-0.003799	0.000474
590	-1.9e-05	0.00031	-0.003142	-0.006593	-0.00347
591	-0.001334	0.003268	-0.002155	-0.003635	-0.000841
592	-0.000347	0.001132	-0.001169	-0.004621	-0.002484
593	-0.002977	0.00146	-0.003963	-0.00347	-0.000512
594	-0.000183	0.002775	-0.003799	-0.002155	-0.001005
595	-0.001991	0.004419	-0.005278	-0.001991	0.002282
596	-0.001662	-0.001991	-0.003142	-0.002977	0.001954
597	-0.004785	0.002447	-0.000841	-0.00347	0.001132
598	0.001789	-1.9e-05	-0.001662	-0.002813	0.001132
599	-0.002484	0.002282	-0.001827	-0.006757	0.004912
600	-0.001991	0.000474	0.000803	-0.000512	0.002775
601	-0.00232	0.000967	-0.00347	-0.004949	0.003104
602	-0.001334	0.002611	-0.002648	-0.002155	0.000474
603	-0.001662	-0.001005	-0.001827	-0.004785	-0.001662
604	-0.002977	0.00294	-0.004621	-0.008565	-0.000183
605	-0.001991	-0.000841	-0.003963	-0.000841	-0.000183
606	-0.003799	-0.000512	-0.004292	-0.004128	-0.002813
607	-0.001498	0.002118	-0.004128	-0.005278	-0.00232
608	-0.003635	0.006884	-0.001005	-0.003963	-0.00232
609	-0.001169	0.004583	-0.003635	-0.003142	-0.003799
610	-0.001334	0.005076	-0.000347	-0.006757	-0.000676
611	-0.001662	0.002611	-0.001827	-0.004621	-0.002977
612	0.000474	0.004583	-0.004128	-0.003963	0.000474
613	-0.001991	0.002118	-0.004128	-0.001991	-0.002155
614	-0.002484	0.004255	-0.000347	-0.003142	0.001132
615	-0.003799	0.002775	-0.002648	-0.002155	-1.9e-05
616	-0.002155	0.002447	-0.001334	-0.002484	-0.004128
617	-0.003306	0.003597	-0.00232	-0.000512	0.001132
618	-0.003306	0.001296	-0.000676	-0.00347	0.000803
619	-0.00347	0.001132	-0.002977	-0.001334	0.000146
620	-0.004128	0.000474	-0.001169	0.000474	0.000146
621	-0.0061	0.001789	-1.9e-05	-0.002813	-0.002813
622	-0.00232	-0.001169	0.003104	-0.002155	0.000474
623	-0.001991	0.000639	-0.002155	-0.003142	0.000803
624	0.000474	-0.001169	-0.003963	-0.002484	0.004255
625	-0.002155	0.002447	-0.002484	-0.002813	0.005898
626	-0.001005	0.00031	-0.004456	-0.003635	0.004255
627	-0.002813	0.001954	-0.002484	-0.001169	0.00787
628	0.000639	-0.000347	-0.004949	-0.002484	0.00787
629	-0.001169	0.003268	0.000146	-0.004785	0.009185
630	-0.002977	0.002118	-0.001827	-0.004621	0.005569
631	-0.003142	0.00409	0.000146	0.001296	0.007213
632	-0.000347	0.003597	-0.000841	-0.001991	0.007049
633	-0.001169	0.002282	0.004583	-0.004949	0.005569
634	-0.003963	0.005734	-0.001334	-0.004128	0.002118
635	-0.000183	0.001625	-0.001169	-0.006264	0.003761
636	-0.001991	0.001789	-0.001827	-0.000347	0.005898
637	-0.001169	0.000967	-0.001827	-0.002813	0.003926
638	-0.002813	0.002775	-0.002484	-0.00232	0.004255
639	-0.002155	0.004583	-0.004621	-0.000347	0.002447
640	-0.004128	-0.000841	0.003433	-0.004128	0.003926
641	-0.001662	-0.002155	-0.003963	-0.003635	0.00146
642	-0.001991	0.00031	-0.000676	-0.001662	0.004255
643	-0.000347	-0.001334	-0.003635	-0.004785	0.003926
644	-0.002648	-0.003306	-0.000183	-0.004128	0.003104
645	-0.000512	0.000474	-0.001827	-0.004949	0.001132
646	-0.000512	0.000474	-0.000347	-0.004949	0.002118
647	-0.001991	-0.002155	-1.9e-05	-0.003142	0.002447
648	0.001132	0.00031	-0.000183	-0.004456	0.00146
649	0.000639	0.002118	-0.002648	-0.002155	0.002447
650	-0.001662	0.00146	-0.002977	-0.003799	0.003597
651	-0.002484	0.001296	-0.001498	-1.9e-05	0.004255
652	-0.001827	0.002775	-0.000841	-0.000183	0.000803
653	-0.003142	0.000803	-0.001827	0.002611	0.001132
654	-0.001662	0.003761	-0.001991	-0.001662	0.000639
655	-0.002648	0.004748	-0.001169	-0.001991	0.000146
656	-0.003306	-1.9e-05	-0.004456	-0.000676	-0.001827
657	-0.005936	0.002447	-0.002813	-0.002977	-1.9e-05
658	-1.9e-05	-0.003635	-0.0061	-0.003963	-0.001498
659	-0.002648	0.003926	0.000474	-0.004621	-0.001334
660	-1.9e-05	0.000803	-0.002648	-0.002813	-0.001005
661	-0.004621	-1.9e-05	-0.001005	-0.001991	-0.000347
662	-0.00232	0.001132	-0.002977	-0.001991	0.003268
663	-0.001334	0.000803	-0.000841	-0.003963	-0.001662
664	-0.00347	0.000967	-0.001662	-0.001498	0.001625
665	-0.001827	0.001296	-0.001169	-0.004785	0.001954
666	-0.003306	-0.000183	-0.002484	-0.002813	0.002447
667	-0.000841	0.000639	-0.000183	-0.002484	0.001789
668	-0.002155	0.000474	-0.002813	-0.003306	-0.000347
669	-0.002484	-0.003635	-0.00347	-0.000676	0.001132
670	-0.003635	0.002447	-0.001662	-0.000676	0.001132
671	-0.001662	0.000803	-0.001498	-0.000512	-0.000676
672	-0.006429	0.000803	-0.001169	-0.001498	-0.000183
673	-0.005278	0.001789	-0.001662	-0.000512	-0.004949
674	-0.001827	-0.003142	-0.004292	-0.001991	-1.9e-05
675	-0.001991	-0.001662	-0.005443	-0.000347	-0.001498
676	-0.003635	0.000146	-0.004456	-0.00347	-0.002484
677	-0.00232	-0.000512	-0.004128	-0.001005	-0.002155
678	-0.002484	-0.002813	-0.005278	-0.002813	-0.002977
679	-0.000183	-0.001005	-0.004785	-0.001169	0.00146
680	-0.001169	0.000146	-0.001169	-0.001005	-0.000183
681	-0.002155	-1.9e-05	-0.002155	0.001296	-0.001334
682	0.000146	-0.000183	-0.002155	-0.001498	0.000803
683	-0.009716	-0.000347	-0.001827	0.000639	0.001625
684	-0.003306	0.00031	0.000803	0.00146	0.000967
685	-0.003799	-0.000347	0.000803	-0.00347	0.000967
686	-0.002484	0.00146	-0.001827	-0.000841	-0.000512
687	-0.001169	0.001296	-0.001827	-0.002977	0.00031
688	-0.002648	0.00031	-0.001498	-0.001169	-0.001498
689	-0.004456	0.002282	-0.00347	-0.002484	-0.001827
690	-0.003142	0.001789	-0.003142	0.000639	-0.001334
691	-0.005607	0.003926	-0.001991	-0.004128	-0.001169
692	-0.004621	-0.000512	-0.004456	-0.000183	-0.001498
693	0.000474	-0.001005	-0.001827	-0.004456	-0.000841
694	-0.013496	-0.001662	-0.002484	-0.001334	-0.000183
695	-0.003963	-0.001662	-0.000512	-0.002155	-1.9e-05
696	-0.002648	0.00146	-0.006757	-0.001991	-0.000841
697	-0.000841	-0.002155	0.001132	-0.000841	-0.001334
698	-0.003799	0.001789	-0.001334	-0.001827	-0.003799
699	-0.004456	0.000803	0.001789	-0.003306	-0.002813
700	-0.002977	0.001132	-0.00232	-0.003306	0.002282
701	0.000146	-0.000183	-0.002648	-0.000512	0.001296
702	-0.001662	0.00031	0.000146	-0.004456	0.002611
703	-0.001334	-0.00232	-0.001662	-0.003635	-0.001498
704	-0.004456	0.005734	-0.001169	-0.00232	-0.000841
705	-0.010702	-0.001662	-0.005443	-0.008401	-0.001169
706	-0.00873	0.000146	-0.003963	-0.004128	-0.001005
707	-0.005607	0.000474	-0.002813	-0.002155	-0.002484
708	-0.005771	-0.001498	-0.001498	-0.004621	-0.002484
709	-0.007086	-0.001169	-0.005114	-0.001662	-0.003142
710	-0.003142	0.000639	-0.001991	-0.004785	-0.003799
711	-0.006757	0.000803	-0.003306	-0.000512	-0.002977
712	-0.003306	-0.000512	-0.002813	-0.003142	-0.00232
713	-0.002813	0.000146	-0.003799	-0.00232	-0.001662
714	-0.000512	-0.001169	-0.001498	-0.004621	-0.00232
715	-0.00347	0.000146	-0.001498	-0.00232	-0.001498
716	-0.000183	-0.001498	-0.002813	-0.002813	0.002118
717	-0.003635	-0.000183	-0.003142	-0.003306	0.001954
718	-0.001169	0.000639	-0.002648	-0.002155	-0.003306
719	-1.9e-05	0.000639	0.001132	-0.00232	0.001132
720	-0.002155	-0.000183	-0.005114	-0.002648	0.000639
721	-0.003963	0.000967	-0.001991	-0.00347	-0.002813
722	-0.004949	-0.003306	-0.006264	-0.001827	-0.001005
723	-0.001827	0.002775	-0.009058	-0.002484	-1.9e-05
724	-0.002977	0.001132	-0.005114	-1.9e-05	-0.001334
725	-0.003142	0.002282	-0.00347	-0.003799	-0.005278
726	-0.001991	-0.001498	-0.006757	-1.9e-05	-0.003142
727	0.00294	0.001789	-0.004456	-0.00232	-0.003963
728	-0.00347	0.001132	-0.002484	-1.9e-05	-0.003142
729	-0.003142	0.001625	-0.004128	-0.002813	-0.005936
730	-0.002648	-0.000841	-0.002977	-0.002813	0.002611
731	-0.001169	-0.003142	-0.004949	-0.002977	-0.003142
732	-0.005936	0.003104	-0.003306	-0.003306	-0.001827
733	-0.003635	-0.000183	-0.003142	-0.00347	-0.001662
734	-0.002484	0.001625	-0.002648	-0.000512	0.001132
735	-0.000183	-1.9e-05	-0.001334	0.001789	-0.001005
736	-0.002484	0.002775	-0.001827	-0.002484	-0.000676
737	-0.001169	0.000146	-0.003306	0.001625	-0.000676
738	0.003926	0.00031	-0.001005	-0.002813	-0.000512
739	-0.004785	0.001789	-0.002648	-0.000676	0.000803
740	-0.004785	-0.001662	-0.00347	-0.003306	-0.002155
741	-0.004128	-0.001991	-0.001498	-0.000676	-0.002813
742	-0.002813	-0.000347	-0.001334	-0.002977	-0.005278
743	-0.004128	0.000639	-0.000512	-0.000676	-0.002648
744	-0.004292	-0.000676	-0.002813	-0.000183	-1.9e-05
745	-0.002648	0.001132	-0.002648	-0.003963	0.000967
746	-0.003306	-0.001827	-0.004292	-0.001827	-0.004128
747	-0.003306	-0.001334	-0.001169	-0.002484	-0.000183
748	0.000803	-0.002648	-0.003635	-0.001827	-0.002648
749	-0.004785	0.000803	-0.001498	-0.001334	-0.003142
750	-0.005114	-0.000841	-0.003142	-0.00232	0.001625
751	0.000474	0.005076	0.003761	-0.001169	0.004583
752	0.00935	0.010007	0.014116	0.008692	0.011322
753	0.017403	0.018554	0.017732	0.014116	0.018554
754	0.023813	0.028415	0.026443	0.02447	0.027265
755	0.031045	0.031209	0.032688	0.02973	0.035975
756	0.036962	0.039427	0.037455	0.04107	0.040577
757	0.045344	0.041892	0.045179	0.046494	0.045179
758	0.048302	0.049124	0.050932	0.051096	0.050439
759	0.055863	0.054876	0.057013	0.056356	0.058328
760	0.062273	0.060465	0.059314	0.063752	0.064245
761	0.063423	0.065724	0.062108	0.068189	0.068025
762	0.069504	0.071312	0.07312	0.073942	0.071641
763	0.075421	0.072956	0.077065	0.077886	0.077886
764	0.083803	0.07838	0.08216	0.080845	0.084789
765	0.088077	0.078708	0.088241	0.087912	0.088241
766	0.092186	0.080681	0.092021	0.092021	0.098267
767	0.099417	0.083475	0.09613	0.096623	0.098595
768	0.103033	0.092186	0.101225	0.097938	0.100403
769	0.108457	0.09613	0.103691	0.104677	0.106813
770	0.110593	0.100896	0.107635	0.107306	0.1101
771	0.111415	0.104348	0.111251	0.113223	0.112566
772	0.115853	0.107964	0.117661	0.115524	0.116839
773	0.117332	0.112566	0.11536	0.119304	0.121441
774	0.122592	0.113552	0.117661	0.122592	0.11914
775	0.12555	0.118318	0.126372	0.124235	0.121934
776	0.12933	0.116675	0.125386	0.127358	0.124071
777	0.126865	0.122263	0.126043	0.132617	0.131796
778	0.13459	0.122592	0.136069	0.13459	0.129988
779	0.135247	0.128344	0.134754	0.136069	0.134425
780	0.138041	0.128673	0.138699	0.137055	0.136891
781	0.138534	0.132946	0.139685	0.140013	0.141493
782	0.145602	0.132124	0.140671	0.144944	0.142479
783	0.145437	0.13837	0.14971	0.142643	0.143465
784	0.149053	0.137384	0.146752	0.147409	0.146916
785	0.150697	0.141164	0.150039	0.151683	0.149875
786	0.152998	0.144944	0.150861	0.151518	0.151354
787	0.155627	0.144287	0.153655	0.152998	0.154148
788	0.152669	0.150532	0.154148	0.155956	0.1576
789	0.157271	0.15119	0.157764	0.156613	0.158586
790	0.159408	0.153162	0.158093	0.157764	0.160229
791	0.159901	0.154477	0.160558	0.158421	0.160887
792	0.159901	0.157435	0.163023	0.161873	0.16253
793	0.166639	0.1576	0.159901	0.16138	0.162366
794	0.160229	0.159079	0.162202	0.165817	0.167132
795	0.165817	0.154148	0.164338	0.164174	0.165324
796	0.164338	0.156285	0.166475	0.165489	0.166146
797	0.168283	0.158421	0.168118	0.170913	0.167625
798	0.169105	0.159079	0.171077	0.167954	0.168612
799	0.168612	0.160722	0.168283	0.172227	0.16779
800	0.176336	0.166968	0.172556	0.169433	0.17272
801	0.173378	0.168118	0.171077	0.172063	0.174857
802	0.1742	0.168118	0.175021	0.169598	0.174693
803	0.176336	0.170748	0.174035	0.175021	0.175186
804	0.17798	0.170584	0.174693	0.175186	0.177158
805	0.173871	0.173214	0.176172	0.179623	0.175021
806	0.174035	0.171077	0.179952	0.17913	0.17798
807	0.174693	0.174528	0.178144	0.176008	0.179459
808	0.178966	0.174693	0.182417	0.174693	0.177651
809	0.178144	0.176008	0.181103	0.177815	0.179623
810	0.178473	0.175186	0.17913	0.178473	0.181596
811	0.178144	0.180281	0.184061	0.17913	0.182911
812	0.181924	0.179459	0.179623	0.18061	0.181267
813	0.180938	0.176994	0.182089	0.179788	0.182911
814	0.184718	0.180116	0.18176	0.184883	0.183897
815	0.188334	0.180116	0.183897	0.183732	0.184225
816	0.182911	0.177651	0.18439	0.185376	0.185376
817	0.18554	0.182253	0.184061	0.184883	0.185869
818	0.187184	0.177322	0.182911	0.187184	0.185047
819	0.188499	0.180281	0.18439	0.184554	0.185212
820	0.187348	0.182911	0.189485	0.185705	0.188006
821	0.189978	0.182089	0.187348	0.18554	0.186526
822	0.186691	0.186362	0.18817	0.187677	0.186198
823	0.191293	0.18439	0.186526	0.185869	0.186526
824	0.186033	0.186198	0.186855	0.183732	0.187677
825	0.189485	0.185869	0.191621	0.188006	0.184061
826	0.191786	0.185869	0.190307	0.187677	0.18817
827	0.18817	0.185376	0.187513	0.190471	0.189156
828	0.188499	0.187677	0.18932	0.188992	0.190964
829	0.189156	0.187348	0.19195	0.196717	0.191293
830	0.191128	0.187019	0.194416	0.189978	0.190964
831	0.189978	0.187513	0.191293	0.191128	0.190142
832	0.1908	0.187184	0.189649	0.191786	0.190964
833	0.190964	0.188827	0.189649	0.190471	0.191621
834	0.193758	0.189814	0.187841	0.189156	0.194087
835	0.192936	0.188663	0.189156	0.188663	0.193101
836	0.191457	0.187841	0.193101	0.192279	0.190964
837	0.191457	0.189649	0.191128	0.190307	0.192936
838	0.192936	0.186198	0.193101	0.191786	0.1908
839	0.192772	0.18932	0.193922	0.192772	0.19195
840	0.194416	0.186526	0.193265	0.190964	0.194909
841	0.191128	0.190471	0.193922	0.19195	0.195073
842	0.194087	0.188334	0.194909	0.191621	0.194087
843	0.193429	0.188827	0.193594	0.190471	0.196881
844	0.193758	0.188006	0.193758	0.193101	0.194744
845	0.192443	0.192115	0.196552	0.192115	0.195895
846	0.193265	0.189978	0.193758	0.19195	0.194909
847	0.193265	0.188663	0.195073	0.194087	0.195895
848	0.192772	0.190964	0.193265	0.196059	0.1908
849	0.192772	0.190964	0.193922	0.194416	0.193265
850	0.190635	0.190307	0.193758	0.193429	0.196717
851	0.196223	0.191621	0.195073	0.194909	0.195402
852	0.193922	0.19195	0.195895	0.196388	0.195073
853	0.192115	0.191293	0.193265	0.194416	0.193265
854	0.192936	0.192936	0.195073	0.195073	0.196388
855	0.195237	0.193758	0.19458	0.193758	0.193429
856	0.194744	0.195073	0.192608	0.19195	0.196059
857	0.19458	0.192772	0.194744	0.185047	0.19573
858	0.193101	0.192772	0.195402	0.192279	0.19836
859	0.196717	0.192443	0.19573	0.194744	0.188663
860	0.194909	0.18554	0.195073	0.187184	0.192936
861	0.192936	0.193265	0.196881	0.19836	0.196388
862	0.193265	0.195073	0.200332	0.194909	0.197374
863	0.19721	0.192443	0.197703	0.195402	0.196223
864	0.197703	0.194744	0.198196	0.196059	0.195237
865	0.195073	0.197703	0.19573	0.196717	0.198196
866	0.19573	0.194251	0.195073	0.195895	0.197867
867	0.193101	0.197374	0.194251	0.197374	0.199675
868	0.197374	0.192608	0.193594	0.195237	0.196881
869	0.196881	0.195237	0.19458	0.198031	0.197538
870	0.198689	0.19573	0.19458	0.197703	0.187019
871	0.195566	0.184883	0.195566	0.195566	0.195237
872	0.198031	0.191786	0.194744	0.196552	0.195073
873	0.197045	0.19195	0.197867	0.195402	0.194416
874	0.197045	0.191786	0.19195	0.195073	0.194251
875	0.195073	0.000803	0.196059	0.194909	0.196388
876	0.196388	0.000146	0.197374	0.195895	0.19836
877	0.200168	0.004419	0.197538	0.193594	0.200168
878	0.19721	0.011322	0.193922	0.196552	0.195073
879	0.19573	0.02069	0.200332	0.19573	0.199839
880	0.198196	0.026114	0.197045	0.195895	0.199018
881	0.19573	0.027429	0.19458	0.196881	0.193101
882	0.193922	0.032031	0.200004	0.198853	0.198031
883	0.19721	0.038769	0.196223	0.197045	0.196552
884	0.193758	0.047152	0.19458	0.19836	0.198031
885	0.198853	0.053562	0.199675	0.195237	0.195402
886	0.194744	0.060465	0.196552	0.196059	0.197538
887	0.195237	0.006391	0.19573	0.196223	0.196059
888	0.196388	0.005898	0.197374	0.195566	0.198853
889	0.197538	0.006062	0.19573	0.197867	0.194087
890	0.196717	0.009514	0.197703	0.194909	0.19721
891	0.199018	0.003433	0.195237	0.196881	0.198196
892	0.196388	0.003433	0.194909	0.194909	0.200168
893	0.197374	0.007377	0.201647	0.199675	0.197374
894	0.198031	0.000803	0.198031	0.192772	0.199018
895	0.196059	0.008692	0.197703	0.196552	0.198031
896	0.196717	0.008035	0.19836	0.196223	0.197867
897	0.197867	0.017896	0.198031	0.19458	0.199511
898	0.194744	0.000474	0.19721	0.197703	0.195237
899	0.199346	0.000474	0.197538	0.195566	0.203784
900	0.19573	0.010007	0.198853	0.197703	0.198853
901	0.194251	0.017567	0.197045	0.200332	0.198031
902	0.196552	0.021183	0.198853	0.200497	0.197703
903	0.19573	0.034332	0.19573	0.19836	0.201976
904	0.195895	0.043371	0.197538	0.200497	0.195237
905	0.195566	0.041235	0.197374	0.19458	0.197703
906	0.195237	0.048795	0.195237	0.194744	0.196388
907	0.19573	0.05537	0.200332	0.197045	0.197703
908	0.197867	0.059972	0.196717	0.198524	0.196552
909	0.195566	0.066217	0.19573	0.197045	0.194909
910	0.196881	0.072134	0.197045	0.196059	0.199346
911	0.19836	0.077558	0.198689	0.196059	0.196388
912	0.196717	0.08331	0.190471	0.196552	0.198196
913	0.199018	0.086104	0.198524	0.19458	0.198031
914	0.200825	0.092514	0.196223	0.199182	0.201976
915	0.199182	0.099417	0.199182	0.196059	0.195402
916	0.19721	0.098595	0.199346	0.198689	0.196717
917	0.194744	0.100568	0.198031	0.196881	0.198196
918	0.198031	0.109607	0.19721	0.197703	0.197045
919	0.196717	0.106649	0.197374	0.197703	0.19836
920	0.196388	0.113716	0.200004	0.197374	0.195402
921	0.197867	0.11536	0.197867	0.198853	0.195402
922	0.19721	0.122263	0.195895	0.196881	0.196717
923	0.198689	0.120619	0.194087	0.197045	0.195237
924	0.197867	0.125057	0.197538	0.195237	0.190307
925	0.199346	0.126865	0.194744	0.198196	0.188006
926	0.192608	0.12933	0.195895	0.197045	0.188006
927	0.196388	0.132289	0.196717	0.198524	0.189485
928	0.199182	0.135904	0.199018	0.194251	0.185869
929	0.195237	0.137384	0.197867	0.196881	0.068518
930	0.199346	0.13952	0.201812	0.19573	0.007542
931	0.196717	0.143301	0.198689	0.196059	0.013459
932	0.199346	0.142643	0.197374	0.196388	0.022005
933	0.199675	0.148067	0.196717	0.19721	0.025785
934	0.194416	0.141493	0.195402	0.198853	0.00935
935	0.198196	0.138534	0.201976	0.195895	0.016746
936	0.199018	0.135247	0.196717	0.195237	0.022991
937	0.195895	0.139192	0.199182	0.196881	0.030223
938	0.197045	0.138863	0.198196	0.19836	0.034332
939	0.197867	0.140835	0.197703	0.199839	0.039098
940	0.196388	0.143301	0.196059	0.19836	0.049453
941	0.198031	0.14593	0.201976	0.196552	0.054055
942	0.196717	0.147903	0.193758	0.198196	0.061944
943	0.198689	0.146752	0.195402	0.196223	0.066875
944	0.197703	0.150204	0.197374	0.198196	0.073778
945	0.199182	0.15234	0.197703	0.195402	0.078544
946	0.197538	0.153655	0.197703	0.197374	0.083475
947	0.200497	0.153491	0.197703	0.195402	0.090542
948	0.19721	0.156778	0.199675	0.19721	0.091035
949	0.199675	0.156778	0.197045	0.196059	0.096788
950	0.197045	0.160558	0.200332	0.202305	0.10254
951	0.197538	0.155627	0.199182	0.20099	0.101718
952	0.19721	0.160229	0.204113	0.198031	0.110265
953	0.195895	0.158586	0.196223	0.197374	0.110429
954	0.194416	0.161215	0.198853	0.199018	0.114209
955	0.193265	0.163681	0.197374	0.19836	0.119797
956	0.192443	0.164503	0.19721	0.199182	0.121605
957	0.194087	0.164996	0.196717	0.199018	0.123906
958	0.196388	0.166475	0.197374	0.19836	0.128344
959	0.194251	0.168283	0.196552	0.197374	0.129659
960	0.197867	0.162695	0.197703	0.195402	0.131796
961	0.196552	0.168283	0.196717	0.197538	0.136891
962	0.198689	0.166968	0.197538	0.195073	0.138041
963	0.197374	0.171241	0.200332	0.19721	0.141328
964	0.198689	0.169598	0.199675	0.197538	0.14215
965	0.19836	0.169269	0.198524	0.197374	0.145766
966	0.199511	0.173542	0.19195	0.198689	0.148067
967	0.198689	0.174035	0.197374	0.195895	0.150368
968	0.197703	0.172392	0.197703	0.19721	0.152011
969	0.199018	0.177322	0.198031	0.198689	0.153326
970	0.196552	0.17913	0.197374	0.197538	0.155463
971	0.197867	0.173214	0.198196	0.198196	0.155627
972	0.197045	0.176172	0.197045	0.202305	0.158914
973	0.196881	0.17535	0.196881	0.196059	0.154312
974	0.196388	0.176336	0.196717	0.198524	0.160229
975	0.19836	0.177322	0.196717	0.195566	0.160558
976	0.199675	0.175515	0.193758	0.200825	0.163023
977	0.198524	0.176008	0.195566	0.202305	0.16138
978	0.199182	0.178144	0.197538	0.199511	0.165324
979	0.20099	0.178144	0.196223	0.199018	0.165817
980	0.198853	0.180116	0.198196	0.199346	0.170748
981	0.198031	0.17913	0.198031	0.197703	0.168776
982	0.199346	0.177815	0.199018	0.198196	0.170584
983	0.19836	0.180116	0.199182	0.198031	0.171899
984	0.197538	0.180116	0.199346	0.198196	0.174693
985	0.198031	0.182911	0.199346	0.19573	0.174693
986	0.196223	0.181267	0.197703	0.195402	0.177487
987	0.197045	0.181267	0.197538	0.197538	0.176172
988	0.198689	0.182911	0.195566	0.197703	0.175843
989	0.197374	0.182746	0.193429	0.199839	0.178144
990	0.198689	0.181924	0.198853	0.19721	0.177158
991	0.196059	0.182417	0.19721	0.200004	0.180116
992	0.197703	0.182911	0.198524	0.197045	0.180116
993	0.196223	0.182582	0.197538	0.200004	0.181431
994	0.19573	0.182582	0.197538	0.201647	0.179295
995	0.197045	0.18061	0.199839	0.194087	0.183568
996	0.197538	0.180938	0.196223	0.196881	0.180281
997	0.196223	0.182911	0.198031	0.197703	0.182911
998	0.199182	0.177322	0.198853	0.196552	0.183404
999	0.197045	0.182089	0.197703	0.199511	0.185376
1000	0.198524	0.184554	0.197703	0.200332	0.182417
1001	0.198689	0.183897	0.200168	0.200168	0.185869
1002	0.198031	0.140342	0.200332	0.198031	0.187841
1003	0.198031	0.075421	0.200497	0.196223	0.185705
1004	0.196059	0.063587	0.198689	0.197867	0.189649
1005	0.200168	0.051589	0.200497	0.19836	0.185869
1006	0.199018	0.049617	0.197867	0.199511	0.187841
1007	0.197538	0.04748	0.19836	0.199346	0.188663
1008	0.19573	0.054219	0.197538	0.196552	0.189978
1009	0.199839	0.057835	0.196223	0.192279	0.189156
1010	0.194416	0.06556	0.195566	0.198689	0.190471
1011	0.197045	0.06934	0.196059	0.198196	0.188663
1012	0.195073	0.075914	0.199675	0.196388	0.189978
1013	0.197538	0.079694	0.197867	0.197867	0.189814
1014	0.194744	0.083475	0.198689	0.195237	0.188499
1015	0.196552	0.090378	0.198853	0.19458	0.193922
1016	0.197538	0.094322	0.19721	0.197867	0.188499
1017	0.198689	0.096952	0.197374	0.197374	0.189485
1018	0.200497	0.099417	0.198031	0.195237	0.189156
1019	0.197045	0.106156	0.197703	0.198524	0.191621
1020	0.199675	0.104677	0.200497	0.197045	0.193265
1021	0.198524	0.110758	0.198031	0.19836	0.19458
1022	0.198524	0.113552	0.201647	0.197538	0.19458
1023	0.197374	0.117661	0.20099	0.197703	0.196223
1024	0.200168	0.118318	0.199511	0.199346	0.193101
1025	0.199182	0.124564	0.197703	0.197703	0.193594
1026	0.198524	0.123085	0.196388	0.196552	0.191457
1027	0.196059	0.128015	0.195566	0.200004	0.189156
1028	0.199182	0.061122	0.197538	0.199182	0.191128
1029	0.197045	0.038112	0.197703	0.197538	0.190964
1030	0.196717	0.039427	0.195895	0.198196	0.190142
1031	0.005734	0.04633	0.197867	0.199182	0.192936
1032	0.012801	0.05389	0.194744	0.197867	0.196223
1033	0.019047	0.062601	0.197703	0.198196	0.194909
1034	0.024799	0.064574	0.199182	0.20099	0.196223
1035	0.035154	0.069504	0.201647	0.197703	0.197045
1036	0.036962	0.077558	0.197374	0.198031	0.197703
1037	0.048302	0.078873	0.199675	0.197374	0.196552
1038	0.052082	0.062437	0.195566	0.198689	0.199511
1039	0.058985	0.064245	0.19836	0.196881	0.196552
1040	0.063259	0.070326	0.198196	0.19721	0.199018
1041	0.065067	0.072627	0.195073	0.198196	0.19573
1042	0.072134	0.075257	0.198031	0.197703	0.196717
1043	0.080516	0.077065	0.197703	0.199675	0.196717
1044	0.081174	0.081502	0.198196	0.199675	0.196552
1045	0.084461	0.086597	0.200825	0.198853	0.195895
1046	0.094158	0.088241	0.199675	0.197045	0.197703
1047	0.095473	0.094487	0.195566	0.199839	0.195073
1048	0.101225	0.099746	0.200332	0.196552	0.194909
1049	0.103033	0.098102	0.196552	0.200825	0.192443
1050	0.109443	0.099582	0.196552	0.198031	0.196388
1051	0.112237	0.102704	0.197867	0.200004	0.196388
1052	0.10254	0.106485	0.199346	0.194744	0.196059
1053	0.105827	0.109443	0.198031	0.199182	0.198853
1054	0.113388	0.113059	0.199839	0.196552	0.198031
1055	0.115689	0.115524	0.199839	0.196552	0.198689
1056	0.115195	0.11651	0.199675	0.198031	0.196717
1057	0.123249	0.122592	0.199675	0.198853	0.199346
1058	0.121441	0.123578	0.197045	0.195073	0.197374
1059	0.121112	0.123742	0.199018	0.19721	0.197538
1060	0.126207	0.126207	0.195402	0.19721	0.198031
1061	0.1267	0.128837	0.197703	0.198689	0.195073
1062	0.12818	0.131302	0.196059	0.200661	0.196717
1063	0.130809	0.132453	0.199675	0.197703	0.194416
1064	0.132946	0.133932	0.195566	0.201154	0.194909
1065	0.140506	0.139192	0.200497	0.198196	0.198196
1066	0.141164	0.136069	0.19721	0.199511	0.199839
1067	0.141657	0.13952	0.201976	0.197538	0.19573
1068	0.147245	0.141657	0.197045	0.198689	0.198196
1069	0.140835	0.140342	0.197703	0.197703	0.195566
1070	0.000146	0.143629	0.198689	0.19721	0.196881
1071	0.002447	0.144122	0.19721	0.195237	0.19836
1072	0.000146	0.146588	0.199346	0.197867	0.196388
1073	0.00031	0.148724	0.19836	0.197867	0.198689
1074	-1.9e-05	0.152505	0.200661	0.196717	0.195402
1075	-0.000183	0.14856	0.195073	0.198689	0.196552
1076	-0.000347	0.152505	0.198196	0.19573	0.197374
1077	0.002282	0.153491	0.194909	0.200004	0.198196
1078	-0.000512	0.155299	0.199675	0.197374	0.194087
1079	-0.001334	0.156778	0.198689	0.198524	0.201647
1080	0.002775	0.154148	0.197703	0.198524	0.198031
1081	0.006884	0.093665	0.196881	0.199675	0.197374
1082	0.013787	0.000146	0.19836	0.197374	0.195895
1083	0.020526	0.001789	0.196388	0.197374	0.198689
1084	0.020197	0.012472	0.195402	0.198689	0.196717
1085	0.001789	0.019704	0.197867	0.199511	0.196717
1086	0.008363	0.023813	0.197045	0.198031	0.19573
1087	0.004912	0.036797	0.197867	0.197374	0.200168
1088	-0.000183	0.039591	0.197374	0.200497	0.200332
1089	0.003926	0.049946	0.200661	0.19573	0.197374
1090	0.013459	0.051754	0.200004	0.195566	0.199839
1091	0.018061	0.061451	0.199675	0.196223	0.199018
1092	0.025292	0.065231	0.199675	0.198031	0.199018
1093	0.002447	0.069504	0.199839	0.195237	0.197703
1094	-0.000347	0.072791	0.19573	0.197703	0.198196
1095	-0.00347	0.080845	0.19721	0.196223	0.197538
1096	0.003926	0.082324	0.19721	0.198031	0.19721
1097	0.010829	0.087255	0.197867	0.197045	0.197045
1098	0.020362	0.091857	0.195895	0.198031	0.197045
1099	0.031373	0.100075	0.196552	0.20099	0.198853
1100	0.034825	0.104348	0.196388	0.199675	0.200004
1101	0.020033	0.105663	0.199675	0.200332	0.198031
1102	0.00294	0.112566	0.198031	0.197374	0.199018
1103	0.010993	0.112237	0.195895	0.19836	0.197374
1104	0.018389	0.117332	0.19836	0.196223	0.196717
1105	0.030059	0.118976	0.193922	0.195402	0.199182
1106	0.032195	0.122098	0.194744	0.197045	0.196223
1107	0.006556	0.125879	0.195237	0.195566	0.194744
1108	0.004255	0.129495	0.197867	0.193758	0.195237
1109	0.008692	0.133439	0.194416	0.199018	0.194416
1110	0.021019	0.135411	0.197867	0.198196	0.196223
1111	0.026443	0.137384	0.197867	0.196223	0.194087
1112	0.037619	0.140013	0.198196	0.198689	0.19458
1113	0.042221	0.142643	0.197867	0.198196	0.195402
1114	0.049288	0.140178	0.196388	0.195895	0.196552
1115	-0.002484	0.143136	0.196059	0.197538	0.196717
1116	0.008692	0.144944	0.188827	0.197045	0.194416
1117	0.000967	0.149382	0.196552	0.199675	0.20214
1118	0.00031	0.149875	0.195237	0.19836	0.193758
1119	-1.9e-05	0.151683	0.194744	0.199839	0.195895
1120	-0.000183	0.154148	0.197867	0.199346	0.19573
1121	-0.000676	0.156449	0.196717	0.197867	0.194744
1122	0.001789	0.15612	0.191786	0.199346	0.195895
1123	0.00294	0.158257	0.197538	0.197867	0.197703
1124	0.001132	0.1576	0.194416	0.200497	0.195237
1125	0.012472	0.161051	0.196552	0.194909	0.194909
1126	0.018061	0.162037	0.196059	0.196717	0.194087
1127	0.024306	0.163845	0.190635	0.196552	0.19573
1128	0.035154	0.16516	0.195566	0.197374	0.19458
1129	0.041564	0.166146	0.197374	0.197538	0.194744
1130	0.046987	0.166475	0.200497	0.198196	0.19836
1131	0.00031	0.168118	0.197538	0.199018	0.197045
1132	-0.000676	0.172063	0.198196	0.200332	0.195402
1133	-0.000183	0.168612	0.198853	0.199839	0.197703
1134	-1.9e-05	0.172556	0.199675	0.200497	0.195566
1135	0.000474	0.171734	0.197867	0.203455	0.195073
1136	0.00672	0.172227	0.19836	0.187019	0.194416
1137	0.012637	0.172392	0.198524	0.197374	0.194744
1138	0.010993	0.174035	0.197538	0.19836	0.196059
1139	0.020197	0.174693	0.191457	0.19836	0.194744
1140	0.026771	0.174857	0.197045	0.197538	0.197045
1141	0.035318	0.175843	0.19836	0.19573	0.19573
1142	0.040742	0.178144	0.19836	0.193758	0.196717
1143	0.047152	0.183075	0.198196	0.198853	0.195073
1144	0.016746	0.177158	0.200004	0.196388	0.197538
1145	0.022827	0.17913	0.200332	0.19458	0.198524
1146	0.029894	0.177651	0.199675	0.196552	0.192608
1147	0.035975	0.18061	0.201319	0.187841	0.197703
1148	0.044029	0.177322	0.199346	0.19573	0.196059
1149	0.048467	0.181267	0.203455	0.198524	0.198031
1150	0.060958	0.180938	0.196717	0.198689	0.19573
1151	0.058657	0.18554	0.19836	0.199675	0.19458
1152	0.069833	0.184225	0.199511	0.197703	0.197538
1153	0.079859	0.183732	0.197867	0.194744	0.19573
1154	0.078544	0.184883	0.197703	0.197703	0.195237
1155	0.086104	0.184718	0.197703	0.19573	0.196388
1156	0.092514	0.184061	0.197867	0.196881	0.196223
1157	0.09613	0.186691	0.199182	0.19721	0.195073
1158	0.094322	0.183404	0.195895	0.193758	0.196059
1159	0.101061	0.182253	0.198031	0.192608	0.195073
1160	0.102376	0.183732	0.203784	0.19573	0.196388
1161	0.109443	0.183404	0.197867	0.191786	0.196223
1162	0.110593	0.181596	0.197867	0.191457	0.132617
1163	0.117825	0.178473	0.19573	0.194909	-0.000183
1164	0.11914	0.183404	0.199839	0.194744	-0.000183
1165	0.122098	0.184718	0.199511	0.199018	0.001132
1166	0.124893	0.184883	0.196223	0.19721	0.001132
1167	0.131138	0.182582	0.199839	0.197867	0.008035
1168	0.129823	0.184718	0.199675	0.198524	0.018554
1169	0.132617	0.184883	0.198689	0.203948	-0.000347
1170	0.136398	0.179295	0.196552	0.19458	0.00146
1171	0.139356	0.176665	0.200168	0.197867	0.009021
1172	0.144944	0.171077	0.19721	0.197703	0.017239
1173	0.14478	0.157107	0.193429	0.19836	0.020855
1174	0.148724	0.156613	0.19458	0.19721	0.03088
1175	0.149382	0.158914	0.19573	0.19721	0.037948
1176	0.149875	0.15234	0.195073	0.19836	0.04255
1177	0.15497	0.001296	0.196059	0.198196	0.04748
1178	0.157764	0.000639	0.200825	0.196881	0.063587
1179	0.152505	0.002447	0.19721	0.197045	0.063587
1180	0.156942	-0.000183	0.200661	0.201812	0.071641
1181	0.160065	0.001132	0.200168	0.19721	0.074764
1182	0.159079	0.000146	0.19836	0.198196	0.076572
1183	0.162037	0.000803	0.199511	0.199511	0.085611
1184	0.164831	0.000146	0.196881	0.200661	0.086762
1185	0.163023	0.000803	0.196717	0.198689	0.090542
1186	0.165817	0.006062	0.201647	0.198524	0.09498
1187	0.165653	0.008035	0.199182	0.199182	0.100896
1188	0.167297	0.012965	0.195402	0.200661	0.101554
1189	0.16894	0.011815	0.199675	0.198196	0.108786
1190	0.16894	0.015102	0.20099	0.200168	0.108621
1191	0.170255	0.002118	0.198689	0.199346	0.110429
1192	0.171241	0.006556	0.199018	0.198196	0.118483
1193	0.1742	-0.002813	0.19836	0.196717	0.041728
1194	0.173707	0.001789	0.19836	0.199511	0.048467
1195	0.176829	0.002611	0.199675	0.19721	0.053726
1196	0.176829	0.012472	0.199182	0.195895	0.058328
1197	0.177651	0.020197	0.199182	0.198031	0.012144
1198	0.177487	0.027758	0.20099	0.196388	0.016417
1199	0.177487	0.011979	0.199018	0.198031	-0.000183
1200	0.178637	0.008857	0.201154	0.200332	-0.001334
1201	0.17798	-0.00232	0.198031	0.201483	0.007542
1202	0.177487	0.007213	0.201319	0.201976	0.005734
1203	0.176829	0.016417	0.199346	0.201154	0.007542
1204	0.18061	0.019211	0.20099	0.198524	0.016088
1205	0.181267	0.016581	0.197538	0.198853	0.022334
1206	0.185869	0.020362	0.199018	0.198853	0.026278
1207	0.181924	0.009185	0.196223	0.199018	0.037126
1208	0.181596	0.01428	0.196717	0.19458	0.040413
1209	0.038276	0.02069	0.198196	0.193758	0.049288
1210	0.042385	0.017732	0.198196	0.197703	0.050603
1211	0.050603	0.002447	0.199839	0.196059	0.058657
1212	0.060136	0.010664	0.199018	0.196223	0.063423
1213	0.062766	0.017074	0.202305	0.19721	0.069504
1214	0.073613	0.021841	0.197045	0.196717	0.073613
1215	0.000803	0.034168	0.202633	0.197374	0.079366
1216	0.000146	0.012144	0.198524	0.200825	0.082324
1217	0.006227	0.020362	0.201976	0.19573	0.085776
1218	0.012472	0.025785	0.193429	0.197374	0.089063
1219	0.019704	0.03614	0.200332	0.197703	0.090049
1220	0.021019	0.03992	0.200825	0.198196	0.097609
1221	0.028908	0.048631	0.196388	0.19721	0.097774
1222	0.03236	0.055041	0.199182	0.199675	0.103197
1223	0.041728	0.0603	0.197703	0.195402	0.101883
1224	0.021183	0.060958	0.195073	0.198524	0.107142
1225	0.000146	0.067039	0.196059	0.196223	0.108128
1226	0.00031	0.07312	0.198524	0.198031	0.114209
1227	-0.000183	0.073449	0.19195	0.197538	0.114374
1228	0.002775	0.078708	0.197703	0.197374	0.114867
1229	0.00409	0.072956	0.196223	0.197374	0.120126
1230	-0.000183	0.078873	0.199018	0.196881	0.125221
1231	0.003597	0.072956	0.198524	0.198689	0.123578
1232	0.002447	0.074928	0.198853	0.196223	0.12818
1233	0.008857	0.078051	0.19836	0.198031	0.129988
1234	0.005734	0.079694	0.198853	0.199182	0.137055
1235	0.009843	0.002282	0.202962	0.198524	0.138534
1236	0.012144	0.00031	0.19836	0.196388	0.134261
1237	0.013459	0.00031	0.197703	0.199182	0.139192
1238	0.026114	0.00031	0.197867	0.19836	0.140506
1239	0.029072	0.000474	0.197703	0.198689	0.141
1240	0.038605	0.002118	0.195073	0.197374	0.145437
1241	0.042221	0.010993	0.196552	0.197703	0.146259
1242	0.049946	0.014445	0.197538	0.198853	0.147409
1243	0.056356	0.019704	0.195895	0.198031	0.151025
1244	0.060465	0.011322	0.194909	0.196881	0.150368
1245	0.065888	0.017896	0.200661	0.197374	0.151847
1246	0.074271	0.02447	0.199511	0.200825	0.153984
1247	0.078051	0.028908	0.19836	0.199511	0.156778
1248	0.083146	0.038276	0.199675	0.198031	0.155299
1249	0.088898	0.045837	0.197703	0.196388	0.157271
1250	0.091857	0.051425	0.197867	0.19836	0.160229
1251	0.095473	0.054876	0.198689	0.198689	0.16253
1252	0.098431	0.062601	0.197867	0.198853	0.164996
1253	0.102211	0.068354	0.199839	0.198689	0.16401
1254	0.103855	0.073942	0.199346	0.200497	0.164667
1255	0.107635	0.0769	0.199018	0.198524	0.166968
1256	0.109607	0.084296	0.199018	0.200332	0.167625
1257	0.11273	0.084954	0.19836	0.200332	0.166146
1258	0.114867	0.091692	0.199346	0.196881	0.168118
1259	0.120455	0.092514	0.197867	0.196059	0.166311
1260	0.123906	0.094815	0.198196	0.198524	0.169105
1261	0.1267	0.099089	0.19573	0.199018	0.166804
1262	0.127522	0.102376	0.198853	0.197538	0.170091
1263	0.130974	0.110265	0.197538	0.198689	0.170913
1264	0.13459	0.111908	0.199182	0.199182	0.152998
1265	0.130645	0.11536	0.196059	0.200004	0.119633
1266	0.134918	0.115524	0.198689	0.199675	0.12292
1267	0.142972	0.12177	0.19836	0.199182	0.123578
1268	0.125057	0.122592	0.199182	0.197045	0.124071
1269	0.032031	0.127358	0.195895	0.19721	0.121605
1270	0.042057	0.127851	0.197867	0.198031	0.000146
1271	0.048138	0.132617	0.199346	0.198196	0.002282
1272	0.056191	0.136398	0.196881	0.199839	0.006227
1273	0.057671	0.135083	0.19836	0.195237	0.019704
1274	0.061615	0.139685	0.19836	0.198689	0.024635
1275	0.069504	0.141821	0.199346	0.198524	0.032853
1276	0.066546	0.144451	0.197538	0.198853	0.037619
1277	0.079694	0.147081	0.196388	0.19836	0.046987
1278	0.088898	0.148396	0.195402	0.199018	0.047645
1279	0.08972	0.150039	0.197867	0.196881	0.05537
1280	0.080681	0.149053	0.196881	0.197374	0.062601
1281	0.057342	0.151683	0.194909	0.19836	0.066053
1282	0.063752	0.157107	0.196388	0.198031	0.071641
1283	0.067861	0.15497	0.200332	0.196717	0.075914
1284	0.070326	0.158257	0.199346	0.196552	0.082653
1285	0.079859	0.159408	0.19721	0.193429	0.085447
1286	0.084461	0.161873	0.194909	0.195895	0.089556
1287	0.080681	0.163681	0.19836	0.19721	0.093336
1288	0.090706	0.165982	0.199182	0.19836	0.095966
1289	0.095637	0.166804	0.197703	0.197538	0.099089
1290	0.097774	0.16894	0.19836	0.19721	0.100568
1291	0.033839	0.165653	0.200825	0.196881	0.105827
1292	0.014116	0.172063	0.201812	0.19836	0.112237
1293	0.013952	0.167461	0.199018	0.198853	0.112237
1294	0.019868	0.169598	0.197703	0.196223	0.113388
1295	0.024635	0.170091	0.200004	0.200168	0.110922
1296	0.034496	0.171241	0.197867	0.198031	0.116346
1297	0.038769	0.171899	0.195402	0.19836	0.115524
1298	0.044686	0.174035	0.19836	0.197374	0.116839
1299	0.050768	0.179788	0.199018	0.199018	0.120948
1300	0.058985	0.17798	0.196881	0.193922	0.119962
1301	0.061122	0.177158	0.19836	0.196717	0.122263
1302	0.070655	0.176008	0.198196	0.196223	0.120619
1303	0.074764	0.179623	0.201319	0.194416	0.125879
1304	0.079694	0.179623	0.197538	0.198196	0.125386
1305	0.085776	0.17913	0.199839	0.197374	0.127522
1306	0.089063	0.179459	0.197045	0.198196	0.130481
1307	0.091199	0.182911	0.199346	0.193758	0.131631
1308	0.095473	0.181924	0.199018	0.196223	0.131631
1309	0.101225	0.181267	0.19721	0.199511	0.129988
1310	0.099417	0.183239	0.198524	0.199182	0.131467
1311	0.105005	0.184061	0.197538	0.196388	0.130481
1312	0.109279	0.183897	0.196552	0.205099	0.132782
1313	0.117496	0.183404	0.199839	0.199839	0.132453
1314	0.116182	0.186691	0.199346	0.20099	0.132946
1315	0.120291	0.183568	0.198196	0.195566	0.133439
1316	0.126865	0.184225	0.196059	0.200497	0.135904
1317	0.130481	0.181596	0.198196	0.196717	0.134754
1318	0.129823	0.186033	0.200004	0.198524	0.134261
1319	0.134097	0.18439	0.200004	0.198853	0.133439
1320	0.142643	0.186362	0.197045	0.196552	0.136233
1321	0.136233	0.185705	0.198853	0.199346	0.134425
1322	0.142643	0.185705	0.196881	0.201154	0.13574
1323	0.140342	0.183404	0.196717	0.200004	0.132124
1324	0.144944	0.188992	0.200332	0.197374	0.137384
1325	0.151025	0.187019	0.197867	0.198524	0.095966
1326	0.147245	0.188006	0.196388	0.196717	0.002447
1327	0.153162	0.187841	0.19836	0.201976	0.000146
1328	0.15497	0.184883	0.199511	0.194744	0.003597
1329	0.153326	0.188499	0.197045	0.200332	0.010007
1330	0.154312	0.187348	0.198689	0.197703	0.018061
1331	0.159408	0.187019	0.195566	0.198853	0.029894
1332	0.158421	0.186855	0.200004	0.198524	0.012637
1333	0.16253	0.18817	0.200497	0.196388	0.01313
1334	0.163681	0.183239	0.196717	0.196717	0.01428
1335	0.165817	0.186362	0.197703	0.196059	0.000474
1336	0.168283	0.18439	0.200661	0.197703	0.001132
1337	0.166804	0.185869	0.197538	0.195566	0.00031
1338	0.168283	0.184061	0.199018	0.197538	-1.9e-05
1339	0.17157	0.184225	0.20099	0.197045	-1.9e-05
1340	0.173214	0.187677	0.201976	0.198196	-0.000512
1341	0.173049	0.18554	0.201976	0.194416	0.000474
1342	0.172885	0.184554	0.198689	0.19573	-0.000676
1343	0.174857	0.181924	0.200497	0.196059	-0.000183
1344	0.174693	0.182746	0.200168	0.197045	-1.9e-05
1345	0.176829	0.182089	0.198853	0.196552	0.000146
1346	0.174693	0.182089	0.198524	0.198196	0.000639
1347	0.177651	0.179623	0.199675	0.197045	0.002282
1348	0.178309	0.180281	0.196717	0.196717	0.000474
1349	0.179295	0.17913	0.199675	0.197867	-1.9e-05
1350	0.180281	0.172556	0.198031	0.195566	-0.000183
1351	0.180938	0.169269	0.198524	0.195237	-0.000183
1352	0.180281	0.172392	0.201483	0.19458	-0.000512
1353	0.184554	0.170584	0.192279	0.196223	-0.000347
1354	0.182746	0.170748	0.199346	0.195895	-1.9e-05
1355	0.184718	0.173707	0.199511	0.196717	-0.000183
1356	0.185047	0.162695	0.197867	0.195237	0.000146
1357	0.185047	0.142643	0.19573	0.194744	0.000146
1358	0.187019	0.141328	0.202305	0.193758	0.00031
1359	0.18554	0.141164	0.196388	0.195566	0.00031
1360	0.186526	0.141	0.198689	0.19458	-0.000183
1361	0.185047	0.145273	0.198689	0.196059	-1.9e-05
1362	0.186855	0.140178	0.196059	0.195073	0.005734
1363	0.187677	0.053233	0.194416	0.196717	0.00787
1364	0.190307	0.022498	0.196223	0.199675	0.002118
1365	0.186855	-0.001169	0.199018	0.195073	0.012472
1366	0.189978	-0.001169	0.196717	0.199018	0.010336
1367	0.188827	0.000474	0.198196	0.198031	0.013623
1368	0.189978	-1.9e-05	0.199018	0.196717	0.020526
1369	0.190471	-1.9e-05	0.201154	0.19458	0.028579
1370	0.191128	-1.9e-05	0.198196	0.198853	0.038934
1371	0.192279	0.00031	0.19721	0.200332	0.043865
1372	0.18817	0.010664	0.196059	0.200825	0.052082
1373	0.195895	0.013459	0.196552	0.197703	0.054548
1374	0.193594	0.002447	0.196223	0.199675	0.056027
1375	0.196717	-1.9e-05	0.197867	0.198853	0.062601
1376	0.191621	-1.9e-05	0.198031	0.196717	0.070819
1377	0.19573	-0.000183	0.196717	0.198524	0.07049
1378	0.193758	0.00031	0.199346	0.199675	0.0769
1379	0.191621	0.000474	0.197703	0.198196	0.082982
1380	0.189978	-1.9e-05	0.197374	0.200004	0.089556
1381	0.191457	0.000146	0.198196	0.197703	0.093007
1382	0.193429	0.00031	0.199182	0.197703	0.00031
1383	0.196059	0.000146	0.197374	0.198196	-0.000347
1384	0.192443	-1.9e-05	0.200004	0.198853	-0.000347
1385	0.194087	-0.000183	0.199182	0.192115	0.003104
1386	0.196881	-0.000347	0.20099	0.176008	0.012637
1387	0.194416	-0.000512	0.198853	0.13574	0.021019
1388	0.194416	-0.000512	0.199018	0.072627	0.027922
1389	0.19458	-1.9e-05	0.199839	0.003104	0.035482
1390	0.196388	0.00031	0.200332	-0.000183	0.040906
1391	0.194416	0.000146	0.196388	0.001625	0.007706
1392	0.195566	0.000146	0.199018	-1.9e-05	0.020033
1393	0.192772	0.000146	0.196881	0.000803	0.028415
1394	0.19573	-1.9e-05	0.196717	0.000803	0.034332
1395	0.197867	-0.000183	0.201812	0.00146	0.039098
1396	0.19573	-0.000512	0.19836	0.001625	0.042057
1397	0.196717	-0.000512	0.199511	0.002118	0.050439
1398	0.195237	-0.000347	0.198524	0.005405	0.055205
1399	0.194744	-1.9e-05	0.200004	0.011322	0.062273
1400	0.196059	-1.9e-05	0.199511	0.022991	0.062601
1401	0.199182	-1.9e-05	0.199018	0.025128	0.070983
1402	0.194416	-1.9e-05	0.198524	0.035482	0.072463
1403	0.196881	0.000474	0.199839	0.03729	0.079201
1404	0.197538	0.000474	0.196717	0.047809	0.083639
1405	0.19721	0.000803	0.198031	0.051425	0.062601
1406	0.197538	-1.9e-05	0.201319	0.05537	0.068682
1407	0.198853	0.000474	0.198196	0.063259	0.023813
1408	0.198853	-0.000512	0.197374	0.069011	0.028579
1409	0.199346	0.000967	0.196717	0.072134	0.035647
1410	0.196388	0.004748	0.200332	0.077393	0.045344
1411	0.196881	0.00787	0.198031	0.082324	0.047152
1412	0.196059	0.000803	0.201812	0.085611	0.055041
1413	0.195073	0.000146	0.199346	0.090378	0.057671
1414	0.195073	0.000474	0.197703	0.097445	0.062108
1415	0.198031	-1.9e-05	0.199018	0.099089	0.068518
1416	0.196881	0.000146	0.197867	0.104019	0.071312
1417	0.196388	-0.000183	0.197867	0.108457	0.077393
1418	0.19721	-0.000676	0.198853	0.111908	0.080352
1419	0.195895	-1.9e-05	0.198524	0.11914	0.084132
1420	0.199511	-0.000347	0.201976	0.117168	0.086433
1421	0.196388	-0.000676	0.19836	0.126207	0.090049
1422	0.196223	0.000146	0.198689	0.1267	0.090871
1423	0.199346	0.00031	0.19836	0.128015	0.095473
1424	0.200825	0.000146	0.197703	0.129823	0.097774
1425	0.19721	-1.9e-05	0.197045	0.133603	0.097445
1426	0.199675	0.00031	0.19721	0.136562	0.100896
1427	0.199839	-1.9e-05	0.195566	0.138534	0.104019
1428	0.198196	-1.9e-05	0.196552	0.140671	0.103855
1429	0.195073	-1.9e-05	0.199346	0.143465	0.108457
1430	0.201319	-0.000183	0.198196	0.146916	0.11158
1431	0.196717	-0.000512	0.20099	0.148724	0.113881
1432	0.196388	-0.000183	0.197867	0.149875	0.116839
1433	0.191457	0.000146	0.199346	0.154312	0.117168
1434	0.197045	0.000146	0.199018	0.15875	0.12177
1435	0.197374	0.00031	0.204606	0.154312	0.120948
1436	0.191293	0.000146	0.197867	0.15875	0.121441
1437	0.19836	0.00031	0.197538	0.161051	0.125057
1438	0.196059	-1.9e-05	0.19836	0.160722	0.125221
1439	0.195402	-0.000347	0.197045	0.161051	0.126536
1440	0.197374	-0.000347	0.197867	0.166804	0.128015
1441	0.19836	-0.000347	0.196223	0.164667	0.128015
1442	0.193265	-0.000676	0.197703	0.167297	0.131631
1443	0.199182	-0.000183	0.200168	0.167461	0.127687
1444	0.194744	-1.9e-05	0.199675	0.168776	0.134097
1445	0.19458	0.00031	0.199182	0.169598	0.13574
1446	0.193429	0.000146	0.19836	0.170091	0.134425
1447	0.192115	0.000146	0.199182	0.173378	0.134754
1448	0.196552	0.000146	0.198853	0.172556	0.137712
1449	0.195073	-1.9e-05	0.198524	0.174857	0.137055
1450	0.194087	-0.000183	0.199346	0.174693	0.13574
1451	0.19573	-0.000183	0.198853	0.175515	0.133932
1452	0.196552	-1.9e-05	0.197703	0.178637	0.133439
1453	0.191786	-0.002155	0.199346	0.181596	0.034661
1454	0.193429	0.009185	0.199675	0.180774	-0.003142
1455	0.00031	0.018718	0.198524	0.181924	0.009843
1456	0.000146	0.025128	0.198689	0.179788	0.017567
1457	0.011322	0.034825	0.197538	0.178309	0.027922
1458	0.020855	0.03729	0.196717	0.180445	0.032853
1459	0.025621	0.042714	0.19721	0.182911	0.04107
1460	0.032524	0.037455	0.196717	0.181431	0.044193
1461	0.040413	0.034825	0.200332	0.179459	0.02447
1462	0.044522	0.040742	0.199675	0.184554	0.007377
1463	0.05274	0.037126	0.199839	0.183075	-0.004621
1464	0.055205	0.033017	0.200332	0.187184	0.010993
1465	0.06556	0.046987	0.200661	0.182417	0.024635
1466	0.070162	0.051589	0.200661	0.185212	0.0271
1467	0.075257	0.058492	0.199182	0.185705	0.034661
1468	0.023649	0.065888	0.200004	0.186691	0.042221
1469	0.015266	0.068025	0.200661	0.184554	0.045837
1470	0.022498	0.074928	0.201483	0.183075	0.049288
1471	0.032031	0.080023	0.197867	0.189649	0.051754
1472	0.036633	0.082982	0.198524	0.187841	0.062437
1473	0.045837	0.088734	0.197538	0.189649	0.060793
1474	0.053397	0.093336	0.195895	0.18932	0.059972
1475	0.057999	0.090213	0.19836	0.191786	0.068518
1476	0.063916	0.095966	0.199839	0.189814	0.07312
1477	0.068682	0.103197	0.196552	0.1908	0.079201
1478	0.073284	0.105992	0.197045	0.18932	0.083968
1479	0.079694	0.110758	0.198196	0.1908	0.083803
1480	0.082488	0.114867	0.199346	0.18932	0.090049
1481	0.086926	0.119633	0.200825	0.190471	0.095473
1482	0.080681	0.119469	0.201154	0.190307	0.098924
1483	0.016417	0.127029	0.197867	0.188334	0.103033
1484	0.019211	0.127522	0.202305	0.190307	0.103362
1485	0.002775	0.133439	0.202798	0.192115	0.101061
1486	0.008035	0.132124	0.199346	0.19195	0.107635
1487	0.016253	0.13837	0.200168	0.192936	0.112073
1488	0.02447	0.139192	0.199018	0.191457	0.112566
1489	0.032524	0.142972	0.19836	0.195895	0.114538
1490	0.038605	0.144944	0.19836	0.193922	0.115031
1491	0.0437	0.144451	0.198031	0.191457	0.117825
1492	0.050768	0.148396	0.199182	0.192443	0.113552
1493	0.055205	0.149875	0.199675	0.193758	0.117661
1494	0.062108	0.150039	0.197374	0.191293	0.120291
1495	0.06671	0.150697	0.199182	0.196717	0.12177
1496	0.072956	0.151683	0.198689	0.193594	0.125386
1497	0.077886	0.160558	0.198689	0.191786	0.129001
1498	0.077229	0.1576	0.198031	0.193758	0.133439
1499	0.082324	0.159079	0.201319	0.193922	0.132124
1500	0.084625	0.158586	0.199346	0.192443	0.135083
1501	0.091199	0.161544	0.200497	0.19458	0.136398
1502	0.092514	0.165653	0.201319	0.191786	0.138534
1503	0.098102	0.163352	0.199346	0.176008	0.141164
1504	0.098924	0.170255	0.197867	0.17157	0.143465
1505	0.102704	0.168612	0.197538	0.170584	0.144615
1506	0.103362	0.172885	0.198031	0.172063	0.14593
1507	0.107471	0.171406	0.196881	0.174693	0.14856
1508	0.109772	0.176501	0.197045	0.173707	0.148067
1509	0.107799	0.171077	0.197045	0.175679	0.148889
1510	0.108457	0.173214	0.19836	0.173871	0.149875
1511	0.107306	0.173542	0.194744	0.17272	0.151518
1512	0.112566	0.174693	0.197538	0.175515	0.153162
1513	0.108621	0.173871	0.198031	0.173707	0.153819
1514	0.115524	0.17157	0.199182	0.176008	0.157107
1515	0.114702	0.181924	0.197703	0.178309	0.158421
1516	0.116839	0.178966	0.199182	0.179623	0.159408
1517	0.116675	0.180938	0.199675	0.18176	0.161873
1518	0.118647	0.181103	0.198196	0.182746	0.163352
1519	0.00294	0.184225	0.202633	0.18061	0.153819
1520	0.012965	0.180281	0.20477	0.182253	0.156285
1521	0.021841	0.183404	0.200168	0.182911	0.156449
1522	0.0271	0.183075	0.197045	0.181924	0.157107
1523	0.036797	0.183404	0.201976	0.182582	0.161215
1524	0.042221	0.184883	0.198689	0.184061	0.150697
1525	0.050439	0.179623	0.194251	0.185047	0.157435
1526	0.052247	0.182911	0.195237	0.186526	0.1576
1527	0.058821	0.186198	0.197703	0.185212	0.157764
1528	0.062108	0.185376	0.195895	0.187348	0.161051
1529	0.065888	0.184061	0.195402	0.18554	0.162859
1530	0.069997	0.183239	0.200661	0.187677	0.161544
1531	0.075585	0.175021	0.198853	0.186691	0.16401
1532	0.07197	0.170091	0.200497	0.187841	0.16253
1533	0.080187	0.144122	0.199675	0.185705	0.163681
1534	0.082653	0.104184	0.203948	0.1908	0.165817
1535	0.085447	0.077229	0.202798	0.188334	0.168118
1536	0.087748	0.049288	0.201154	0.187019	0.170748
1537	0.084296	0.029401	0.198031	0.192279	0.169762
1538	0.086597	0.017074	0.200661	0.189485	0.171899
1539	0.072298	0.00672	0.197867	0.192115	0.171241
1540	0.010336	0.00935	0.200168	0.189485	0.1742
1541	0.01428	0.005076	0.199511	0.1908	0.165982
1542	0.017074	0.001789	0.199675	0.190964	0.170913
1543	0.023649	0.003268	0.197045	0.195566	0.170584
1544	0.026443	0.002775	0.196881	0.191621	0.171734
1545	0.030387	0.002611	0.198853	0.192115	0.170584
1546	0.037455	0.00031	0.196717	0.192772	0.172885
1547	0.039427	0.002775	0.198524	0.19195	0.176994
1548	0.046659	0.000639	0.200332	0.193758	0.172556
1549	0.046001	0.00031	0.200168	0.192772	0.176336
1550	0.052575	-0.000676	0.197538	0.191786	0.176172
1551	0.023484	0.001132	0.200004	0.190635	0.179952
1552	0.030059	0.001132	0.198196	0.195566	0.175843
1553	0.036469	0.002447	0.199839	0.192772	0.176665
1554	0.045837	0.00031	0.198689	0.196059	0.174857
1555	0.050932	0.002447	0.199346	0.192936	0.106978
1556	0.052247	0.001296	0.200661	0.194744	0.108293
1557	0.000146	0.001132	0.199018	0.199346	0.04748
1558	0.00672	0.001132	0.197374	0.197045	0.055698
1559	0.013459	0.000146	0.197045	0.194744	0.059972
1560	0.018554	0.000967	0.197703	0.197374	0.066546
1561	0.021348	-0.000512	0.196717	0.192608	0.071477
1562	0.020855	-0.000347	0.196717	0.193922	0.080845
1563	0.022498	-0.000183	0.197374	0.19573	0.07953
1564	0.027758	-0.001005	0.198524	0.194909	0.084296
1565	0.035647	0.000967	0.198689	0.197045	0.040249
1566	0.039756	0.00146	0.199839	0.195402	0.022498
1567	0.044358	0.001132	0.199839	0.19573	0.000967
1568	0.043207	0.000639	0.198524	0.195237	0.003433
1569	0.04896	0.001954	0.199675	0.196881	-0.000183
1570	0.033674	0.001132	0.200004	0.197374	0.002282
1571	0.004255	-0.000676	0.197374	0.197867	0.005241
1572	0.002282	0.000967	0.197538	0.196717	0.014445
1573	0.01428	-1.9e-05	0.196059	0.196881	0.007706
1574	0.006884	0.001132	0.199675	0.197045	0.012801
1575	0.005076	-0.000347	0.199511	0.197045	0.017074
1576	0.014116	0.001789	0.196552	0.199018	0.028579
1577	0.019375	0.000474	0.195237	0.20477	0.033181
1578	0.004912	0.000639	0.201647	0.193429	0.038441
1579	0.009678	0.000803	0.19836	0.196552	0.046987
1580	0.020855	0.000474	0.197045	0.198853	0.056356
1581	0.026771	0.000146	0.197703	0.197045	0.0603
1582	0.018882	-0.000347	0.19836	0.19721	-0.000183
1583	0.028908	0.000803	0.200661	0.195895	-0.000512
1584	0.03614	-0.000512	0.199018	0.19836	0.006062
1585	0.036469	-0.000183	0.204934	0.196552	0.00294
1586	0.036962	-0.000347	0.199346	0.199182	0.007542
1587	0.042714	0.00031	0.199839	0.197703	0.006391
1588	0.043207	0.000146	0.199346	0.196717	0.009021
1589	0.03614	0.00146	0.201812	0.196552	0.016417
1590	0.026771	0.000639	0.198853	0.200332	0.022169
1591	0.035647	0.000639	0.199182	0.195073	0.03351
1592	0.022169	-0.001662	0.199346	0.199018	0.041235
1593	0.008528	-0.000512	0.198031	0.196881	0.043865
1594	0.001625	-0.000512	0.197867	0.198524	0.047973
1595	0.008692	-1.9e-05	0.200497	0.198524	0.057835
1596	0.007049	-0.001005	0.199182	0.197538	0.061779
1597	0.002447	0.000146	0.199839	0.199675	0.06556
1598	0.004748	0.00031	0.198689	0.198524	0.071477
1599	0.010829	-1.9e-05	0.197045	0.19836	0.074764
1600	0.008528	0.000639	0.203126	0.197374	0.077393
1601	0.003104	0.000639	0.198196	0.198524	0.082817
1602	0.005569	0.000474	0.19836	0.196552	0.090871
1603	0.002447	0.00031	0.198196	0.199018	0.095473
1604	0.000639	0.000474	0.201483	0.196881	0.097938
1605	0.000803	-0.000183	0.198853	0.195402	0.101883
1606	0.000474	0.000146	0.201647	0.199675	0.104184
1607	0.000474	-0.000676	0.196223	0.193922	0.106485
1608	0.006062	0.000146	0.201483	0.192279	0.109607
1609	0.009843	0.000474	0.201483	0.19836	0.113716
1610	0.018225	0.000146	0.198689	0.197538	0.116017
1611	0.021348	0.00031	0.199511	0.197867	0.117332
1612	0.024306	0.00031	0.19721	0.196223	0.117825
1613	0.000967	0.000474	0.199511	0.196388	0.121441
1614	0.005569	-0.000183	0.196223	0.200004	0.117496
1615	0.015924	-0.000841	0.200004	0.198853	0.119469
1616	0.02332	-0.000347	0.19836	0.199839	0.11158
1617	0.031373	-0.000676	0.200661	0.198196	0.087912
1618	0.036633	-1.9e-05	0.199675	0.199839	0.058492
1619	0.041892	-0.000183	0.199182	0.197374	0.03614
1620	0.042385	0.000146	0.199346	0.199182	0.014938
1621	0.044193	0.000474	0.197867	0.196388	0.007377
1622	0.003268	0.000146	0.199675	0.197538	0.009514
1623	0.010171	0.000639	0.198031	0.196388	0.003597
1624	0.022827	0.00031	0.197867	0.197538	0.008035
1625	0.030716	-0.000512	0.19836	0.199018	0.003597
1626	0.035154	0.00031	0.19721	0.196552	0.008363
1627	0.042221	-0.001005	0.19721	0.200004	0.010171
1628	0.048631	-0.000347	0.200825	0.200332	0.008035
1629	0.052904	0.000146	0.197867	0.201154	0.004583
1630	0.060793	-1.9e-05	0.201154	0.198689	0.000803
1631	0.062108	0.00031	0.198031	0.200004	-0.000512
1632	0.068189	0.00031	0.199182	0.199182	0.008199
1633	0.074106	-1.9e-05	0.199182	0.199675	0.006227
1634	0.079694	0.000474	0.199018	0.198689	0.009185
1635	0.083968	0.00031	0.200497	0.198524	0.017567
1636	0.087419	-0.000676	0.199018	0.198031	0.022169
1637	0.092021	-1.9e-05	0.200168	0.20099	0.029401
1638	0.096788	-0.000183	0.198853	0.196223	0.032853
1639	0.098431	-0.000183	0.201812	0.198689	0.038276
1640	0.103691	0.00031	0.199346	0.197703	0.041892
1641	0.106485	0.00031	0.199511	0.196388	0.047152
1642	0.110922	0.00031	0.200168	0.19721	0.047316
1643	0.114209	0.000474	0.198689	0.197374	0.05011
1644	0.120291	-0.000183	0.196552	0.199675	0.053233
1645	0.118154	0.001132	0.203126	0.19573	0.057342
1646	0.120948	-0.000676	0.200168	0.199182	0.060465
1647	0.125714	0.000474	0.200661	0.198524	0.0603
1648	0.129495	0.000146	0.200332	0.200825	0.066217
1649	0.13574	0.000146	0.200332	0.199346	0.069669
1650	0.134918	-0.000512	0.198689	0.201154	0.074435
1651	0.138699	-0.000183	0.201154	0.19836	0.075914
1652	0.139356	-0.000183	0.198524	0.199346	0.078544
1653	0.144451	-1.9e-05	0.197867	0.197045	0.079037
1654	0.143301	0.00031	0.198853	0.19836	0.084789
1655	0.147903	0.00031	0.200497	0.196388	0.085776
1656	0.149875	-1.9e-05	0.199018	0.196059	0.089556
1657	0.15612	0.000639	0.196881	0.197538	0.093993
1658	0.153491	-1.9e-05	0.199346	0.199182	0.09498
1659	0.155134	-0.000183	0.200825	0.196059	0.003433
1660	0.155463	0.000474	0.203455	0.196388	0.011158
1661	0.157764	-0.000347	0.199839	0.197538	-0.000676
1662	0.158421	-0.000841	0.201483	0.197045	0.000967
1663	0.160394	0.00031	0.198689	0.196881	-1.9e-05
1664	0.160065	0.000474	0.200332	0.200332	0.002447
1665	0.162202	0.000146	0.199346	0.19836	0.007377
1666	0.165653	0.000146	0.197867	0.197703	0.012637
1667	0.165817	0.00031	0.196388	0.200661	0.019211
1668	0.170255	0.000146	0.201483	0.199182	0.021512
1669	0.170748	-0.000512	0.197538	0.201647	0.021841
1670	0.170584	-0.000512	0.197703	0.199675	0.022169
1671	0.17157	0.000146	0.199675	0.19721	0.033017
1672	0.175679	-0.000183	0.198031	0.197867	0.037619
1673	0.171406	-0.000841	0.199839	0.198524	0.042714
1674	0.173378	0.000146	0.195895	0.197374	0.051589
1675	0.17535	0.000639	0.198853	0.197045	0.05011
1676	0.17798	-1.9e-05	0.19836	0.198853	0.060629
1677	0.177651	0.000146	0.197045	0.200825	0.066217
1678	0.178802	0.000474	0.197045	0.198524	0.067203
1679	0.180116	0.000146	0.199839	0.196881	0.074271
1680	0.178966	-0.000183	0.198853	0.199346	0.079694
1681	0.180281	-0.000183	0.199346	0.197703	0.083968
1682	0.181431	-0.000347	0.200004	0.200004	0.08972
1683	0.183568	-0.000183	0.200497	0.198524	0.094322
1684	0.179623	-0.000676	0.199182	0.20099	0.097938
1685	0.175021	0.000474	0.199182	0.197867	0.100403
1686	0.18176	0.000474	0.200825	0.198196	0.102704
1687	0.184718	0.000146	0.198196	0.199018	0.10517
1688	0.182582	0.000474	0.198196	0.19721	0.112237
1689	0.183732	0.000146	0.196552	0.197045	0.112401
1690	0.186033	0.000474	0.199839	0.196059	0.121441
1691	0.188006	-0.000183	0.198196	0.197867	0.122592
1692	0.186526	-0.000183	0.198689	0.19721	0.122098
1693	0.187677	-0.000183	0.200661	0.197867	0.125057
1694	0.188992	-1.9e-05	0.202798	0.195237	0.130645
1695	0.185869	0.000146	0.200825	0.199018	0.129823
1696	0.186691	0.00031	0.201812	0.195895	0.132782
1697	0.184883	0.000474	0.197867	0.195566	0.138699
1698	0.188006	0.00031	0.199346	0.197374	0.139192
1699	0.188334	0.000146	0.198689	0.196881	0.141328
1700	0.192115	0.00031	0.196223	0.197867	0.140506
1701	0.187841	-1.9e-05	0.198853	0.200661	0.141821
1702	0.189978	-0.000183	0.198031	0.198196	0.146259
1703	0.189978	-0.000183	0.198031	0.197703	0.150697
1704	0.189485	-0.000347	0.198524	0.198853	0.148231
1705	0.19195	-0.001005	0.201319	0.198031	0.152833
1706	0.191786	-1.9e-05	0.194251	0.197045	0.150039
1707	0.189978	0.00031	0.197867	0.1908	0.154148
1708	0.188006	-1.9e-05	0.196717	0.195237	0.154312
1709	0.188663	0.000474	0.195402	0.198524	0.156778
1710	0.192279	0.00031	0.196717	0.195402	0.157435
1711	0.1908	-1.9e-05	0.199675	0.194251	0.051425
1712	0.188992	0.000474	0.199511	0.199018	0.003761
1713	0.193922	0.00031	0.199675	0.195237	0.010829
1714	0.192608	-0.000512	0.198031	0.198031	0.019868
1715	0.193429	-1.9e-05	0.199182	0.198853	0.026607
1716	0.193922	-1.9e-05	0.200497	0.199346	0.033346
1717	0.194744	-0.000183	0.199346	0.198689	0.036797
1718	0.190307	-1.9e-05	0.199839	0.19195	0.043536
1719	0.193594	0.000146	0.197374	0.197703	0.051754
1720	0.191128	0.00031	0.190964	0.196717	0.057671
1721	0.194251	-1.9e-05	0.193594	0.195895	0.060958
1722	0.192772	0.00031	0.195073	0.199018	0.066217
1723	0.194251	-1.9e-05	0.195237	0.198524	0.070655
1724	0.190635	0.000146	0.19836	0.198689	0.059314
1725	0.193758	-0.000347	0.196059	0.198524	0.031538
1726	0.196223	-0.000347	0.196552	0.200332	0.038934
1727	0.196223	-0.000512	0.198524	0.198689	0.049617
1728	0.195402	-0.000183	0.200661	0.196059	0.051918
1729	0.19573	-0.000347	0.199182	0.196388	0.058164
1730	0.196388	0.000639	0.200497	0.197867	0.058328
1731	0.194416	0.00031	0.190142	0.19836	0.065888
1732	0.195895	0.000639	0.198853	0.197867	0.070655
1733	0.195237	0.000474	0.200004	0.197703	0.077393
1734	0.194087	0.000146	0.196388	0.200004	0.080845
1735	0.19195	0.000146	0.198853	0.196717	0.08594
1736	0.193101	-1.9e-05	0.19836	0.197374	0.090378
1737	0.19573	0.000474	0.199182	0.199182	0.095473
1738	0.196388	-0.000512	0.200004	0.199675	0.097774
1739	0.194251	-0.000183	0.199675	0.198196	0.102704
1740	0.194251	-0.000347	0.197703	0.198196	0.10632
1741	0.197703	0.00031	0.201483	0.196223	0.106485
1742	0.196059	-0.000183	0.192936	0.198031	0.110429
1743	0.197703	0.000146	0.19836	0.197045	0.105992
1744	0.195402	0.000474	0.196223	0.19836	0.034332
1745	0.199511	0.000146	0.201483	0.19573	0.03236
1746	0.194087	-0.000183	0.196881	0.197538	0.038112
1747	0.196223	-0.000347	0.197045	0.195566	0.046659
1748	0.195566	-0.000183	0.195237	0.198031	0.05652
1749	0.19721	-0.000347	0.199675	0.198031	0.055863
1750	0.196881	0.000146	0.200661	0.196223	0.064245
1751	0.196552	-0.000183	0.200168	0.201976	0.067203
1752	0.194909	0.00031	0.199511	0.195895	0.075585
1753	0.197045	0.00031	0.198524	0.196223	0.080023
1754	0.196388	0.00031	0.201483	0.196388	0.087912
1755	0.197703	0.000146	0.199346	0.200497	0.088241
1756	0.19573	-1.9e-05	0.198524	0.19721	0.093336
1757	0.191621	-0.000347	0.196388	0.198031	0.09876
1758	0.19721	-0.000512	0.197703	0.194087	0.101883
1759	0.196059	-0.000347	0.195237	0.20099	0.105992
1760	0.197045	-0.000183	0.198031	0.19721	0.109114
1761	0.194087	-1.9e-05	0.197703	0.194744	0.113223
1762	0.195566	0.000146	0.197374	0.200825	0.115853
1763	0.19573	0.000146	0.199675	0.196388	0.119797
1764	0.196552	0.00031	0.201319	0.19195	0.123578
1765	0.196717	0.00031	0.198524	0.194251	0.128015
1766	0.197374	0.000146	0.198524	0.196388	0.126207
1767	0.19721	0.000474	0.199018	0.19836	0.133275
1768	0.197374	-0.000183	0.197045	0.196223	0.133932
1769	0.196881	-0.000183	0.197538	0.199182	0.139356
1770	0.197867	-0.000512	0.19721	0.197538	0.141
1771	0.196388	-0.000183	0.199346	0.197703	0.143136
1772	0.196223	-0.000183	0.200661	0.199839	0.144287
1773	0.197867	0.00031	0.198853	0.201812	0.145602
1774	0.198853	0.000146	0.19721	0.199018	0.144615
1775	0.196388	0.000146	0.20099	0.197045	0.14856
1776	0.19836	-1.9e-05	0.193922	0.195237	0.149217
1777	0.199511	0.000146	0.194251	0.19836	0.148231
1778	0.198031	0.000146	0.195895	0.197703	0.156449
1779	0.199182	-0.000183	0.195402	0.193429	0.154477
1780	0.197538	0.00031	0.198524	0.196059	0.155463
1781	0.200332	-0.000183	0.197045	0.195402	0.156942
1782	0.19573	-1.9e-05	0.199675	0.197867	0.166968
1783	0.19721	-0.000183	0.198196	0.196223	0.163516
1784	0.197867	0.00031	0.199511	0.198689	0.165982
1785	0.197867	0.000146	0.197045	0.196223	0.166639
1786	0.200825	0.00031	0.199346	0.19573	0.166639
1787	0.199675	0.000639	0.196881	0.199346	0.170419
1788	0.199018	0.000639	0.198689	0.197703	0.16894
1789	0.197703	0.000146	0.19721	0.199346	0.172063
1790	0.197703	0.000146	0.199346	0.195237	0.173542
1791	0.197045	-0.000512	0.198524	0.199839	0.168283
1792	0.196717	-0.000512	0.198031	0.197867	0.17272
1793	0.19573	-0.000347	0.197374	0.198031	0.176501
1794	0.197703	-0.000676	0.197538	0.197703	0.174693
1795	0.20099	0.000146	0.19836	0.198196	0.178637
1796	0.199346	0.00031	0.199346	0.196388	0.177158
1797	0.195895	0.000474	0.19836	0.197045	0.180281
1798	0.200168	0.000639	0.19721	0.196552	0.176994
1799	0.199018	0.000474	0.198689	0.196552	0.176665
1800	0.198524	0.000146	0.198031	0.19721	0.181267
1801	0.198524	0.00031	0.20099	0.194251	0.183897
1802	0.197374	-0.000676	0.200004	0.200168	0.181924
1803	0.198689	0.00031	0.198031	0.197374	0.186691
1804	0.196717	-0.000183	0.197703	0.197538	0.185212
1805	0.197374	-0.000512	0.201483	0.195073	0.184225
1806	0.196388	0.00031	0.199839	0.199839	0.185212
1807	0.196388	0.00031	0.197374	0.197374	0.184718
1808	0.197045	0.000146	0.199018	0.196552	0.185376
1809	0.197703	0.000146	0.19573	0.193101	0.187184
1810	0.198689	0.00031	0.196223	0.196552	0.185705
1811	0.197374	-1.9e-05	0.198524	0.196388	0.18439
1812	0.193594	-1.9e-05	0.199018	0.194416	0.189156
1813	0.195566	-0.000347	0.197045	0.197703	0.186526
1814	0.197703	-0.000347	0.19836	0.196223	0.188499
1815	0.19721	-0.000676	0.199182	0.196717	0.18932
1816	0.198196	-1.9e-05	0.199675	0.196881	0.188663
1817	0.198524	0.000146	0.199346	0.202633	0.18817
1818	0.199346	0.000146	0.198853	0.195237	0.191293
1819	0.197374	0.000146	0.201319	0.198524	0.190142
1820	0.199675	0.000474	0.200497	0.195073	0.190964
1821	0.198689	0.00031	0.198031	0.198689	0.190635
1822	0.196388	0.000146	0.200497	0.197374	0.190142
1823	0.201647	0.000146	0.199018	0.198031	0.191786
1824	0.199839	-0.000183	0.196717	0.197374	0.189156
1825	0.197374	-0.000183	0.197703	0.199018	0.188006
1826	0.198524	-0.000347	0.197867	0.195566	0.189814
1827	0.196059	-0.000347	0.195895	0.200661	0.189978
1828	0.197538	0.000146	0.19458	0.199346	0.189814
1829	0.197538	0.000146	0.200332	0.198853	0.192443
1830	0.198196	0.000474	0.197374	0.196059	0.191293
1831	0.199018	0.000146	0.199511	0.197867	0.191457
1832	0.199346	0.000146	0.197867	0.198031	0.193101
1833	0.199018	0.00031	0.199675	0.194416	0.194087
1834	0.199839	-0.000512	0.198689	0.198853	0.195895
1835	0.199839	-0.000347	0.200497	0.195566	0.196059
1836	0.196717	-0.000347	0.19836	0.198196	0.195237
1837	0.200661	-0.000183	0.199182	0.196881	0.195073
1838	0.198031	-0.000347	0.199346	0.196388	0.19721
1839	0.197374	0.000146	0.200661	0.198524	0.195237
1840	0.199018	0.000146	0.200497	0.199018	0.194909
1841	0.196223	0.00031	0.198524	0.196717	0.191621
1842	0.198196	0.00031	0.19836	0.198689	0.196059
1843	0.202633	0.00031	0.19836	0.197538	0.19573
1844	0.193758	0.000146	0.199182	0.197374	0.195402
1845	0.201319	-0.000183	0.19573	0.19721	0.195073
1846	0.197374	-0.000347	0.19836	0.196223	0.19573
1847	0.190635	-0.000676	0.198689	0.199182	0.194087
1848	0.197538	-0.001334	0.201483	0.197867	0.196059
1849	0.200004	-0.000676	0.200168	0.199018	0.196388
1850	0.194087	0.00031	0.200825	0.196717	0.19458
1851	0.202469	0.00031	0.200004	0.197867	0.19836
1852	0.199511	0.000803	0.201647	0.196388	0.197538
1853	0.199511	0.000146	0.199018	0.198031	0.199511
1854	0.201976	0.000146	0.200004	0.199018	0.195237
1855	0.198031	-1.9e-05	0.203291	0.200332	0.200004
1856	0.200497	-0.000183	0.200497	0.19573	0.197538
1857	0.200168	-0.000183	0.20099	0.196552	0.198031
1858	0.192115	-0.000183	0.19836	0.199182	0.195895
1859	0.195895	-0.000183	0.199839	0.200004	0.199182
1860	0.197538	-0.000183	0.198853	0.195895	0.197374
1861	0.195402	-1.9e-05	0.199675	0.195402	0.19573
1862	0.19573	-1.9e-05	0.198689	0.199675	0.194087
1863	0.196059	0.000146	0.199675	0.195237	0.197374
1864	0.195895	0.000146	0.196388	0.197538	0.196388
1865	0.200332	0.000146	0.200004	0.199675	0.196059
1866	0.199018	-1.9e-05	0.197703	0.198853	0.202305
1867	0.199346	-0.000183	0.194744	0.197703	0.198689
1868	0.199675	-0.000347	0.201483	0.200332	0.197867
1869	0.194087	-0.000183	0.200825	0.198853	0.198689
1870	0.196552	-0.000512	0.200497	0.199346	0.200332
1871	0.200661	-0.000183	0.199675	0.196552	0.196717
1872	0.198031	-1.9e-05	0.199839	0.200332	0.200004
1873	0.199675	0.000146	0.19721	0.198031	0.197538
1874	0.19836	0.000146	0.197703	0.19721	0.199511
1875	0.199511	0.00031	0.196552	0.199346	0.193594
1876	0.198853	0.00031	0.199018	0.20362	0.195566
1877	0.194416	0.005241	0.196717	0.200332	0.196881
1878	0.199675	0.011322	0.19836	0.197867	0.196223
1879	0.197045	0.020526	0.197703	0.202469	0.194416
1880	0.20099	-0.000347	0.200004	0.197703	0.197374
1881	0.194744	-0.000183	0.197374	0.196881	0.199511
1882	0.198196	0.000967	0.199839	0.195566	0.200497
1883	0.19721	0.008035	0.198689	0.202633	0.199182
1884	0.197538	0.013294	0.198689	0.195237	0.194909
1885	0.196881	0.022169	0.203784	0.19836	0.200497
1886	0.198031	0.013623	0.200004	0.197045	0.200332
1887	0.197045	0.00031	0.199839	0.199182	0.198689
1888	0.200168	0.000639	0.198524	0.197374	0.198853
1889	0.193758	0.004748	0.199182	0.196388	0.200497
1890	0.198524	0.011815	0.197374	0.198853	0.195402
1891	0.202798	0.017239	0.200004	0.198853	0.196717
1892	0.1908	0.022827	0.197045	0.199511	0.201319
1893	0.19573	0.033346	0.200168	0.196388	0.198689
1894	0.193594	0.038769	0.199511	0.201647	0.19836
1895	0.195895	0.046166	0.201319	0.196552	0.198689
1896	0.195237	0.049946	0.201483	0.198853	0.197867
1897	0.196059	0.057342	0.198689	0.198524	0.198031
1898	0.197045	0.064738	0.200661	0.201319	0.197867
1899	0.195895	0.067368	0.201976	0.197703	0.199675
1900	0.195402	0.076407	0.198689	0.198196	0.201647
1901	0.19721	0.076572	0.199018	0.200661	0.200168
1902	0.199675	0.083639	0.200332	0.199511	0.199182
1903	0.197374	0.087912	0.200497	0.196717	0.200661
1904	0.196059	0.09498	0.199675	0.195895	0.198031
1905	0.195566	0.095966	0.199675	0.198031	0.200332
1906	0.200661	0.101883	0.198196	0.19573	0.199675
1907	0.199675	0.104184	0.200332	0.196717	0.199018
1908	0.193265	0.110265	0.20099	0.194909	0.200168
1909	0.197867	0.113716	0.197867	0.202633	0.198853
1910	0.19573	0.116839	0.200497	0.198031	0.199511
1911	0.195237	0.120455	0.198853	0.196059	0.199675
1912	0.196223	0.123249	0.201154	0.199675	0.197867
1913	0.197538	0.12818	0.199018	0.199346	0.200661
1914	0.197374	0.128015	0.200004	0.198031	0.198196
1915	0.197538	0.13311	0.200004	0.200825	0.19836
1916	0.200332	0.13459	0.196388	0.199018	0.199018
1917	0.197867	0.137219	0.200825	0.200332	0.201154
1918	0.199346	0.139027	0.20099	0.196881	0.197538
1919	0.196223	0.142807	0.196717	0.197374	0.201319
1920	0.200332	0.142314	0.197538	0.198689	0.19836
1921	0.199018	0.141986	0.196552	0.198031	0.198689
1922	0.200332	0.145437	0.194744	0.197374	0.199511
1923	0.200332	0.151518	0.19836	0.197374	0.198524
1924	0.198031	0.151683	0.193758	0.198031	0.200497
1925	0.19573	0.154806	0.197374	0.198689	0.199182
1926	0.197045	0.156449	0.199182	0.197867	0.193594
1927	0.198689	0.157764	0.199675	0.196552	0.197867
1928	0.197374	0.161215	0.198524	0.197045	0.196059
1929	0.199511	0.160887	0.198689	0.197045	0.195073
1930	0.197867	0.161873	0.198689	0.197703	0.199675
1931	0.200497	0.163023	0.197045	0.195402	0.19836
1932	0.196881	0.166311	0.197538	0.201976	0.199839
1933	0.201154	0.166475	0.197867	0.197703	0.199511
1934	0.199018	0.16894	0.197867	0.200497	0.199675
1935	0.199511	0.170584	0.195895	0.200497	0.197867
1936	0.199018	0.169926	0.198853	0.198031	0.201154
1937	0.198196	0.173049	0.198031	0.198524	0.198689
1938	0.199839	0.171734	0.199675	0.199346	0.198853
1939	0.195073	0.172227	0.195895	0.198853	0.198031
1940	0.198196	0.173707	0.197045	0.198524	0.198853
1941	0.19721	0.171406	0.197045	0.199018	0.195402
1942	0.197703	0.173049	0.197867	0.195566	0.199839
1943	0.197374	0.178637	0.197045	0.197867	0.20099
1944	0.196717	0.178473	0.198853	0.196717	0.19836
1945	0.19721	0.179459	0.198524	0.198689	0.203455
1946	0.200168	0.176829	0.198524	0.199346	0.201483
1947	0.196552	0.179295	0.200004	0.199511	0.201976
1948	0.198031	0.181924	0.198689	0.196223	0.198196
1949	0.194909	0.180938	0.202469	0.202305	0.20099
1950	0.199018	0.182582	0.196223	0.197538	0.200497
1951	0.196223	0.183897	0.198689	0.200661	0.198031
1952	0.197538	0.184883	0.196717	0.201647	0.196059
1953	0.198853	0.185705	0.19721	0.199675	0.200332
1954	0.200661	0.185376	0.190635	0.200004	0.197703
1955	0.199511	0.186855	0.20099	0.198031	0.201483
1956	0.193758	0.184225	0.195566	0.199675	0.199346
1957	0.201319	0.186526	0.195073	0.198853	0.198689
1958	0.19573	0.186198	0.199511	0.197045	0.199839
1959	0.195402	0.18817	0.199839	0.193429	0.200661
1960	0.198031	0.188663	0.200004	0.200332	0.198689
1961	0.197703	0.185869	0.200168	0.197045	0.200004
1962	0.194416	0.188827	0.201154	0.194251	0.20214
1963	0.195566	0.187841	0.199182	0.197867	0.199182
1964	0.198524	0.191457	0.201647	0.200004	0.200661
1965	0.200004	0.190635	0.199675	0.198689	0.198689
1966	0.19836	0.192115	0.200004	0.19836	0.198524
1967	0.199346	0.191786	0.197045	0.200004	0.200168
1968	0.199018	0.192443	0.195237	0.199182	0.200332
1969	0.197374	0.19195	0.200168	0.199675	0.195895
1970	0.199182	0.192772	0.199839	0.196388	0.200004
1971	0.199511	0.191128	0.197374	0.200004	0.196717
1972	0.198853	0.193429	0.19721	0.197374	0.198524
1973	0.200168	0.189649	0.198853	0.200168	0.197538
1974	0.197703	0.193594	0.199018	0.19573	0.199511
1975	0.202798	0.194416	0.198689	0.19573	0.196388
1976	0.199182	0.192608	0.200168	0.192772	0.19573
1977	0.199018	0.194251	0.197867	0.197867	0.196717
1978	0.201812	0.192772	0.202469	0.196388	0.196059
1979	0.199511	0.194251	0.199839	0.197538	0.199675
1980	0.200497	0.195237	0.201812	0.198689	0.198524
1981	0.200661	0.196223	0.200168	0.200168	0.198853
1982	0.200332	0.193101	0.199839	0.200497	0.199346
1983	0.198031	0.199018	0.20362	0.198031	0.200168
1984	0.200661	0.197703	0.199839	0.200332	0.196717
1985	0.198524	0.196059	0.198689	0.19836	0.200825
1986	0.200825	0.197703	0.198031	0.198196	0.197703
1987	0.198689	0.199182	0.196552	0.197538	0.199182
1988	0.203291	0.196881	0.199675	0.197867	0.198031
1989	0.201154	0.196388	0.198853	0.19836	0.196717
1990	0.19836	0.19721	0.200825	0.199182	0.196717
1991	0.199839	0.19721	0.199346	0.196552	0.191457
1992	0.201154	0.198689	0.199839	0.197538	0.197867
1993	0.200332	0.192443	0.200168	0.19721	0.19721
1994	0.20099	0.197374	0.20099	0.196059	0.197045
1995	0.201483	0.195073	0.200168	0.195566	0.199018
1996	0.198524	0.193594	0.199182	0.196388	0.200661
1997	0.201647	0.197374	0.198689	0.198524	0.197703
1998	0.199675	0.199839	0.201319	0.196388	0.199839
1999	0.199511	0.195895	0.20099	0.198524	0.198031
2000	0.199839	0.196881	0.19836	0.198853	0.199511
2001	0.200825	0.196881	0.196717	0.198689	0.195073
2002	0.198196	0.200825	0.20214	0.198689	0.198031
2003	0.199018	0.198031	0.199511	0.20362	0.198031
2004	0.199018	0.196881	0.199182	0.199018	0.198689
2005	0.195566	0.201319	0.198689	0.199018	0.19836
2006	0.199675	0.197867	0.198689	0.200661	0.19836
2007	0.199511	0.199675	0.197703	0.198689	0.199182
2008	0.198689	0.198196	0.197867	0.198689	0.196059
2009	0.199675	0.200661	0.19836	0.197374	0.197867
2010	0.201154	0.197538	0.197867	0.193101	0.201154
2011	0.196717	0.199182	0.199675	0.198524	0.200332
2012	0.201154	0.19573	0.197538	0.195073	0.197703
2013	0.199182	0.198689	0.200497	0.197045	0.198853
2014	0.196223	0.19836	0.196388	0.199675	0.200497
2015	0.193429	0.197045	0.20214	0.198853	0.200004
2016	0.198031	0.199675	0.196552	0.198689	0.199182
2017	0.197538	0.19836	0.196717	0.197045	0.200168
2018	0.198031	0.198689	0.198196	0.199346	0.201483
2019	0.199675	0.198689	0.198853	0.201483	0.200825
2020	0.200497	0.20099	0.196881	0.20099	0.199675
2021	0.199018	0.195895	0.197045	0.199346	0.199675
2022	0.198031	0.201154	0.195402	0.20214	0.199182
2023	0.201483	0.200661	0.193101	0.199346	0.19721
2024	0.197703	0.198689	0.196881	0.201483	0.197703
2025	0.199346	0.196552	0.196223	0.197703	0.196223
2026	0.198853	0.197045	0.193922	0.203126	0.197045
2027	0.200004	0.196223	0.195073	0.19836	0.195566
2028	0.200004	0.197867	0.196059	0.199018	0.198196
2029	0.197045	0.194909	0.192279	0.20099	0.199675
2030	0.199346	0.198689	0.195237	0.200004	0.201154
2031	0.201647	0.197703	0.195402	0.200332	0.197867
2032	0.201483	0.198853	0.201647	0.196552	0.203455
2033	0.201483	0.199839	0.194909	0.199018	0.200825
2034	0.199346	0.197538	0.196223	0.199346	0.195402
2035	0.198689	0.200497	0.199675	0.199346	0.200004
2036	0.199182	0.196881	0.195895	0.201154	0.199839
2037	0.202305	0.199839	0.195073	0.202305	0.199839
2038	0.199675	0.196552	0.198524	0.199018	0.201319
2039	0.197538	0.197374	0.196059	0.201812	0.199675
2040	0.200332	0.199182	0.196552	0.200168	0.200332
2041	0.198689	0.19573	0.19721	0.199675	0.199346
2042	0.200004	0.198524	0.197374	0.199675	0.194416
2043	0.200661	0.199839	0.198524	0.193922	0.201812
2044	0.197538	0.19458	0.196881	0.200004	0.197045
2045	0.200332	0.196552	0.195566	0.200497	0.1908
2046	0.200661	0.195566	0.200004	0.198196	0.19836
2047	0.200168	0.196552	0.197703	0.198689	0.200332
2048	0.203126	0.197867	0.199018	0.199511	0.199182
2049	0.200004	0.200004	0.197538	0.197867	0.200661
2050	0.201812	0.19836	0.199346	0.200004	0.200004
2051	0.202305	0.197374	0.203126	0.19573	0.200332
2052	0.197538	0.199839	0.200004	0.195073	0.203948
2053	0.201154	0.199675	0.202962	0.198853	0.201319
2054	0.19836	0.200168	0.200332	0.198853	0.199346
2055	0.199018	0.198196	0.200004	0.19721	0.201319
2056	0.198689	0.201319	0.197045	0.199675	0.19573
2057	0.200497	0.19573	0.19836	0.196717	0.197538
2058	0.199018	0.196881	0.197703	0.198689	0.201647
2059	0.199511	0.19721	0.195566	0.200168	0.198031
2060	0.197703	0.20099	0.199675	0.192115	0.198524
2061	0.198196	0.19573	0.199182	0.19458	0.198524
2062	0.199675	0.198853	0.201812	0.196881	0.199018
2063	0.199675	0.196388	0.197045	0.199346	0.198853
2064	0.197538	0.19836	0.197045	0.200168	0.20362
2065	0.198524	0.200004	0.198689	0.194909	0.200497
2066	0.201483	0.19836	0.197045	0.195237	0.200332
2067	0.200332	0.199182	0.197045	0.187348	0.202962
2068	0.200332	-0.000347	0.200825	0.183568	0.19836
2069	0.199182	-0.000183	0.199346	0.145437	0.199346
2070	0.198196	-1.9e-05	0.201154	0.065888	0.198689
2071	0.198689	0.003433	0.198031	0.005569	0.199346
2072	0.201154	0.000803	0.199346	0.001132	0.199511
2073	0.197045	0.009185	0.198031	0.00146	0.199675
2074	0.200004	0.016417	0.196717	0.003104	0.19836
2075	0.199839	0.027593	0.199675	0.003104	0.198853
2076	0.199511	0.03088	0.197538	0.006556	0.195566
2077	0.198196	0.038605	0.197045	0.00294	0.201647
2078	0.200825	0.045672	0.195566	0.00146	0.201976
2079	0.199346	0.042878	0.20099	0.000474	0.19721
2080	0.201812	0.056191	0.199675	0.001625	0.200497
2081	0.200168	0.060629	0.199018	0.00031	0.200004
2082	0.196881	0.071477	0.198853	0.003268	0.201812
2083	0.200825	0.071148	0.201647	0.000639	0.201483
2084	0.196223	0.080023	0.196881	0.00294	0.201154
2085	0.200004	0.082982	0.200004	-1.9e-05	0.202469
2086	0.199182	0.090706	0.199182	0.00146	0.201154
2087	0.200497	0.091857	0.200497	0.000803	0.20099
2088	0.199511	0.100896	0.199346	0.002775	0.202798
2089	0.19836	0.101061	0.199346	-0.000512	0.203291
2090	0.198524	0.096459	0.201154	0.001296	0.200497
2091	0.199346	0.103033	0.201812	0.00031	0.203455
2092	0.197538	0.109772	0.201976	0.000803	0.199018
2093	0.199675	0.116017	0.204277	0.000474	0.200497
2094	0.196059	0.113716	0.202469	-1.9e-05	0.198031
2095	0.198689	0.121277	0.200497	0.001789	0.199346
2096	0.198689	0.121934	0.20214	-0.000183	0.202798
2097	0.197703	0.131302	0.196223	0.000474	0.200004
2098	0.198031	0.13196	0.200332	0.000146	0.200497
2099	0.194909	0.135247	0.198524	0.000146	0.201483
2100	0.198853	0.137384	0.199675	-0.000676	0.203784
2101	0.200004	0.141328	0.203784	-0.000183	0.199675
2102	0.199675	0.140506	0.200497	-0.001005	0.202798
2103	0.197374	0.146095	0.200168	0.00031	0.202305
2104	0.200825	0.146423	0.200168	-0.000183	0.200661
2105	0.199018	0.151354	0.20477	0.000803	0.20214
2106	0.199182	0.152505	0.199018	0.000474	0.197374
2107	0.199018	0.152833	0.200497	0.00146	0.202962
2108	0.197867	0.156778	0.199675	-0.001005	0.197538
2109	0.197703	0.158914	0.199511	0.001296	0.199018
2110	0.197703	0.159408	0.200004	-0.000841	0.196717
2111	0.197538	0.160558	0.195237	-0.001662	0.200825
2112	0.195566	0.166475	0.201812	0.002447	0.198524
2113	0.20099	0.161873	0.203291	-0.000512	0.196717
2114	0.200497	0.164338	0.199018	0.000474	0.202469
2115	0.201154	0.165489	0.19836	-0.000183	0.199018
2116	0.200004	0.165817	0.202962	0.001132	0.200004
2117	0.200332	0.167954	0.19836	-0.000183	0.197703
2118	0.202469	0.169433	0.198689	0.001132	0.199839
2119	0.199675	0.17157	0.199675	0.000803	0.198689
2120	0.200825	0.172063	0.199675	0.001789	0.201319
2121	0.200332	0.170584	0.19836	0.002775	0.198196
2122	0.201154	0.175679	0.197374	-0.001169	0.202305
2123	0.199839	0.180281	0.196881	0.00146	0.198524
2124	0.200168	0.170584	0.199346	0.001296	0.199346
2125	0.200661	0.175843	0.196388	0.010007	0.195895
2126	0.198689	0.17535	0.198196	0.001296	0.196881
2127	0.198853	0.178144	0.199018	0.002775	0.198689
2128	0.196552	0.178966	0.199018	0.000639	0.195566
2129	0.198689	0.17535	0.197045	0.005076	0.198689
2130	0.198031	0.178309	0.197703	0.005076	0.198196
2131	0.200332	0.179952	0.197374	0.002118	0.200004
2132	0.201647	0.18176	0.196059	0.002447	0.198196
2133	0.197867	0.178966	0.196223	0.000639	0.201319
2134	0.199675	0.18176	0.194416	-1.9e-05	0.198031
2135	0.196881	0.181103	0.198524	0.000474	0.200168
2136	0.198031	0.180938	0.195566	-0.000841	0.199018
2137	0.198853	0.182089	0.196552	0.00031	0.200497
2138	0.199839	0.181103	0.191293	-0.000347	0.202305
2139	0.198196	0.184883	0.187019	-1.9e-05	0.20099
2140	0.199018	0.183075	0.185869	0.000474	0.201976
2141	0.199346	0.187019	0.192279	0.000639	0.204606
2142	0.198196	0.184883	0.182582	0.000639	0.204441
2143	0.199018	0.184225	0.179952	0.000474	0.19836
2144	0.198031	0.192279	0.181596	0.000474	0.203291
2145	0.199018	0.187019	0.179295	-0.000183	0.200004
2146	0.197374	0.186362	0.171406	-0.000183	0.198689
2147	0.198031	0.186033	0.163681	-0.000347	0.199182
2148	0.19721	0.188663	0.152833	0.000803	0.198524
2149	0.197538	0.187019	0.151518	-0.000676	0.188334
2150	0.199511	0.189649	0.144451	0.001954	0.183897
2151	0.197045	0.186362	0.134425	0.000146	0.18817
2152	0.19836	0.18932	0.126536	0.000474	0.186198
2153	0.199675	0.188827	0.117825	0.000146	0.187841
2154	0.198853	0.189649	0.109772	-1.9e-05	0.188006
2155	0.197703	0.18932	0.099253	0.000639	0.187841
2156	0.198689	0.18932	0.093172	-0.000183	0.186198
2157	0.199018	0.1908	0.07838	0.000146	0.188827
2158	0.197538	0.189814	0.071477	0.000967	0.15497
2159	0.196552	0.191293	0.0603	0.001789	0.005569
2160	0.19573	0.190471	0.062273	-0.001005	0.010993
2161	0.19573	0.192115	0.04107	0.00146	0.010664
2162	0.199346	0.189156	0.017567	0.001954	0.000146
2163	0.196388	0.193429	0.004583	0.002447	-0.000183
2164	0.198031	0.189978	0.005569	-0.001169	-0.000512
2165	0.199018	0.192279	0.006884	0.001625	0.004419
2166	0.199018	0.192115	0.006391	-0.000183	-0.000347
2167	0.199018	0.192443	0.005076	-1.9e-05	-0.000841
2168	0.199675	0.190964	0.003926	0.000474	0.002775
2169	0.199346	0.193429	0.003104	-0.000183	0.001625
2170	0.201319	0.192936	0.000639	0.000146	0.003926
2171	0.200825	0.191786	0.00294	0.000803	0.010171
2172	0.200004	0.199346	0.001625	0.00031	0.016253
2173	0.202798	0.192279	0.005076	0.001132	0.02447
2174	0.200332	0.194909	0.002611	0.000967	0.031373
2175	0.201976	0.19458	0.003597	0.006227	0.042878
2176	0.199018	0.193758	0.00294	-0.000183	0.044851
2177	0.200661	0.193922	0.00294	0.000146	0.050768
2178	0.202798	0.196881	0.002447	0.003761	0.058164
2179	0.200332	0.19458	0.001789	0.000639	0.064245
2180	0.199839	0.194909	0.003104	0.001954	0.070162
2181	0.198524	0.193758	0.001132	0.002775	0.074106
2182	0.199018	0.195566	0.000803	0.002447	0.080516
2183	0.199346	0.197867	0.003761	0.00146	0.083639
2184	0.200168	0.195402	0.001954	-0.002813	0.08972
2185	0.202633	0.193594	0.002775	-1.9e-05	0.094322
2186	0.198853	0.197703	0.003433	0.002447	0.097938
2187	0.201647	0.195237	0.002118	-0.001662	0.103362
2188	0.20214	0.194251	0.003597	-0.000183	0.108293
2189	0.200168	0.201647	0.002118	0.000967	0.110429
2190	0.200825	0.197867	0.002282	-0.001169	0.115195
2191	0.200004	0.196717	0.00146	-0.000347	0.118483
2192	0.200497	0.192936	0.005898	0.000146	0.123413
2193	0.200332	0.19721	0.00787	0.001132	0.1267
2194	0.200332	0.193594	0.005405	0.00031	0.12555
2195	0.198524	0.192936	0.003597	-1.9e-05	0.132124
2196	0.198524	0.192608	0.001296	0.000967	0.132617
2197	0.19573	0.200332	0.002118	0.002447	0.135247
2198	0.199675	0.195402	0.005405	-0.000512	0.137712
2199	0.202798	0.197538	0.003761	-0.000347	0.141328
2200	0.19721	0.198524	-0.000512	0.001296	0.137712
2201	0.197374	0.19721	0.001789	0.00031	0.142807
2202	0.20099	0.195073	0.00031	-0.001334	0.149217
2203	0.202305	0.196223	0.003104	-0.000841	0.148724
2204	0.199511	0.194251	0.000803	-0.000183	0.150039
2205	0.200497	0.031045	0.001296	0.000967	0.147738
2206	0.20099	0.018554	0.001296	-0.000676	0.154641
2207	0.200332	0.026936	0.001954	0.000639	0.156778
2208	0.201319	0.034989	0.003433	0.00146	0.1576
2209	0.200661	0.040742	0.004419	-0.000183	0.164174
2210	0.193265	0.047973	0.003761	-0.000841	0.163352
2211	0.19836	0.053233	0.004912	0.000146	0.158421
2212	0.199018	0.059807	-0.002813	-1.9e-05	0.162695
2213	0.196717	0.065724	0.009021	-0.001169	0.164831
2214	0.195566	0.072956	0.00672	0.000803	0.168612
2215	0.196388	0.076407	-0.000183	0.000146	0.167954
2216	0.194251	0.081831	0.005076	0.000474	0.169433
2217	0.199346	0.085776	0.003926	0.000639	0.17272
2218	0.200497	0.086762	0.003761	0.001296	0.175021
2219	0.198524	0.093993	0.004912	-0.000347	0.169105
2220	0.200332	0.098924	0.010171	-0.000183	0.176008
2221	0.200168	0.104184	0.004583	-0.000347	0.177651
2222	0.199018	0.102376	0.002447	-1.9e-05	0.174528
2223	0.199182	0.112894	0.00409	-0.000183	0.176665
2224	0.20099	0.115853	0.002611	-0.001498	0.178144
2225	0.198524	0.118483	0.002118	0.000639	0.17913
2226	0.199675	0.118318	0.002611	0.00146	0.177487
2227	0.196059	0.123413	0.00146	0.00031	0.179952
2228	0.199675	0.126043	0.003761	0.00031	0.181267
2229	0.19836	0.131138	0.006884	0.001132	0.183075
2230	0.198689	0.132782	0.003926	0.001132	0.183568
2231	0.197374	0.136562	0.008199	0.000639	0.18554
2232	0.195895	0.13837	0.008035	-0.000676	0.184883
2233	0.196059	0.140835	0.010829	-1.9e-05	0.184225
2234	0.196223	0.145602	0.009678	-0.000347	0.181431
2235	0.198689	0.14593	0.011486	0.000146	0.187348
2236	0.19836	0.146752	0.009678	-1.9e-05	0.184554
2237	0.20099	0.14856	0.011158	0.000639	0.186198
2238	0.198196	0.150368	0.010171	0.000146	0.185705
2239	0.200497	0.154312	0.004255	0.000474	0.187841
2240	0.199675	0.154312	0.009185	0.000803	0.1908
2241	0.201483	0.156613	0.011322	0.001625	0.187841
2242	0.202305	0.157928	0.015266	-0.000183	0.184225
2243	0.201483	0.154806	0.012637	-0.000512	0.189156
2244	0.197045	0.160558	0.016581	0.001954	0.189156
2245	0.19836	0.158421	0.015924	-0.000347	0.189485
2246	0.201319	0.163188	0.016253	0.001789	0.191293
2247	0.199675	0.163352	0.015924	-0.000512	0.190142
2248	0.198196	0.166639	0.020197	0.001954	0.191621
2249	0.196388	0.170748	0.01954	-0.000183	0.190635
2250	0.197045	0.169269	0.018225	0.000803	0.192443
2251	0.199839	0.171899	0.009678	0.00031	0.1908
2252	0.197538	0.171406	0.01428	-0.000183	0.192443
2253	0.196717	0.173707	0.021348	-1.9e-05	0.192608
2254	0.201319	0.171734	0.020033	-0.000512	0.193429
2255	0.197045	0.178473	0.017896	-0.000183	0.190307
2256	0.198031	0.173214	0.019868	-0.001005	0.193922
2257	0.200004	0.176665	0.021676	-0.000183	0.197045
2258	0.200825	0.176665	0.019704	-0.000183	0.193101
2259	0.197538	0.17798	0.015266	-0.000183	0.199018
2260	0.199182	0.177815	0.018554	-1.9e-05	0.195073
2261	0.198853	0.178144	0.017896	0.000474	0.194087
2262	0.20099	0.180445	0.022498	0.000474	0.193594
2263	0.197374	0.18176	0.026771	0.000146	0.195402
2264	0.197867	0.18176	0.026114	0.000146	0.194909
2265	0.199675	0.183897	0.027758	0.000146	0.197867
2266	0.195566	0.184718	0.028415	-0.000183	0.198031
2267	0.196552	0.183732	0.029894	-0.002484	0.196059
2268	0.196552	0.183075	0.029894	-1.9e-05	0.196223
2269	0.198031	0.181924	0.025128	-0.000183	0.197374
2270	0.197703	0.186362	0.025128	0.00031	0.194251
2271	0.198689	0.183568	0.03088	0.00031	0.195566
2272	0.197867	0.185212	0.031209	0.00031	0.198853
2273	0.201319	0.186033	0.032031	0.00031	0.193758
2274	0.197703	0.188827	0.032688	-1.9e-05	0.197867
2275	0.200004	0.186855	0.031373	-0.000347	0.193429
2276	0.204277	0.188499	0.031373	-1.9e-05	0.199018
2277	0.198853	0.188992	0.029072	-0.000183	0.193758
2278	0.199346	0.18817	0.033017	-0.001005	0.196717
2279	0.199346	0.189649	0.029894	-1.9e-05	0.198031
2280	0.198689	0.186855	0.031209	0.00031	0.195895
2281	0.200168	0.191293	0.032524	0.000474	0.195566
2282	0.200661	0.190142	0.034825	0.000146	0.197867
2283	0.195402	0.188827	0.036962	-1.9e-05	0.199346
2284	0.198524	0.191293	0.03729	0.000146	0.200168
2285	0.19836	0.191293	0.03614	-0.000347	0.199018
2286	0.199346	0.190964	0.034168	0.000146	0.197867
2287	0.199018	0.192443	0.037455	-0.000512	0.199346
2288	0.200497	0.194416	0.035318	-0.000347	0.198689
2289	0.19573	0.189156	0.035318	0.000146	0.199346
2290	0.198689	0.190471	0.036469	-1.9e-05	0.197538
2291	0.199839	0.190142	0.039591	-1.9e-05	0.202469
2292	0.200825	0.190471	0.033017	0.000146	0.199346
2293	0.197703	0.189649	0.03729	0.000146	0.19836
2294	0.198196	0.190471	0.034332	0.000146	0.19836
2295	0.200332	0.19458	0.035975	0.00031	0.200004
2296	0.199675	0.200004	0.037455	-1.9e-05	0.197867
2297	0.199511	0.193101	0.038276	-1.9e-05	0.200004
2298	0.199839	0.193922	0.037783	-0.000676	0.196717
2299	0.19721	0.193101	0.039756	-0.000183	0.198853
2300	0.200825	0.195895	0.040577	-1.9e-05	0.199511
2301	0.198031	0.195566	0.041892	-0.000183	0.198689
2302	0.198853	0.195402	0.04255	0.000146	0.200004
2303	0.197867	0.194909	0.040577	-1.9e-05	0.198853
2304	0.199346	0.196552	0.038276	0.000146	0.197867
2305	0.202305	0.195073	0.036962	0.000146	0.199182
2306	0.198689	0.19836	0.039756	0.000146	0.201812
2307	0.200497	0.197374	0.03614	-0.000183	0.200661
2308	0.199182	0.196223	0.040742	-0.000347	0.199511
2309	0.201483	0.197045	0.038605	-0.000183	0.200004
2310	0.199182	0.199839	0.035647	-0.000183	0.200825
2311	0.20099	0.193429	0.041892	-0.000183	0.196552
2312	0.198196	0.196059	0.046001	-0.000183	0.199018
2313	0.196223	0.197867	0.044193	0.000146	0.197538
2314	0.200004	0.195073	0.040084	0.000146	0.201319
2315	0.195402	0.19836	0.039427	0.000146	0.197538
2316	0.199511	0.194087	0.040577	0.000146	0.197374
2317	0.199182	0.200004	0.042385	0.000146	0.200332
2318	0.200168	0.200004	0.044193	-1.9e-05	0.197867
2319	0.200497	0.198689	0.043536	-0.000347	0.198853
2320	0.202633	0.19836	0.040577	-0.000347	0.199839
2321	0.196223	0.201319	0.040413	-0.000512	0.195566
2322	0.201483	0.197374	0.040577	-0.000676	0.192279
2323	0.200661	0.195895	0.043043	-0.000183	0.190964
2324	0.198689	0.198853	0.039263	-1.9e-05	0.187677
2325	0.19721	0.197867	0.038934	0.000474	0.184883
2326	0.19836	0.19721	0.039591	0.000146	0.178144
2327	0.200168	0.196223	0.047152	-1.9e-05	0.179459
2328	0.201154	0.197538	0.043371	0.000146	0.173378
2329	0.201812	0.197374	0.045015	0.000146	0.174857
2330	0.200168	0.197374	0.043043	-0.000183	0.176172
2331	0.202633	0.196717	0.045179	-0.000347	0.17535
2332	0.200004	0.199511	0.047809	-0.000347	0.170419
2333	0.203126	0.196388	0.050603	-0.000512	0.171077
2334	0.199511	0.19836	0.051261	-1.9e-05	0.171406
2335	0.201154	0.197538	0.041399	-1.9e-05	0.166968
2336	0.199182	0.198524	0.048138	0.00031	0.167297
2337	0.199839	0.200004	0.04748	0.00031	0.11651
2338	0.196388	0.197867	0.048795	0.000146	0.021348
2339	0.200332	0.19573	0.046987	0.000146	0.004748
2340	0.199018	0.196881	0.043865	-1.9e-05	0.001789
2341	0.19836	0.194744	0.044029	-0.000183	0.005076
2342	0.200004	0.196388	0.04748	-0.000183	0.013787
2343	0.198031	0.199182	0.045837	-0.000347	0.021676
2344	0.200004	0.19573	0.035318	-0.000512	0.029072
2345	0.198853	0.196223	0.033017	-0.000183	0.037455
2346	0.199511	0.193758	0.024635	-1.9e-05	0.042385
2347	0.198853	0.196059	0.024964	-1.9e-05	0.050274
2348	0.203126	0.193429	0.01576	0.000146	0.054219
2349	0.200825	0.199675	0.00935	0.000474	0.060793
2350	0.20099	0.198031	0.008363	0.000146	0.067368
2351	0.200332	0.198031	0.00672	0.00031	0.072627
2352	0.199182	0.200497	0.003926	-0.000512	0.075257
2353	0.202798	0.199839	0.007049	-0.000183	0.081338
2354	0.19836	0.197374	0.002447	0.000474	0.083475
2355	0.197867	0.200332	0.005734	-0.001005	0.088734
2356	0.19836	0.199018	0.003433	0.000967	0.0935
2357	0.20214	0.199675	0.003926	-0.000347	0.094487
2358	0.197867	0.200004	0.000639	0.000967	0.096623
2359	0.201647	0.197703	0.003433	0.000803	0.100732
2360	0.200332	0.198689	0.000474	0.000474	0.108293
2361	0.200332	0.198524	0.002775	-0.000347	0.108621
2362	0.198031	0.199018	0.000474	0.00031	0.109936
2363	0.198031	0.198524	0.000146	0.000803	0.117661
2364	0.196717	0.200825	-0.00232	0.000803	0.12177
2365	0.199675	0.19721	0.001789	0.003433	0.123249
2366	0.197538	0.193758	-0.001334	0.010993	0.12555
2367	0.199346	0.197703	-0.000183	0.005241	0.129001
2368	0.199675	0.200332	0.007213	0.010664	0.133603
2369	0.201483	0.197867	0.000146	0.018882	0.134918
2370	0.202469	0.200004	0.001625	0.025128	0.133439
2371	0.199839	0.199346	0.000146	0.032195	0.137219
2372	0.198689	0.200168	0.001132	0.037126	0.139685
2373	0.202469	0.198031	0.00146	0.046823	0.139027
2374	0.198689	0.200332	-0.000183	0.053726	0.138205
2375	0.199018	0.200332	0.00031	0.057835	0.005734
2376	0.200825	0.199839	0.000803	0.060465	0.00031
2377	0.196552	0.199018	-0.000512	0.070983	0.000803
2378	0.199675	0.197374	0.000474	0.072298	0.000146
2379	0.198524	0.19836	0.004912	0.079366	0.000146
2380	0.201154	0.197538	-0.000841	0.083146	0.00031
2381	0.19836	0.199346	0.001954	0.087912	-1.9e-05
2382	0.203291	0.196717	0.00031	0.092843	-0.000183
2383	0.201647	0.199675	0.000474	0.095801	-1.9e-05
2384	0.203784	0.196717	0.001132	0.10139	-0.000512
2385	0.200497	0.199346	0.003761	0.104841	0.000474
2386	0.201154	0.199018	0.000639	0.107799	0.006884
2387	0.201154	0.201154	0.00031	0.115195	0.014116
2388	0.199018	0.197703	-1.9e-05	0.117332	0.004255
2389	0.197045	0.198196	0.002775	0.117003	0.003761
2390	0.199675	0.196717	0.001625	0.123906	0.00031
2391	0.201154	0.196881	0.000967	0.123906	0.002611
2392	0.199675	0.198196	0.000474	0.129495	0.005734
2393	0.200825	0.199675	0.00294	0.12933	0.013459
2394	0.200661	0.198524	-0.000183	0.137219	0.01428
2395	0.199346	0.193429	0.000803	0.136891	-0.000183
2396	0.198853	0.197703	-0.001169	0.14215	-0.000183
2397	0.198196	0.196552	-0.000676	0.145108	-0.000183
2398	0.201812	0.204277	0.00031	0.145766	0.000146
2399	0.201812	0.197867	-0.000841	0.146588	0.000146
2400	0.198853	0.199346	0.001789	0.150204	0.000146
2401	0.199018	0.199346	0.000803	0.152176	0.000146
2402	0.20214	0.200332	0.001789	0.15119	0.00031
2403	0.199511	0.200004	0.001132	0.155956	0.000146
2404	0.198524	0.197703	0.001132	0.155627	-1.9e-05
2405	0.194744	0.201483	0.001789	0.157271	-0.000183
2406	0.200004	0.19836	0.00031	0.156778	-0.000183
2407	0.196223	0.203948	-0.000676	0.165489	-0.000347
2408	0.198853	0.200004	0.002447	0.161215	-1.9e-05
2409	0.19836	0.199675	0.001954	0.164831	-1.9e-05
2410	0.199511	0.19836	0.001296	0.166639	0.000146
2411	0.199346	0.20099	0.00031	0.164996	-1.9e-05
2412	0.199839	0.199675	0.001954	0.165653	0.000146
2413	0.198853	0.199675	0.000803	0.168118	0.001132
2414	0.199839	0.199839	0.001954	0.169762	0.000146
2415	0.197374	0.200004	0.002282	0.173542	0.003926
2416	0.199018	0.197374	-0.002155	0.172556	0.00935
2417	0.19836	0.199182	0.004419	0.175021	0.000146
2418	0.192772	0.198853	-0.000183	0.176008	-0.000183
2419	0.199346	0.198853	0.005076	0.176172	-0.000183
2420	0.20099	0.199346	0.004748	0.177815	-1.9e-05
2421	0.202305	0.198689	0.003926	0.176008	0.000146
2422	0.19836	0.200168	0.00409	0.179788	0.00031
2423	0.200661	0.195402	0.00672	0.178144	0.00146
2424	0.200332	0.200168	0.00935	0.179788	0.00031
2425	0.202962	0.198689	0.017567	0.182582	0.000146
2426	0.201154	0.199018	0.02447	0.185869	-0.000183
2427	0.199346	0.19836	0.03088	0.183568	0.000146
2428	0.19836	0.201976	0.040577	0.184718	-0.000347
2429	0.193758	0.201483	0.042878	0.184883	-0.000183
2430	0.196223	0.200332	0.056027	0.184554	-1.9e-05
2431	0.199675	0.200332	0.058328	0.185212	-0.000183
2432	0.194909	0.199675	0.06556	0.188663	0.007377
2433	0.201647	0.198689	0.068847	0.186526	0.007706
2434	0.202469	0.199511	0.076407	0.186033	0.014938
2435	0.201154	0.200332	0.077393	0.187513	0.00294
2436	0.198524	0.200004	0.085118	0.187513	-1.9e-05
2437	0.201319	0.199675	0.086104	0.189156	-0.000183
2438	0.20214	0.196881	0.092843	0.183404	-1.9e-05
2439	0.199346	0.198689	0.09876	0.186033	0.00787
2440	0.193758	0.194744	0.103197	0.187019	0.014116
2441	0.198196	0.197703	0.105992	0.188663	0.025457
2442	0.200004	0.19836	0.109607	0.190142	0.026936
2443	0.200168	0.198689	0.117496	0.191786	0.028415
2444	0.200332	0.197374	0.118811	0.190964	0.014445
2445	0.198853	0.201154	0.126207	0.188827	0.008035
2446	0.201812	0.198031	0.123578	0.186855	0.014116
2447	0.199675	0.201483	0.127851	0.192279	0.018882
2448	0.203126	0.205263	0.129659	0.192608	0.032195
2449	0.19721	0.200332	0.132453	0.190471	0.038769
2450	0.199346	0.203455	0.133932	0.193922	0.040084
2451	0.200004	0.199182	0.137055	0.191621	0.040577
2452	0.195895	0.199675	0.138534	0.195566	0.040084
2453	0.198689	0.201319	0.142314	0.193429	0.007213
2454	0.200661	0.199182	0.143958	0.196717	0.00031
2455	0.201319	0.200168	0.143958	0.192115	0.00031
2456	0.200661	0.201319	0.150368	0.193101	0.000146
2457	0.202305	0.199511	0.149382	0.189814	0.00031
2458	0.201812	0.200825	0.151683	0.192115	0.000146
2459	0.201976	0.198031	0.152833	0.189814	0.002118
2460	0.200168	0.199839	0.158914	0.189485	0.007706
2461	0.199675	0.201812	0.155299	0.193594	0.013952
2462	0.204113	0.199346	0.159901	0.195402	0.021512
2463	0.199182	0.200661	0.16138	0.196552	0.021348
2464	0.198689	0.20362	0.16516	0.196717	0.002118
2465	0.197374	0.202305	0.162037	0.196717	-0.000183
2466	0.197045	0.199675	0.167625	0.197045	0.000146
2467	0.198031	0.20099	0.168118	0.198196	0.000146
2468	0.198031	0.199675	0.167625	0.196059	0.000146
2469	0.197703	0.201483	0.168283	0.197538	0.000146
2470	0.198196	0.198524	0.170748	0.196223	-0.000183
2471	0.200825	0.200168	0.17272	0.195402	0.000967
2472	0.20214	0.197538	0.170419	0.19721	0.00146
2473	0.203126	0.200332	0.171734	0.196223	0.007049
2474	0.199675	0.198031	0.173542	0.195895	0.015431
2475	0.198689	0.200497	0.177322	0.19721	0.020855
2476	0.201976	0.197045	0.175186	0.194909	0.027429
2477	0.200661	0.200497	0.177815	0.198524	0.032853
2478	0.200004	0.200168	0.177815	0.198524	0.014116
2479	0.198853	0.199511	0.180774	0.198031	-0.000512
2480	0.201154	0.200332	0.182089	0.198689	0.008199
2481	0.199839	0.201812	0.181924	0.196881	0.010993
2482	0.196881	0.200332	0.182911	0.19836	0.019868
2483	0.198196	0.200004	0.183075	0.197867	0.004748
2484	0.201154	0.201154	0.181924	0.199675	0.011486
2485	0.200004	0.199839	0.185212	0.198196	0.019868
2486	0.198031	0.200332	0.185212	0.201647	0.024799
2487	0.199018	0.199839	0.185869	0.198524	0.012965
2488	0.201319	0.199839	0.186198	0.195402	-0.000512
2489	0.200497	0.195895	0.185212	0.194416	0.000967
2490	0.19721	0.197045	0.187841	0.200004	0.000474
2491	0.205427	0.198524	0.186198	0.197045	0.004912
2492	0.197374	0.198689	0.188499	0.197538	0.013952
2493	0.201647	0.19836	0.190471	0.197045	0.019047
2494	0.200004	0.198031	0.191457	0.195895	0.00409
2495	0.202798	0.200004	0.193922	0.19836	-0.000347
2496	0.19836	0.198031	0.190142	0.195073	-0.000183
2497	0.200661	0.199675	0.191128	0.197538	0.000146
2498	0.199182	0.203126	0.193265	0.19836	0.000146
2499	0.196223	0.199511	0.188006	0.199346	0.000146
