Ladekurvenmessung

Zeit: 2018_05_04 10.03.38

Info: FVA3, v = 0.747, T = 23, F = 20, h = 457.0

Ladewiderstand[Ohm]: 1012700

Störkapazität[pF]: 0.000000

Entladezeit[ms]: 200

Abtastrate[Hz]: 250000

Anzahl der Messwerte: 2500.000000

Verzögerung[ms]: 1

Ladespannung[V]: 0.200000


	Kurve_1	Kurve_2	Kurve_3	Kurve_4	Kurve_5	Kurve_6
0	-0.001991	-0.001991	-0.001005	-0.000512	-0.000841	-0.001498
1	0.005569	0.001625	0.003926	0.002447	0.002447	-0.001662
2	0.001625	-0.002813	0.00409	0.002447	-0.001991	0.003104
3	0.002611	-0.000512	0.003268	0.003926	0.002282	-0.000183
4	-0.001662	0.001132	0.002611	0.00146	-0.002155	0.002775
5	0.002118	0.002282	0.001296	0.001789	-0.00347	0.001296
6	-0.001662	0.000474	0.00146	0.001954	-0.000347	0.001954
7	-0.000512	0.002611	0.003433	-0.000841	-0.00232	0.001296
8	-0.000841	0.001954	-0.000512	0.001954	-0.007579	-0.001334
9	0.000474	0.002118	-0.001662	0.002611	-0.002648	0.000803
10	0.000967	0.00146	0.002775	0.001132	-0.003799	0.003926
11	-0.001498	-0.002484	-1.9e-05	-0.001334	0.001296	0.001789
12	0.001296	0.001625	-0.001827	0.000803	0.000474	-0.001169
13	-0.002648	0.003761	0.001132	-0.000183	-0.000841	0.001789
14	-0.000347	0.005898	0.001789	-0.000347	0.00146	-0.001334
15	-0.001169	0.002775	0.001954	-0.001991	-0.004785	0.001132
16	0.001296	0.001954	0.002611	0.001132	-0.003963	-0.000512
17	0.000146	0.001954	0.001132	0.001954	-0.000676	0.001132
18	0.000967	0.00146	0.00146	-0.000183	-0.001662	-0.002977
19	-0.000841	0.002118	0.000803	-0.003799	-1.9e-05	0.00031
20	0.001132	0.000639	0.002611	0.000474	-0.002648	-1.9e-05
21	-0.001991	-0.003306	0.000967	-0.001662	-0.001334	0.001132
22	0.001132	-0.000676	0.001296	-0.001334	-0.004949	-0.000841
23	0.000474	-0.001005	0.000639	-0.000676	-0.003306	-0.001005
24	0.005734	0.000803	0.003761	-0.000841	-0.002648	0.005076
25	0.000639	-1.9e-05	-0.000841	-0.000676	-0.004949	-0.001498
26	0.001132	-0.00347	0.001625	-0.001005	-0.011688	-0.001827
27	0.003268	0.004419	0.001296	-0.001662	-0.002155	-0.000183
28	0.002611	0.003268	0.001296	-0.000676	-0.001334	0.004748
29	0.000803	0.003268	-0.001169	0.002118	-0.002648	-0.001005
30	0.000803	0.003268	-0.000347	-0.003799	-0.000183	-0.004456
31	0.001954	0.00409	-0.001991	0.002447	-0.001498	-0.00347
32	-1.9e-05	-1.9e-05	-0.001169	-0.001334	0.00031	-0.000183
33	0.002611	0.000146	-0.001662	-1.9e-05	-0.002648	-0.001662
34	0.000639	0.000146	0.002611	-1.9e-05	0.001296	-0.000183
35	0.00146	-0.000512	0.000803	0.00146	-0.002648	0.000639
36	-0.000183	-0.003799	-0.000512	-0.003635	0.000639	0.002611
37	0.001296	0.002611	0.000146	-0.003306	-0.00725	0.000146
38	-0.001169	-0.003142	-0.003635	-0.00232	-0.004456	0.001625
39	-0.001827	0.002118	0.001954	0.000474	-0.006757	0.001625
40	-0.002813	-0.004292	0.002611	-0.00232	-0.005771	0.001789
41	-0.004128	0.002447	0.001132	-0.002813	-0.004292	0.002282
42	0.000146	0.001789	0.000967	-0.001334	-0.003963	0.002282
43	0.000639	0.001132	0.000803	-0.001005	-0.003963	0.001296
44	0.001132	0.002118	-0.001498	-0.000512	-0.000512	0.001789
45	0.001954	0.000803	0.00031	-1.9e-05	-0.000183	-0.001169
46	0.001296	0.002118	0.000639	0.001132	-0.002484	0.002611
47	-0.001662	-0.001005	-0.001169	-0.001334	0.00031	0.003926
48	0.001954	0.002775	-0.000512	0.000146	-0.003799	-0.000676
49	-0.000512	0.000474	-0.000347	0.001132	-0.000841	0.002118
50	-0.001334	0.00031	0.000474	0.001625	-0.001827	-0.000512
51	-0.000676	0.000146	0.000474	-1.9e-05	0.001954	0.00031
52	0.001132	-1.9e-05	0.001132	0.000639	-0.001662	-0.001991
53	-0.001991	-0.003635	-0.000183	0.001789	-0.001334	0.001296
54	-0.001827	-0.001991	0.00294	-0.001498	-0.001169	-0.001169
55	-0.003635	-0.001169	0.002611	0.000474	-0.004128	-0.000183
56	-0.002155	0.000967	0.004912	0.000639	0.000474	-0.003635
57	-0.001498	0.001625	0.002611	-1.9e-05	-0.0061	0.002118
58	-0.000512	-0.001827	0.002118	-1.9e-05	-1.9e-05	0.001132
59	0.000474	0.00146	-0.001005	-0.000676	-0.001827	0.000474
60	-0.000183	-0.000183	-0.001662	-0.001005	-0.001169	0.003268
61	-0.003635	0.001296	-0.003799	-0.000347	-0.004292	-0.005936
62	-0.004456	0.000639	-0.001498	-1.9e-05	-0.001991	-0.000841
63	-1.9e-05	-0.001334	-0.004785	0.000474	-0.002977	-0.003306
64	-0.003963	-0.002813	-0.003306	-0.001827	-0.002813	0.00031
65	0.002447	0.002447	0.000639	0.000967	-0.002155	-0.00232
66	0.000803	0.000803	-0.000512	-0.002813	-0.001662	-0.000676
67	0.00031	0.001296	0.002118	0.000639	0.001132	-0.001498
68	0.001296	0.004255	0.000146	-0.000841	-0.002484	0.000474
69	0.001789	-1.9e-05	0.000474	-0.001991	0.000474	-0.000347
70	0.000639	0.000474	0.00031	0.001954	-0.001005	-1.9e-05
71	-0.00232	0.000639	0.007049	0.001132	-0.001334	0.00031
72	-0.001498	-0.000183	-0.000183	-0.002484	-0.003142	0.001625
73	0.000803	-0.000676	0.001625	0.002447	-0.001334	-0.000676
74	0.000803	0.001296	0.000639	-0.000512	-0.003142	0.000967
75	-0.002484	-0.001334	0.00146	-0.001169	-0.001662	0.001132
76	0.000803	0.004583	0.001625	0.000639	-0.003963	-0.000841
77	-0.001662	-0.000676	0.000474	-0.000183	-0.001005	-0.001827
78	0.001296	-0.0061	0.002611	-0.001005	-0.001991	-0.006264
79	0.000146	-0.003635	-0.002813	-0.001005	-0.000183	0.003761
80	-0.001827	-0.000183	-0.001005	-0.002155	-0.001991	-0.002813
81	-1.9e-05	0.000639	-0.001005	-0.002813	0.00031	-0.000183
82	0.002611	0.003597	0.00409	0.000146	-0.002813	-0.002484
83	0.003104	0.001789	-0.004456	-0.001498	-0.001827	0.001954
84	0.00031	0.000967	0.003597	-0.001662	-0.002484	-0.001827
85	0.002118	0.001625	-0.001498	-0.001827	-0.001334	-0.001334
86	-0.000841	-0.001662	-0.000841	0.001789	-0.003142	-0.000841
87	-0.000347	0.000967	-0.000676	0.001954	-0.001827	-0.000841
88	-0.001991	-0.000347	-0.001334	-1.9e-05	0.00031	0.000967
89	0.00031	-0.002977	-0.003963	-0.001169	-0.000183	0.001625
90	-0.001169	-0.00232	0.004583	-0.000676	-1.9e-05	0.001789
91	0.000474	-0.001498	-0.00232	-0.003306	-0.003799	0.001296
92	-0.005114	0.001789	0.001954	-0.004456	-0.002977	0.007213
93	-0.001334	-0.000347	-0.002813	-0.000676	-0.004785	0.001625
94	-0.00347	-0.003963	-0.000512	-0.004128	-0.00347	0.003433
95	-0.001498	0.002447	0.000803	-0.002155	-0.002484	-0.001334
96	0.002118	0.000146	-0.000676	-0.003142	-1.9e-05	0.00294
97	0.001954	0.001789	0.000146	0.000803	-0.001334	0.001296
98	0.000639	-1.9e-05	-0.000183	-0.002155	-0.001334	-0.002977
99	0.002118	0.002447	0.00146	0.001296	-1.9e-05	0.000803
100	0.001789	-0.000183	-0.000183	-0.001498	0.002775	0.001132
101	0.000639	-0.000676	0.000474	-0.002155	-0.002484	-0.000183
102	-1.9e-05	-0.000347	-0.001169	-0.001991	0.00146	0.00031
103	-0.004456	-0.000841	0.000967	-0.000347	-0.002484	0.000639
104	-0.001498	0.001132	-0.010045	-0.000512	-0.000183	0.000474
105	-0.001334	-0.001662	0.000474	-0.001498	-0.001005	0.00031
106	-0.003142	-0.000676	-0.001827	-0.004292	-0.001991	-0.000512
107	0.001296	-0.001005	-0.001827	-0.000841	0.00294	0.001954
108	-1.9e-05	-0.002155	0.000146	0.001625	0.002282	0.001954
109	-0.001662	-0.001827	-0.001662	-0.00232	0.001296	-0.000676
110	0.004255	0.001132	-0.003306	-0.002813	0.000803	-0.003635
111	-0.003799	-0.001827	0.00031	-0.000347	-0.001005	0.002611
112	-0.0061	-1.9e-05	0.001132	0.001296	-0.001169	-0.000183
113	-0.00232	-0.001498	0.00031	-0.001005	0.004583	-1.9e-05
114	-0.001827	0.000639	-0.001827	0.002118	-1.9e-05	0.000639
115	-0.001169	-0.000512	-0.007086	-0.003799	-0.000512	-1.9e-05
116	0.001954	0.007377	-0.000841	0.00031	-0.000841	-0.003306
117	-0.000512	0.007049	-0.002484	-0.001498	0.003268	0.000639
118	0.003433	0.003268	0.001789	0.00146	0.003433	-0.003799
119	-0.000841	0.002611	-0.001334	-0.000183	-0.00232	-0.001005
120	0.001132	-1.9e-05	0.00031	0.004255	-0.001005	0.000146
121	0.00146	-0.000347	0.002282	-0.000512	-0.000841	-0.001334
122	-0.000347	0.000967	0.000474	-0.000676	0.000803	0.003433
123	-0.001991	0.002775	0.001789	0.000146	-0.001991	0.00031
124	-0.003963	-0.000183	0.002611	-0.00232	0.00031	0.000967
125	-0.000183	0.001954	0.00146	0.000474	-0.001662	0.000967
126	-0.003306	-0.000512	-1.9e-05	-0.005114	0.002118	0.000967
127	0.001789	0.000803	0.00146	0.001625	-0.001991	-0.000512
128	-0.003306	-1.9e-05	0.00031	-0.001169	-0.000512	-0.002484
129	0.000967	0.001132	0.002611	0.000639	-0.001827	-0.003799
130	0.001789	-0.000183	-0.001005	-0.000183	-0.001827	-0.000676
131	-1.9e-05	0.000803	0.000803	0.001132	-0.002155	-0.003963
132	0.00146	0.002118	0.001789	-0.000512	-0.003963	-0.001498
133	0.002611	-0.002813	0.001296	-0.000676	-0.000841	-0.001169
134	-1.9e-05	0.003104	-0.001498	-0.001334	-0.000512	-0.000183
135	-1.9e-05	0.000146	0.005405	-0.002484	0.001296	-0.00347
136	0.003268	0.002447	-0.002155	-0.001991	-0.004456	-0.003799
137	0.000639	0.001625	-0.000512	-0.001498	0.001625	0.001625
138	0.001789	0.006062	0.001954	0.003433	-0.002484	-0.000183
139	-0.001498	0.004255	0.003433	-0.001498	-0.001169	0.000474
140	0.002118	0.003761	0.001954	0.001132	-0.001169	0.000803
141	0.004583	0.000803	0.000639	0.004748	0.002282	-0.000347
142	0.002611	0.001132	0.003104	0.001296	-0.000347	0.003433
143	-0.001005	-0.001991	0.000803	-0.000512	0.000474	0.000803
144	0.001789	0.001789	0.00146	0.000639	0.003104	0.00146
145	-0.002977	-0.000841	0.000474	-0.001498	-0.000183	0.005569
146	-0.003306	-0.002484	-0.003306	0.000967	-0.001005	-0.002155
147	-0.000676	-0.000512	0.003104	-1.9e-05	0.000639	0.001132
148	-0.001169	-0.000183	0.000967	-0.002155	0.000639	0.000639
149	0.00031	-0.002484	-1.9e-05	-0.002977	-0.000512	-0.000841
150	-0.001498	0.005405	-0.001005	-0.001498	-0.000676	-0.00232
151	0.000803	-0.001827	-0.000347	-0.000347	-0.001662	-0.001169
152	0.000474	-0.008072	-0.000183	-0.000183	0.000474	-0.002813
153	0.00146	-0.001334	-0.000841	0.000474	-0.001334	-0.002155
154	-0.000512	-0.002484	-1.9e-05	-0.000183	-0.000676	0.00146
155	0.00409	0.000803	-0.003635	0.003761	-0.000841	-0.001169
156	0.001625	0.003433	-0.001662	-0.001498	0.002118	0.002118
157	0.000474	0.000639	0.00409	-0.001005	0.001954	0.00031
158	-0.000512	0.000967	-0.001005	-0.000347	0.004912	0.000474
159	0.000639	0.000803	0.000803	0.000146	0.000803	-0.000841
160	0.002611	-1.9e-05	0.001296	-0.002813	0.000967	-0.001827
161	-0.003799	0.00031	0.004583	0.001625	0.001132	-0.002648
162	0.001132	0.001132	-0.002484	0.003433	0.001296	-0.001991
163	0.001625	-0.001005	0.001132	0.002611	0.002775	-0.002155
164	-0.001334	0.000803	0.001296	0.000639	0.00031	-0.000512
165	0.000803	-0.000183	0.003104	-0.001169	-0.001005	0.00294
166	0.00031	0.000803	0.002282	-0.002977	-0.000676	0.00146
167	-0.002155	-0.001498	0.001132	0.001296	-0.001334	-0.001334
168	-1.9e-05	-0.00347	-0.001662	-0.002977	-0.001498	0.000474
169	-0.00232	-0.002648	0.000967	-0.004128	0.001132	-0.000347
170	0.00146	0.001789	0.002611	-0.004621	-0.000841	-0.001005
171	-0.000512	0.000474	-0.000512	-0.003635	-0.001498	0.002611
172	0.002282	0.003268	-0.000676	-0.001991	-0.002155	-0.001827
173	-0.000183	-0.000512	-0.001498	-1.9e-05	-0.001991	-0.001991
174	0.003926	0.001132	0.001954	-0.001991	-0.000347	-0.004785
175	0.004255	0.00146	-0.001169	-0.001827	0.00409	-1.9e-05
176	0.001132	0.003597	0.000803	0.000474	0.001132	-0.001662
177	0.000803	-0.001169	-0.000512	-0.00347	-0.001662	-0.001005
178	0.00031	-1.9e-05	0.002118	0.008035	0.001625	-0.003306
179	-0.001169	0.000474	0.000803	-0.00232	-0.000512	-0.00232
180	-0.000347	-1.9e-05	0.002118	-0.000183	-0.000347	-0.001334
181	-0.001498	0.002447	-0.000183	-0.002977	0.001625	-0.001827
182	-0.000512	-0.001334	0.002447	-0.000512	-0.002484	0.002611
183	0.003104	-0.000183	-0.001827	0.001625	-0.001827	-0.004949
184	-0.000512	-0.001827	-0.003306	-0.001662	0.000639	-0.000347
185	-0.000512	-0.001169	-0.002155	-0.002155	-0.002648	-0.001827
186	-0.001498	-1.9e-05	0.000474	-0.003306	-0.000347	0.00031
187	0.002282	0.00146	-0.002155	-0.00347	-0.001498	-0.001169
188	-1.9e-05	-0.00232	-0.001334	-0.005114	-0.001498	-0.00232
189	0.000146	-0.001334	0.004583	-0.005607	-0.001498	-0.001005
190	0.001296	-0.006429	0.001954	-0.004949	-0.000347	0.000474
191	-0.001334	0.00146	0.004912	-0.002155	0.004419	-0.000347
192	0.003268	0.001296	0.003104	-0.002484	0.005734	-0.001498
193	-0.002648	-0.000512	0.000474	0.000474	-0.000512	0.008692
194	0.002447	0.000639	-0.001334	0.00146	0.004255	0.000146
195	0.000146	0.000474	0.001625	0.001625	0.000639	0.001789
196	0.001296	-0.001827	0.000803	-0.001334	-0.001991	0.002447
197	-0.000512	0.000639	0.000474	-0.003142	0.001789	0.001132
198	-1.9e-05	-0.001827	-0.000512	0.00146	-0.003142	-0.000512
199	-0.003142	-0.004621	0.000474	-0.000347	0.000146	0.000967
200	-0.000183	-0.002155	0.00146	0.001625	0.002611	-0.002155
201	-0.001991	-0.00347	0.001625	-0.001498	-0.001005	0.001954
202	-0.000347	0.000474	0.001625	-0.005114	-0.002648	0.00294
203	-0.000347	-0.002813	-0.004785	-0.000347	-1.9e-05	-0.000183
204	0.002118	0.000146	0.002447	0.000967	-0.001991	-0.007086
205	0.005076	0.000146	0.00031	-0.000512	-0.001991	-0.005278
206	0.005076	0.003761	-0.000841	0.002775	0.002118	-0.002484
207	0.000967	-0.001991	0.002118	-0.002484	0.00146	-0.003963
208	0.002118	0.003104	0.000803	-0.000841	0.001296	-0.001662
209	-0.001005	0.003433	-0.001005	-0.000183	0.00031	0.001296
210	0.002118	-0.000183	-0.001169	0.000474	0.001789	-0.001991
211	-0.000841	0.00294	-0.003635	0.001625	-0.000183	-0.00347
212	-0.00232	-0.001662	-0.002648	-0.000512	0.001789	0.000146
213	0.000474	0.000803	-0.000512	-0.000676	0.001625	0.00031
214	-0.000183	-0.002484	0.001789	0.00031	-0.007744	-0.000512
215	0.001132	0.000146	0.00146	0.00146	-0.002484	-0.011359
216	0.00146	0.001954	0.002118	-0.001169	-0.001334	-0.001498
217	-0.000183	0.00409	0.002118	-0.001169	-0.001991	-0.001827
218	-0.002813	0.003268	-0.000512	-0.001991	-0.001169	0.00146
219	0.000474	0.002611	0.00146	0.003926	-0.001169	0.000474
220	-0.000841	-0.000676	0.002775	0.000474	-0.001991	0.000474
221	0.005405	-0.000512	-0.000841	-0.001334	-0.001334	-0.001005
222	-0.001334	0.001132	-0.002155	-0.001991	-0.002484	-0.001334
223	0.002282	0.00146	0.003268	0.000639	-0.00232	0.00031
224	0.003104	0.001296	-0.001662	-0.004949	0.000146	-0.001991
225	0.000803	0.000474	0.001789	-0.001498	-0.002977	-0.001827
226	0.001296	0.001625	0.002118	0.001625	-0.000183	-0.00873
227	0.002447	0.000146	0.000967	-1.9e-05	-0.000183	-0.003142
228	0.003926	0.000803	-0.001169	-0.000512	0.000967	-0.003306
229	-0.000183	-0.000347	0.001132	-0.003142	0.000474	-0.001991
230	0.004912	-0.00232	-0.000183	0.000639	-0.003306	0.000474
231	-0.002155	-0.002977	0.002118	0.001625	-0.000841	-0.00347
232	0.005569	0.002447	0.002118	0.001789	-0.002813	-0.001827
233	-0.002977	-0.001498	0.002282	0.000639	0.000639	-0.004292
234	0.000639	-0.000841	0.00672	-0.000183	-0.001169	-0.005278
235	-0.001662	-0.000841	-0.000512	-0.002155	-0.004292	0.002611
236	-0.001498	-0.001498	0.002775	0.001625	-0.004621	-0.001169
237	0.000146	-0.004456	0.001625	-0.004949	-0.001827	-0.000676
238	0.003104	-0.002977	-0.000512	0.002611	-0.001991	-0.001991
239	0.002611	0.001789	0.001789	-0.002484	-0.002155	-0.000676
240	0.00294	0.003268	0.003433	-0.004785	-0.003635	-0.000512
241	-1.9e-05	0.002611	0.00146	-0.003963	0.002611	0.00031
242	-0.004785	-0.000183	0.001132	-0.000347	0.002775	-0.000676
243	-0.000347	0.003926	-0.001169	-0.002648	0.001789	-0.001334
244	-0.002813	0.001954	0.000639	0.000474	0.000967	-1.9e-05
245	0.00031	-0.000841	0.00031	0.00031	0.001625	-0.001991
246	-0.001827	0.00146	-0.000512	-0.001334	-0.001991	0.001296
247	-0.000347	0.001954	0.00031	-0.000841	0.00031	-0.002155
248	-0.000512	0.000474	0.001789	0.001789	-0.000183	-0.001498
249	-0.000676	0.001954	0.000474	0.002118	-0.000347	-0.001334
250	-0.002813	-0.002648	-0.000183	-0.001827	-0.000676	-0.001169
251	0.005076	0.003926	0.00672	0.005076	0.004255	0.004419
252	0.011979	0.010171	0.011651	0.012637	0.011979	0.015595
253	0.019375	0.017732	0.021841	0.02332	0.017403	0.014773
254	0.018389	0.026771	0.0271	0.021512	0.027922	0.023156
255	0.035975	0.035318	0.038112	0.033346	0.033839	0.033181
256	0.044522	0.04255	0.046987	0.037948	0.0437	0.040906
257	0.044686	0.050439	0.048631	0.045179	0.049453	0.047316
258	0.053233	0.05652	0.05537	0.05274	0.051261	0.053726
259	0.05652	0.061286	0.06293	0.059643	0.059314	0.061286
260	0.066381	0.069176	0.063587	0.065231	0.064245	0.062437
261	0.067368	0.072463	0.069011	0.069997	0.070655	0.070983
262	0.078708	0.077558	0.078215	0.07575	0.076572	0.072627
263	0.079037	0.081338	0.080681	0.083146	0.080352	0.079366
264	0.08594	0.086269	0.087584	0.088734	0.079859	0.084461
265	0.081995	0.090213	0.093829	0.088077	0.09613	0.090871
266	0.094322	0.0935	0.098431	0.096623	0.096952	0.094322
267	0.097938	0.097774	0.100075	0.096294	0.100896	0.100239
268	0.103197	0.103691	0.106813	0.104841	0.105663	0.101718
269	0.106485	0.112401	0.109114	0.107799	0.10895	0.108786
270	0.111908	0.111415	0.116182	0.111251	0.10895	0.111251
271	0.117332	0.116182	0.114867	0.116182	0.112401	0.113223
272	0.11536	0.118976	0.119633	0.11651	0.11914	0.118483
273	0.119633	0.122427	0.121934	0.117496	0.117496	0.120291
274	0.126207	0.125879	0.127522	0.126043	0.124564	0.124235
275	0.129495	0.129823	0.130645	0.129166	0.123906	0.125714
276	0.125879	0.130809	0.130645	0.129495	0.132617	0.130316
277	0.136726	0.13574	0.133439	0.139192	0.134754	0.131138
278	0.137712	0.136891	0.133439	0.136891	0.134097	0.134261
279	0.137055	0.143136	0.140835	0.140013	0.137548	0.135411
280	0.143301	0.14215	0.141164	0.141	0.144451	0.141164
281	0.147903	0.145437	0.147903	0.146916	0.143136	0.140013
282	0.148724	0.148231	0.14478	0.14478	0.148396	0.145602
283	0.147738	0.148724	0.152669	0.149053	0.148724	0.146752
284	0.151354	0.149382	0.150368	0.150368	0.147738	0.146916
285	0.149382	0.150697	0.154477	0.155134	0.151354	0.149217
286	0.155463	0.15234	0.15612	0.155627	0.15234	0.151354
287	0.155792	0.15875	0.158257	0.15497	0.155627	0.1576
288	0.157435	0.159572	0.158914	0.159901	0.156942	0.15612
289	0.158093	0.161873	0.16138	0.157764	0.15875	0.161215
290	0.163188	0.165324	0.165653	0.160558	0.164174	0.162037
291	0.162859	0.161709	0.166475	0.166311	0.162366	0.164667
292	0.164174	0.164831	0.165489	0.16138	0.164667	0.163352
293	0.166146	0.165982	0.166146	0.161051	0.167132	0.166146
294	0.166146	0.170913	0.166475	0.169433	0.16779	0.165653
295	0.169105	0.166968	0.167297	0.166639	0.170419	0.168776
296	0.001296	0.172227	0.171406	0.171899	0.168118	0.167625
297	0.000639	0.169105	0.170091	0.170255	0.171406	0.172556
298	0.014938	0.175021	0.17272	0.17157	0.173707	0.169762
299	0.022827	0.176008	0.175515	0.166639	0.176008	0.171734
300	0.029237	0.175679	0.177651	0.175186	0.178144	0.175021
301	0.037126	0.176336	0.177322	0.175515	0.176501	0.175679
302	0.046001	0.177651	0.178144	0.176994	0.177815	0.175186
303	0.051918	0.175515	0.179952	0.17798	0.176829	0.180445
304	0.057835	0.174035	0.180281	0.17798	0.164338	0.186526
305	0.064574	0.18061	0.18176	0.178802	0.16516	0.181267
306	0.065231	0.176829	0.187513	0.18061	0.170748	0.176829
307	0.077558	0.183075	0.183732	0.182746	0.171734	0.180281
308	0.074435	0.181103	0.182089	0.181103	0.165817	0.181924
309	0.083639	0.183732	0.182746	0.184554	0.170419	0.18061
310	0.090049	0.182582	0.17798	0.168118	0.171899	0.182089
311	0.092843	0.187841	0.181267	0.183568	0.171241	0.183075
312	0.096459	0.184718	0.186198	0.184225	0.172063	0.185047
313	0.105498	0.187677	0.182089	0.183897	0.174857	0.181924
314	0.108128	0.187677	0.182253	0.182253	0.178966	0.18554
315	0.112401	0.190142	0.186691	0.190471	0.180116	0.186362
316	0.112237	0.191621	0.186526	0.189485	0.178144	0.183075
317	0.114209	0.188663	0.187019	0.188827	0.181267	0.188006
318	0.118483	0.186526	0.184061	0.189978	0.18176	0.186033
319	0.122756	0.184718	0.191457	0.190964	0.17913	0.188663
320	0.128344	0.192443	0.188334	0.187677	0.181267	0.18817
321	0.130152	0.186198	0.193594	0.18554	0.18554	0.188499
322	0.133932	0.194251	0.1908	0.19195	0.180938	0.190142
323	0.134425	0.188334	0.191621	0.190307	0.184883	0.192279
324	0.140013	0.192936	0.192115	0.191293	0.185212	0.188663
325	0.141657	0.190142	0.191293	0.188334	0.183732	0.191621
326	0.143301	0.189814	0.19195	0.191786	0.185212	0.192115
327	0.14478	0.19836	0.190964	0.191786	0.183239	0.192443
328	0.149546	0.189978	0.192115	0.189814	0.185376	0.188499
329	0.148724	0.191786	0.191457	0.191457	0.187184	0.191621
330	0.150204	0.193265	0.194416	0.193429	0.18554	0.191457
331	0.158421	0.192443	0.189156	0.191786	0.189485	0.189978
332	0.155956	0.193594	0.193429	0.192279	0.190964	0.190307
333	0.159572	0.193429	0.195566	0.192608	0.196552	0.192772
334	0.158914	0.191457	0.190471	0.197045	0.191128	0.197045
335	0.164503	0.188006	0.194087	0.190964	0.190964	0.198853
336	0.162695	0.18554	0.197045	0.19195	0.194416	0.195237
337	0.164996	0.185376	0.19458	0.194744	0.187184	0.199018
338	0.164503	0.187184	0.197538	0.196388	0.191457	0.19195
339	0.169762	0.180774	0.19573	0.194744	0.188992	0.19573
340	0.166639	0.181431	0.196717	0.194744	0.193594	0.197045
341	0.169598	0.187019	0.197045	0.196388	0.190635	0.194416
342	0.172556	0.184718	0.195895	0.195895	0.196881	0.19573
343	0.171734	0.185212	0.196388	0.196552	0.189978	0.194087
344	0.171406	0.184554	0.193429	0.193101	0.192936	0.200332
345	0.173871	0.187019	0.183404	0.198196	0.191786	0.196223
346	0.175186	0.187841	0.159901	0.193594	0.193758	0.196717
347	0.180281	0.189485	0.09235	0.195402	0.191293	0.196717
348	0.180116	0.187348	0.060958	0.194251	0.192279	0.197703
349	0.177815	0.192772	0.043043	0.197867	0.198524	0.19458
350	0.183568	0.187184	0.025457	0.196223	0.193265	0.195895
351	0.180116	0.189156	0.021019	0.19836	0.195073	0.19573
352	0.183075	0.187513	0.018061	0.200332	0.19573	0.197374
353	0.181596	0.185212	0.01954	0.197703	0.199018	0.19836
354	0.185047	0.192936	0.022169	0.19721	0.196881	0.193922
355	0.183897	0.189814	0.019868	0.200497	0.196552	0.196881
356	0.184225	0.190635	0.018389	0.19721	0.199346	0.195237
357	0.183732	0.191786	0.018389	0.197045	0.198853	0.198689
358	0.186855	0.193758	0.011651	0.200661	0.194087	0.195402
359	0.185047	0.191786	0.00787	0.197045	0.194909	0.203455
360	0.185705	0.192608	0.016088	0.200168	0.193265	0.20099
361	0.183897	0.192608	0.014116	0.198524	0.196552	0.196059
362	0.187184	0.193101	0.016088	0.198689	0.196223	0.197867
363	0.188006	0.195073	0.015266	0.201483	0.19721	0.196552
364	0.186526	0.192279	0.014116	0.202305	0.19836	0.19721
365	0.190635	0.193429	0.020197	0.199511	0.196881	0.197867
366	0.187513	0.195237	0.022663	0.196059	0.19573	0.197703
367	0.192443	0.194087	0.023649	0.199018	0.195237	0.196717
368	0.192772	0.197045	0.028744	0.195895	0.19721	0.198196
369	0.193758	0.198524	0.031373	0.200168	0.19721	0.198031
370	0.191293	0.194416	0.030059	0.199018	0.197538	0.198853
371	0.191457	0.190964	0.03351	0.200497	0.197538	0.19836
372	0.193429	0.193758	0.039591	0.197374	0.20099	0.197538
373	0.192443	0.195895	0.044193	0.204441	0.197045	0.197538
374	0.192115	0.19573	0.052411	0.200332	0.202305	0.19836
375	0.192936	0.195402	0.054876	0.200497	0.20099	0.198196
376	0.192936	0.192279	0.063094	0.20099	0.196388	0.199346
377	0.19195	0.197045	0.070819	0.201319	0.199018	0.199839
378	0.194087	0.193101	0.07312	0.200004	0.19721	0.199675
379	0.192772	0.198031	0.080845	0.197867	0.199346	0.200004
380	0.19573	0.198853	0.085611	0.199018	0.195895	0.199346
381	0.193429	0.196717	0.090706	0.199511	0.198031	0.198031
382	0.196717	0.187513	0.092514	0.198031	0.193101	0.194087
383	0.196717	0.192772	0.097609	0.199675	0.195566	0.194251
384	0.198031	0.20099	0.100732	0.201812	0.200004	0.195895
385	0.19721	0.196059	0.104019	0.196552	0.201812	0.194087
386	0.194251	0.195237	0.109772	0.199839	0.201154	0.196552
387	0.197538	0.196552	0.116675	0.199018	0.20099	0.200004
388	0.199839	0.197867	0.11914	0.201483	0.200004	0.199839
389	0.197703	0.195895	0.119797	0.197374	0.197867	0.199511
390	0.196552	0.197538	0.121112	0.201483	0.198689	0.199346
391	0.193594	0.199839	0.129001	0.197867	0.200825	0.201483
392	0.19573	0.19721	0.131467	0.201647	0.201976	0.197867
393	0.19721	0.187841	0.13196	0.202469	0.199018	0.199839
394	0.191457	0.19458	0.13837	0.209208	0.200168	0.199675
395	0.20214	0.19836	0.136891	0.203455	0.199511	0.197045
396	0.198853	0.197374	0.140671	0.202305	0.201319	0.201319
397	0.194251	0.199346	0.143958	0.200661	0.203126	0.199675
398	0.201483	0.196552	0.146752	0.201647	0.201647	0.199182
399	0.19721	0.198853	0.147903	0.201647	0.199675	0.198853
400	0.197538	0.197703	0.149875	0.196059	0.200661	0.201154
401	0.199675	0.198689	0.150532	0.200825	0.199182	0.201319
402	0.19836	0.198524	0.154148	0.199182	0.200168	0.201647
403	0.200497	0.198689	0.155956	0.19836	0.200004	0.191786
404	0.198031	0.196388	0.156449	0.200825	0.201976	0.196881
405	0.200825	0.199346	0.162859	0.200825	0.195073	0.199346
406	0.199839	0.196881	0.160722	0.199675	0.205592	0.201483
407	0.197867	0.198853	0.162202	0.204934	0.205427	0.200332
408	0.197703	0.197374	0.163023	0.198689	0.20362	0.199346
409	0.199182	0.200168	0.167297	0.205099	0.200661	0.201483
410	0.195402	0.198689	0.166146	0.199839	0.20099	0.201812
411	0.195895	0.19836	0.170091	0.199346	0.200825	0.200004
412	0.197867	0.200661	0.168118	0.200661	0.200004	0.20214
413	0.195073	0.199675	0.173049	0.200332	0.201483	0.200497
414	0.199675	0.20214	0.170255	0.196552	0.199346	0.197867
415	0.199675	0.198524	0.175679	0.20099	0.201483	0.199675
416	0.201483	0.198689	0.175515	0.201647	0.197045	0.197703
417	0.199346	0.200004	0.176501	0.20099	0.20362	0.199018
418	0.195566	0.200825	0.176172	0.201812	0.201976	0.198689
419	0.201976	0.203291	0.176172	0.202305	0.20362	0.199018
420	0.207235	0.202798	0.179952	0.202633	0.201647	0.198196
421	0.199182	0.200168	0.177815	0.200497	0.200497	0.201154
422	0.201154	0.202469	0.181267	0.199675	0.201319	0.198196
423	0.196881	0.200497	0.179295	0.198196	0.203455	0.19836
424	0.197703	0.200825	0.18176	0.205263	0.200661	0.198524
425	0.199675	0.199511	0.181431	0.200168	0.199346	0.20099
426	0.198689	0.199182	0.184883	0.203948	0.201812	0.200497
427	0.199675	0.200497	0.183075	0.199182	0.200661	0.197045
428	0.198196	0.199182	0.186691	0.202633	0.201976	0.198031
429	0.199346	0.199511	0.186198	0.201647	0.205099	0.198196
430	0.198031	0.19836	0.185376	0.200497	0.203784	0.198196
431	0.201976	0.201483	0.191457	0.201812	0.199346	0.197045
432	0.197867	0.20099	0.191457	0.199675	0.198853	0.206249
433	0.199018	0.19836	0.186198	0.197538	0.200497	0.198853
434	0.198524	0.200825	0.18932	0.200825	0.20214	0.199346
435	0.200497	0.199182	0.190142	0.20099	0.195237	0.198689
436	0.199018	0.197045	0.185705	0.197538	0.199839	0.198524
437	0.200332	0.200825	0.191457	0.200661	0.199675	0.198031
438	0.201647	0.19836	0.186691	0.198524	0.200004	0.199182
439	0.200168	0.198689	0.190635	0.20099	0.200332	0.198031
440	0.20099	0.199839	0.189485	0.198853	0.204606	0.198689
441	0.198524	0.195895	0.190964	0.202798	0.203126	0.199839
442	0.197374	0.201319	0.190964	0.203455	0.203291	0.200332
443	0.196223	0.196223	0.19458	0.20099	0.204441	0.201976
444	0.199511	0.199182	0.193429	0.198853	0.202633	0.201154
445	0.196717	0.200825	0.194744	0.201976	0.203126	0.20099
446	0.196223	0.200825	0.191621	0.20214	0.199346	0.200825
447	0.194744	0.199182	0.193922	0.199346	0.201647	0.200004
448	0.198524	0.202962	0.193758	0.200497	0.199675	0.199018
449	0.194087	0.197703	0.193594	0.200004	0.201483	0.200661
450	0.199182	0.196552	0.194909	0.201647	0.201647	0.197867
451	0.199018	0.197374	0.194744	0.201812	0.203126	0.203291
452	0.198524	0.201812	0.194416	0.201483	0.199675	0.200004
453	0.201154	0.198853	0.194416	0.199346	0.200004	0.196388
454	0.198853	0.198524	0.193429	0.200497	0.203455	0.200332
455	0.197703	0.201812	0.197374	0.200332	0.201319	0.200332
456	0.201154	0.205099	0.196388	0.200168	0.205756	0.198524
457	0.200332	0.200825	0.197703	0.198853	0.202305	0.195237
458	0.198524	0.201154	0.196388	0.200661	0.202305	0.199018
459	0.197703	0.203291	0.193922	0.200004	0.202633	0.197374
460	0.198853	0.202469	0.196223	0.200825	0.203126	0.199018
461	0.199675	0.200004	0.197045	0.200168	0.203291	0.197703
462	0.198196	0.19836	0.196881	0.198853	0.199675	0.199346
463	0.198031	0.201154	0.197703	0.202469	0.197374	0.200497
464	0.196552	0.200497	0.202469	0.198196	0.206742	0.20099
465	0.198853	0.201647	0.203455	0.200332	0.200825	0.200168
466	0.195073	0.199839	0.198031	0.195402	0.202633	0.203784
467	0.197867	0.203126	0.200332	0.200661	0.208222	0.199182
468	0.19721	0.198689	0.19836	0.198524	0.203784	0.204441
469	0.197703	0.198689	0.197045	0.198853	0.200004	0.197703
470	0.197045	0.204441	0.200825	0.199018	0.200661	0.198689
471	0.199511	0.203126	0.197867	0.200497	0.201154	0.199182
472	0.199182	0.20099	0.196059	0.199511	0.199018	0.195237
473	0.197867	0.201812	0.199839	0.201154	0.201319	0.199839
474	0.204113	0.202633	0.197374	0.200332	0.199839	0.194744
475	0.196717	0.199839	0.200332	0.197703	0.201319	0.149217
476	0.199839	0.201976	0.199182	0.202305	0.200661	0.146423
477	0.200661	0.20099	0.198853	0.201483	0.204934	0.12555
478	0.200661	0.204934	0.199675	0.201154	0.206742	0.092021
479	0.199182	0.204934	0.19836	0.198524	0.204606	0.05652
480	0.200004	0.201483	0.195566	0.201812	0.200004	0.033181
481	0.197538	0.199675	0.199182	0.20099	0.205756	0.02069
482	0.20099	0.204113	0.201812	0.20099	0.200332	0.019868
483	0.19836	0.200004	0.19573	0.20099	0.200332	0.018718
484	0.199839	0.198853	0.201647	0.201812	0.203126	0.016746
485	0.200004	0.199675	0.199018	0.20099	0.196388	0.01691
486	0.198196	0.201154	0.201483	0.200497	0.199182	0.008035
487	0.200004	0.20099	0.200825	0.19836	0.200497	0.015266
488	0.200168	0.199511	0.200825	0.199675	0.199511	0.013952
489	0.200825	0.207564	0.197045	0.200332	0.197374	0.016417
490	0.199182	0.201647	0.204606	0.195402	0.199675	0.015595
491	0.200661	0.202633	0.197538	0.196388	0.200168	0.017896
492	0.197703	0.206414	0.199182	0.198853	0.201976	0.01954
493	0.201319	0.207071	0.199511	0.202305	0.202633	0.022827
494	0.200168	0.199511	0.199018	0.20214	0.204113	0.027922
495	0.20362	0.204277	0.200004	0.200004	0.200168	0.028908
496	0.201483	0.20099	0.202305	0.198689	0.202305	0.034168
497	0.201647	0.200825	0.202798	0.201483	0.202633	0.034661
498	0.201483	0.198031	0.199346	0.201154	0.202305	0.040413
499	0.200168	0.203126	0.200825	0.20214	0.203291	0.0437
500	0.199346	0.197374	0.200168	0.200004	0.194416	0.046659
501	0.200004	0.197867	0.206578	0.201976	0.197374	0.048631
502	0.200825	0.20099	0.19458	0.200661	0.19836	0.054383
503	0.197045	0.198689	0.201647	0.200332	0.200332	0.05537
504	0.19721	0.201483	0.199182	0.198853	0.200497	0.053069
505	0.20099	0.197374	0.20099	0.201812	0.200168	0.052247
506	0.203126	0.201976	0.20362	0.20099	0.199675	0.046987
507	0.196881	0.201812	0.202469	0.199675	0.203291	0.042057
508	0.199182	0.202633	0.201647	0.20099	0.201483	0.047152
509	0.199018	0.200825	0.19836	0.199675	0.203948	0.053233
510	0.198689	0.202798	0.198689	0.20362	0.204277	0.055205
511	0.197045	0.202633	0.199675	0.199346	0.196223	0.061615
512	0.201812	0.200661	0.2074	0.204277	0.200168	0.066875
513	0.202305	0.198689	0.196717	0.204441	0.201812	0.07049
514	0.199839	0.200825	0.199839	0.203455	0.204606	0.075257
515	0.197867	0.199839	0.198031	0.198031	0.201812	0.085283
516	0.198196	0.199839	0.199182	0.207071	0.202962	0.086269
517	0.202633	0.201647	0.199182	0.203948	0.201319	0.095966
518	0.198031	0.197045	0.20362	0.205263	0.202469	0.096788
519	0.199182	0.197374	0.201976	0.202798	0.200004	0.098267
520	0.202469	0.198689	0.201483	0.201647	0.196223	0.110265
521	0.200168	0.201154	0.200497	0.200825	0.200168	0.109114
522	0.200825	0.200168	0.200497	0.200332	0.199511	0.113552
523	0.201483	0.20099	0.20099	0.196388	0.196552	0.116346
524	0.196881	0.201319	0.200004	0.197867	0.20362	0.120455
525	0.202305	0.202798	0.200168	0.202798	0.20099	0.121934
526	0.200497	0.200332	0.198689	0.197867	0.199839	0.125386
527	0.202305	0.20214	0.200004	0.202798	0.203126	0.1267
528	0.200004	0.202469	0.202633	0.198524	0.201976	0.130152
529	0.204606	0.201154	0.204606	0.200661	0.201647	0.131138
530	0.201647	0.202633	0.199182	0.199346	0.203784	0.134754
531	0.201647	0.200661	0.202633	0.205099	0.20477	0.138534
532	0.198524	0.20099	0.200497	0.199675	0.204113	0.138041
533	0.199675	0.199346	0.202962	0.202962	0.202305	0.143465
534	0.200004	0.199511	0.19836	0.197703	0.201647	0.144944
535	0.198524	0.200332	0.20099	0.200497	0.199346	0.150368
536	0.198524	0.20362	0.20099	0.20214	0.198524	0.148067
537	0.199018	0.202633	0.202798	0.196717	0.199511	0.150532
538	0.201812	0.203455	0.201154	0.202469	0.197703	0.148889
539	0.200825	0.200332	0.201319	0.201319	0.200168	0.145437
540	0.200004	0.199839	0.20477	0.202469	0.198031	0.140835
541	0.199182	0.201154	0.201154	0.200825	0.205263	0.139192
542	0.199675	0.200004	0.199511	0.201647	0.200661	0.140506
543	0.199182	0.196552	0.200332	0.199511	0.201812	0.139685
544	0.199839	0.200497	0.202633	0.203126	0.201647	0.137877
545	0.200168	0.203126	0.198853	0.206742	0.200497	0.137877
546	0.20099	0.201647	0.202305	0.200825	0.201976	0.136726
547	0.200332	0.202469	0.196388	0.202469	0.20099	0.139192
548	0.199018	0.200168	0.201647	0.202305	0.204277	0.140013
549	0.205263	0.201154	0.198853	0.203126	0.203291	0.14478
550	0.20214	0.19836	0.201812	0.202305	0.199675	0.141986
551	0.200332	0.197867	0.201483	0.202798	0.199839	0.145766
552	0.199346	0.197045	0.200661	0.202962	0.203291	0.149382
553	0.199511	0.200004	0.200661	0.201647	0.200004	0.149217
554	0.199182	0.198689	0.200661	0.200661	0.202962	0.148231
555	0.201319	0.200168	0.203948	0.202305	0.199839	0.149875
556	0.197867	0.201319	0.208057	0.201154	0.193101	0.152669
557	0.198524	0.201812	0.199346	0.201319	0.201976	0.151354
558	0.197867	0.200004	0.199018	0.20099	0.203784	0.153326
559	0.199018	0.203126	0.199675	0.201319	0.19836	0.14856
560	0.200825	0.201154	0.198689	0.199018	0.200497	0.152176
561	0.200497	0.203291	0.19721	0.205099	0.200332	0.14971
562	0.198524	0.205263	0.198524	0.202469	0.201483	0.153491
563	0.202305	0.201647	0.200004	0.200661	0.201976	0.152669
564	0.204277	0.202633	0.20099	0.202305	0.201976	0.15497
565	0.196717	0.201976	0.198031	0.202633	0.20099	0.155627
566	0.209043	0.197374	0.197867	0.201319	0.201319	0.15612
567	0.199839	0.199346	0.203126	0.203126	0.201976	0.1576
568	0.200497	0.20099	0.200168	0.200168	0.19836	0.160065
569	0.201812	0.198524	0.204934	0.200497	0.196552	0.159408
570	0.202469	0.199018	0.201319	0.200497	0.198031	0.160558
571	0.199675	0.195895	0.202798	0.20099	0.19836	0.163516
572	0.200497	0.201154	0.201647	0.201976	0.199346	0.159901
573	0.197867	0.19721	0.201154	0.201319	0.201976	0.166804
574	0.199675	0.200332	0.201154	0.202798	0.199675	0.159243
575	0.200825	0.200497	0.201154	0.202305	0.199675	0.167954
576	0.19836	0.197538	0.201812	0.200168	0.200661	0.161544
577	0.200661	0.20099	0.199839	0.198196	0.199675	0.165489
578	0.202798	0.203126	0.203126	0.201976	0.200332	0.16253
579	0.199839	0.201647	0.201319	0.19836	0.200168	0.164831
580	0.199182	0.204441	0.203291	0.200497	0.198524	0.163681
581	0.204934	0.201647	0.201483	0.199182	0.199182	0.166475
582	0.200497	0.199511	0.198031	0.200825	0.198524	0.167132
583	0.201647	0.200332	0.201483	0.202962	0.199839	0.164831
584	0.199346	0.199182	0.201647	0.199018	0.199839	0.169105
585	0.20362	0.203455	0.200168	0.200497	0.197045	0.172392
586	0.199511	0.201319	0.203948	0.202798	0.200497	0.177158
587	0.200332	0.199182	0.202305	0.201319	0.198689	0.171406
588	0.196717	0.199675	0.200497	0.199511	0.199182	0.175515
589	0.202633	0.20214	0.207564	0.200661	0.202962	0.173049
590	0.199346	0.19721	0.20214	0.19836	0.199346	0.176829
591	0.19836	0.199346	0.20362	0.203455	0.194909	0.172392
592	0.201647	0.20099	0.199839	0.196717	0.19721	0.174528
593	0.201319	0.197374	0.201976	0.20477	0.197374	0.175515
594	0.201319	0.202633	0.200004	0.201483	0.199675	0.174693
595	0.198689	0.203126	0.201319	0.201319	0.200497	0.177158
596	0.200332	0.202305	0.196388	0.203126	0.199511	0.177322
597	0.199182	0.201319	0.201812	0.20214	0.200825	0.180281
598	0.198853	0.199346	0.199839	0.200497	0.200332	0.178144
599	0.192279	0.196388	0.201812	0.202962	0.200825	0.180116
600	0.200497	0.201319	0.206414	0.202633	0.200332	0.180281
601	0.200332	0.197045	0.201647	0.202305	0.201647	0.185212
602	0.200168	0.199018	0.201319	0.200168	0.200168	0.18176
603	0.202469	0.19836	0.202305	0.203948	0.200825	0.182089
604	0.200497	0.199182	0.204606	0.205099	0.201647	0.183897
605	0.199346	0.196223	0.20099	0.202633	0.202305	0.185869
606	0.201319	0.199839	0.212002	0.203948	0.199839	0.183239
607	0.199182	0.199346	0.193429	0.201319	0.198689	0.188992
608	0.197867	0.199182	0.202962	0.203126	0.200497	0.185376
609	0.200168	0.201483	0.201154	0.200168	0.200825	0.183897
610	0.197703	0.197045	0.201154	0.201483	0.198853	0.186855
611	0.197374	0.200497	0.206249	0.199346	0.203948	0.186691
612	0.198689	0.197538	0.198524	0.196552	0.200004	0.192279
613	0.198689	0.201976	0.200004	0.198689	0.195073	0.187677
614	0.201812	0.201319	0.202633	0.201154	0.201812	0.188006
615	0.200332	0.201319	0.199675	0.202633	0.196552	0.186033
616	0.195402	0.198524	0.203291	0.201319	0.199346	0.189485
617	0.201647	0.202305	0.204606	0.201319	0.199018	0.189649
618	0.201319	0.200004	0.199346	0.204113	0.199346	0.192936
619	0.196388	0.200661	0.206249	0.20362	0.195402	0.193101
620	0.197045	0.196552	0.202469	0.201483	0.201319	0.193429
621	0.201812	0.20099	0.202962	0.203126	0.20099	0.195566
622	0.195895	0.196223	0.201647	0.198689	0.20214	0.19195
623	0.200004	0.200661	0.199346	0.202633	0.197374	0.193594
624	0.201976	0.199018	0.201976	0.20099	0.198196	0.191293
625	0.200825	0.197867	0.202962	0.204277	0.199182	0.196059
626	0.200661	0.199018	0.202633	0.203291	0.198196	0.196059
627	0.199839	0.198524	0.200497	0.20099	0.197703	0.195237
628	0.202469	0.201319	0.203126	0.200497	0.19721	0.196881
629	0.200332	0.200332	0.200168	0.203126	0.196223	0.190635
630	0.199839	0.199346	0.199346	0.202469	0.195237	0.189485
631	0.200168	0.196717	0.202633	0.198524	0.19836	0.193758
632	0.202305	0.202798	0.200661	0.199839	0.196388	0.1908
633	0.199511	0.198524	0.191128	0.199346	0.19721	0.192936
634	0.198524	0.204606	0.199018	0.203784	0.197045	0.185705
635	0.204113	0.202798	0.200004	0.195895	0.197045	0.19721
636	0.202962	0.202305	0.202798	0.203455	0.194416	0.197374
637	0.202633	0.199346	0.199839	0.202469	0.200168	0.197867
638	0.200497	0.199346	0.20477	0.204113	0.195895	0.196881
639	0.201976	0.199182	0.205427	0.200661	0.197703	0.19836
640	0.201647	0.199511	0.203291	0.198031	0.196717	0.198196
641	0.194744	0.198689	0.202305	0.200004	0.194909	0.197703
642	0.200497	0.197867	0.204277	0.201483	0.198031	0.200661
643	0.198524	0.201976	0.20099	0.200497	0.196717	0.193594
644	0.199839	0.202305	0.195073	0.198524	0.195566	0.198689
645	0.204277	0.202469	0.199346	0.197374	0.193758	0.188334
646	0.200497	0.199511	0.198689	0.19836	0.195566	0.195895
647	0.20214	0.201976	0.199511	0.202962	0.193265	0.196223
648	0.199675	0.198853	0.20099	0.202962	0.193758	0.19721
649	0.199182	0.199182	0.200497	0.199839	0.193429	0.198524
650	0.198524	0.199018	0.198853	0.200168	0.194087	0.199346
651	0.200332	0.200168	0.200661	0.201319	0.194909	0.196881
652	0.198689	0.196717	0.200661	0.200497	0.196388	0.199511
653	0.199511	0.196552	0.202305	0.199675	0.195895	0.194087
654	0.202633	0.201483	0.201483	0.198524	0.197703	0.196059
655	0.199018	0.20214	0.201154	0.200661	0.194087	0.198031
656	0.201483	0.202305	0.202633	0.199675	0.19458	0.194744
657	0.201647	0.199346	0.204441	0.198196	0.194909	0.199182
658	0.202962	0.199839	0.200497	0.20477	0.189978	0.196388
659	0.197045	0.200168	0.203784	0.203948	0.19573	0.200168
660	0.199675	0.200661	0.205756	0.201812	0.194909	0.204277
661	0.198031	0.195402	0.203126	0.198031	0.198196	0.200825
662	0.200168	0.199182	0.198031	0.198031	0.195073	0.200825
663	0.194251	0.196881	0.200825	0.201976	0.196223	0.198853
664	0.197045	0.19836	0.205592	0.200332	0.193594	0.19836
665	0.197374	0.202798	0.205099	0.19836	0.195402	0.199346
666	0.196223	0.200661	0.199839	0.201976	0.195237	0.200825
667	0.199839	0.200497	0.202469	0.201483	0.193429	0.199839
668	0.203291	0.201319	0.201647	0.203455	0.192608	0.196552
669	0.199018	0.203126	0.200497	0.200168	0.198196	0.199346
670	0.203784	0.19836	0.203948	0.200661	0.197374	0.196223
671	0.206414	0.201647	0.199182	0.200825	0.19721	0.198196
672	0.200004	0.199182	0.201812	0.199675	0.198196	0.19721
673	0.202305	0.200332	0.200825	0.199675	0.197867	0.199839
674	0.200004	0.198689	0.201812	0.204934	0.19836	0.199018
675	0.201319	0.198196	0.202469	0.197538	0.194087	0.200168
676	0.200168	0.200497	0.204277	0.200168	0.19836	0.199675
677	0.200825	0.200332	0.197867	0.20099	0.198689	0.197538
678	0.201812	0.200004	0.200168	0.199675	0.199346	0.202798
679	0.19836	0.200497	0.200168	0.20099	0.195237	0.195073
680	0.198524	0.203126	0.201319	0.197538	0.195566	0.201812
681	0.200332	0.197045	0.201647	0.200332	0.196059	0.196552
682	0.200825	0.20099	0.200497	0.200825	0.195895	0.200825
683	0.201647	0.200332	0.200825	0.202305	0.194744	0.200661
684	0.199018	0.200332	0.200332	0.197703	0.197045	0.201319
685	0.201812	0.205592	0.202633	0.201483	0.196717	0.198524
686	0.201483	0.20214	0.200661	0.194251	0.195073	0.199018
687	0.200825	0.203291	0.201647	0.19721	0.197867	0.201154
688	0.201154	0.20362	0.202305	0.199182	0.197045	0.199511
689	0.200497	0.200497	0.201154	0.201154	0.193758	0.200332
690	0.203291	0.202469	0.199839	0.197703	0.192115	0.198853
691	0.19836	0.199346	0.201483	0.201812	0.200332	0.200332
692	0.200004	0.200168	0.199346	0.20099	0.19458	0.200825
693	0.197045	0.198853	0.197538	0.201647	0.197045	0.200661
694	0.200332	0.199182	0.200332	0.202798	0.197538	0.200004
695	0.201319	0.196717	0.200004	0.199675	0.198031	0.20099
696	0.19573	0.198524	0.200825	0.201154	0.197703	0.198853
697	0.197045	0.201154	0.20099	0.193594	0.199511	0.201154
698	0.201647	0.201154	0.20099	0.200332	0.196223	0.201976
699	0.201976	0.199346	0.200004	0.197703	0.198689	0.199182
700	0.199182	0.198689	0.20214	0.198689	0.189156	0.19836
701	0.201154	0.199675	0.201976	0.197703	0.191293	0.196223
702	0.199018	0.199839	0.20099	0.147409	0.194251	0.193758
703	0.201976	0.199018	0.198853	0.147574	0.190964	0.192443
704	0.200661	0.200497	0.201812	0.152505	0.197045	0.1908
705	0.206578	0.201154	0.196552	0.149875	0.192115	0.191786
706	0.199675	0.199511	0.198689	0.156285	0.195402	0.193101
707	0.199675	0.201483	0.20214	0.163516	0.192772	0.191457
708	0.199346	0.202469	0.201812	0.158421	0.195237	0.194744
709	0.201154	0.205592	0.198524	0.161544	0.190635	0.194909
710	0.199839	0.202962	0.198689	0.163023	0.197374	0.19836
711	0.198031	0.202962	0.202798	0.163516	0.191621	0.18932
712	0.20099	0.200661	0.200168	0.165653	0.192279	0.195895
713	0.198689	0.200825	0.200661	0.165982	0.192608	0.190964
714	0.19721	0.198689	0.201647	0.167625	0.194909	0.193265
715	0.198524	0.200661	0.201647	0.16894	0.193265	0.192772
716	0.200497	0.200168	0.201154	0.172063	0.193922	0.195237
717	0.201319	0.200332	0.205592	0.1742	0.196223	0.195073
718	0.198031	0.200004	0.198524	0.171899	0.195895	0.193594
719	0.201976	0.203455	0.19721	0.170255	0.195566	0.196881
720	0.20362	0.204277	0.197867	0.16894	0.19836	0.192608
721	0.198524	0.200004	0.20099	0.174364	0.200661	0.19458
722	0.199346	0.204441	0.201647	0.174857	0.19721	0.19573
723	0.199182	0.197867	0.20099	0.177322	0.192772	0.198031
724	0.201154	0.202962	0.20099	0.181596	0.196881	0.194416
725	0.201319	0.200497	0.20214	0.176008	0.197867	0.197045
726	0.202962	0.200168	0.199675	0.183897	0.197867	0.19458
727	0.201319	0.19836	0.200825	0.182253	0.201319	0.197374
728	0.201976	0.201483	0.201812	0.184554	0.198196	0.197703
729	0.198031	0.199675	0.200332	0.173707	0.200168	0.198853
730	0.199182	0.204441	0.203948	0.185705	0.197703	0.193758
731	0.20214	0.20362	0.201647	0.184718	0.198853	0.194416
732	0.200497	0.199182	0.202962	0.185212	0.196552	0.192772
733	0.20099	0.199511	0.200168	0.18439	0.196059	0.195073
734	0.199511	0.199018	0.204113	0.184883	0.197867	0.192772
735	0.197867	0.204113	0.199675	0.184225	0.196717	0.195402
736	0.201812	0.201812	0.201812	0.182417	0.19721	0.193594
737	0.203126	0.201319	0.199675	0.183897	0.194087	0.19458
738	0.200825	0.19836	0.200497	0.183732	0.198853	0.191621
739	0.205099	0.202962	0.197538	0.188499	0.196388	0.190471
740	0.198689	0.199346	0.199182	0.180938	0.197045	0.194744
741	0.205099	0.205592	0.200168	0.189814	0.197867	0.190142
742	0.202962	0.202305	0.200825	0.189649	0.197867	0.198031
743	0.200332	0.200825	0.200661	0.1908	0.19836	0.190964
744	0.200661	0.200168	0.202305	0.191621	0.200661	0.196717
745	0.200004	0.198853	0.200332	0.194416	0.196388	0.198196
746	0.198853	0.195073	0.199018	0.188499	0.199839	0.196223
747	0.200004	0.199839	0.201483	0.189978	0.200825	0.196717
748	0.205756	0.197374	0.200332	0.193758	0.193101	0.197703
749	0.202962	0.198853	0.202305	0.195237	0.200332	0.197703
750	0.206742	0.198853	0.200661	0.192608	0.200168	0.196881
751	0.198031	0.198196	0.201483	0.192115	0.196552	0.194416
752	0.198853	0.203948	0.202305	0.190471	0.200168	0.188663
753	0.197867	0.202633	0.201647	0.19573	0.201647	0.193265
754	0.200332	0.20214	0.20099	0.192936	0.197538	0.196717
755	0.201976	0.201647	0.202305	0.194744	0.20099	0.194909
756	0.201647	0.203455	0.196881	0.193594	0.196388	0.196059
757	0.19836	0.201647	0.193758	0.19195	0.197538	0.197374
758	0.20099	0.199839	0.197374	0.196552	0.201647	0.195566
759	0.200497	0.199511	0.198689	0.195895	0.202633	0.196717
760	0.201976	0.204113	0.20099	0.19458	0.199018	0.19573
761	0.201976	0.201319	0.198196	0.193594	0.202633	0.192608
762	0.196388	0.20099	0.201154	0.199182	0.200168	0.19573
763	0.203291	0.204441	0.202305	0.195237	0.19721	0.198031
764	0.196059	0.204277	0.204113	0.197867	0.202305	0.198853
765	0.198524	0.199346	0.200825	0.198196	0.199675	0.199182
766	0.201483	0.200661	0.204277	0.199018	0.200004	0.197703
767	0.203455	0.203455	0.197538	0.199018	0.198853	0.201647
768	0.200004	0.201976	0.202305	0.194416	0.199675	0.19836
769	0.20214	0.200004	0.197045	0.190307	0.19836	0.197703
770	0.200825	0.196552	0.202469	0.199182	0.199675	0.201154
771	0.197538	0.198689	0.201319	0.198524	0.196059	0.197867
772	0.198524	0.200168	0.199511	0.192279	0.196552	0.200332
773	0.201976	0.20099	0.200825	0.199346	0.196388	0.198196
774	0.202469	0.200661	0.201647	0.19573	0.201319	0.201319
775	0.201976	0.202633	0.204277	0.196881	0.19458	0.198524
776	0.202469	0.201812	0.199839	0.197538	0.194909	0.201483
777	0.20214	0.201647	0.204441	0.195895	0.201319	0.19721
778	0.20362	0.202469	0.200004	0.196388	0.201976	0.196223
779	0.199675	0.200661	0.200332	0.20099	0.199018	0.197703
780	0.20477	0.199839	0.201154	0.197703	0.201483	0.200497
781	0.202962	0.199346	0.202469	0.200004	0.201483	0.198031
782	0.202633	0.200497	0.197703	0.198689	0.197374	0.199018
783	0.192936	0.198853	0.20214	0.198524	0.204113	0.201319
784	0.200497	0.201812	0.202305	0.197867	0.197867	0.200004
785	0.201319	0.19573	0.202798	0.195237	0.200332	0.203126
786	0.202305	0.20214	0.20362	0.19836	0.200004	0.198853
787	0.200168	0.202305	0.19836	0.197045	0.200497	0.204606
788	0.202305	0.199511	0.199346	0.192115	0.195566	0.202633
789	0.203126	0.201154	0.202305	0.19836	0.20099	0.20362
790	0.201812	0.199839	0.199018	0.200825	0.201976	0.203784
791	0.20362	0.200004	0.199511	0.196059	0.199346	0.20099
792	0.204934	0.199346	0.201647	0.200661	0.200004	0.203455
793	0.205756	0.198196	0.200168	0.198524	0.196717	0.203784
794	0.194251	0.201483	0.200168	0.200004	0.202962	0.206085
795	0.201647	0.199511	0.199018	0.200497	0.200497	0.201483
796	0.200825	0.201647	0.201976	0.198524	0.201976	0.203784
797	0.202633	0.202305	0.200332	0.198031	0.200332	0.2074
798	0.205099	0.199018	0.201319	0.201976	0.205427	0.203126
799	0.206742	0.199675	0.201483	0.200004	0.199182	0.205592
800	0.203948	0.20099	0.203455	0.197538	0.201976	0.203455
801	0.202305	0.199511	0.202305	0.200497	0.200497	0.202633
802	0.202305	0.19458	0.201483	0.199511	0.202305	0.199346
803	0.203455	0.200497	0.201319	0.200168	0.201647	0.200825
804	0.200332	0.198853	0.200497	0.199182	0.201319	0.204441
805	0.200497	0.199511	0.199018	0.20099	0.19836	0.20362
806	0.201647	0.19836	0.204934	0.199346	0.201319	0.205756
807	0.200661	0.200661	0.197703	0.20099	0.198524	0.204934
808	0.20099	0.195073	0.198689	0.19836	0.20099	0.205921
809	0.196223	0.200661	0.19836	0.201483	0.201319	0.203784
810	0.203784	0.200332	0.196223	0.200661	0.197703	0.205592
811	0.201976	0.200825	0.200825	0.196388	0.201647	0.204441
812	0.200825	0.205921	0.197703	0.199511	0.20214	0.205427
813	0.200825	0.197867	0.199346	0.204441	0.201812	0.207564
814	0.203455	0.20099	0.200497	0.200825	0.200004	0.20477
815	0.201319	0.199018	0.204277	0.201154	0.202962	0.20477
816	0.207071	0.200497	0.201483	0.199839	0.203126	0.20099
817	0.200497	0.199346	0.199511	0.200168	0.203784	0.204934
818	0.205263	0.19836	0.202305	0.013952	0.201483	0.203455
819	0.203126	0.192279	0.202962	0.01691	0.20214	0.205592
820	0.202798	0.20099	0.205921	0.02973	0.200004	0.202305
821	0.20099	0.197538	0.202962	0.036304	0.200004	0.203784
822	0.202633	0.198689	0.20099	0.03729	0.196717	0.203784
823	0.206085	0.202305	0.198689	0.048795	0.196881	0.201647
824	0.203291	0.197867	0.203455	0.053726	0.199839	0.203291
825	0.204441	0.199839	0.202633	0.054876	0.197374	0.202633
826	0.202305	0.203291	0.20362	0.067368	0.196388	0.201812
827	0.201976	0.200332	0.197867	0.07197	0.200661	0.200825
828	0.200332	0.199675	0.203126	0.077558	0.200825	0.200332
829	0.203948	0.201976	0.200661	0.084132	0.200497	0.199018
830	0.19836	0.197703	0.200497	0.084789	0.201647	0.199675
831	0.205921	0.201483	0.20099	0.092021	0.20099	0.199675
832	0.204441	0.200825	0.201319	0.095144	0.20362	0.202305
833	0.203455	0.200825	0.200825	0.09991	0.201319	0.199018
834	0.201154	0.191621	0.199839	0.106813	0.201647	0.199182
835	0.202305	0.196223	0.202305	0.106813	0.198689	0.199511
836	0.203126	0.193594	0.202962	0.111744	0.198689	0.199182
837	0.200661	0.200661	0.202469	0.121441	0.19721	0.200497
838	0.201319	0.193594	0.198689	0.118483	0.199511	0.201647
839	0.199346	0.200004	0.206414	0.125386	0.198853	0.198853
840	0.199182	0.200332	0.200168	0.129001	0.068025	0.202469
841	0.196388	0.196059	0.202469	0.126372	0.006227	0.20099
842	0.200332	0.204441	0.201647	0.127358	0.002447	0.201483
843	0.199511	0.200497	0.197374	0.135411	0.011486	0.201483
844	0.200168	0.200661	0.201647	0.13574	0.020855	0.199018
845	0.199675	0.190635	0.197867	0.140835	0.030552	0.19836
846	0.201154	0.205921	0.198524	0.140342	0.004583	0.197374
847	0.199511	0.200332	0.198853	0.14478	0.016253	0.199018
848	0.204113	0.201319	0.199675	0.147574	0.020526	0.19721
849	0.202469	0.199018	0.200168	0.149546	0.026607	0.194744
850	0.201319	0.199839	0.20214	0.151847	0.030387	0.19573
851	0.203291	0.200497	0.202798	0.156285	0.038112	0.198031
852	0.197374	0.19573	0.200825	0.156942	0.04633	0.191457
853	0.199182	0.197045	0.201154	0.15612	0.050274	0.196717
854	0.198689	0.199675	0.204113	0.161709	0.057671	0.189485
855	0.19836	0.198031	0.199346	0.161051	0.061286	0.201319
856	0.197045	0.196552	0.202633	0.163681	0.068189	0.196388
857	0.198853	0.199675	0.20362	0.166146	0.071805	0.197703
858	0.197045	0.197045	0.202962	0.165489	0.07953	0.198031
859	0.199018	0.200661	0.200497	0.166311	0.082488	0.19458
860	0.197374	0.200497	0.200497	0.168612	0.087748	0.197045
861	0.19836	0.200332	0.197045	0.167132	0.087912	0.196388
862	0.193922	0.201483	0.200332	0.171734	0.101883	0.200332
863	0.197045	0.198853	0.199346	0.172392	0.100896	0.192279
864	0.196223	0.200661	0.196881	0.171077	0.10517	0.19573
865	0.197045	0.20362	0.200168	0.176172	0.110593	0.191621
866	0.196223	0.200661	0.202633	0.176172	0.118154	0.19458
867	0.197867	0.201812	0.201812	0.177815	0.117168	0.190471
868	0.199346	0.199182	0.199182	0.176829	0.12292	0.193101
869	0.196717	0.197703	0.201483	0.180774	0.1267	0.193429
870	0.198689	0.19836	0.200332	0.179952	0.131302	0.19573
871	0.192443	0.199675	0.206414	0.176994	0.131631	0.195073
872	0.201483	0.20099	0.202469	0.179952	0.132782	0.195073
873	0.197538	0.199346	0.201483	0.18176	0.136562	0.194087
874	0.193594	0.200168	0.201154	0.181596	0.137877	0.195073
875	0.193594	0.198853	0.201319	0.183568	0.147081	0.196223
876	0.197045	0.202305	0.201812	0.18439	0.141328	0.196552
877	0.193594	0.201976	0.200661	0.180445	0.147245	0.196552
878	0.193429	0.201483	0.200825	0.185047	0.145766	0.190471
879	0.197538	0.199675	0.20099	0.185705	0.152669	0.190471
880	0.196223	0.200332	0.198853	0.188006	0.150368	0.189649
881	0.196552	0.199839	0.197374	0.185705	0.15497	0.191293
882	0.198689	0.203948	0.199182	0.187513	0.158914	0.187841
883	0.198853	0.199018	0.201154	0.188499	0.159243	0.191621
884	0.196388	0.202633	0.202305	0.189156	0.16138	0.190307
885	0.196388	0.201319	0.200825	0.184883	0.16253	0.189649
886	0.193758	0.193922	0.202633	0.186691	0.164174	0.189814
887	0.19836	0.199511	0.198031	0.188663	0.161051	0.193922
888	0.195402	0.197867	0.200168	0.19195	0.167625	0.19458
889	0.199182	0.199675	0.198524	0.18817	0.16253	0.19195
890	0.197374	0.19836	0.202305	0.190964	0.170913	0.192772
891	0.195402	0.199675	0.199511	0.194416	0.168283	0.192936
892	0.19458	0.199018	0.198689	0.190307	0.174693	0.193429
893	0.19721	0.201483	0.201154	0.192443	0.17272	0.191457
894	0.195402	0.198853	0.200825	0.193265	0.170913	0.192772
895	0.194416	0.200332	0.20099	0.193922	0.173378	0.191128
896	0.195566	0.200004	0.199675	0.189649	0.176829	0.190142
897	0.196388	0.200497	0.200332	0.192443	0.166804	0.190142
898	0.199182	0.200825	0.203291	0.192936	0.174693	0.189814
899	0.200497	0.200825	0.199346	0.19458	0.180445	0.188006
900	0.199839	0.197703	0.199346	0.192115	0.175843	0.188827
901	0.197538	0.193594	0.201976	0.195237	0.179623	0.185705
902	0.200661	0.200497	0.199018	0.194744	0.180774	0.183075
903	0.196388	0.198524	0.200825	0.196059	0.182417	0.185869
904	0.198031	0.196552	0.200825	0.196223	0.185376	0.180281
905	0.199018	0.199018	0.203948	0.197703	0.183239	0.182582
906	0.200332	0.201647	0.197867	0.196552	0.182911	0.178966
907	0.193265	0.203455	0.197703	0.19573	0.186198	0.178144
908	0.198031	0.201647	0.199839	0.197703	0.176501	0.176829
909	0.195073	0.200332	0.202633	0.196717	0.185705	0.174364
910	0.194416	0.202469	0.199346	0.197703	0.185705	0.17798
911	0.195073	0.199018	0.199839	0.192772	0.188334	0.174528
912	0.196388	0.201154	0.199675	0.193758	0.185376	0.176501
913	0.198196	0.200497	0.197045	0.196223	0.190635	0.172885
914	0.197703	0.200661	0.199511	0.198031	0.193758	0.175679
915	0.200661	0.200825	0.197374	0.195073	0.192115	0.177322
916	0.202962	0.201976	0.204113	0.201483	0.194087	0.176336
917	0.202633	0.200825	0.19836	0.195237	0.190635	0.181596
918	0.197703	0.201154	0.202305	0.19573	0.190142	0.177322
919	0.197703	0.205427	0.200168	0.196552	0.189814	0.181267
920	0.197867	0.201483	0.199018	0.196881	0.189649	0.180774
921	0.19721	0.201812	0.202798	0.195073	0.191457	0.182911
922	0.197538	0.201483	0.19836	0.197374	0.193101	0.183897
923	0.200168	0.201976	0.198853	0.19836	0.18932	0.184554
924	0.194416	0.198853	0.201483	0.200661	0.193922	0.183732
925	0.200661	0.199346	0.199839	0.202305	0.191128	0.184554
926	0.200004	0.199839	0.199511	0.196223	0.19573	0.185869
927	0.198524	0.202305	0.203126	0.201319	0.194251	0.182582
928	0.196059	0.199018	0.200661	0.199182	0.192936	0.18554
929	0.198524	0.201812	0.202962	0.197703	0.192443	0.185212
930	0.198524	0.203291	0.201154	0.196388	0.194251	0.189156
931	0.197538	0.201647	0.201483	0.198031	0.192279	0.185705
932	0.20099	0.202469	0.192443	0.199182	0.192936	0.187513
933	0.197374	0.200825	0.195402	0.197045	0.195895	0.187348
934	0.200825	0.203126	0.197538	0.195895	0.195895	0.189156
935	0.198689	0.201483	0.198853	0.196059	0.196388	0.18817
936	0.200168	0.202305	0.197867	0.195237	0.194744	0.187513
937	0.19836	0.200332	0.197538	0.197867	0.195237	0.192443
938	0.200497	0.200168	0.201154	0.194251	0.194416	0.189156
939	0.201647	0.19836	0.198853	0.199675	0.196388	0.192936
940	0.20362	0.204277	0.200661	0.201319	0.192608	0.191786
941	0.19836	0.200168	0.20214	0.200825	0.198031	0.192279
942	0.198689	0.20099	0.201976	0.201976	0.196717	0.193265
943	0.200332	0.197538	0.200004	0.199018	0.192443	0.193265
944	0.197867	0.20214	0.201647	0.202962	0.198196	0.192772
945	0.19836	0.201647	0.200004	0.196717	0.196552	0.194909
946	0.196552	0.199346	0.20099	0.198196	0.196552	0.192772
947	0.200004	0.199675	0.200168	0.199839	0.198689	0.193758
948	0.200004	0.197045	0.200661	0.199346	0.196881	0.19458
949	0.202633	0.193594	0.198853	0.199346	0.197374	0.194251
950	0.199839	0.198689	0.199839	0.198031	0.198031	0.19573
951	0.199018	0.197374	0.20099	0.197538	0.196223	0.194416
952	0.199839	0.200497	0.202798	0.199346	0.198689	0.197867
953	0.200004	0.20362	0.199675	0.200661	0.196223	0.191457
954	0.198853	0.199346	0.199018	0.199675	0.198853	0.194416
955	0.201647	0.201647	0.201319	0.20099	0.197045	0.193429
956	0.200332	0.204441	0.200661	0.200661	0.199346	0.196223
957	0.198524	0.202798	0.19721	0.201319	0.198853	0.194744
958	0.199511	0.198689	0.198031	0.201647	0.200661	0.19573
959	0.198196	0.205427	0.201647	0.203455	0.19836	0.195402
960	0.199675	0.197374	0.201319	0.199346	0.199675	0.192936
961	0.197538	0.201154	0.200661	0.200825	0.200168	0.198689
962	0.197867	0.199182	0.197538	0.193101	0.202962	0.19721
963	0.198689	0.200661	0.199182	0.200825	0.202633	0.194744
964	0.199675	0.20099	0.199346	0.200004	0.201319	0.196552
965	0.194251	0.200825	0.197703	0.199182	0.199346	0.19721
966	0.204934	0.201647	0.199182	0.200004	0.199018	0.196059
967	0.199018	0.203455	0.200497	0.199182	0.200497	0.197703
968	0.200004	0.201483	0.198853	0.199839	0.197374	0.196881
969	0.200332	0.19836	0.201647	0.198853	0.199675	0.197374
970	0.202633	0.201319	0.199018	0.200332	0.196717	0.199018
971	0.20099	0.199182	0.201976	0.198196	0.200661	0.197045
972	0.201976	0.20214	0.20099	0.203291	0.199675	0.198196
973	0.199839	0.199511	0.199839	0.203291	0.199346	0.200497
974	0.200004	0.201483	0.203784	0.20214	0.198853	0.195895
975	0.205921	0.200661	0.198196	0.200004	0.20362	0.196059
976	0.200004	0.200497	0.198689	0.201976	0.199839	0.199675
977	0.199675	0.201319	0.202305	0.199839	0.201976	0.198524
978	0.202962	0.20362	0.202469	0.203784	0.200004	0.195402
979	0.198031	0.19836	0.200332	0.202469	0.199675	0.199675
980	0.200497	0.199018	0.201976	0.202633	0.200825	0.197703
981	0.203291	0.199182	0.201976	0.200332	0.195073	0.19836
982	0.196059	0.200004	0.201319	0.200661	0.201647	0.196059
983	0.199675	0.198853	0.200497	0.199675	0.200004	0.197703
984	0.197045	0.198524	0.203784	0.199018	0.20362	0.201319
985	0.200332	0.200332	0.197045	0.196881	0.198689	0.201483
986	0.199511	0.200661	0.202962	0.197867	0.206578	0.201647
987	0.200497	0.203948	0.198031	0.19458	0.198524	0.203126
988	0.197703	0.205427	0.197374	0.198031	0.197867	0.200497
989	0.203784	0.20477	0.200332	0.203291	0.200332	0.197703
990	0.201976	0.199675	0.198524	0.199839	0.200332	0.201483
991	0.20099	0.202305	0.201319	0.201647	0.200004	0.197867
992	0.201483	0.202469	0.202962	0.199346	0.200661	0.199839
993	0.198524	0.199182	0.205099	0.203948	0.200825	0.199511
994	0.201319	0.201647	0.200168	0.198853	0.201154	0.200825
995	0.200825	0.19721	0.201154	0.199182	0.202633	0.202469
996	0.199346	0.199182	0.200168	0.200168	0.199675	0.20099
997	0.198031	0.20099	0.204606	0.199839	0.198853	0.201154
998	0.204606	0.197045	0.198031	0.200168	0.200168	0.202633
999	0.19836	0.19458	0.20214	0.200825	0.202469	0.202633
1000	0.200168	0.201319	0.199839	0.198853	0.199018	0.20099
1001	0.197374	0.198031	0.20099	0.20099	0.199018	0.203784
1002	0.199182	0.199346	0.200825	0.202305	0.200825	0.203948
1003	0.199018	0.200661	0.203291	0.198853	0.198853	0.201976
1004	0.201483	0.20099	0.202469	0.20099	0.200168	0.203126
1005	0.201812	0.197045	0.200168	0.199018	0.200004	0.203948
1006	0.200168	0.201812	0.200332	0.202469	0.201647	0.198853
1007	0.200332	0.201976	0.196388	0.201319	0.199018	0.201154
1008	0.199346	0.200825	0.199839	0.19836	0.202633	0.199018
1009	0.200332	0.201812	0.197374	0.200168	0.201647	0.197867
1010	0.199182	0.202305	0.198689	0.20214	0.202305	0.197867
1011	0.201812	0.199839	0.19721	0.197703	0.200661	0.197538
1012	0.19721	0.200004	0.204113	0.201647	0.200168	0.198031
1013	0.198853	0.20099	0.202305	0.199511	0.199675	0.19573
1014	0.196881	0.197703	0.203948	0.20099	0.202633	0.203455
1015	0.198853	0.20214	0.203784	0.200332	0.202633	0.200168
1016	0.200825	0.199839	0.202633	0.201483	0.204606	0.197867
1017	0.199346	0.198689	0.200661	0.200004	0.201319	0.198524
1018	0.197867	0.197374	0.200168	0.198524	0.202305	0.200168
1019	0.198196	0.200004	0.202469	0.199018	0.201154	0.195402
1020	0.200168	0.200661	0.199839	0.199182	0.199346	0.201812
1021	0.197538	0.200661	0.202962	0.20099	0.199511	0.198031
1022	0.204606	0.20099	0.200168	0.199675	0.200661	0.198031
1023	0.198853	0.20099	0.201154	0.205756	0.199182	0.197703
1024	0.201647	0.200661	0.199839	0.19836	0.200825	0.200332
1025	0.202469	0.201154	0.203784	0.200825	0.200497	0.198031
1026	0.202962	0.20099	0.199018	0.200004	0.202469	0.192772
1027	0.200004	0.200332	0.201812	0.203784	0.201976	0.200004
1028	0.199675	0.200004	0.199839	0.200497	0.201647	0.197538
1029	0.198853	0.20099	0.201483	0.199675	0.204606	0.199018
1030	0.199346	0.200497	0.20362	0.200497	0.20099	0.200004
1031	0.200825	0.199182	0.200661	0.201976	0.20099	0.200332
1032	0.198689	0.200661	0.204277	0.201483	0.200004	0.199182
1033	0.197045	0.19721	0.199018	0.200661	0.203291	0.202305
1034	0.200004	0.200332	0.205099	0.206742	0.196059	0.198689
1035	0.198524	0.197867	0.202633	0.200661	0.197045	0.204277
1036	0.201647	0.197867	0.205099	0.200497	0.191621	0.204934
1037	0.197045	0.194087	0.201483	0.200497	0.19836	0.205756
1038	0.196388	0.198689	0.203291	0.201154	0.195237	0.200825
1039	0.198853	0.197374	0.203126	0.196881	0.198853	0.201812
1040	0.199182	0.201812	0.200497	0.200004	0.200004	0.201483
1041	0.199511	0.199511	0.204606	0.197703	0.200332	0.202469
1042	0.200004	0.201319	0.199675	0.199018	0.201319	0.203126
1043	0.199182	0.200497	0.198524	0.20099	0.199675	0.200825
1044	0.200825	0.20099	0.200332	0.198689	0.202469	0.201976
1045	0.202469	0.201154	0.199511	0.199182	0.20099	0.202305
1046	0.199511	0.198196	0.200332	0.205099	0.20477	0.203948
1047	0.200825	0.200661	0.202469	0.201976	0.199511	0.203126
1048	0.202962	0.195895	0.203455	0.202962	0.200825	0.204934
1049	0.20099	0.196717	0.205263	0.198689	0.200497	0.204113
1050	0.195895	0.202305	0.201483	0.200004	0.203948	0.207564
1051	0.200332	0.205263	0.205592	0.201812	0.202469	0.201154
1052	0.146588	0.197703	0.200497	0.200497	0.197538	0.208715
1053	0.00935	0.200004	0.200661	0.200332	0.200661	0.208715
1054	0.013294	0.19836	0.202305	0.201319	0.200661	0.206578
1055	0.02595	0.200332	0.20099	0.198524	0.200497	0.207235
1056	0.035154	0.200661	0.200497	0.199182	0.19721	0.204277
1057	0.03992	0.201647	0.200004	0.20214	0.200497	0.204277
1058	0.046659	0.201154	0.196059	0.200004	0.198689	0.204277
1059	0.052411	0.201319	0.198853	0.201976	0.201647	0.206742
1060	0.060465	0.202469	0.198689	0.19836	0.200004	0.205099
1061	0.064409	0.199839	0.198689	0.202469	0.203455	0.205756
1062	0.070326	0.202633	0.197045	0.203948	0.200497	0.204441
1063	0.074928	0.198853	0.196223	0.204277	0.200825	0.2074
1064	0.079859	0.200661	0.199018	0.201483	0.19836	0.207893
1065	0.082324	0.200004	0.202798	0.201647	0.196388	0.206085
1066	0.091364	0.200825	0.202798	0.20099	0.199675	0.204606
1067	0.098267	0.199018	0.201976	0.200825	0.198853	0.208715
1068	0.098924	0.203948	0.199839	0.203784	0.19721	0.204113
1069	0.104677	0.199346	0.200825	0.200332	0.194744	0.212002
1070	0.109279	0.201319	0.202305	0.202469	0.196552	0.20855
1071	0.113223	0.20099	0.20362	0.203126	0.200497	0.207728
1072	0.114702	0.19573	0.202469	0.199511	0.197374	0.21118
1073	0.120948	0.202798	0.200661	0.197374	0.195237	0.210851
1074	0.120948	0.202469	0.191293	0.196223	0.199839	0.210851
1075	0.127194	0.20099	0.197703	0.196717	0.194744	0.208386
1076	0.12555	0.202469	0.201154	0.199675	0.199839	0.205592
1077	0.130481	0.202469	0.198689	0.199018	0.197703	0.205263
1078	0.134261	0.198196	0.199018	0.20099	0.198031	0.20855
1079	0.135576	0.202469	0.200825	0.200497	0.19836	0.204606
1080	0.139192	0.200004	0.200004	0.19836	0.19836	0.207728
1081	0.143629	0.20099	0.199018	0.201647	0.198031	0.208057
1082	0.145437	0.201483	0.199346	0.201483	0.200332	0.207728
1083	0.145602	0.199675	0.202469	0.199346	0.196388	0.206907
1084	0.150039	0.199511	0.202962	0.201154	0.198524	0.211344
1085	0.152998	0.20099	0.19573	0.202633	0.197538	0.211344
1086	0.153655	0.200332	0.198196	0.198524	0.200004	0.209865
1087	0.155463	0.202962	0.201812	0.198196	0.200168	0.210851
1088	0.158257	0.200497	0.199511	0.199346	0.197867	0.209701
1089	0.156285	0.199018	0.202633	0.20214	0.199018	0.209208
1090	0.16253	0.198031	0.199675	0.199839	0.199018	0.209865
1091	0.161544	0.200661	0.201319	0.200825	0.19573	0.21118
1092	0.164831	0.201319	0.197538	0.19721	0.196881	0.214631
1093	0.163188	0.200168	0.198689	0.199182	0.195895	0.209372
1094	0.167132	0.201154	0.199839	0.200661	0.197045	0.21118
1095	0.167954	0.198689	0.198853	0.203126	0.200661	0.211673
1096	0.170419	0.204606	0.200497	0.204277	0.197374	0.209536
1097	0.170913	0.200168	0.199182	0.199346	0.200661	0.214138
1098	0.173214	0.200332	0.201483	0.20362	0.198524	0.20855
1099	0.173049	0.199839	0.199675	0.202798	0.201154	0.211673
1100	0.173378	0.199675	0.199346	0.203455	0.20099	0.212166
1101	0.176008	0.201647	0.199018	0.202469	0.200004	0.211016
1102	0.1742	0.199018	0.20214	0.203291	0.201812	0.210194
1103	0.179952	0.199675	0.197867	0.201154	0.198524	0.20855
1104	0.177487	0.197703	0.202469	0.205099	0.200825	0.210358
1105	0.18061	0.197045	0.202798	0.201319	0.199018	0.215125
1106	0.176994	0.195237	0.201154	0.202305	0.202962	0.21118
1107	0.179952	0.202633	0.201976	0.200004	0.196223	0.214467
1108	0.180116	0.198524	0.200332	0.200004	0.199018	0.213974
1109	0.182089	0.202798	0.200332	0.200661	0.199018	0.210687
1110	0.184225	0.200332	0.196059	0.201154	0.200332	0.213481
1111	0.182417	0.200661	0.19721	0.200825	0.194744	0.210851
1112	0.183075	0.200332	0.197538	0.200497	0.200004	0.213152
1113	0.18439	0.201483	0.197374	0.206578	0.200661	0.210687
1114	0.182417	0.201319	0.194087	0.203455	0.201319	0.213317
1115	0.184061	0.202469	0.199675	0.200332	0.20362	0.208222
1116	0.185705	0.199182	0.20099	0.201976	0.199675	0.211837
1117	0.18554	0.203126	0.202305	0.200661	0.199511	0.209536
1118	0.188334	0.198689	0.199675	0.200168	0.199346	0.210523
1119	0.187513	0.199511	0.20214	0.201976	0.20214	0.21233
1120	0.192936	0.200004	0.199511	0.200497	0.198689	0.210029
1121	0.189485	0.198524	0.199675	0.204277	0.199511	0.211837
1122	0.190635	0.199346	0.201976	0.201976	0.198689	0.21118
1123	0.188992	0.201483	0.201483	0.200168	0.199511	0.216275
1124	0.191786	0.202469	0.201483	0.198853	0.199346	0.214138
1125	0.189485	0.198031	0.19721	0.19836	0.199675	0.212824
1126	0.187184	0.201154	0.200497	0.20214	0.201647	0.210851
1127	0.187513	0.198196	0.201154	0.197703	0.200168	0.213645
1128	0.191457	0.206578	0.201154	0.20099	0.197703	0.211673
1129	0.193758	0.203291	0.200497	0.20099	0.200497	0.210029
1130	0.192443	0.201812	0.201812	0.202469	0.199511	0.215125
1131	0.197374	0.200661	0.196223	0.200004	0.20099	0.211673
1132	0.195566	0.20362	0.200332	0.19836	0.201483	0.2074
1133	0.192936	0.200497	0.199346	0.197538	0.203126	0.208715
1134	0.192279	0.199182	0.200497	0.198524	0.202798	0.209043
1135	0.198196	0.199839	0.20214	0.197045	0.20362	0.209372
1136	0.198031	0.198524	0.200004	0.203784	0.201319	0.213317
1137	0.199675	0.200168	0.201154	0.205099	0.195566	0.211673
1138	0.193758	0.197374	0.203455	0.199182	0.200168	0.213974
1139	0.203126	0.201647	0.203291	0.201812	0.199675	0.213974
1140	0.19458	0.197867	0.200004	0.201647	0.200497	0.214796
1141	0.195566	0.202305	0.202962	0.200825	0.199182	0.218412
1142	0.198524	0.194909	0.199839	0.200661	0.200332	0.21381
1143	0.195073	0.199018	0.200004	0.202305	0.198853	0.213974
1144	0.196388	0.197538	0.197374	0.201976	0.200661	0.213645
1145	0.195237	0.200332	0.201812	0.201154	0.19836	0.214138
1146	0.19721	0.197045	0.199839	0.199839	0.198689	0.213317
1147	0.196388	0.20099	0.199511	0.201812	0.202962	0.213152
1148	0.195402	0.199018	0.200004	0.205099	0.200004	0.213481
1149	0.192936	0.199511	0.201154	0.199346	0.200332	0.21233
1150	0.19836	0.200661	0.198524	0.200168	0.201154	0.211509
1151	0.196059	0.197703	0.20099	0.201647	0.202469	0.212824
1152	0.198853	0.20214	0.202962	0.202469	0.202469	0.217097
1153	0.200661	0.200004	0.201647	0.200497	0.202633	0.213645
1154	0.201154	0.199018	0.201647	0.20477	0.201483	0.209536
1155	0.197703	0.199675	0.201154	0.19836	0.202633	0.213481
1156	0.197867	0.200332	0.199018	0.203948	0.200332	0.210358
1157	0.195566	0.19836	0.200004	0.202798	0.206907	0.213645
1158	0.196223	0.199018	0.199018	0.199839	0.203291	0.210851
1159	0.194251	0.197374	0.200332	0.199675	0.20099	0.213152
1160	0.194416	0.198689	0.201483	0.200825	0.198689	0.212166
1161	0.194251	0.199182	0.197374	0.198853	0.197703	0.21233
1162	0.196223	0.203948	0.200004	0.198524	0.200332	0.21118
1163	0.200497	0.200168	0.203784	0.197374	0.197867	0.208879
1164	0.198031	0.202798	0.195566	0.202469	0.204606	0.208386
1165	0.20362	0.201812	0.19836	0.200168	0.20362	0.208222
1166	0.193429	0.200168	0.201812	0.200497	0.204113	0.207071
1167	0.200168	0.200661	0.197867	0.200825	0.184718	0.201976
1168	0.19836	0.198524	0.199839	0.200332	0.10517	0.20855
1169	0.199839	0.200497	0.200497	0.201319	0.053069	0.208879
1170	0.197538	0.19836	0.203126	0.193265	0.029237	0.207071
1171	0.198853	0.187513	0.200497	0.197538	0.016088	0.205427
1172	0.199675	0.173542	0.201483	0.201154	0.014609	0.209536
1173	0.198689	0.176172	0.202469	0.201647	0.007213	0.208222
1174	0.197703	0.172392	0.203291	0.198524	0.0105	0.197867
1175	0.19836	0.177487	0.199675	0.201319	0.007213	0.205756
1176	0.199182	0.177487	0.199182	0.203784	0.007213	0.208879
1177	0.19836	0.176829	0.201154	0.202305	0.005734	0.206742
1178	0.202305	0.176994	0.201319	0.201319	0.006556	0.202633
1179	0.199675	0.180774	0.201154	0.202305	0.005569	0.208222
1180	0.206907	0.184061	0.196881	0.200497	0.006556	0.20477
1181	0.196059	0.180281	0.204113	0.192279	0.007706	0.203291
1182	0.199346	0.182253	0.202469	0.196552	0.005898	0.202633
1183	0.199018	0.182582	0.202798	0.198524	0.012965	0.201319
1184	0.198524	0.182089	0.201647	0.197703	0.007542	0.202305
1185	0.197538	0.184061	0.20855	0.197045	0.006556	0.195237
1186	0.203291	0.187513	0.20099	0.200332	0.007377	0.198689
1187	0.200168	0.185869	0.200168	0.199182	0.009514	0.207728
1188	0.20099	0.183404	0.202305	0.201154	0.007049	0.200497
1189	0.200004	0.184718	0.200004	0.202305	0.015924	0.201319
1190	0.199675	0.185212	0.199675	0.202798	0.015102	0.200168
1191	0.203948	0.182253	0.200825	0.201319	0.016581	0.201976
1192	0.197045	0.184061	0.201976	0.197538	0.018389	0.201154
1193	0.19573	0.182089	0.199839	0.199839	0.022991	0.202469
1194	0.200497	0.187184	0.20214	0.199839	0.029894	0.199018
1195	0.200168	0.187513	0.198524	0.198853	0.026936	0.200332
1196	0.19195	0.186526	0.20477	0.20099	0.030716	0.193922
1197	0.200332	0.18817	0.199839	0.198031	0.036469	0.195237
1198	0.19721	0.187841	0.200332	0.201647	0.040577	0.199839
1199	0.201976	0.18817	0.199839	0.198196	0.040084	0.195895
1200	0.200661	0.187841	0.20099	0.198524	0.045508	0.194416
1201	0.201154	0.190471	0.201812	0.201154	0.05011	0.194251
1202	0.193758	0.177158	0.200004	0.199182	0.052247	0.194251
1203	0.199346	0.17798	0.200332	0.200332	0.048631	0.193922
1204	0.200825	0.176994	0.200497	0.200004	0.054219	0.199675
1205	0.199346	0.181431	0.200661	0.199839	0.031702	0.196881
1206	0.199839	0.17913	0.198689	0.201154	0.027758	0.1908
1207	0.196717	0.179295	0.199511	0.201647	0.028744	0.192608
1208	0.200004	0.179623	0.199675	0.202469	0.029401	0.192279
1209	0.196059	0.180774	0.200332	0.202305	0.040249	0.191293
1210	0.198524	0.17798	0.198689	0.201812	0.044686	0.193265
1211	0.197703	0.182911	0.203455	0.202469	0.051754	0.1908
1212	0.197867	0.188499	0.200332	0.198689	0.054219	0.192772
1213	0.185212	0.186362	0.20362	0.200168	0.029566	0.190964
1214	0.19721	0.184718	0.207728	0.197374	0.033346	0.186198
1215	0.200004	0.187348	0.20214	0.199018	0.045179	0.190142
1216	0.201976	0.186526	0.201483	0.199675	0.051754	0.187513
1217	0.199182	0.186855	0.20099	0.196881	0.057506	0.187513
1218	0.200332	0.187348	0.199511	0.201483	0.059807	0.191128
1219	0.199675	0.187513	0.201319	0.200332	0.067039	0.189485
1220	0.197538	0.195402	0.20099	0.200004	0.071477	0.185047
1221	0.200168	0.185047	0.199675	0.198689	0.077065	0.185212
1222	0.196881	0.189156	0.200661	0.201154	0.08216	0.18439
1223	0.201647	0.18932	0.199839	0.200168	0.086762	0.186691
1224	0.194744	0.187677	0.199675	0.202962	0.092843	0.185376
1225	0.198031	0.187348	0.20362	0.20214	0.098102	0.184554
1226	0.19836	0.190964	0.204113	0.205756	0.102869	0.18439
1227	0.199675	0.191293	0.200497	0.201154	0.104348	0.186362
1228	0.20099	0.188334	0.203455	0.200825	0.108457	0.186362
1229	0.203455	0.192279	0.201647	0.204441	0.110922	0.182417
1230	0.198524	0.189485	0.20362	0.201483	0.115853	0.183404
1231	0.196388	0.191786	0.20477	0.205921	0.117661	0.182417
1232	0.19836	0.18932	0.200661	0.199511	0.125221	0.184883
1233	0.199511	0.191786	0.199511	0.20214	0.122756	0.18554
1234	0.197867	0.193758	0.20362	0.200168	0.125057	0.186033
1235	0.195237	0.1908	0.197867	0.197538	0.130316	0.183897
1236	0.198689	0.192608	0.19836	0.197703	0.134425	0.182582
1237	0.199018	0.190471	0.198853	0.200825	0.135576	0.183568
1238	0.198524	0.188499	0.199839	0.197703	0.137877	0.184554
1239	0.198031	0.187184	0.200332	0.200825	0.140342	0.182746
1240	0.201154	0.189649	0.198689	0.200004	0.145108	0.183568
1241	0.198196	0.187348	0.198853	0.202633	0.147245	0.183897
1242	0.19721	0.174857	0.199511	0.200004	0.148231	0.186691
1243	0.19721	0.186362	0.201647	0.200661	0.152505	0.183239
1244	0.201812	0.193265	0.199511	0.20099	0.152998	0.185376
1245	0.200497	0.186855	0.201483	0.203948	0.154806	0.185047
1246	0.197867	0.189485	0.201154	0.203455	0.158257	0.183732
1247	0.197538	0.189156	0.202633	0.200661	0.159572	0.185047
1248	0.202305	0.191621	0.202305	0.198689	0.160394	0.184061
1249	0.200661	0.191293	0.200004	0.201812	0.163023	0.186033
1250	0.199675	0.192279	0.199346	0.200168	0.163023	0.184554
1251	0.198853	0.189156	0.201812	0.20099	0.165489	0.18554
1252	0.20214	0.191293	0.200497	0.20099	0.164503	0.184718
1253	0.197374	0.18439	0.198689	0.197703	0.166146	0.186526
1254	0.199018	0.192772	0.200332	0.20362	0.169598	0.17798
1255	0.200825	0.192279	0.198196	0.200497	0.169269	0.181103
1256	0.196552	0.192936	0.200661	0.20099	0.170748	0.184225
1257	0.201154	0.194909	0.196388	0.199839	0.17272	0.183404
1258	0.195566	0.19573	0.197867	0.201647	0.175515	0.183404
1259	0.198524	0.194087	0.200497	0.200004	0.173214	0.18554
1260	0.19836	0.198524	0.199182	0.201976	0.176336	0.188006
1261	0.199182	0.195566	0.198524	0.201812	0.177651	0.185869
1262	0.196388	0.19573	0.201319	0.204277	0.181431	0.182417
1263	0.197538	0.19836	0.201483	0.206085	0.177651	0.186198
1264	0.19721	0.189485	0.205756	0.201647	0.181924	0.186033
1265	0.200332	0.194909	0.203784	0.201647	0.177158	0.186033
1266	0.199675	0.194416	0.201319	0.200825	0.184883	0.188334
1267	0.201483	0.198031	0.202962	0.201483	0.184225	0.186691
1268	0.201154	0.197867	0.200332	0.201976	0.183075	0.187841
1269	0.198196	0.196059	0.198196	0.200497	0.183897	0.186198
1270	0.201483	0.19836	0.200661	0.19458	0.184554	0.188663
1271	0.19721	0.19836	0.201483	0.201812	0.182746	0.186855
1272	0.198524	0.197703	0.199018	0.203455	0.18817	0.187841
1273	0.199182	0.198196	0.203291	0.197045	0.184718	0.186198
1274	0.200004	0.199018	0.197703	0.201647	0.186198	0.189978
1275	0.198853	0.197867	0.199839	0.20099	0.18817	0.186691
1276	0.199839	0.198524	0.199346	0.201483	0.188334	0.185705
1277	0.201154	0.19573	0.20099	0.204277	0.191128	0.188006
1278	0.200497	0.198524	0.20214	0.199839	0.187841	0.185047
1279	0.204277	0.198196	0.202469	0.202469	0.194251	0.186198
1280	0.198031	0.19836	0.199511	0.200004	0.18932	0.186033
1281	0.197045	0.197538	0.203126	0.20214	0.19458	0.189485
1282	0.200497	0.199182	0.201154	0.201154	0.190142	0.189978
1283	0.197538	0.196881	0.199675	0.202305	0.190142	0.191128
1284	0.194416	0.198031	0.201976	0.200825	0.188006	0.189485
1285	0.199346	0.197867	0.200004	0.198689	0.187841	0.193429
1286	0.198524	0.197538	0.202469	0.197703	0.187677	0.189485
1287	0.198031	0.19721	0.202798	0.199839	0.188499	0.194251
1288	0.197867	0.198196	0.202798	0.203291	0.187348	0.191128
1289	0.199839	0.200661	0.200661	0.198524	0.187841	0.189156
1290	0.198524	0.197867	0.200497	0.199346	0.192772	0.191293
1291	0.20099	0.194909	0.199511	0.201812	0.191293	0.190471
1292	0.198196	0.19836	0.199675	0.202305	0.19573	0.192443
1293	0.199182	0.195237	0.202469	0.203784	0.194909	0.188499
1294	0.198853	0.197703	0.198196	0.20855	0.197045	0.192115
1295	0.199346	0.199182	0.200661	0.203455	0.193922	0.187841
1296	0.199675	0.197867	0.202469	0.201812	0.19458	0.193265
1297	0.196881	0.19836	0.200825	0.203784	0.188499	0.190635
1298	0.19721	0.192443	0.200661	0.200661	0.1908	0.194909
1299	0.20099	0.19836	0.203455	0.203948	0.191293	0.191786
1300	0.201812	0.196552	0.199511	0.201483	0.189978	0.193758
1301	0.196881	0.200168	0.200825	0.204113	0.191621	0.193265
1302	0.202962	0.193922	0.199839	0.199182	0.192443	0.193594
1303	0.196388	0.196059	0.201483	0.204113	0.188006	0.19573
1304	0.200004	0.199346	0.199839	0.197538	0.190471	0.192936
1305	0.197703	0.199018	0.200168	0.202305	0.191621	0.195073
1306	0.19721	0.201812	0.200004	0.200825	0.189156	0.192936
1307	0.196552	0.200497	0.19836	0.200168	0.193265	0.196881
1308	0.19836	0.200497	0.197703	0.201812	0.193429	0.192608
1309	0.195402	0.198689	0.204441	0.199839	0.194416	0.198196
1310	0.198689	0.201976	0.19836	0.203291	0.190471	0.19195
1311	0.199182	0.198853	0.198853	0.203126	0.191786	0.192608
1312	0.200497	0.204934	0.198853	0.200825	0.194087	0.193101
1313	0.201976	0.200004	0.197867	0.200825	0.197538	0.190471
1314	0.199018	0.207071	0.200825	0.207564	0.193101	0.194251
1315	0.200332	0.19721	0.201812	0.203455	0.193265	0.195402
1316	0.196388	0.20099	0.202798	0.202962	0.192772	0.195566
1317	0.196717	0.19836	0.200825	0.202633	0.194744	0.197703
1318	0.198524	0.19721	0.206085	0.203455	0.193758	0.197374
1319	0.197703	0.198689	0.198853	0.200661	0.192936	0.197867
1320	0.19836	0.200332	0.201319	0.199675	0.194087	0.192772
1321	0.202962	0.199018	0.201976	0.201976	0.191786	0.195073
1322	0.197045	0.198524	0.200497	0.201812	0.195237	0.196388
1323	0.198853	0.201647	0.198524	0.197045	0.195895	0.194909
1324	0.201647	0.201154	0.201319	0.202469	0.196881	0.19573
1325	0.198853	0.201812	0.200661	0.204277	0.192279	0.195237
1326	0.199675	0.199182	0.200332	0.20099	0.194744	0.19458
1327	0.20099	0.202305	0.200497	0.199346	0.197703	0.188827
1328	0.200497	0.199839	0.199182	0.198524	0.19573	0.191457
1329	0.199675	0.200825	0.205263	0.203784	0.195566	0.194416
1330	0.198853	0.200332	0.198031	0.201319	0.197867	0.19573
1331	0.199182	0.200825	0.194087	0.203126	0.196388	0.191457
1332	0.201976	0.198196	0.201812	0.201647	0.195566	0.195073
1333	0.200168	0.199346	0.201976	0.201319	0.196552	0.196717
1334	0.199346	0.196552	0.197374	0.198524	0.195073	0.197374
1335	0.200168	0.197374	0.203455	0.202305	0.19721	0.197703
1336	0.19721	0.199675	0.200661	0.202469	0.192608	0.196552
1337	0.198031	0.198689	0.201976	0.198853	0.196059	0.197045
1338	0.198689	0.200332	0.197867	0.201483	0.199675	0.197538
1339	0.196717	0.199839	0.201319	0.201154	0.200661	0.198853
1340	0.199018	0.201154	0.195402	0.202469	0.196552	0.199182
1341	0.199182	0.202469	0.19836	0.202469	0.198524	0.19836
1342	0.200004	0.205756	0.199839	0.200004	0.19573	0.19721
1343	0.199182	0.203948	0.197538	0.202305	0.195237	0.196552
1344	0.198853	0.20099	0.199675	0.199839	0.198031	0.196059
1345	0.201154	0.199346	0.197538	0.199182	0.197867	0.197703
1346	0.201319	0.200168	0.203291	0.20214	0.198524	0.194909
1347	0.200168	0.198853	0.200661	0.202633	0.200332	0.198524
1348	0.201483	0.19836	0.200661	0.20214	0.196223	0.198031
1349	0.202305	0.196059	0.200168	0.200825	0.200661	0.19721
1350	0.200825	0.19836	0.20214	0.202469	0.200332	0.199346
1351	0.200332	0.196881	0.201812	0.201647	0.195895	0.199346
1352	0.199675	0.196881	0.201483	0.201647	0.198524	0.199346
1353	0.198689	0.200332	0.201154	0.200661	0.197045	0.198689
1354	0.199018	0.194744	0.201812	0.203948	0.199346	0.199018
1355	0.200168	0.201976	0.198689	0.202798	0.198853	0.198524
1356	0.19573	0.199511	0.196223	0.200825	0.199182	0.200332
1357	0.197867	0.199839	0.199675	0.200497	0.197867	0.199018
1358	0.199839	0.201976	0.19573	0.204441	0.197703	0.201976
1359	0.195895	0.201647	0.199182	0.20214	0.199346	0.200661
1360	0.19836	0.198689	0.200004	0.196717	0.202305	0.19721
1361	0.197867	0.202633	0.202962	0.201647	0.198196	0.197045
1362	0.199018	0.197703	0.197538	0.200497	0.200004	0.199018
1363	0.197867	0.197374	0.203126	0.201647	0.199675	0.195895
1364	0.19836	0.199675	0.19836	0.201154	0.201812	0.196552
1365	0.202633	0.199182	0.19836	0.204113	0.199346	0.199346
1366	0.205592	0.198524	0.196881	0.200661	0.197703	0.19836
1367	0.196223	0.197703	0.199839	0.203784	0.200661	0.199018
1368	0.20099	0.201319	0.200497	0.205263	0.196223	0.197867
1369	0.198689	0.200004	0.203455	0.204606	0.199675	0.200004
1370	0.197867	0.197374	0.201154	0.200497	0.199839	0.200004
1371	0.19836	0.197538	0.201483	0.200332	0.199675	0.201483
1372	0.199018	0.203455	0.207728	0.202798	0.199182	0.198196
1373	0.199346	0.19721	0.198524	0.198853	0.200332	0.199839
1374	0.197374	0.202469	0.198689	0.200332	0.197045	0.197374
1375	0.200004	0.200497	0.200825	0.199182	0.203291	0.199675
1376	0.199182	0.200168	0.199018	0.201812	0.199839	0.199018
1377	0.201154	0.201319	0.199839	0.198524	0.198853	0.198853
1378	0.200004	0.200332	0.200168	0.201319	0.198853	0.198196
1379	0.200332	0.200661	0.201483	0.201154	0.199839	0.200168
1380	0.199839	0.201319	0.198031	0.200661	0.204934	0.204934
1381	0.196223	0.199511	0.198689	0.199675	0.199346	0.196881
1382	0.196717	0.198853	0.201483	0.200825	0.199018	0.199511
1383	0.204277	0.198853	0.201812	0.198524	0.201647	0.195895
1384	0.199346	0.198689	0.201319	0.201812	0.201483	0.200332
1385	0.20214	0.199346	0.203784	0.201647	0.199675	0.197045
1386	0.201319	0.199182	0.199675	0.198689	0.203784	0.200332
1387	0.199839	0.20099	0.202962	0.204113	0.199018	0.199675
1388	0.199675	0.198196	0.203126	0.201154	0.200168	0.199675
1389	0.202633	0.198689	0.199675	0.209372	0.202798	0.197538
1390	0.197867	0.196388	0.201154	0.201976	0.201154	0.201483
1391	0.200497	0.197867	0.201976	0.200332	0.200497	0.199511
1392	0.201483	0.197538	0.199839	0.199182	0.202469	0.202633
1393	0.199346	0.198524	0.200661	0.201812	0.201647	0.20099
1394	0.201812	0.205921	0.199839	0.198689	0.200497	0.199018
1395	0.197538	0.201812	0.200497	0.202633	0.203455	0.201976
1396	0.197867	0.19836	0.19836	0.199675	0.20099	0.198524
1397	0.200661	0.200332	0.200004	0.195402	0.204441	0.19836
1398	0.201976	0.199839	0.197538	0.202633	0.202962	0.198689
1399	0.198031	0.196552	0.199675	0.202798	0.203291	0.199182
1400	0.201647	0.199018	0.198031	0.200825	0.200825	0.198196
1401	0.200497	0.198524	0.202469	0.20362	0.205592	0.199018
1402	0.200497	0.198196	0.201154	0.20099	0.203291	0.202798
1403	0.199511	0.198853	0.201483	0.201154	0.20477	0.199675
1404	0.199839	0.199839	0.203126	0.202962	0.207728	0.199511
1405	0.199346	0.200497	0.198196	0.200497	0.202962	0.202798
1406	0.199182	0.200332	0.19836	0.200661	0.20362	0.198853
1407	0.19836	0.198689	0.198524	0.200825	0.202798	0.199182
1408	0.198196	0.200661	0.196717	0.201154	0.200332	0.19721
1409	0.200332	0.199346	0.19836	0.201154	0.200661	0.20099
1410	0.19721	0.19836	0.199511	0.201483	0.202305	0.201976
1411	0.198524	0.198689	0.200497	0.199675	0.201812	0.200497
1412	0.19573	0.201812	0.20214	0.200004	0.206578	0.197867
1413	0.200497	0.200497	0.199182	0.199182	0.201976	0.200825
1414	0.198524	0.199839	0.201483	0.199675	0.205099	0.199839
1415	0.200004	0.208222	0.196552	0.201319	0.207235	0.199182
1416	0.199675	0.200825	0.20099	0.202633	0.202633	0.201154
1417	0.201483	0.199675	0.198031	0.198031	0.201483	0.19836
1418	0.198689	0.200825	0.198853	0.199511	0.20214	0.199511
1419	0.201319	0.202798	0.201154	0.195895	0.203948	0.198031
1420	0.199182	0.199839	0.201812	0.201483	0.203948	0.199839
1421	0.197374	0.200497	0.202633	0.202798	0.203784	0.200168
1422	0.201483	0.197703	0.198031	0.199346	0.203948	0.20099
1423	0.203126	0.200168	0.203291	0.202798	0.202633	0.196059
1424	0.199675	0.199018	0.198853	0.200825	0.205921	0.203291
1425	0.199839	0.199346	0.202962	0.200497	0.203455	0.199346
1426	0.201154	0.199182	0.201647	0.202305	0.206249	0.197045
1427	0.19721	0.201976	0.204441	0.202305	0.20362	0.203126
1428	0.201976	0.202469	0.199182	0.197374	0.203455	0.198524
1429	0.198196	0.200661	0.201154	0.200661	0.204441	0.193265
1430	0.200661	0.200825	0.198196	0.198031	0.201154	0.194416
1431	0.198689	0.198031	0.20214	0.201483	0.208715	0.196552
1432	0.20099	0.201812	0.202305	0.200825	0.198689	0.197538
1433	0.200497	0.198853	0.200004	0.199511	0.204934	0.198031
1434	0.200004	0.200332	0.202305	0.201812	0.20362	0.194909
1435	0.200661	0.199182	0.199018	0.199346	0.203455	0.202633
1436	0.199182	0.200825	0.201647	0.200332	0.203455	0.200168
1437	0.199839	0.202798	0.202633	0.196059	0.033839	0.200168
1438	0.20099	0.200497	0.205592	0.197045	0.038934	0.202633
1439	0.20099	0.20099	0.200497	0.196717	0.045837	0.20477
1440	0.200004	0.203948	0.200004	0.19721	0.051425	0.197703
1441	0.201154	0.199839	0.202633	0.197374	0.0603	0.200661
1442	0.19836	0.200497	0.201483	0.202469	0.068189	0.202469
1443	0.201976	0.199675	0.199839	0.202305	0.071477	0.199182
1444	0.200825	0.195895	0.201812	0.20099	0.075914	0.201319
1445	0.20214	0.200825	0.202798	0.200332	0.008692	0.201154
1446	0.198689	0.199182	0.199675	0.203784	0.015102	0.202798
1447	0.197867	0.198031	0.199346	0.197703	0.02069	0.20099
1448	0.197045	0.200497	0.199839	0.199675	0.018882	0.200497
1449	0.197867	0.203291	0.202305	0.201812	0.034989	0.199346
1450	0.201647	0.200332	0.196881	0.198196	0.0437	0.201976
1451	0.198689	0.200825	0.20099	0.203291	0.049946	0.19721
1452	0.20214	0.200497	0.199346	0.200825	0.058985	0.202305
1453	0.200825	0.199675	0.201319	0.207235	0.062273	0.198853
1454	0.201647	0.201319	0.200332	0.196881	0.070983	0.199346
1455	0.20099	0.203291	0.201319	0.204277	0.07575	0.199511
1456	0.202962	0.200168	0.201319	0.200332	0.084132	0.200661
1457	0.198524	0.200497	0.204277	0.203784	0.089063	0.205263
1458	0.200004	0.200497	0.200825	0.200004	0.086762	0.201812
1459	0.197374	0.201154	0.201976	0.202469	0.087584	0.197703
1460	0.199346	0.202305	0.19836	0.200168	0.094158	0.196388
1461	0.19721	0.206085	0.200004	0.20099	0.103033	0.199346
1462	0.197538	0.202305	0.200825	0.198853	0.10632	0.197703
1463	0.195895	0.203455	0.201154	0.199346	0.111087	0.200825
1464	0.199018	0.203126	0.203455	0.201976	0.111415	0.200168
1465	0.200168	0.199346	0.202469	0.20099	0.114702	0.201319
1466	0.199018	0.200332	0.200661	0.202962	0.101554	0.200661
1467	0.200661	0.200825	0.202305	0.201483	0.100568	0.202962
1468	0.199018	0.201319	0.200661	0.20214	0.104184	0.20214
1469	0.200825	0.201319	0.201483	0.197703	0.108786	0.201647
1470	0.198853	0.201647	0.204934	0.200004	0.111415	0.200004
1471	0.203291	0.205263	0.19573	0.201483	0.113388	0.198689
1472	0.200825	0.201976	0.200825	0.199839	0.113388	0.200661
1473	0.206414	0.204606	0.200168	0.200661	0.106649	0.199182
1474	0.201319	0.198524	0.203126	0.200004	0.016253	0.201319
1475	0.200661	0.201483	0.200332	0.200661	0.017074	0.198031
1476	0.201976	0.201154	0.203126	0.203126	0.029072	0.198196
1477	0.200168	0.201319	0.202469	0.202305	0.012472	0.199182
1478	0.198031	0.20214	0.199839	0.201319	0.021019	0.202469
1479	0.19836	0.201483	0.202305	0.20099	0.027429	0.197374
1480	0.19836	0.200497	0.203455	0.20099	0.034989	0.203126
1481	0.196552	0.201812	0.204113	0.199182	0.040906	0.204934
1482	0.197703	0.200004	0.204277	0.202305	0.048795	0.202962
1483	0.200168	0.202633	0.196059	0.200004	0.05274	0.205427
1484	0.200661	0.201812	0.204934	0.200004	0.061122	0.203126
1485	0.199346	0.201319	0.201976	0.196881	0.064574	0.198031
1486	0.201812	0.201647	0.198196	0.198689	0.070162	0.201812
1487	0.200168	0.202798	0.203948	0.20214	0.077393	0.197374
1488	0.202469	0.20099	0.200497	0.198031	0.080187	0.200168
1489	0.198689	0.199675	0.196059	0.19573	0.08709	0.210687
1490	0.201812	0.201976	0.199018	0.200825	0.055041	0.20099
1491	0.199182	0.201319	0.201812	0.203455	0.002775	0.199675
1492	0.200661	0.202305	0.199182	0.200332	0.008363	0.201319
1493	0.19721	0.20099	0.204277	0.201812	0.017074	0.201647
1494	0.196059	0.203126	0.198853	0.202962	0.021512	0.203455
1495	0.196059	0.193922	0.200497	0.200332	0.027758	0.200825
1496	0.196552	0.0105	0.201483	0.200661	0.003104	0.200332
1497	0.197374	0.001132	0.197374	0.201319	0.00935	0.201976
1498	0.200004	0.010336	0.199346	0.202305	0.016581	0.201483
1499	0.198853	0.01954	0.201319	0.197538	0.025457	0.202798
1500	0.198524	0.028251	0.201319	0.199675	0.032031	0.204113
1501	0.199182	0.03236	0.199018	0.200004	0.036962	0.203948
1502	0.200497	0.041728	0.201647	0.201976	0.045344	0.200332
1503	0.199675	0.049124	0.198853	0.197538	0.054548	0.200004
1504	0.199839	0.057999	0.206907	0.199346	0.058328	0.201647
1505	0.204277	0.064409	0.196223	0.199511	0.06293	0.200004
1506	0.193265	0.067039	0.195566	0.200825	0.071805	0.199018
1507	0.200332	0.0769	0.196552	0.202469	0.076079	0.200825
1508	0.200168	0.077886	0.199839	0.202469	0.081174	0.202305
1509	0.198689	0.083639	0.198196	0.200661	0.08331	0.201976
1510	0.199346	0.090542	0.199675	0.201647	0.09235	0.203291
1511	0.199346	0.09498	0.198689	0.201483	0.092186	0.200825
1512	0.199182	0.096623	0.200497	0.202633	0.098595	0.204113
1513	0.199182	0.102047	0.20214	0.199839	0.100403	0.199511
1514	0.199346	0.10517	0.201647	0.200168	0.105498	0.201812
1515	0.199675	0.109443	0.207564	0.201483	0.105005	0.201647
1516	0.199346	0.116017	0.199018	0.197374	0.111908	0.202469
1517	0.193758	0.11914	0.200825	0.199675	0.112073	0.201812
1518	0.203126	0.118647	0.199346	0.200661	0.117168	0.199018
1519	0.199182	0.126207	0.200661	0.205921	0.120126	0.200661
1520	0.199018	0.129001	0.198689	0.200332	0.122263	0.201647
1521	0.194909	0.127687	0.202798	0.200332	0.126207	0.201483
1522	0.199346	0.133932	0.196881	0.048138	0.130809	0.200332
1523	0.201154	0.135247	0.20099	0.058985	0.13311	0.200497
1524	0.197045	0.137877	0.196881	0.061779	0.135083	0.199182
1525	0.201647	0.140178	0.201154	0.069011	0.129495	0.202633
1526	0.200332	0.14593	0.194251	0.075092	0.127687	0.199182
1527	0.200661	0.141657	0.200332	0.079201	0.130809	0.202469
1528	0.197374	0.147245	0.19721	0.088077	0.009021	0.203291
1529	0.201976	0.147081	0.201812	0.089556	0.000146	0.202469
1530	0.199182	0.152011	0.205592	0.096294	0.006227	0.199346
1531	0.200497	0.149053	0.200497	0.097609	0.004912	0.200168
1532	0.198853	0.152833	0.20362	0.103362	0.003926	0.198689
1533	0.200004	0.156942	0.198689	0.104677	-0.000183	0.201647
1534	0.19836	0.157435	0.200661	0.108621	0.00294	0.199018
1535	0.201319	0.159408	0.19721	0.111744	0.009678	0.200661
1536	0.195566	0.16253	0.204441	0.113881	0.000639	0.201154
1537	0.198524	0.165817	0.187513	0.115524	-0.002484	0.200825
1538	0.200661	0.163681	0.19836	0.130152	0.006062	0.201154
1539	0.197045	0.168776	0.19836	0.128508	0.00935	0.197867
1540	0.202962	0.164831	0.199675	0.129659	0.002118	0.20477
1541	0.201647	0.169105	0.199511	0.134261	0.012472	0.200825
1542	0.201976	0.166968	0.199675	0.136233	0.018389	0.200004
1543	0.197374	0.17157	0.20099	0.138205	0.022498	0.201319
1544	0.202305	0.173542	0.198689	0.142314	0.035154	0.204113
1545	0.199182	0.17157	0.200661	0.144451	0.036633	0.201647
1546	0.200332	0.166804	0.200168	0.145108	0.042385	0.198689
1547	0.199346	0.173707	0.201812	0.148889	0.049946	0.202469
1548	0.20099	0.174693	0.188827	0.150039	0.055863	0.202962
1549	0.198031	0.172556	0.20099	0.152998	0.060465	0.199346
1550	0.198689	0.175515	0.199018	0.153984	0.064409	0.198524
1551	0.200168	0.17798	0.200497	0.008363	0.069504	0.201812
1552	0.200004	0.178637	0.198031	0.012637	0.072627	0.199346
1553	0.199182	0.178309	0.197703	0.021512	0.079037	0.202633
1554	0.198524	0.180774	0.195566	0.028251	0.083803	0.204113
1555	0.20099	0.181431	0.196717	0.036304	0.088241	0.201319
1556	0.199839	0.182089	0.198689	0.043865	0.091035	0.196717
1557	0.199018	0.180445	0.196881	0.049288	0.097609	0.202633
1558	0.198853	0.183404	0.19721	0.051096	0.100732	0.199346
1559	0.198853	0.183075	0.192443	0.05537	0.107799	0.199839
1560	0.197045	0.185376	0.19836	0.060465	0.106978	0.201154
1561	0.198689	0.181267	0.200004	0.065231	0.112566	0.201812
1562	0.199675	0.183239	0.200168	0.073942	0.118483	0.20099
1563	0.202305	0.181924	0.200332	0.061944	0.118154	0.201483
1564	0.199511	0.184554	0.203455	0.067696	0.123413	0.201319
1565	0.201319	0.185705	0.20362	0.069504	0.121605	0.20099
1566	0.203948	0.186033	0.200332	0.075421	0.127358	0.200661
1567	0.197374	0.184718	0.20099	0.068847	0.128344	0.198031
1568	0.197867	0.183568	0.201812	0.056191	0.133275	0.202633
1569	0.201319	0.188827	0.201976	0.052411	0.133603	0.199511
1570	0.20099	0.186362	0.199182	0.060465	0.137877	0.201647
1571	0.19836	0.1908	0.197538	0.062273	0.137055	0.200661
1572	0.200825	0.189814	0.199511	0.067368	0.144615	0.200825
1573	0.205263	0.191786	0.198689	0.076736	0.142314	0.199839
1574	0.202469	0.187513	0.198853	0.076572	0.147574	0.20099
1575	0.200825	0.188334	0.201154	0.082982	0.14856	0.19836
1576	0.202633	0.190635	0.198524	0.08709	0.148889	0.200661
1577	0.202962	0.192443	0.199346	0.091692	0.154641	0.199018
1578	0.199346	0.189978	0.199182	0.094322	0.153984	0.192443
1579	0.194744	0.190471	0.196717	0.103526	0.159901	0.200332
1580	0.199018	0.190307	0.204441	0.104348	0.159572	0.199346
1581	0.201319	0.190471	0.204441	0.109607	0.163516	0.199346
1582	0.201483	0.191293	0.19721	0.111415	0.159901	0.206085
1583	0.201154	0.189978	0.204113	0.114374	0.166311	0.201154
1584	0.201319	0.192443	0.20214	0.115853	0.162859	0.201154
1585	0.200661	0.190471	0.201812	0.120455	0.166146	0.203291
1586	0.200004	0.193758	0.200168	0.124893	0.166475	0.199018
1587	0.199346	0.194087	0.199839	0.128015	0.165817	0.202469
1588	0.203784	0.196552	0.199182	0.129001	0.165982	0.20099
1589	0.199018	0.191128	0.200825	0.130152	0.172556	0.200168
1590	0.200168	0.194744	0.200497	0.137877	0.169269	0.201812
1591	0.202798	0.193594	0.200168	0.138534	0.169105	0.201976
1592	0.194909	0.197538	0.19836	0.141821	0.172885	0.199839
1593	0.199839	0.19458	0.197703	0.142479	0.174035	0.205427
1594	0.201483	0.197703	0.200497	0.147081	0.177651	0.198689
1595	0.202305	0.191293	0.196223	0.147409	0.175515	0.200332
1596	0.195073	0.195895	0.200332	0.149053	0.178309	0.197703
1597	0.204277	0.193101	0.197374	0.15234	0.180281	0.198524
1598	0.199346	0.194744	0.199346	0.156285	0.181267	0.202962
1599	0.201154	0.191128	0.200661	0.156449	0.180281	0.202305
1600	0.199182	0.194744	0.201647	0.158586	0.183732	0.199675
1601	0.199182	0.194251	0.199511	0.158421	0.182089	0.202633
1602	0.199839	0.19458	0.201647	0.159736	0.18439	0.20362
1603	0.199675	0.197374	0.200661	0.161709	0.184883	0.200332
1604	0.19836	0.195073	0.199346	0.163188	0.183404	0.203455
1605	0.199675	0.197045	0.20362	0.164503	0.181924	0.200332
1606	0.201154	0.193922	0.198031	0.16253	0.185047	0.204934
1607	0.197703	0.196059	0.199018	0.168118	0.182911	0.201812
1608	0.200661	0.195237	0.19721	0.169269	0.18439	0.202305
1609	0.198196	0.200168	0.198689	0.172392	0.18439	0.200661
1610	0.199018	0.194744	0.19458	0.170419	0.189485	0.201319
1611	0.196552	0.194744	0.20362	0.17535	0.190307	0.196717
1612	0.198853	0.196059	0.196717	0.174035	0.188827	0.200661
1613	0.197867	0.195566	0.199839	0.176336	0.187348	0.20099
1614	0.196388	0.198689	0.202798	0.173542	0.188827	0.199018
1615	0.198689	0.197703	0.202469	0.178473	0.193265	0.203784
1616	0.201976	0.194909	0.201154	0.178144	0.185047	0.196059
1617	0.202962	0.196552	0.201483	0.179788	0.192608	0.201483
1618	0.200332	0.198689	0.200661	0.175515	0.190964	0.200004
1619	0.199182	0.196223	0.200825	0.181924	0.192115	0.202469
1620	0.200332	0.198689	0.20099	0.177158	0.190635	0.200497
1621	0.204113	0.195895	0.200004	0.180938	0.193594	0.20362
1622	0.192608	0.199675	0.200332	0.182253	0.191293	0.200332
1623	0.197538	0.19721	0.199346	0.179623	0.193429	0.20362
1624	0.19836	0.200497	0.200004	0.183239	0.193265	0.201976
1625	0.199675	0.200497	0.19836	0.18176	0.192279	0.201483
1626	0.198031	0.199018	0.199182	0.185376	0.192608	0.207071
1627	0.201319	0.198689	0.198196	0.181924	0.193101	0.196223
1628	0.200004	0.201483	0.200332	0.183404	0.195073	0.194087
1629	0.199511	0.198853	0.196552	0.185869	0.195073	0.197374
1630	0.200661	0.196881	0.200332	0.186362	0.19573	0.199018
1631	0.201812	0.198031	0.202633	0.187841	0.192279	0.196388
1632	0.205427	0.195073	0.201647	0.188006	0.195402	0.199511
1633	0.200168	0.198524	0.201812	0.188827	0.195895	0.195895
1634	0.200004	0.197538	0.201976	0.185705	0.197374	0.200497
1635	0.198031	0.20099	0.200661	0.190307	0.194909	0.200825
1636	0.200332	0.198524	0.201319	0.186198	0.199018	0.201812
1637	0.200168	0.194744	0.199182	0.187019	0.194087	0.205099
1638	0.199675	0.197045	0.197703	0.18554	0.193922	0.202469
1639	0.197867	0.198689	0.200332	0.189485	0.196388	0.20099
1640	0.199511	0.197045	0.196717	0.184061	0.195566	0.202305
1641	0.191786	0.199018	0.202962	0.194087	0.197703	0.202305
1642	0.197703	0.199839	0.195237	0.187841	0.196552	0.200497
1643	0.204113	0.198853	0.199346	0.192115	0.196881	0.200168
1644	0.194087	0.200825	0.198196	0.191457	0.199018	0.198689
1645	0.192936	0.206085	0.200004	0.189978	0.201319	0.20362
1646	0.199675	0.199182	0.199511	0.192443	0.197867	0.200168
1647	0.199675	0.197045	0.199675	0.194744	0.200004	0.201154
1648	0.200497	0.201154	0.200332	0.192279	0.197045	0.188334
1649	0.200661	0.196059	0.199675	0.195237	0.200168	0.200661
1650	0.200004	0.201976	0.200661	0.196881	0.199018	0.200825
1651	0.200497	0.194251	0.201812	0.192115	0.200497	0.200497
1652	0.198524	0.199511	0.198689	0.196881	0.198524	0.199346
1653	0.198853	0.196881	0.200168	0.19458	0.199346	0.201647
1654	0.202633	0.20099	0.197538	0.197045	0.20362	0.197867
1655	0.198196	0.199182	0.198689	0.200168	0.197867	0.204277
1656	0.196552	0.197045	0.201647	0.196881	0.199511	0.197867
1657	0.198031	0.199839	0.199346	0.194744	0.197703	0.204934
1658	0.195237	0.198853	0.199675	0.19573	0.199018	0.201483
1659	0.196717	0.199675	0.198853	0.195402	0.197703	0.18932
1660	0.19721	0.198524	0.199346	0.195895	0.199346	0.200168
1661	0.196388	0.199018	0.198524	0.195566	0.198031	0.194416
1662	0.197538	0.197867	0.200497	0.193922	0.201483	0.19836
1663	0.19836	0.197867	0.199675	0.197045	0.19721	0.200004
1664	0.199346	0.199346	0.201319	0.195073	0.197703	0.199182
1665	0.197045	0.201483	0.199675	0.196059	0.196717	0.198689
1666	0.198689	0.199675	0.200168	0.201319	0.199675	0.203291
1667	0.199018	0.202633	0.199675	0.195237	0.201812	0.198689
1668	0.20362	0.205592	0.200497	0.195566	0.200497	0.201483
1669	0.198031	0.202305	0.200825	0.198031	0.197538	0.200497
1670	0.197538	0.199182	0.200661	0.196059	0.19836	0.201483
1671	0.194416	0.200661	0.201812	0.194087	0.200497	0.199839
1672	0.198689	0.20099	0.199018	0.19573	0.19721	0.200497
1673	0.195073	0.197867	0.201319	0.19721	0.200004	0.202469
1674	0.195237	0.201483	0.200004	0.196881	0.199018	0.199346
1675	0.196717	0.199018	0.202962	0.201647	0.198689	0.202305
1676	0.186691	0.200168	0.199839	0.197045	0.201976	0.195895
1677	0.199182	0.200497	0.199346	0.191786	0.200825	0.199018
1678	0.197703	0.200825	0.199182	0.194744	0.197045	0.200332
1679	0.197538	0.20099	0.199346	0.195895	0.201647	0.200168
1680	0.200168	0.201812	0.19721	0.196059	0.200004	0.199839
1681	0.200332	0.196552	0.202798	0.196388	0.196552	0.202305
1682	0.200497	0.201647	0.200497	0.195566	0.196223	0.197538
1683	0.199675	0.199839	0.198031	0.200168	0.198031	0.199018
1684	0.200332	0.200168	0.201319	0.196388	0.200168	0.201812
1685	0.201647	0.20099	0.198524	0.194087	0.198031	0.200661
1686	0.199346	0.200332	0.199018	0.198689	0.198689	0.201483
1687	0.188663	0.196388	0.197703	0.19458	0.201647	0.201976
1688	0.197374	0.196881	0.201812	0.188006	0.197045	0.20362
1689	0.198689	0.201154	0.200332	0.194087	0.19836	0.20214
1690	0.197045	0.199018	0.200661	0.195073	0.199839	0.202469
1691	0.195566	0.204113	0.19836	0.200661	0.201319	0.201976
1692	0.198853	0.197703	0.19573	0.198853	0.199511	0.203455
1693	0.202469	0.200004	0.198196	0.199018	0.201976	0.200661
1694	0.198031	0.202305	0.201319	0.199839	0.201647	0.200497
1695	0.202633	0.200661	0.197374	0.197538	0.198689	0.199839
1696	0.201812	0.199675	0.198689	0.200168	0.20099	0.199675
1697	0.198853	0.200825	0.199839	0.199675	0.197045	0.200825
1698	0.198524	0.199675	0.195895	0.195895	0.201483	0.201154
1699	0.19721	0.199839	0.202305	0.19573	0.200168	0.199346
1700	0.200004	0.20099	0.198524	0.19721	0.200497	0.201319
1701	0.200825	0.200168	0.201319	0.198031	0.200332	0.199182
1702	0.199182	0.197538	0.198031	0.198031	0.200825	0.201154
1703	0.197374	0.199675	0.200004	0.202633	0.197867	0.200825
1704	0.199675	0.201483	0.197538	0.200825	0.203291	0.20477
1705	0.196223	0.200661	0.198689	0.199346	0.203126	0.203784
1706	0.197538	0.196223	0.195402	0.198524	0.197703	0.201154
1707	0.198196	0.202798	0.201154	0.20099	0.202305	0.201647
1708	0.198853	0.200825	0.199839	0.200825	0.196059	0.201976
1709	0.193758	0.198689	0.197703	0.200168	0.201647	0.199018
1710	0.194909	0.196223	0.19836	0.19836	0.199182	0.199018
1711	0.199182	0.199839	0.198853	0.198689	0.202305	0.202798
1712	0.19836	0.199839	0.201154	0.197538	0.200004	0.198689
1713	0.198031	0.197374	0.199675	0.198524	0.200825	0.200168
1714	0.198031	0.203455	0.203948	0.201154	0.196059	0.200004
1715	0.200825	0.201976	0.196717	0.198031	0.197867	0.201319
1716	0.19836	0.206085	0.199675	0.202962	0.202305	0.202305
1717	0.200004	0.198853	0.197867	0.199675	0.200825	0.198853
1718	0.199675	0.203291	0.200168	0.201812	0.200332	0.199675
1719	0.203784	0.199182	0.198853	0.201976	0.196552	0.200332
1720	0.200004	0.199675	0.19721	0.203291	0.201319	0.199839
1721	0.199675	0.200168	0.201647	0.198031	0.197538	0.198524
1722	0.199018	0.198853	0.201319	0.199182	0.202305	0.204113
1723	0.203291	0.200497	0.197374	0.199182	0.195402	0.200332
1724	0.19458	0.197538	0.202633	0.200168	0.204606	0.202305
1725	0.198853	0.201812	0.20362	0.201483	0.197045	0.201154
1726	0.20099	0.198031	0.201154	0.200332	0.197867	0.202798
1727	0.198853	0.208386	0.20099	0.200004	0.201976	0.20099
1728	0.197867	0.19836	0.197703	0.194251	0.200332	0.203948
1729	0.198524	0.200332	0.200661	0.201976	0.199346	0.197045
1730	0.200825	0.199839	0.196388	0.200825	0.199346	0.200825
1731	0.197703	0.200332	0.196059	0.199182	0.201319	0.200825
1732	0.197703	0.200661	0.199511	0.197374	0.197045	0.201319
1733	0.201319	0.202305	0.194744	0.19721	0.196059	0.204113
1734	0.197703	0.199839	0.197045	0.197374	0.198853	0.202633
1735	0.196552	0.204277	0.200332	0.199018	0.200332	0.20099
1736	0.19836	0.203784	0.200332	0.198689	0.193922	0.199839
1737	0.200332	0.200332	0.198524	0.203291	0.199839	0.202962
1738	0.203126	0.204441	0.199675	0.200332	0.198031	0.199675
1739	0.197374	0.199511	0.200168	0.203784	0.19721	0.201812
1740	0.200004	0.199839	0.199675	0.202469	0.196881	0.200004
1741	0.202962	0.200497	0.200004	0.202962	0.203126	0.200004
1742	0.202305	0.200168	0.196717	0.20477	0.20214	0.20099
1743	0.199018	0.197374	0.203291	0.199018	0.202962	0.200825
1744	0.196717	0.204606	0.203455	0.200004	0.201483	0.200004
1745	0.20099	0.199511	0.200168	0.201319	0.198031	0.204441
1746	0.193429	0.203455	0.20214	0.19836	0.197374	0.201483
1747	0.194087	0.201812	0.199511	0.199018	0.200332	0.200661
1748	0.200004	0.199346	0.200332	0.201154	0.197045	0.202633
1749	0.199018	0.19836	0.201154	0.19836	0.198853	0.201154
1750	0.19573	0.200825	0.199182	0.201812	0.199511	0.201154
1751	0.200497	0.199675	0.198031	0.199511	0.198853	0.198853
1752	0.199511	0.20214	0.201154	0.196881	0.199675	0.201319
1753	0.199675	0.201319	0.195402	0.200661	0.19836	0.197703
1754	0.197374	0.198853	0.201647	0.200497	0.201812	0.199511
1755	0.199675	0.202798	0.195073	0.202962	0.200332	0.200004
1756	0.196717	0.199675	0.199511	0.20362	0.202962	0.201647
1757	0.196881	0.202962	0.19836	0.200825	0.199511	0.200661
1758	0.20099	0.200168	0.197703	0.200661	0.200332	0.201483
1759	0.198689	0.202962	0.200332	0.202469	0.200168	0.201483
1760	0.199511	0.189649	0.202305	0.199182	0.201483	0.202469
1761	0.197374	0.196552	0.201154	0.201319	0.200332	0.202633
1762	0.200004	0.202633	0.199018	0.201319	0.200168	0.202305
1763	0.200825	0.197374	0.202633	0.199018	0.201976	0.201319
1764	0.200168	0.199018	0.196881	0.196552	0.202305	0.201319
1765	0.196717	0.201812	0.198524	0.200825	0.201976	0.201647
1766	0.198524	0.202962	0.199346	0.201647	0.201483	0.200661
1767	0.195566	0.200497	0.199675	0.201154	0.200661	0.202469
1768	0.194087	0.202962	0.19836	0.198853	0.197045	0.199675
1769	0.199839	0.198196	0.203126	0.200825	0.198196	0.202305
1770	0.198853	0.199018	0.197867	0.202633	0.198031	0.205263
1771	0.199839	0.188663	0.198196	0.201976	0.198031	0.197867
1772	0.200661	0.200825	0.199511	0.200661	0.199182	0.199839
1773	0.202305	0.199839	0.19836	0.205427	0.199839	0.201647
1774	0.203948	0.203291	0.200004	0.200661	0.201976	0.199675
1775	0.202633	0.201647	0.199839	0.200497	0.203948	0.200497
1776	0.198689	0.200168	0.203455	0.203126	0.201319	0.198689
1777	0.200825	0.201483	0.199675	0.201319	0.200825	0.204441
1778	0.198689	0.201976	0.202798	0.201483	0.200497	0.201319
1779	0.199346	0.201154	0.198031	0.199018	0.201812	0.202305
1780	0.200497	0.201319	0.204277	0.201647	0.198196	0.201647
1781	0.200332	0.203126	0.197374	0.200332	0.197538	0.199182
1782	0.196552	0.194416	0.197374	0.200168	0.203291	0.20099
1783	0.196552	0.198853	0.196059	0.196223	0.199511	0.198031
1784	0.199839	0.200825	0.198031	0.199675	0.194416	0.195402
1785	0.199675	0.202469	0.197703	0.195566	0.200168	0.199018
1786	0.198689	0.202798	0.198853	0.202305	0.202962	0.202305
1787	0.201154	0.203455	0.200004	0.20362	0.196059	0.19836
1788	0.201483	0.203291	0.199018	0.198689	0.198196	0.202633
1789	0.197703	0.203455	0.20099	0.202469	0.198524	0.198853
1790	0.204934	0.202633	0.197538	0.200332	0.199675	0.201483
1791	0.200661	0.202305	0.201154	0.202305	0.200661	0.19721
1792	0.200825	0.203784	0.198853	0.197045	0.202962	0.19836
1793	0.199839	0.203784	0.205099	0.200497	0.199346	0.200168
1794	0.202305	0.200825	0.20362	0.196717	0.199675	0.196881
1795	0.198524	0.204113	0.201812	0.201154	0.197538	0.200497
1796	0.197867	0.199839	0.200661	0.200661	0.20099	0.198031
1797	0.202798	0.204113	0.200332	0.20214	0.203784	0.198524
1798	0.201976	0.200004	0.200332	0.201319	0.198196	0.200497
1799	0.19721	0.200497	0.201647	0.203455	0.199182	0.200332
1800	0.200168	0.202633	0.200661	0.198689	0.199182	0.197374
1801	0.197045	0.20214	0.200497	0.200332	0.196881	0.200168
1802	0.19836	0.205263	0.20362	0.198689	0.193429	0.196388
1803	0.199018	0.203948	0.199182	0.196388	0.199839	0.197867
1804	0.197045	0.205592	0.198689	0.200825	0.198853	0.194744
1805	0.200168	0.200661	0.196223	0.198689	0.198524	0.198196
1806	0.201154	0.205592	0.199018	0.203455	0.199182	0.194416
1807	0.200497	0.20362	0.19836	0.201319	0.202962	0.196881
1808	0.196552	0.205263	0.194744	0.198031	0.199511	0.196552
1809	0.20099	0.205921	0.200168	0.200497	0.202798	0.196717
1810	0.197867	0.202633	0.200661	0.204113	0.201319	0.199018
1811	0.196881	0.198524	0.202469	0.199182	0.20099	0.200168
1812	0.197703	0.202633	0.200661	0.203455	0.204113	0.201483
1813	0.201154	0.201976	0.196717	0.200661	0.200168	0.19721
1814	0.199018	0.201319	0.204441	0.200004	0.200332	0.197867
1815	0.197538	0.202469	0.19836	0.200825	0.197703	0.199018
1816	0.199018	0.202305	0.20214	0.197867	0.198031	0.197538
1817	0.200168	0.206085	0.199675	0.200825	0.19836	0.199182
1818	0.197538	0.200168	0.201812	0.201154	0.199182	0.199346
1819	0.198196	0.200825	0.198031	0.198689	0.197703	0.197538
1820	0.200004	0.203784	0.200497	0.200825	0.200004	0.200004
1821	0.196717	0.199182	0.200332	0.20477	0.198031	0.199675
1822	0.199839	0.195895	0.199675	0.199511	0.197045	0.196223
1823	0.200168	0.201647	0.199675	0.202633	0.203948	0.19721
1824	0.204113	0.199346	0.20099	0.199675	0.197374	0.197045
1825	0.198689	0.199346	0.20099	0.200332	0.200497	0.194909
1826	0.20099	0.199511	0.199018	0.199839	0.202305	0.198031
1827	0.201976	0.199675	0.201483	0.201154	0.201647	0.195073
1828	0.201812	0.196388	0.199511	0.200497	0.201154	0.194909
1829	0.200332	0.197703	0.201154	0.205263	0.201319	0.199182
1830	0.200004	0.198196	0.197374	0.200004	0.198196	0.197867
1831	0.201154	0.196059	0.207728	0.201976	0.200497	0.197374
1832	0.198689	0.199511	0.199346	0.200661	0.200661	0.201483
1833	0.197703	0.196717	0.202798	0.199182	0.202633	0.199675
1834	0.198196	0.197703	0.202633	0.19836	0.198689	0.199346
1835	0.197045	0.199675	0.202305	0.196881	0.197374	0.205427
1836	0.198031	0.200004	0.196388	0.203948	0.19836	0.200168
1837	0.197867	0.200332	0.200661	0.199182	0.199511	0.201483
1838	0.200332	0.200332	0.199675	0.199182	0.197045	0.200004
1839	0.205263	0.200825	0.198524	0.199018	0.198689	0.200332
1840	0.20214	0.204277	0.199018	0.198031	0.197538	0.19721
1841	0.19836	0.202305	0.197867	0.197538	0.199346	0.198689
1842	0.202798	0.202305	0.202469	0.198524	0.200168	0.198689
1843	0.196388	0.204934	0.201647	0.198853	0.201812	0.198196
1844	0.197867	0.203455	0.201812	0.210194	0.202305	0.199675
1845	0.202469	0.201319	0.198196	0.198689	0.199182	0.198853
1846	0.200168	0.199182	0.198853	0.200661	0.19836	0.200497
1847	0.201647	0.197703	0.199511	0.202305	0.201154	0.199675
1848	0.200004	0.199839	0.200497	0.200332	0.201812	0.200332
1849	0.199018	0.200825	0.19836	0.202962	0.200332	0.198853
1850	0.201812	0.198031	0.201976	0.203455	0.204934	0.201647
1851	0.198524	0.201483	0.201483	0.200168	0.201647	0.200332
1852	0.197867	0.200497	0.203126	0.200661	0.197867	0.205263
1853	0.200825	0.20099	0.202962	0.20099	0.200004	0.202469
1854	0.199675	0.20099	0.199839	0.203455	0.201319	0.20214
1855	0.198524	0.201319	0.200168	0.199675	0.199346	0.199675
1856	0.200332	0.203126	0.200168	0.199018	0.201154	0.19836
1857	0.198524	0.204113	0.199018	0.199839	0.199839	0.202305
1858	0.200332	0.200825	0.195073	0.197867	0.199839	0.200004
1859	0.201483	0.206414	0.200332	0.200661	0.200168	0.198031
1860	0.196388	0.203948	0.196388	0.199182	0.200661	0.197374
1861	0.199346	0.200004	0.198524	0.201154	0.199018	0.202962
1862	0.198689	0.200004	0.196059	0.201976	0.20099	0.200332
1863	0.197045	0.200825	0.202305	0.205263	0.199675	0.202305
1864	0.200332	0.20362	0.205427	0.200168	0.196552	0.199018
1865	0.197374	0.201976	0.20099	0.20362	0.20099	0.201319
1866	0.196881	0.20362	0.201483	0.202305	0.200004	0.199018
1867	0.201154	0.201483	0.201812	0.199346	0.206414	0.201154
1868	0.199675	0.204934	0.202798	0.199839	0.199346	0.201483
1869	0.200004	0.200168	0.202469	0.198524	0.200825	0.202469
1870	0.200661	0.205427	0.197374	0.200825	0.199346	0.200332
1871	0.201319	0.207728	0.200168	0.201154	0.199675	0.199675
1872	0.198689	0.20214	0.200332	0.201647	0.199675	0.200004
1873	0.201154	0.204606	0.200497	0.19836	0.198689	0.200168
1874	0.198196	0.205921	0.201647	0.202798	0.198524	0.200332
1875	0.202305	0.20362	0.199839	0.199182	0.199675	0.199182
1876	0.201154	0.207071	0.201483	0.200004	0.202962	0.201647
1877	0.200332	0.197538	0.197374	0.199346	0.200004	0.200661
1878	0.200332	0.204277	0.197867	0.199839	0.200004	0.195895
1879	0.19836	0.202633	0.201483	0.201319	0.201483	0.197867
1880	0.200825	0.199675	0.198689	0.20099	0.19836	0.200497
1881	0.200004	0.201647	0.198689	0.201154	0.200004	0.195073
1882	0.204113	0.203948	0.204934	0.200004	0.201647	0.199182
1883	0.200497	0.202305	0.202962	0.202305	0.196717	0.20099
1884	0.197703	0.198031	0.199511	0.200497	0.199018	0.199675
1885	0.199839	0.202633	0.205756	0.200332	0.196552	0.204441
1886	0.201483	0.200497	0.201812	0.200661	0.199675	0.201319
1887	0.199839	0.200825	0.202962	0.200825	0.201647	0.200825
1888	0.201483	0.200168	0.196552	0.194251	0.198689	0.202633
1889	0.199182	0.203126	0.201483	0.19836	0.18932	0.203126
1890	0.202469	0.203126	0.198853	0.197045	0.199511	0.197867
1891	0.195895	0.203291	0.199182	0.200825	0.200497	0.200497
1892	0.200004	0.202305	0.199182	0.198524	0.197374	0.198524
1893	0.199839	0.20214	0.195402	0.201319	0.203291	0.200332
1894	0.197867	0.20099	0.197045	0.203126	0.200497	0.202962
1895	0.200004	0.19721	0.197703	0.198031	0.200661	0.20214
1896	0.199511	0.199182	0.198853	0.200332	0.200332	0.197867
1897	0.198031	0.197374	0.201812	0.200661	0.20855	0.200497
1898	0.193101	0.200497	0.198689	0.201976	0.204441	0.201154
1899	0.199675	0.19836	0.199018	0.201647	0.203455	0.200168
1900	0.199018	0.19836	0.198689	0.201812	0.195895	0.201976
1901	0.199675	0.195895	0.199018	0.194416	0.204113	0.200825
1902	0.199511	0.201647	0.200168	0.204113	0.203455	0.203948
1903	0.20099	0.200168	0.199182	0.197703	0.202305	0.200497
1904	0.200004	0.201154	0.20214	0.200168	0.20214	0.201647
1905	0.201154	0.203291	0.19721	0.201483	0.201483	0.201483
1906	0.198196	0.200825	0.198031	0.199182	0.202305	0.20214
1907	0.19836	0.201319	0.201812	0.199182	0.199182	0.199839
1908	0.199511	0.201319	0.200825	0.199346	0.20214	0.201154
1909	0.19721	0.201319	0.197867	0.197703	0.201812	0.201483
1910	0.197703	0.200661	0.197374	0.197867	0.202633	0.202962
1911	0.196552	0.203784	0.199346	0.198031	0.197538	0.202305
1912	0.201812	0.199839	0.198853	0.19573	0.19836	0.202305
1913	0.201483	0.201812	0.199018	0.199675	0.200497	0.200497
1914	0.199675	0.197867	0.198031	0.199346	0.20099	0.200825
1915	0.200332	0.198196	0.199675	0.199346	0.202469	0.199018
1916	0.203126	0.199182	0.198853	0.20214	0.201483	0.199839
1917	0.197867	0.199018	0.198853	0.201976	0.203126	0.200497
1918	0.204113	0.196881	0.201483	0.198031	0.198853	0.200004
1919	0.201483	0.19836	0.204113	0.200168	0.203455	0.199511
1920	0.201483	0.197867	0.201154	0.199839	0.202305	0.202962
1921	0.201483	0.199675	0.201483	0.200004	0.199839	0.201647
1922	0.199346	0.198196	0.199839	0.200497	0.202305	0.200168
1923	0.197867	0.198196	0.200661	0.200825	0.199346	0.202798
1924	0.199346	0.201812	0.202633	0.198524	0.199675	0.200497
1925	0.200168	0.197538	0.200332	0.199346	0.202469	0.201647
1926	0.200661	0.20099	0.195566	0.19721	0.197703	0.200004
1927	0.198853	0.196717	0.197045	0.200661	0.201647	0.202633
1928	0.200004	0.200825	0.199675	0.200004	0.197867	0.198524
1929	0.201319	0.195895	0.200332	0.199182	0.200004	0.200004
1930	0.200168	0.203291	0.20099	0.20099	0.202469	0.195402
1931	0.200332	0.197703	0.19836	0.200661	0.201647	0.200825
1932	0.199018	0.199511	0.198853	0.199018	0.19836	0.203291
1933	0.201976	0.201976	0.196059	0.197045	0.204441	0.199511
1934	0.201812	0.202798	0.203455	0.200661	0.200825	0.201319
1935	0.202305	0.197045	0.199675	0.198031	0.200497	0.202305
1936	0.200497	0.198031	0.199839	0.200332	0.202305	0.197374
1937	0.203948	0.202962	0.201154	0.194251	0.197867	0.197703
1938	0.203126	0.196388	0.201154	0.199346	0.201154	0.199839
1939	0.199839	0.198689	0.199018	0.20099	0.198853	0.199839
1940	0.194087	0.198031	0.200332	0.200825	0.20099	0.200825
1941	0.198196	0.200661	0.199018	0.199511	0.202305	0.197374
1942	0.196552	0.198031	0.200332	0.200825	0.202962	0.205427
1943	0.197374	0.196223	0.197867	0.20099	0.19836	0.200497
1944	0.195402	0.193101	0.199675	0.196388	0.201812	0.201154
1945	0.195566	0.196552	0.196552	0.197045	0.198524	0.200497
1946	0.205592	0.197867	0.195566	0.196059	0.199346	0.204934
1947	0.188663	0.198853	0.199182	0.201647	0.204441	0.199346
1948	0.203126	0.197867	0.198524	0.197867	0.199675	0.200168
1949	0.202633	0.198524	0.198031	0.201976	0.200497	0.199346
1950	0.204606	0.199182	0.193922	0.200332	0.200168	0.199675
1951	0.201154	0.197867	0.199511	0.20214	0.201319	0.195073
1952	0.202633	0.198031	0.196717	0.199346	0.199346	0.196717
1953	0.195237	0.199346	0.199675	0.201812	0.202962	0.204606
1954	0.201976	0.19836	0.198853	0.198196	0.202305	0.197374
1955	0.201319	0.199675	0.201319	0.199346	0.204113	0.20099
1956	0.199182	0.197703	0.19836	0.200168	0.200004	0.20214
1957	0.197867	0.198196	0.197045	0.199511	0.200168	0.202305
1958	0.194251	0.20099	0.198689	0.200004	0.202305	0.198853
1959	0.197703	0.197374	0.199182	0.197867	0.200661	0.203455
1960	0.196881	0.199675	0.200497	0.202962	0.198853	0.201812
1961	0.198524	0.203126	0.200497	0.200661	0.201319	0.201319
1962	0.197538	0.199346	0.198689	0.200661	0.199511	0.201812
1963	0.201812	0.197703	0.196552	0.199182	0.20099	0.200497
1964	0.197374	0.201976	0.202305	0.202305	0.19836	0.201812
1965	0.199346	0.200825	0.19836	0.19721	0.200332	0.200004
1966	0.199675	0.200004	0.201319	0.200825	0.202305	0.199018
1967	0.197867	0.196881	0.202633	0.199839	0.203291	0.199839
1968	0.199511	0.19721	0.198524	0.200004	0.199511	0.199675
1969	0.197867	0.200497	0.198689	0.19836	0.198689	0.198689
1970	0.201647	0.195566	0.200168	0.200332	0.203455	0.20099
1971	0.198196	0.195237	0.200661	0.20362	0.198853	0.198524
1972	0.198031	0.191621	0.201976	0.202469	0.202962	0.201154
1973	0.200004	0.194744	0.199675	0.202798	0.199182	0.199839
1974	0.195073	0.194087	0.199346	0.201647	0.202633	0.202305
1975	0.19573	0.195402	0.200825	0.204113	0.200168	0.204113
1976	0.197538	0.195237	0.201483	0.197045	0.202633	0.204113
1977	0.195073	0.195566	0.201319	0.20099	0.201976	0.20214
1978	0.198196	0.197538	0.204934	0.201154	0.201976	0.201812
1979	0.196552	0.196388	0.198196	0.201976	0.199346	0.200497
1980	0.199182	0.193429	0.199675	0.19836	0.198524	0.198196
1981	0.199346	0.195402	0.199839	0.199346	0.200497	0.19836
1982	0.200004	0.198689	0.200825	0.199675	0.198689	0.199675
1983	0.198853	0.19573	0.203126	0.19836	0.199511	0.199182
1984	0.198853	0.196552	0.193922	0.197045	0.195566	0.198524
1985	0.19836	0.199182	0.197867	0.200661	0.201483	0.20477
1986	0.200332	0.195402	0.201976	0.201812	0.200497	0.198853
1987	0.198853	0.194416	0.199675	0.196881	0.201319	0.200497
1988	0.199511	0.196881	0.199839	0.198853	0.199675	0.202798
1989	0.199018	0.19836	0.200168	0.202305	0.204934	0.20214
1990	0.192443	0.195237	0.19836	0.201976	0.201319	0.20362
1991	0.198031	0.194416	0.200004	0.200004	0.201154	0.200825
1992	0.196552	0.200661	0.201154	0.199675	0.20099	0.200332
1993	0.196388	0.187841	0.198031	0.201154	0.20477	0.206085
1994	0.196223	0.194744	0.200497	0.202305	0.199018	0.200168
1995	0.197703	0.192936	0.199018	0.201154	0.197867	0.200332
1996	0.192443	0.19458	0.19573	0.209865	0.201154	0.205756
1997	0.197867	0.193758	0.201976	0.201154	0.200497	0.202305
1998	0.200004	0.193429	0.203455	0.202305	0.204277	0.20099
1999	0.199018	0.195073	0.200004	0.200497	0.202962	0.200825
2000	0.19721	0.19573	0.199346	0.199346	0.207728	0.202305
2001	0.195566	0.197867	0.198524	0.200168	0.200497	0.198524
2002	0.203455	0.195073	0.19721	0.200332	0.20477	0.197703
2003	0.197374	0.196059	0.197045	0.198853	0.201812	0.194744
2004	0.199018	0.194087	0.198031	0.203291	0.201319	0.202469
2005	0.199839	0.196059	0.199182	0.201976	0.200661	0.19836
2006	0.197867	0.193922	0.195895	0.201154	0.20214	0.199182
2007	0.195895	0.195566	0.198196	0.202962	0.201483	0.201812
2008	0.194909	0.194087	0.19836	0.200168	0.20099	0.200497
2009	0.191128	0.192443	0.20214	0.202469	0.200332	0.200168
2010	0.197538	0.19573	0.200825	0.202469	0.201483	0.204934
2011	0.193922	0.193265	0.205592	0.203948	0.205427	0.201154
2012	0.194909	0.196717	0.199182	0.198689	0.200825	0.199346
2013	0.197374	0.194251	0.202633	0.20362	0.201976	0.199675
2014	0.200497	0.196223	0.200497	0.193429	0.199675	0.198196
2015	0.198524	0.193265	0.199511	0.203948	0.202962	0.200168
2016	0.199182	0.193594	0.198524	0.199675	0.199675	0.19836
2017	0.19836	0.195237	0.200825	0.197703	0.202633	0.201154
2018	0.200497	0.196388	0.196059	0.201319	0.199839	0.201976
2019	0.199346	0.193101	0.199675	0.203126	0.20099	0.202798
2020	0.197045	0.192443	0.198853	0.201483	0.199839	0.199839
2021	0.197703	0.196388	0.199675	0.201483	0.201483	0.201319
2022	0.197045	0.19195	0.204113	0.203455	0.203784	0.20214
2023	0.19458	0.191457	0.199675	0.198853	0.20362	0.201976
2024	0.196059	0.197538	0.202469	0.203948	0.198853	0.197374
2025	0.199675	0.192608	0.200004	0.198524	0.201154	0.200168
2026	0.199346	0.193922	0.201812	0.203948	0.20214	0.19836
2027	0.196059	0.194087	0.201483	0.201154	0.201483	0.203784
2028	0.197374	0.192772	0.200661	0.202305	0.201483	0.20099
2029	0.196223	0.192772	0.198524	0.201319	0.203291	0.202962
2030	0.198196	0.191786	0.200825	0.202305	0.201483	0.206085
2031	0.196388	0.187677	0.200497	0.198689	0.200168	0.199675
2032	0.196881	0.19458	0.201154	0.200004	0.200332	0.202798
2033	0.197374	0.194744	0.198196	0.195402	0.199346	0.20099
2034	0.197867	0.192115	0.200825	0.197538	0.198853	0.205427
2035	0.200497	0.196552	0.198853	0.199018	0.19721	0.199346
2036	0.202798	0.194416	0.203291	0.201976	0.199675	0.20099
2037	0.199182	0.193758	0.205427	0.201647	0.19458	0.20099
2038	0.200661	0.192608	0.196717	0.19836	0.19458	0.207893
2039	0.195402	0.193594	0.200497	0.201319	0.195402	0.198524
2040	0.194251	0.195237	0.199018	0.200168	0.201976	0.201812
2041	0.195237	0.190142	0.200332	0.203455	0.199182	0.204277
2042	0.197538	0.190142	0.200497	0.199839	0.200661	0.201154
2043	0.19573	0.196881	0.200332	0.203126	0.199675	0.202305
2044	0.196552	0.194909	0.192772	0.199675	0.199675	0.200168
2045	0.19721	0.191457	0.198524	0.201647	0.202962	0.201812
2046	0.199346	0.19458	0.199675	0.206578	0.198689	0.199675
2047	0.200332	0.191621	0.20099	0.201976	0.200004	0.20099
2048	0.198853	0.19195	0.200168	0.200168	0.198853	0.20099
2049	0.197538	0.19721	0.200497	0.201319	0.200004	0.201976
2050	0.193429	0.191786	0.199182	0.199511	0.199346	0.204113
2051	0.197867	0.193101	0.198196	0.199839	0.199182	0.201812
2052	0.194416	0.196388	0.200168	0.205921	0.199839	0.201647
2053	0.197045	0.1908	0.199839	0.19836	0.198196	0.201812
2054	0.197867	0.195566	0.199346	0.202798	0.200004	0.202633
2055	0.196388	0.192936	0.184554	0.198524	0.199839	0.201812
2056	0.193758	0.194744	0.198689	0.201647	0.199018	0.193922
2057	0.201319	0.192443	0.20099	0.200332	0.200332	0.198853
2058	0.200332	0.193594	0.202305	0.204606	0.19721	0.201319
2059	0.198853	0.192936	0.201154	0.200661	0.195073	0.200168
2060	0.197045	0.191457	0.201976	0.204113	0.194909	0.199346
2061	0.198524	0.189814	0.199675	0.201647	0.197867	0.194909
2062	0.196223	0.193101	0.200332	0.202962	0.200168	0.202962
2063	0.19721	0.192443	0.196552	0.206742	0.196552	0.196388
2064	0.195402	0.18932	0.20362	0.199839	0.197703	0.201812
2065	0.193101	0.199346	0.20099	0.199675	0.200497	0.201319
2066	0.199346	0.196717	0.195237	0.200004	0.200168	0.202962
2067	0.197374	0.194744	0.19836	0.200168	0.195895	0.191621
2068	0.199839	0.194087	0.197538	0.199018	0.199018	0.201647
2069	0.197538	0.196388	0.200004	0.205921	0.196717	0.20214
2070	0.200332	0.192115	0.197374	0.197867	0.199182	0.199839
2071	0.196717	0.19573	0.197867	0.20477	0.195073	0.199346
2072	0.199018	0.19458	0.199018	0.201647	0.197867	0.201483
2073	0.196552	0.19195	0.200004	0.200661	0.198689	0.200825
2074	0.194087	0.204113	0.198689	0.198524	0.199675	0.198524
2075	0.196388	0.194416	0.200825	0.203126	0.200661	0.198689
2076	0.19836	0.195895	0.200168	0.194744	0.199182	0.196552
2077	0.196881	0.195895	0.199182	0.203784	0.199511	0.199839
2078	0.19836	0.194744	0.197374	0.201483	0.196717	0.196388
2079	0.201812	0.194416	0.200825	0.202469	0.201319	0.197374
2080	0.196552	0.196223	0.199839	0.202962	0.19721	0.200497
2081	0.200004	0.192772	0.200004	0.20099	0.199182	0.20362
2082	0.197703	0.194744	0.197374	0.200661	0.199511	0.199346
2083	0.201483	0.194087	0.198853	0.200332	0.199182	0.203291
2084	0.195237	0.195895	0.200332	0.200497	0.198524	0.20099
2085	0.196552	0.197374	0.197538	0.187513	0.196717	0.200168
2086	0.197867	0.196223	0.197538	0.200825	0.196552	0.203126
2087	0.19721	0.196223	0.196717	0.201319	0.19836	0.200825
2088	0.198524	0.198196	0.196388	0.200661	0.195402	0.204441
2089	0.195566	0.194087	0.199346	0.196717	0.194416	0.199018
2090	0.19573	0.19458	0.198853	0.200497	0.20099	0.199675
2091	0.194251	0.194251	0.199839	0.200825	0.199839	0.199182
2092	0.198031	0.199182	0.200004	0.201976	0.199675	0.201319
2093	0.199346	0.196881	0.19721	0.200497	0.198196	0.195895
2094	0.198196	0.194087	0.198853	0.203948	0.200332	0.204277
2095	0.199675	0.193758	0.199346	0.202962	0.198524	0.19836
2096	0.197703	0.194416	0.20099	0.19573	0.203126	0.19721
2097	0.197538	0.196059	0.200004	0.198031	0.201319	0.20099
2098	0.199675	0.195895	0.199839	0.197045	0.198524	0.202633
2099	0.198196	0.195566	0.203291	0.202633	0.199675	0.20362
2100	0.196388	0.193758	0.196223	0.19721	0.200825	0.20362
2101	0.196717	0.196388	0.198031	0.200332	0.19721	0.200168
2102	0.195895	0.193758	0.199346	0.201976	0.198524	0.203291
2103	0.195566	0.196059	0.197538	0.202633	0.19721	0.202798
2104	0.198524	0.196059	0.200332	0.199675	0.19721	0.201319
2105	0.197538	0.196388	0.199182	0.202305	0.197703	0.203784
2106	0.198196	0.195895	0.198031	0.199511	0.195895	0.199675
2107	0.195073	0.201154	0.197374	0.203126	0.203291	0.19836
2108	0.196388	0.199182	0.192279	0.196059	0.197867	0.201154
2109	0.19836	0.199675	0.197374	0.196717	0.201319	0.200332
2110	0.194416	0.200332	0.199346	0.200497	0.202633	0.194909
2111	0.197867	0.195073	0.196388	0.20362	0.203291	0.201319
2112	0.197374	0.194416	0.197374	0.200661	0.202469	0.197867
2113	0.193922	0.199018	0.199182	0.200497	0.201976	0.200004
2114	0.194416	0.18932	0.199182	0.202633	0.201319	0.199182
2115	0.204277	0.187841	0.199839	0.200497	0.201647	0.199511
2116	0.196388	0.1908	0.201647	0.202469	0.20099	0.201319
2117	0.200497	0.190142	0.198853	0.200004	0.200004	0.201647
2118	0.197538	0.190471	0.200825	0.200661	0.199182	0.197538
2119	0.195402	0.192115	0.199346	0.201647	0.200004	0.203455
2120	0.196717	0.194744	0.199511	0.20099	0.195402	0.203126
2121	0.196059	0.189978	0.198689	0.198031	0.197703	0.199839
2122	0.199182	0.194909	0.20214	0.200497	0.199839	0.202305
2123	0.195073	0.193758	0.198689	0.201483	0.19721	0.200497
2124	0.190142	0.196059	0.201812	0.199182	0.200332	0.200004
2125	0.19836	0.1908	0.194909	0.198689	0.198524	0.200661
2126	0.199018	0.190142	0.198196	0.201976	0.199839	0.199839
2127	0.19721	0.195073	0.199675	0.198853	0.200168	0.193265
2128	0.199511	0.192608	0.198689	0.203126	0.197374	0.197703
2129	0.196717	0.195237	0.200825	0.200661	0.200497	0.195566
2130	0.200332	0.198853	0.199018	0.200661	0.202633	0.200004
2131	0.197374	0.19458	0.200332	0.203291	0.200497	0.198853
2132	0.199839	0.19195	0.201319	0.194744	0.201319	0.198853
2133	0.197703	0.007213	0.202633	0.198689	0.198031	0.204113
2134	0.200661	0.010993	0.201154	0.19836	0.202469	0.199018
2135	0.192772	0.005898	0.202798	0.200825	0.199346	0.201154
2136	0.196388	0.014938	0.201483	0.199018	0.196552	0.201812
2137	0.198196	0.022498	0.203126	0.202962	0.196059	0.20214
2138	0.19721	0.031867	0.19458	0.200004	0.196223	0.202962
2139	0.199182	0.038112	0.199511	0.201976	0.19458	0.200168
2140	0.198031	0.015102	0.19836	0.200661	0.191786	0.197045
2141	0.197703	0.023484	0.198196	0.199675	0.197703	0.20099
2142	0.192608	0.032195	0.19836	0.199839	0.198031	0.199018
2143	0.196717	0.032195	0.199182	0.202469	0.197867	0.199018
2144	0.194416	0.040413	0.201319	0.200825	0.203126	0.200168
2145	0.196388	0.04748	0.199018	0.199346	0.199511	0.204606
2146	0.194416	0.054548	0.199675	0.202469	0.199839	0.19836
2147	0.19836	0.010993	0.198196	0.197374	0.20477	0.196552
2148	0.197374	0.020855	0.200332	0.199511	0.199346	0.200004
2149	0.199018	0.027758	0.200661	0.201976	0.199675	0.201319
2150	0.201319	0.035154	0.19836	0.202469	0.201319	0.20099
2151	0.197374	0.040742	0.198524	0.201483	0.197374	0.201647
2152	0.200332	0.053233	0.20099	0.20214	0.20099	0.20477
2153	0.197538	0.058492	0.198689	0.201319	0.195237	0.199839
2154	0.196552	0.062437	0.199511	0.200825	0.200332	0.202798
2155	0.19721	0.068847	0.200497	0.20099	0.198031	0.20099
2156	0.193429	0.073778	0.193922	0.200497	0.197867	0.203784
2157	0.191293	0.081338	0.196059	0.201319	0.198524	0.197867
2158	0.198524	0.084132	0.198524	0.199675	0.201319	0.200497
2159	0.194087	0.088898	0.200004	0.200661	0.19721	0.198196
2160	0.196552	0.093665	0.198689	0.198524	0.195402	0.202469
2161	0.201154	0.101554	0.200168	0.201319	0.19458	0.199346
2162	0.199182	0.106978	0.199182	0.201812	0.198031	0.201647
2163	0.200332	0.108786	0.200332	0.202305	0.201319	0.199839
2164	0.198524	0.116017	0.200661	0.199018	0.199182	0.199182
2165	0.198524	0.116017	0.199511	0.202305	0.199018	0.200825
2166	0.200004	0.115689	0.201483	0.201154	0.20099	0.200168
2167	0.197867	0.120455	0.200497	0.202305	0.199182	0.203948
2168	0.200661	0.125057	0.19836	0.198689	0.195402	0.200332
2169	0.199018	0.125714	0.200497	0.200004	0.199839	0.200168
2170	0.199346	0.130809	0.201812	0.200332	0.196223	0.199511
2171	0.200168	0.132124	0.202305	0.198689	0.197867	0.206414
2172	0.1908	0.137384	0.19721	0.199182	0.19836	0.198853
2173	0.194416	0.138699	0.20099	0.199182	0.198196	0.202469
2174	0.193922	0.142807	0.199182	0.201976	0.195073	0.200661
2175	0.198524	0.141821	0.199839	0.199182	0.199839	0.200497
2176	0.197867	0.144615	0.199018	0.200004	0.200004	0.19836
2177	0.199018	0.145602	0.200661	0.198524	0.196881	0.20099
2178	0.198524	0.15234	0.199675	0.199346	0.198196	0.198524
2179	0.197703	0.153984	0.195073	0.20099	0.19836	0.197867
2180	0.199018	0.1576	0.205592	0.198031	0.199182	0.196881
2181	0.199839	0.158257	0.197703	0.200332	0.19836	0.197867
2182	0.199018	0.158093	0.198853	0.20099	0.198689	0.200332
2183	0.187513	0.159408	0.197374	0.196059	0.197867	0.199839
2184	0.197374	0.159572	0.202469	0.202305	0.196717	0.201483
2185	0.197045	0.162202	0.197045	0.196059	0.195073	0.201647
2186	0.201319	0.162859	0.199511	0.201976	0.194251	0.200825
2187	0.19721	0.166804	0.204606	0.202633	0.201154	0.201812
2188	0.198853	0.166968	0.199511	0.199018	0.198524	0.203455
2189	0.199018	0.170091	0.199346	0.197374	0.201154	0.196717
2190	0.201812	0.174035	0.197045	0.20099	0.202633	0.198689
2191	0.201812	0.170091	0.199182	0.200332	0.198689	0.199675
2192	0.198196	0.171406	0.196881	0.200004	0.199346	0.201976
2193	0.198196	0.173707	0.199346	0.198689	0.196881	0.199182
2194	0.194744	0.17157	0.199018	0.198689	0.199346	0.200004
2195	0.194909	0.176994	0.197867	0.201647	0.199675	0.19836
2196	0.197867	0.176829	0.200332	0.200497	0.197867	0.199675
2197	0.196552	0.177322	0.199675	0.201483	0.201319	0.19836
2198	0.202469	0.176665	0.197374	0.200497	0.19721	0.198689
2199	0.197703	0.177815	0.198524	0.206578	0.19573	0.201976
2200	0.199346	0.181431	0.197867	0.201976	0.19836	0.199346
2201	0.201647	0.184883	0.199346	0.201647	0.20099	0.201647
2202	0.201647	0.180938	0.197867	0.201647	0.198689	0.198524
2203	0.200332	0.180938	0.198689	0.202305	0.198031	0.199018
2204	0.197703	0.00031	0.196059	0.201319	0.199018	0.200661
2205	0.199018	0.008035	0.199182	0.200332	0.202305	0.201976
2206	0.194909	0.015595	0.200661	0.199839	0.200497	0.198524
2207	0.196388	0.025621	0.198031	0.204441	0.198689	0.201647
2208	0.19836	0.03236	0.198196	0.201319	0.197045	0.199675
2209	0.197538	0.040413	0.196388	0.200497	0.200004	0.201647
2210	0.194744	0.047809	0.201483	0.200497	0.195566	0.202962
2211	0.19573	0.053726	0.200004	0.199182	0.199018	0.199839
2212	0.195402	0.066217	0.200497	0.200497	0.202962	0.201154
2213	0.201483	0.066053	0.19458	0.197538	0.20099	0.196223
2214	0.199346	0.071148	0.199182	0.20099	0.200825	0.200004
2215	0.198689	0.076407	0.19836	0.200825	0.197538	0.199675
2216	0.200661	0.080516	0.197374	0.200825	0.20099	0.199182
2217	0.198031	0.086762	0.200168	0.199839	0.199675	0.199182
2218	0.199839	0.089063	0.199018	0.204277	0.200661	0.202305
2219	0.199182	0.093993	0.200332	0.197045	0.199346	0.200004
2220	0.199346	0.099582	0.199346	0.196388	0.203948	0.201647
2221	0.196881	0.104841	0.199675	0.200497	0.200332	0.201976
2222	0.200497	0.106978	0.200497	0.198524	0.200661	0.202469
2223	0.200332	0.111744	0.199839	0.199675	0.199346	0.199675
2224	0.203291	0.112401	0.198196	0.196881	0.199675	0.20099
2225	0.201483	0.114702	0.200332	0.199839	0.200168	0.198689
2226	0.19836	0.118483	0.199018	0.19721	0.197867	0.198524
2227	0.205263	0.123249	0.200661	0.199346	0.201154	0.202305
2228	0.197867	0.127029	0.200661	0.196388	0.199675	0.202962
2229	0.194251	0.13311	0.199182	0.199675	0.20099	0.201483
2230	0.199511	0.131796	0.194744	0.193101	0.19721	0.202962
2231	0.199839	0.135904	0.198689	0.193922	0.201319	0.200004
2232	0.19721	0.140835	0.198524	0.19195	0.197867	0.202633
2233	0.200004	0.140342	0.195237	0.194087	0.200661	0.203948
2234	0.200661	0.135576	0.199839	0.1908	0.199511	0.199182
2235	0.200661	0.143301	0.203948	0.189156	0.199346	0.202633
2236	0.200661	0.147903	0.199675	0.187841	0.19836	0.198853
2237	0.201647	0.149053	0.199182	0.185376	0.198524	0.202633
2238	0.198853	0.155299	0.199018	0.186855	0.197867	0.199675
2239	0.199839	0.152998	0.201647	0.188334	0.202962	0.198689
2240	0.197867	0.15612	0.201647	0.187513	0.201647	0.20099
2241	0.203126	0.153984	0.198524	0.184061	0.201647	0.203126
2242	0.201319	0.16138	0.203455	0.182746	0.201976	0.205263
2243	0.200168	0.16138	0.196717	0.179952	0.197867	0.202469
2244	0.198689	0.160558	0.199675	0.182911	0.201976	0.201812
2245	0.198524	0.157107	0.198689	0.179623	0.200661	0.202633
2246	0.200497	0.162859	0.198196	0.180116	0.200825	0.204113
2247	0.198196	0.165817	0.195895	0.174364	0.197538	0.198196
2248	0.198689	0.166639	0.197538	0.1742	0.201976	0.20214
2249	0.199346	0.169762	0.199182	0.177158	0.200497	0.200825
2250	0.20099	0.169105	0.198031	0.171077	0.202305	0.200332
2251	0.197538	0.172556	0.199346	0.173542	0.199182	0.198853
2252	0.197867	0.171077	0.197703	0.172885	0.201483	0.201812
2253	0.197867	0.176336	0.198689	0.166968	0.201154	0.199511
2254	0.200661	0.174693	0.198689	0.16779	0.200661	0.203784
2255	0.199018	0.176008	0.198196	0.166968	0.20214	0.198853
2256	0.19836	0.174528	0.199675	0.16253	0.202305	0.199346
2257	0.198524	0.176336	0.198853	0.164831	0.20099	0.200497
2258	0.199018	0.176008	0.19458	0.164667	0.200004	0.20099
2259	0.19836	0.181267	0.204441	0.16138	0.203455	0.198689
2260	0.19721	0.181431	0.199511	0.159243	0.202962	0.198524
2261	0.197867	0.180774	0.199182	0.159243	0.200168	0.200004
2262	0.196059	0.182089	0.201647	0.157271	0.197538	0.200825
2263	0.196552	0.179952	0.200004	0.155299	0.199182	0.200497
2264	0.196059	0.183732	0.198524	0.154312	0.202469	0.199839
2265	0.199182	0.182746	0.198689	0.151354	0.199675	0.201647
2266	0.197045	0.186691	0.198031	0.153162	0.197045	0.201483
2267	0.199839	0.188827	0.199511	0.150532	0.20099	0.201319
2268	0.19721	0.187184	0.197867	0.150697	0.200168	0.201154
2269	0.200168	0.185869	0.198853	0.148396	0.20099	0.200332
2270	0.198689	0.188499	0.20099	0.14971	0.201319	0.200332
2271	0.200497	0.187019	0.198196	0.14971	0.207564	0.198031
2272	0.201812	0.186691	0.199839	0.146916	0.200168	0.198853
2273	0.20362	0.187513	0.199675	0.145273	0.20099	0.201154
2274	0.199511	0.187513	0.20099	0.145108	0.200332	0.200825
2275	0.198689	0.187841	0.198524	0.144287	0.206414	0.197538
2276	0.19836	0.190142	0.201483	0.144615	0.201154	0.199511
2277	0.199018	0.188827	0.195895	0.142314	0.200661	0.19836
2278	0.19721	0.189156	0.197867	0.141328	0.201483	0.196881
2279	0.199018	0.188499	0.200661	0.141657	0.200497	0.199018
2280	0.199182	0.185047	0.199346	0.141	0.198031	0.203291
2281	0.200661	0.19195	0.19721	0.140013	0.20099	0.20099
2282	0.19721	0.190142	0.197703	0.13952	0.20214	0.203455
2283	0.201154	0.192279	0.200332	0.13952	0.198689	0.200825
2284	0.19836	0.190471	0.195073	0.136069	0.199675	0.201154
2285	0.19836	0.192936	0.197867	0.136562	0.200332	0.201154
2286	0.199675	0.192772	0.197538	0.134918	0.203291	0.200825
2287	0.195402	0.195073	0.199018	0.131631	0.201976	0.199018
2288	0.199675	0.18817	0.195402	0.124893	0.200004	0.200661
2289	0.199346	0.193594	0.193922	0.133275	0.199839	0.197374
2290	0.199018	0.192279	0.197538	0.126207	0.196881	0.199675
2291	0.194909	0.190471	0.197045	0.133275	0.200332	0.204277
2292	0.19836	0.193758	0.199018	0.129659	0.203291	0.205099
2293	0.199839	0.191128	0.198689	0.128673	0.203948	0.201812
2294	0.199182	0.191128	0.200168	0.126372	0.200332	0.199346
2295	0.197374	0.18932	0.199839	0.124399	0.202962	0.205592
2296	0.197703	0.192608	0.20099	0.122098	0.200004	0.207235
2297	0.197703	0.193265	0.20099	0.118811	0.197703	0.203948
2298	0.198689	0.192772	0.202469	0.116675	0.197867	0.201812
2299	0.198196	0.190635	0.201319	0.118483	0.200825	0.203291
2300	0.195566	0.194087	0.19836	0.113388	0.19836	0.202633
2301	0.199675	0.193429	0.197538	0.108786	0.198196	0.201812
2302	0.20099	0.195073	0.199182	0.109443	0.205592	0.202305
2303	0.196881	0.192936	0.196223	0.106156	0.203126	0.198853
2304	0.192936	0.193594	0.199346	0.106485	0.202798	0.199675
2305	0.201154	0.195073	0.193594	0.093993	0.20099	0.200497
2306	0.197045	0.193101	0.195566	0.094815	0.20214	0.200332
2307	0.196388	0.193758	0.194087	0.090378	0.204606	0.198196
2308	0.198853	0.193101	0.197045	0.092843	0.196717	0.202633
2309	0.199182	0.193758	0.196552	0.089227	0.200497	0.20099
2310	0.197538	0.192608	0.198689	0.089556	0.204277	0.200825
2311	0.193101	0.192279	0.197374	0.088898	0.199182	0.201483
2312	0.201319	0.194416	0.200168	0.084461	0.201154	0.201812
2313	0.198853	0.193101	0.201154	0.085776	0.20362	0.20099
2314	0.198689	0.192608	0.199675	0.083968	0.206085	0.203784
2315	0.199839	0.193101	0.200332	0.084296	0.201319	0.200168
2316	0.200004	0.192772	0.200168	0.080681	0.20214	0.200661
2317	0.197867	0.194744	0.200004	0.081338	0.201154	0.205099
2318	0.199675	0.191457	0.19721	0.076407	0.199839	0.199839
2319	0.198853	0.196223	0.200825	0.080187	0.194251	0.198689
2320	0.199182	0.193922	0.197867	0.075585	0.199511	0.199839
2321	0.200004	0.195073	0.199018	0.075914	0.200661	0.200332
2322	0.199346	0.194251	0.19836	0.074599	0.201812	0.199675
2323	0.199675	0.196388	0.199511	0.074106	0.201812	0.200497
2324	0.197703	0.193101	0.200497	0.074106	0.20214	0.199511
2325	0.199511	0.194251	0.199511	0.074435	0.202962	0.200168
2326	0.197045	0.193265	0.197703	0.071477	0.201647	0.195073
2327	0.19721	0.19195	0.19836	0.07197	0.203784	0.199511
2328	0.197538	0.192608	0.200661	0.070819	0.198689	0.200004
2329	0.200004	0.1908	0.201812	0.068518	0.202305	0.19721
2330	0.198853	0.196223	0.202962	0.070983	0.198524	0.198031
2331	0.199511	0.192772	0.199018	0.066875	0.198853	0.200825
2332	0.19836	0.191128	0.20477	0.067203	0.201319	0.202305
2333	0.199346	0.19458	0.193429	0.06556	0.20099	0.200825
2334	0.198853	0.197045	0.203784	0.067532	0.200497	0.20099
2335	0.200332	0.193101	0.20099	0.066875	0.201319	0.199182
2336	0.199839	0.200168	0.199182	0.071477	0.199346	0.200332
2337	0.196717	0.195895	0.196388	0.072463	0.194744	0.200497
2338	0.200004	0.197538	0.202469	0.073284	0.203291	0.199018
2339	0.196388	0.197867	0.199346	0.074106	0.200168	0.201319
2340	0.201647	0.192279	0.19836	0.076572	0.20214	0.201319
2341	0.202798	0.196223	0.19573	0.0769	0.194909	0.199018
2342	0.195895	0.193758	0.199346	0.082488	0.200332	0.204606
2343	0.198196	0.191293	0.197374	0.08331	0.200825	0.19836
2344	0.195237	0.192936	0.198689	0.081502	0.201647	0.196881
2345	0.196388	0.194909	0.200168	0.083968	0.200004	0.197867
2346	0.201812	0.1908	0.193758	0.086104	0.201976	0.200497
2347	0.198689	0.193758	0.195073	0.089391	0.201154	0.199839
2348	0.200661	0.192443	0.190307	0.086926	0.201647	0.203291
2349	0.199346	0.196552	0.193922	0.094651	0.200825	0.198031
2350	0.198196	0.195073	0.188992	0.090542	0.200168	0.20099
2351	0.196388	0.196388	0.190142	0.096623	0.200497	0.205756
2352	0.196881	0.198031	0.189156	0.100075	0.201154	0.196059
2353	0.198524	0.201319	0.185212	0.105827	0.19836	0.20099
2354	0.192936	0.195895	0.176829	0.105663	0.198031	0.201483
2355	0.20099	0.199018	0.177322	0.108621	0.201812	0.200825
2356	0.199675	0.201154	0.170255	0.113716	0.201812	0.198196
2357	0.200497	0.196717	0.172885	0.118811	0.207728	0.199346
2358	0.199182	0.197045	0.16779	0.123742	0.197703	0.201319
2359	0.198853	0.194744	0.166475	0.127194	0.196388	0.199839
2360	0.194087	0.197374	0.174035	0.129001	0.19836	0.194909
2361	0.198689	0.195402	0.171077	0.136891	0.199182	0.200661
2362	0.199511	0.197374	0.169105	0.133932	0.198689	0.198196
2363	0.199839	0.196059	0.169598	0.136069	0.200004	0.199839
2364	0.195402	0.197703	0.170419	0.143301	0.199182	0.200168
2365	0.201976	0.19573	0.167297	0.139849	0.199839	0.20214
2366	0.199511	0.193429	0.171241	0.145766	0.197374	0.201154
2367	0.199675	0.199346	0.169105	0.145602	0.19836	0.199511
2368	0.199839	0.196717	0.170419	0.147081	0.199346	0.202633
2369	0.200661	0.19721	0.170419	0.14856	0.19836	0.200168
2370	0.198689	0.197538	0.170913	0.150697	0.197867	0.202305
2371	0.198031	0.197703	0.172063	0.152176	0.197374	0.197374
2372	0.200168	0.197867	0.172556	0.157271	0.20099	0.202633
2373	0.195402	0.19836	0.171406	0.156449	0.197045	0.201647
2374	0.200661	0.196717	0.170748	0.160887	0.197374	0.200661
2375	0.19836	0.198031	0.174857	0.163023	0.196881	0.199346
2376	0.199346	0.196388	0.172885	0.164174	0.197703	0.201319
2377	0.198689	0.19836	0.175843	0.165489	0.19721	0.197867
2378	0.198853	0.196717	0.176172	0.166475	0.19836	0.200332
2379	0.199018	0.198853	0.177651	0.17157	0.199018	0.203784
2380	0.201319	0.193922	0.177158	0.169598	0.198853	0.199839
2381	0.19836	0.200004	0.181103	0.172063	0.198031	0.200168
2382	0.200661	0.197867	0.179952	0.170255	0.198853	0.198689
2383	0.199675	0.195895	0.181431	0.174035	0.200168	0.199346
2384	0.197867	0.197538	0.177651	0.169762	0.196717	0.199675
2385	0.198853	0.198524	0.182582	0.172885	0.200497	0.20362
2386	0.199675	0.196717	0.182417	0.169105	0.195895	0.199675
2387	0.198031	0.195237	0.185705	0.17798	0.19836	0.203948
2388	0.197045	0.198853	0.18554	0.175021	0.192772	0.200332
2389	0.199018	0.193429	0.183075	0.179623	0.197374	0.201483
2390	0.193101	0.197867	0.186691	0.181924	0.199675	0.201319
2391	0.199839	0.196881	0.184061	0.181267	0.201812	0.201483
2392	0.199182	0.198031	0.188006	0.183239	0.194416	0.199511
2393	0.201483	0.197538	0.187841	0.18176	0.198689	0.203126
2394	0.19721	0.198524	0.188006	0.18554	0.200825	0.207071
2395	0.197045	0.195402	0.187677	0.182911	0.198689	0.205263
2396	0.196552	0.19721	0.189814	0.183897	0.195402	0.202469
2397	0.200168	0.196717	0.188992	0.186198	0.198196	0.202633
2398	0.200661	0.197867	0.18817	0.186362	0.199675	0.203126
2399	0.198689	0.198031	0.1908	0.187019	0.198853	0.19836
2400	0.200168	0.196717	0.190307	0.184225	0.200497	0.200004
2401	0.197374	0.198853	0.192279	0.188992	0.197374	0.201319
2402	0.197538	0.196388	0.189649	0.186526	0.200332	0.199839
2403	0.200661	0.199182	0.1908	0.1908	0.196388	0.199511
2404	0.195895	0.199511	0.192443	0.188006	0.197374	0.208879
2405	0.199839	0.199675	0.191786	0.191457	0.196552	0.209208
2406	0.201976	0.198196	0.193922	0.189485	0.19836	0.202633
2407	0.195237	0.19836	0.191621	0.189156	0.193758	0.204277
2408	0.20099	0.197703	0.193758	0.190142	0.196881	0.202798
2409	0.200332	0.201154	0.196552	0.192608	0.197045	0.199511
2410	0.195073	0.199675	0.189649	0.18932	0.196388	0.200497
2411	0.19721	0.199839	0.191128	0.188992	0.197867	0.198524
2412	0.201483	0.199182	0.1908	0.193429	0.200004	0.198689
2413	0.200004	0.200661	0.19458	0.192443	0.195402	0.200497
2414	0.200825	0.199018	0.196881	0.191621	0.196388	0.195895
2415	0.200497	0.200497	0.196717	0.194909	0.203784	0.203126
2416	0.199346	0.202469	0.192608	0.193922	0.197045	0.201319
2417	0.200497	0.200004	0.19721	0.192608	0.200168	0.202469
2418	0.199675	0.203784	0.194416	0.191457	0.198196	0.198689
2419	0.202962	0.201812	0.201812	0.194744	0.19836	0.201319
2420	0.19836	0.202962	0.197045	0.190471	0.196059	0.202469
2421	0.200004	0.200168	0.192608	0.195073	0.198196	0.199839
2422	0.201154	0.200497	0.195073	0.191128	0.196552	0.201976
2423	0.201647	0.197867	0.194416	0.194416	0.196223	0.202633
2424	0.197374	0.200497	0.196223	0.195237	0.194744	0.199018
2425	0.200004	0.20099	0.197703	0.193101	0.196223	0.198196
2426	0.198524	0.200168	0.198853	0.196717	0.199018	0.20099
2427	0.197374	0.199839	0.195566	0.19573	0.196881	0.200004
2428	0.195895	0.20099	0.196717	0.193429	0.199182	0.19836
2429	0.199346	0.201483	0.19573	0.194909	0.198524	0.197538
2430	0.198689	0.198853	0.201483	0.19721	0.199182	0.20099
2431	0.199511	0.199346	0.197045	0.196223	0.19721	0.200004
2432	0.199018	0.201154	0.199675	0.197867	0.198853	0.201319
2433	0.200332	0.200004	0.19721	0.196059	0.195566	0.196717
2434	0.202469	0.199182	0.19836	0.198031	0.196881	0.196552
2435	0.200004	0.200004	0.19721	0.195895	0.195237	0.19721
2436	0.200661	0.200661	0.199182	0.19573	0.196223	0.196717
2437	0.199511	0.205099	0.20099	0.19573	0.199018	0.201154
2438	0.200004	0.201319	0.194251	0.196223	0.195402	0.204441
2439	0.196552	0.203948	0.197703	0.19721	0.194251	0.199839
2440	0.19836	0.204441	0.201647	0.200004	0.197374	0.202469
2441	0.195895	0.202469	0.19458	0.200168	0.196717	0.202633
2442	0.197045	0.201154	0.197867	0.196223	0.199182	0.202469
2443	0.196059	0.206085	0.196717	0.196881	0.198853	0.20099
2444	0.198689	0.200004	0.19721	0.198689	0.198031	0.199839
2445	0.200825	0.200825	0.199182	0.199511	0.197867	0.201154
2446	0.198031	0.200825	0.196388	0.195237	0.196059	0.199182
2447	0.200825	0.196717	0.198524	0.20099	0.199346	0.200004
2448	0.199675	0.201483	0.199182	0.197374	0.19836	0.20099
2449	0.199182	0.200004	0.199511	0.200661	0.201812	0.204113
2450	0.197374	0.197703	0.197045	0.19721	0.198689	0.197703
2451	0.201483	0.203126	0.200168	0.199675	0.20099	0.200168
2452	0.199675	0.202798	0.188006	0.19836	0.202305	0.199675
2453	0.199018	0.199346	0.192936	0.192443	0.198524	0.200004
2454	0.198524	0.202798	0.19836	0.195402	0.19836	0.200168
2455	0.199839	0.198031	0.198031	0.194909	0.197703	0.202305
2456	0.196717	0.199018	0.193429	0.200332	0.196223	0.205427
2457	0.192608	0.201976	0.193758	0.196717	0.19195	0.204606
2458	0.192608	0.204277	0.19721	0.199675	0.196223	0.204441
2459	0.196059	0.199346	0.19573	0.196881	0.196223	0.202962
2460	0.19721	0.204113	0.199182	0.200825	0.199675	0.210029
2461	0.195566	0.201154	0.196717	0.196717	0.197374	0.196388
2462	0.197538	0.203291	0.202305	0.199346	0.200004	0.202633
2463	0.198853	0.203455	0.191457	0.19836	0.201319	0.197867
2464	0.200497	0.200661	0.198196	0.19836	0.202469	0.197538
2465	0.198689	0.200004	0.199511	0.198524	0.201976	0.199675
2466	0.20214	0.199346	0.198031	0.199018	0.199839	0.200168
2467	0.197867	0.198524	0.197374	0.200497	0.200332	0.198853
2468	0.202305	0.197045	0.198196	0.197374	0.199839	0.19721
2469	0.201976	0.20099	0.200332	0.20214	0.199182	0.199675
2470	0.203784	0.199182	0.196223	0.198524	0.198689	0.203948
2471	0.19721	0.200004	0.203455	0.200661	0.19836	0.20099
2472	0.200332	0.198524	0.195237	0.19836	0.196059	0.201976
2473	0.197045	0.200825	0.201647	0.199018	0.199018	0.200004
2474	0.195402	0.200004	0.197703	0.199511	0.200332	0.199839
2475	0.200332	0.20214	0.197867	0.199018	0.196388	0.202305
2476	0.193922	0.200825	0.197703	0.200825	0.197867	0.198689
2477	0.198196	0.202633	0.199511	0.200661	0.200661	0.198031
2478	0.200004	0.200825	0.196881	0.202305	0.19836	0.200497
2479	0.199346	0.198689	0.198524	0.199182	0.199675	0.199018
2480	0.199018	0.199346	0.197867	0.197045	0.196223	0.199346
2481	0.201319	0.197703	0.198031	0.200825	0.200332	0.200661
2482	0.199675	0.201154	0.19836	0.197374	0.199511	0.19573
2483	0.195237	0.198524	0.198196	0.197538	0.200497	0.200004
2484	0.199346	0.199675	0.200825	0.197374	0.196552	0.195895
2485	0.201647	0.202633	0.197374	0.196388	0.201319	0.197703
2486	0.198031	0.200004	0.197703	0.20099	0.197045	0.19836
2487	0.198031	0.197045	0.197045	0.198853	0.197867	0.199511
2488	0.199182	0.199346	0.199346	0.201154	0.198196	0.201154
2489	0.199839	0.196881	0.197045	0.200497	0.196717	0.200332
2490	0.200168	0.193429	0.198853	0.201154	0.195073	0.201812
2491	0.199346	0.196059	0.198689	0.198853	0.194909	0.200825
2492	0.197374	0.200497	0.200004	0.201976	0.201483	0.199839
2493	0.197867	0.200661	0.198524	0.197045	0.199675	0.198524
2494	0.197538	0.196223	0.199182	0.198196	0.201483	0.201812
2495	0.197867	0.199346	0.198689	0.198196	0.198853	0.198031
2496	0.197374	0.199182	0.199675	0.197703	0.200497	0.201812
2497	0.191786	0.201154	0.196881	0.198689	0.199018	0.201154
2498	0.199511	0.193922	0.196717	0.201812	0.196881	0.200168
2499	0.199675	0.198689	0.202305	0.201812	0.198031	0.198689
