Ladekurvenmessung

Zeit: 2018_05_04 09.53.30

Info: FVA3, v = 0.14, T = 23, F = 20, h = 43

Ladewiderstand[Ohm]: 1012700

Störkapazität[pF]: 0.000000

Entladezeit[ms]: 200

Abtastrate[Hz]: 250000

Anzahl der Messwerte: 2500.000000

Verzögerung[ms]: 3

Ladespannung[V]: 0.200000


	Kurve_1	Kurve_2	Kurve_3	Kurve_4
0	-0.005771	0.000639	-0.000183	0.00031
1	-0.000676	-0.000347	-0.000347	0.00031
2	-0.003799	0.00294	-0.000347	0.00031
3	0.000803	0.000474	-0.000512	-0.000183
4	-0.000512	0.000639	-0.000512	-0.000347
5	-0.002813	0.000639	-0.000183	-0.000512
6	-0.000183	0.002282	0.000146	-0.000512
7	-0.001005	-0.000512	0.000146	-0.000183
8	-0.002977	-0.000841	0.000146	0.000146
9	0.00146	-0.001827	0.000474	0.00031
10	-0.002155	-0.001169	0.00031	0.000474
11	0.000967	-0.001005	-0.000183	0.000474
12	-0.000512	0.002611	-0.000183	0.00031
13	-1.9e-05	-1.9e-05	-0.000347	-1.9e-05
14	-0.001827	-0.001827	-0.000347	-0.000347
15	-0.003799	0.000474	-0.000347	-0.000183
16	-0.002155	0.000639	-0.000347	-0.000347
17	-0.004128	0.003761	0.00031	-0.000512
18	-0.001662	0.001954	0.00031	-0.000347
19	-0.004785	-0.007908	0.000474	0.000146
20	-0.001334	-0.002813	0.00031	0.00031
21	-0.002977	-0.000183	0.000474	0.00031
22	-0.002155	-0.002484	-0.000183	0.00031
23	-0.002155	-0.000676	-0.000347	0.00031
24	-0.003799	-0.004785	-0.000512	0.00031
25	-0.003635	-0.000676	-0.000512	-0.000183
26	0.002447	0.000474	-0.000512	-0.000347
27	-0.004128	-0.001169	-0.000183	-0.000676
28	-0.000347	-0.000841	0.000146	-0.000512
29	-0.000512	-0.000841	0.00031	-0.000512
30	-0.004785	-0.008237	0.000474	0.000146
31	-0.002484	-0.004128	0.000474	0.00031
32	-0.002813	-1.9e-05	0.00031	-1.9e-05
33	-0.00232	-0.001334	-1.9e-05	0.000639
34	-0.004621	-0.000183	-1.9e-05	0.000474
35	-0.004456	-0.001498	-0.000347	0.000146
36	-0.00347	-0.002155	-0.000183	-0.000512
37	-0.001334	0.001625	-0.000676	0.000803
38	-0.00347	-0.001005	-0.000347	0.000967
39	-0.003799	-0.001991	0.000639	-0.000347
40	-0.005278	-0.001169	0.000639	0.00146
41	-0.004292	-0.00988	-0.000347	-0.000347
42	-0.003799	-0.002813	0.000146	0.000967
43	-0.003799	-0.001498	0.000146	0.000146
44	-0.002484	-0.001991	0.000146	0.000639
45	-0.003635	-0.000841	-0.000183	0.000474
46	-0.001005	-0.001827	-0.000347	0.000803
47	-0.002155	-0.000676	-0.000347	-0.000676
48	-0.002977	-0.000841	-0.000676	-1.9e-05
49	-0.003142	0.000146	-0.000183	-0.000841
50	-0.001005	-0.000347	0.000146	-0.001169
51	-0.001662	-1.9e-05	0.00031	0.000639
52	-0.003306	-0.010538	0.00031	-0.000512
53	-0.004128	-0.002977	0.000474	-0.000512
54	-0.00347	-0.002484	0.00031	0.00146
55	-0.005443	0.000803	-1.9e-05	0.001296
56	-0.004128	-0.002977	-0.000347	0.000474
57	-0.006757	0.001789	-0.000347	0.002118
58	-0.001498	-0.003963	-0.000841	-0.000347
59	0.00031	0.000967	-0.000512	0.00146
60	-0.003306	0.001625	0.002447	-0.001005
61	-0.000512	-0.000676	-0.000347	0.00031
62	-0.001827	0.001789	-0.001005	0.00031
63	0.001296	-0.008401	-0.002484	0.002118
64	-0.002813	-0.002813	0.000146	0.000967
65	0.000967	-0.001498	0.000146	-0.000676
66	0.00031	0.00031	-1.9e-05	-0.001005
67	-0.002977	0.000474	-0.002648	-0.001169
68	-0.001991	0.00146	-0.002484	0.001296
69	-0.003635	-0.000512	-0.001005	0.001954
70	-0.003635	0.001132	-0.002977	-0.000841
71	-0.002155	-0.003306	0.000639	-0.004456
72	-0.004292	-1.9e-05	0.000639	-0.001498
73	-0.003963	-0.001169	0.00031	0.002611
74	-0.003799	-0.005771	-0.001005	-0.000841
75	-0.007086	-0.003799	0.002118	-0.000512
76	-0.003142	-0.000676	0.001789	0.000639
77	-0.004949	0.00031	0.003268	0.000474
78	-0.001662	-0.002977	-0.000512	0.000474
79	-0.003142	-0.000512	0.000146	0.002611
80	-0.000512	-0.001498	-0.00232	-0.001169
81	-0.003963	-0.001334	0.000639	0.000967
82	-0.004456	0.000639	-0.001334	-0.000512
83	-0.001498	-0.001334	-0.000841	-0.002813
84	0.000474	-0.003963	0.000474	0.002118
85	-0.006593	-0.004456	0.000803	-0.000183
86	-0.004785	-0.008237	0.000639	-0.000347
87	-0.004292	-0.003142	0.00294	0.004255
88	-0.004785	-0.002813	0.002282	0.003104
89	-0.003306	-0.005443	0.001625	-0.000183
90	-0.007908	-0.005114	0.001296	0.003104
91	-0.005278	-0.003799	0.000639	0.000803
92	-0.004292	0.00031	0.002447	0.001296
93	-0.001827	-0.003306	-0.001169	-0.001005
94	-0.002813	-0.004292	0.00031	-0.00347
95	-0.00232	0.000967	-0.000183	0.000639
96	-0.00347	-0.001827	0.000639	-0.000512
97	-0.002648	-0.005114	-0.002155	-0.002813
98	-0.001662	0.000474	0.001296	0.001954
99	-0.001169	-0.002484	0.000639	-0.003142
100	0.000639	-0.001169	-0.001334	0.000639
101	-0.003142	-0.00347	-0.000676	0.001132
102	-0.002648	-0.002813	-0.001991	-0.000183
103	-0.001827	-0.002155	0.000803	-0.00232
104	-0.00347	-0.001991	0.000803	-0.000512
105	-0.004292	-0.001169	0.00031	-0.001662
106	-0.003306	-0.001827	-0.001005	-0.000841
107	-0.005278	-0.001498	0.000639	-0.001991
108	-0.002977	-0.00232	0.000967	-0.001991
109	-0.002813	-0.000676	0.00031	-0.000347
110	-0.002484	0.00146	0.000146	-0.003963
111	-0.002977	0.00031	-0.000183	0.001625
112	-0.008237	-0.002648	-0.000512	-0.001991
113	-0.001827	0.002118	-0.000347	0.001132
114	-0.00232	-0.001169	-0.000512	-0.000183
115	0.001132	-0.000841	-0.000347	0.002611
116	-0.000841	-0.00232	0.000146	0.000146
117	-0.0061	-0.005114	0.000146	0.000967
118	-0.003142	-0.005114	0.00031	0.00031
119	-0.00232	-0.007086	0.00031	0.000803
120	-0.00347	-0.002813	0.00031	0.001789
121	-0.001991	-0.002813	0.000146	-0.004785
122	-0.00347	-0.00232	-0.000183	-0.006593
123	-0.005114	-0.002813	-0.000183	-0.003963
124	-0.005771	-0.001169	-0.000676	-0.001334
125	-0.006593	-0.001169	-0.000347	-0.003963
126	-0.004128	-0.000183	-0.000347	-0.004456
127	-0.002484	-1.9e-05	-1.9e-05	-0.000676
128	-0.00347	0.000803	0.000146	-0.001169
129	-0.007086	-0.002977	0.000474	-0.001498
130	-0.004785	0.003104	0.000474	0.000146
131	-0.002484	-0.00347	0.000474	-0.001005
132	-0.002977	0.000474	0.000146	0.000803
133	-0.005278	-0.004128	-0.000183	0.001954
134	-0.005114	-0.003306	-0.000512	-0.001005
135	-0.001991	-0.002813	-0.000512	-0.001005
136	-0.000841	0.000474	-0.000347	0.002447
137	-0.003306	0.000803	-0.000347	0.001296
138	-0.001827	-0.001005	0.000146	-0.000676
139	-0.000841	-0.001334	0.00031	-0.005443
140	-0.006429	0.000803	0.000474	-0.001169
141	-0.001169	-0.001991	0.000474	-0.001005
142	-0.004128	-0.001169	0.00031	-0.003306
143	-0.0061	-0.000512	-1.9e-05	-0.001827
144	-0.001991	-0.003963	-0.000183	-0.000347
145	-0.004949	-0.001991	-0.000512	0.001954
146	-0.001498	-0.000512	-0.000347	0.000639
147	-0.002977	0.001954	-0.000512	0.000803
148	-0.001498	-0.001005	-0.000347	-0.000676
149	-0.002484	-0.000183	0.000146	0.003104
150	-0.000183	-0.001662	0.000146	-0.001334
151	-0.005936	-0.001827	0.00031	0.000474
152	-0.001334	-0.001991	0.00031	-0.000841
153	-0.002813	-0.00232	0.00031	-0.000676
154	-0.004456	-0.002484	0.000146	-0.001991
155	-0.001662	-0.001662	-0.000183	-0.000512
156	-0.003635	-0.001662	-0.000347	-0.002484
157	-0.003799	-0.002813	-0.000512	-0.00347
158	-0.001498	0.001296	-0.000512	-0.004785
159	-0.001662	-0.00232	-0.000347	-0.006264
160	-0.005607	0.000146	-1.9e-05	0.000146
161	0.000639	-0.001334	0.000146	-0.00232
162	-0.004621	-0.000512	0.00031	-0.001334
163	-0.004785	-0.002813	0.000474	-0.001498
164	-0.00725	-0.001827	0.000474	-0.002484
165	-0.0061	-0.000183	-1.9e-05	-0.002155
166	-0.004456	-0.000183	-0.000183	0.001132
167	-0.004949	-0.000347	-0.000512	-0.002813
168	-0.002484	0.00146	-0.000347	0.005076
169	-0.002813	0.003926	-0.000347	-0.001827
170	-0.001334	-0.002484	-0.000183	-0.000347
171	-0.002648	-0.00347	0.000146	-0.000676
172	-0.000676	-0.000183	0.00031	-0.00873
173	-0.003142	-0.001334	0.00031	-0.006429
174	-0.001334	-0.004785	0.00031	-0.004128
175	-0.005771	-0.001005	0.00031	-0.002155
176	-0.001334	-0.00347	0.000146	-0.005771
177	-0.003963	-0.001498	-0.000183	0.00031
178	-0.003635	-0.002813	-0.000512	-0.003142
179	-0.002813	0.000639	-0.000512	0.000474
180	-0.003799	-0.001498	-0.000676	-0.002813
181	-0.003799	-0.000841	-0.000347	0.00146
182	-0.006429	-0.001498	0.000146	-0.001498
183	-0.002977	-0.001498	0.00031	0.001789
184	-0.005443	-0.000676	0.00031	-0.000512
185	-0.0061	-0.004128	0.00031	0.000146
186	-0.005114	0.001954	0.00031	0.00294
187	-0.00347	-0.004292	0.000146	-0.000512
188	-0.001334	-0.000841	-0.000347	-0.002813
189	-0.001334	-0.002648	-0.000183	-0.001498
190	-0.003306	-0.005443	-0.000512	-0.002155
191	-0.003963	-0.005114	-0.000676	-0.002648
192	-0.004292	-0.001169	-0.000183	-0.002484
193	-0.002484	-0.003799	-1.9e-05	-0.002484
194	-0.003142	-0.000512	0.000146	0.001132
195	-0.00347	-0.000841	0.000474	0.00031
196	-0.004949	-0.000676	0.00031	-0.003142
197	-0.004456	-0.003963	0.000474	-0.004456
198	-0.000183	0.000803	0.00031	-0.000512
199	-0.004456	0.000474	-0.000183	-0.001005
200	-0.004621	-0.006264	-0.000512	0.001789
201	-0.005443	0.000146	-0.000347	0.001789
202	-0.004128	0.001132	-0.000676	-0.001334
203	-0.003635	-0.00232	-0.000183	0.000146
204	-0.001498	0.00146	0.000146	-0.001005
205	-0.002813	-0.000347	0.00031	0.001296
206	-0.001169	-0.000841	0.00031	-0.002977
207	-0.00347	-0.000676	0.000474	-0.002484
208	-0.002155	-0.00347	0.00031	-0.002813
209	-0.000676	-0.000841	-1.9e-05	-0.002155
210	-0.004785	-0.002155	-0.000183	-0.004785
211	-0.002648	-0.001334	-0.000347	-0.001498
212	-0.002977	-0.001498	-0.000512	-0.002813
213	-0.004128	-0.000841	-0.000347	-0.000347
214	-0.005114	-0.001005	-0.000347	-0.000841
215	-0.004785	-0.003306	0.000146	-0.001991
216	-0.006922	-0.000841	0.00031	0.000474
217	-0.001498	-0.000676	0.00031	-0.001498
218	-0.004949	-0.000841	0.000639	-0.000512
219	-0.005114	-0.000183	0.000639	-0.000347
220	-0.004128	0.006556	-1.9e-05	-0.001005
221	0.000474	-0.003306	-0.000183	-0.001827
222	-0.004949	0.000803	-0.000676	-0.005443
223	-0.000183	0.000146	-0.000347	-0.004621
224	-0.002155	-0.000841	-0.000512	-0.00232
225	-1.9e-05	-0.000183	-0.000183	-0.001827
226	0.001789	-0.001005	0.000146	-0.000841
227	-0.00347	-0.003635	0.00031	-0.005278
228	-0.002977	-0.003142	0.00031	-0.001005
229	-0.003635	-0.002484	0.00031	-0.003306
230	-0.006593	-0.002484	0.000474	-0.002155
231	-0.005936	-0.001498	0.000146	-0.002813
232	-0.002977	-0.001169	-0.000183	-0.001498
233	-0.007579	-0.000841	-0.000347	0.000146
234	-0.003799	-0.001169	-0.000512	-0.000676
235	-0.006922	0.000474	-0.000512	-0.000347
236	-0.00232	-0.004949	-0.000183	0.000639
237	-0.003635	-0.000183	0.000146	0.000803
238	-0.001662	-0.002648	-1.9e-05	-0.004292
239	-0.002813	-0.001498	0.000146	-0.001498
240	0.00146	-0.001662	0.000474	-0.00347
241	-0.002155	0.000639	0.000474	-0.000676
242	-0.002484	-0.0061	0.000146	-0.001498
243	0.000474	-0.001005	-0.000347	-0.001005
244	-0.005771	-0.002813	-0.000347	-0.003799
245	-0.001169	-0.002977	-0.000347	-0.002484
246	-0.003963	-0.002813	-0.000512	-0.006264
247	-0.001662	-0.002648	-0.000512	-0.002813
248	-0.004128	0.00146	0.000146	-0.000841
249	-0.002813	-0.002155	0.00031	-0.002648
250	-0.005114	-0.000512	0.00031	-1.9e-05
251	-0.005443	-0.001827	0.000474	-0.001169
252	-0.008072	0.000474	0.000474	0.001132
253	-0.001991	-0.000183	0.000146	-0.001662
254	-0.003799	-0.000676	-0.000347	-0.000841
255	-0.003963	-0.001662	-0.000347	-0.003963
256	-0.001169	0.002775	-0.000512	0.002775
257	-0.001005	-0.000676	-0.000512	-0.001827
258	-0.003306	-0.000676	-0.000512	-0.002648
259	-0.001005	-0.002484	0.000146	-0.000676
260	-0.001005	-0.000676	0.000474	-0.002484
261	-0.001334	-0.003306	0.00031	-0.001498
262	-0.001005	-0.003635	0.00031	-0.000347
263	-0.001991	-0.001662	0.00031	0.003104
264	-0.0061	-0.000841	0.000146	-0.001827
265	-0.001991	-0.001498	-0.000347	-0.001169
266	-0.003963	-0.004128	-0.000347	-0.00232
267	-0.005278	-0.00232	-0.000512	0.001296
268	0.000146	0.000146	-0.000512	-0.001169
269	-0.002977	-0.001827	-0.000347	0.000803
270	-0.00347	-0.004785	-1.9e-05	-0.004128
271	-0.003142	-1.9e-05	0.00031	-0.000841
272	-0.003306	-0.001169	0.00031	-0.004128
273	-0.001827	0.000967	0.000474	-0.000512
274	0.000146	-0.000676	0.000639	-0.00232
275	-1.9e-05	-0.001498	0.00031	-0.004128
276	-0.002484	-0.001991	-0.000347	-0.000347
277	-0.004128	-0.002648	-0.000347	-0.001827
278	-0.004292	-0.002155	-0.000512	0.000474
279	-0.000512	-0.001169	-0.000512	-0.001498
280	-0.004292	-0.000841	-0.000183	-0.001169
281	-0.000512	-0.001662	-1.9e-05	-0.000676
282	-0.00347	-0.001334	0.00031	-0.002813
283	-0.005607	-0.001991	0.000146	-0.000347
284	-0.004785	-0.001334	0.00031	-0.000347
285	-0.005443	0.00031	0.00031	-0.002484
286	-0.004621	0.00031	0.000146	-0.001334
287	-0.003963	0.001789	-0.000183	0.002447
288	-0.002813	0.00031	-0.000512	-0.004456
289	-0.002648	-0.001827	-0.000676	0.00031
290	-0.000183	0.003104	-0.000347	-0.000841
291	0.002447	0.001954	-0.000512	-0.002648
292	-0.000347	-0.005114	0.000146	0.00031
293	-0.001334	-0.003635	0.00031	0.000803
294	-0.001498	-0.0061	0.00031	-0.004128
295	-0.00347	-0.001991	0.00031	-0.002155
296	-0.000841	-0.001662	0.00031	-0.001334
297	-0.003306	-0.002648	0.000146	0.000639
298	-0.00232	-0.002977	-0.000183	-1.9e-05
299	-0.00232	-0.001498	-0.000183	-0.001498
300	-0.001827	-0.002648	-0.000676	-0.001334
301	-0.00232	0.00031	-0.000512	0.001789
302	-0.001662	-0.001827	-0.000347	-0.005114
303	-1.9e-05	-0.001005	0.000146	-0.001334
304	-0.001827	-0.000512	0.000146	-0.002155
305	-0.002484	0.00031	0.00031	-0.002813
306	-0.003142	0.000146	0.000474	-0.000676
307	-0.000347	-0.001169	0.00031	-0.000347
308	-0.002648	-0.000347	0.000146	0.001789
309	-0.004949	-0.006429	-0.000183	-0.001991
310	-0.004292	0.001296	-0.000347	-0.004456
311	-0.000183	0.002118	-0.000676	-0.004128
312	-0.002155	-0.002977	-0.000512	-0.001827
313	-0.000676	-1.9e-05	-0.000347	0.000146
314	-0.004128	0.00031	0.000146	-0.001005
315	-0.000512	-0.001827	0.000146	-1.9e-05
316	-0.002155	0.002282	0.00031	-0.001005
317	0.00031	-0.002484	0.000474	-0.002648
318	0.00031	-0.000841	0.000639	-0.000841
319	0.00031	-0.001498	0.000146	-0.003799
320	-0.000512	-0.004128	-0.000347	-0.004456
321	-0.000841	0.000474	-0.000183	-0.003963
322	-0.000183	-0.001334	-0.000347	-0.004456
323	-0.001005	0.000146	-0.000512	-0.003799
324	0.000146	-0.002648	-0.000347	0.002118
325	-0.00232	0.000639	0.000146	-0.001334
326	-0.00347	-0.002813	0.000146	-0.001827
327	-0.001498	-0.001169	0.000474	-0.000183
328	-0.000841	-0.001498	0.000474	-0.001005
329	-0.003799	-0.000676	0.00031	0.000639
330	-0.002813	-0.001169	-1.9e-05	-0.001991
331	-0.002648	-0.001662	-0.000183	0.000639
332	-0.002155	-0.005114	-0.000347	-0.001662
333	-0.000347	0.000803	-0.000347	-0.000183
334	-0.001827	-0.001005	-0.000512	-0.002813
335	-1.9e-05	0.000146	-0.000347	-0.001334
336	-0.001827	0.00409	0.000146	-1.9e-05
337	-0.002813	-0.000676	0.00031	0.000803
338	-0.001169	-0.000183	0.000146	-0.00232
339	-0.001991	0.001789	0.000474	-0.004128
340	-0.004785	-0.004456	0.000474	-0.00232
341	-0.004128	-0.004949	0.00031	0.000146
342	-0.001991	-0.001662	-0.000347	-0.001169
343	-0.001991	-0.004456	-0.000512	-0.002977
344	-0.000841	-0.002813	-0.000347	-1.9e-05
345	-0.000841	-0.000512	-0.000676	-0.00347
346	-0.001991	0.00146	-0.000183	0.005241
347	-0.001662	0.00031	-1.9e-05	0.001132
348	-0.000841	-0.000676	0.000474	0.00146
349	-0.001991	0.001625	0.00031	0.000474
350	-0.001005	0.000146	0.00031	-0.000676
351	-0.001991	-0.003635	0.000639	-0.00232
352	-0.001005	-0.001498	0.000474	-0.002813
353	-0.000676	-0.000512	-0.000183	-0.003306
354	0.000474	-0.001169	-0.000347	-0.005607
355	-0.001334	0.002775	-0.000512	-0.000183
356	-1.9e-05	-0.000512	-0.000512	-0.001005
357	-0.003963	-0.001498	-0.000183	-0.000841
358	-0.001991	-0.000841	-0.000183	-0.002155
359	-0.003963	-0.000676	0.000146	0.000474
360	-0.007415	-0.00232	0.000146	-0.000183
361	-0.001169	0.001625	0.00031	-0.001991
362	-0.002484	-0.000347	0.000474	-0.001991
363	-0.001334	-0.001169	0.00031	-0.000512
364	-0.001169	-0.006429	-0.000183	-0.00232
365	-0.00232	-0.000512	-0.000676	-0.003306
366	-0.000183	0.000146	-0.000512	0.000146
367	-1.9e-05	-1.9e-05	-0.000512	-0.000347
368	-0.002813	-0.001005	-0.000347	-0.005278
369	0.000967	0.002118	-1.9e-05	-0.004949
370	-0.003963	-1.9e-05	0.000146	-0.004128
371	-0.001169	-0.007415	0.00031	-0.003799
372	-0.001662	0.003268	0.000146	-0.005936
373	-0.004785	-0.004621	0.000474	-0.005936
374	-0.009058	-0.002648	0.000146	-0.000347
375	-0.00232	-0.002484	-0.000183	-0.001169
376	-0.005771	-0.000841	-0.000183	-0.001662
377	-0.004292	-0.000183	-0.000347	0.00031
378	-0.002155	-0.000183	-0.000512	0.001132
379	-0.005114	0.000474	-0.000512	-0.001169
380	-0.003142	0.001954	-1.9e-05	0.001296
381	-0.001005	-0.000183	0.00031	-0.000183
382	-0.000676	-0.001169	0.00031	-0.001334
383	-0.004292	0.001132	0.00031	-0.001991
384	-0.001827	-0.002813	0.000474	-0.001498
385	-0.002813	0.001954	0.000146	-0.00232
386	0.000474	0.000146	-0.000183	-1.9e-05
387	-0.001827	-0.002484	-0.000347	0.000474
388	-0.000512	-0.002977	-0.000512	-1.9e-05
389	-0.001169	-0.001169	-0.000512	-0.000676
390	-0.003635	-0.003963	-0.000183	-0.001662
391	-0.005607	-0.001991	-1.9e-05	0.000474
392	-0.003963	-0.000183	0.00031	-0.003142
393	-0.005771	-0.001662	0.00031	-0.001498
394	-0.003799	0.001625	0.000474	-0.001662
395	-0.00347	0.002282	0.000474	-0.000676
396	-0.003306	-0.001827	0.00031	0.00031
397	-0.000512	0.00146	-0.000347	0.000967
398	-0.001827	0.002447	-0.000512	-0.001827
399	-0.000841	0.000146	-0.000512	-0.00232
400	-0.001005	0.000967	-0.000512	-0.000347
401	0.000146	-0.000347	-0.000347	0.000803
402	-0.004621	0.00031	-0.000183	-0.004456
403	0.003926	0.00146	0.00031	-0.000841
404	-0.001991	-0.003306	0.000474	-0.001498
405	-0.005278	-0.000841	0.000474	-0.003142
406	-0.003799	-0.001827	0.000474	-0.000347
407	-0.003306	-0.002484	0.000146	-0.00347
408	-0.005443	-0.001334	-0.000183	-0.001005
409	-0.003306	-0.000347	-0.000347	-0.004128
410	-0.007086	0.001789	-0.000512	0.001132
411	-0.003142	0.000967	-0.000512	0.000967
412	-0.003306	0.001954	-0.000512	0.00031
413	-0.004621	0.00146	-1.9e-05	-0.000347
414	-0.001991	-0.000347	0.000146	-0.002484
415	-0.005114	0.00031	0.000146	-0.002648
416	-0.002977	0.001132	0.000146	-0.000841
417	-0.002484	-0.000512	0.000474	0.00146
418	-0.000183	-0.001662	0.00031	-0.002977
419	-0.004949	0.002118	-0.000183	-0.001662
420	0.00031	-0.000512	-0.000512	-0.004456
421	-0.002813	-0.000676	-0.000347	-0.003799
422	-0.002813	-0.001498	-0.000512	-0.005771
423	-0.001005	-1.9e-05	-0.000512	-0.00232
424	0.002447	-0.003963	0.000146	-0.003799
425	0.001954	-0.001662	0.000146	-1.9e-05
426	-0.003142	-0.00232	0.00031	-0.000183
427	-0.002155	0.000803	0.00031	-0.001827
428	-0.003306	-0.003799	0.000639	-0.001169
429	-0.00232	0.00031	0.000146	-0.000676
430	-0.003635	0.001296	-0.000183	-0.001662
431	-0.001005	-0.001334	-0.000347	-0.001827
432	-0.002484	0.003104	-0.000512	-0.001498
433	-0.003799	-0.000841	-0.000512	-0.000841
434	-0.003963	-1.9e-05	-0.000512	0.000474
435	-0.001005	0.002775	-1.9e-05	-0.001827
436	-0.001827	-0.002813	0.00031	-0.000183
437	-0.004785	-0.003635	0.000146	-0.001991
438	-0.004292	-0.001498	0.00031	0.003761
439	-0.002648	-0.006757	0.000474	0.000146
440	-0.00347	-0.001827	0.000146	-0.000676
441	-0.000841	-0.004949	-0.000183	-0.001169
442	-0.001991	-0.001334	-0.000183	-0.001662
443	-0.00347	-0.003799	-0.000676	-0.001662
444	-0.001169	0.000803	-0.000512	-0.001498
445	-0.005114	0.002611	-0.000347	-0.001662
446	-0.001498	-0.000183	0.00031	-0.00232
447	-0.002484	0.000474	0.00031	-0.000676
448	-0.001991	-0.000512	0.000474	-0.003142
449	-0.004456	0.002447	0.000474	-0.004456
450	-0.00232	0.000967	0.000146	-0.002484
451	-0.001991	-0.001169	0.00031	-0.001169
452	-0.001991	-0.00232	-0.000183	-0.002484
453	-0.00347	-0.000841	-0.000512	0.006227
454	-0.001334	0.00031	-0.000347	-0.002977
455	-0.004949	0.000474	-0.000512	-0.001991
456	-0.00347	-0.002484	-0.000347	0.000639
457	-0.002484	0.00031	0.000146	-0.006593
458	-0.005771	-0.004621	0.000146	-0.001169
459	-0.000676	-0.001498	0.000474	0.001132
460	-0.007415	0.002282	0.000474	-0.001498
461	-0.002813	-0.00232	0.000146	0.00031
462	-0.00347	0.000639	0.000146	-0.00232
463	-0.003142	0.002775	-0.000183	-0.001827
464	-0.004949	0.000639	-0.000512	-0.000676
465	-0.001169	0.001954	-0.000512	-0.00232
466	-0.003963	0.002447	-0.000512	-0.001005
467	-0.004292	-0.000676	-0.000183	-0.000183
468	-0.00232	0.001132	-1.9e-05	0.001789
469	-0.005114	0.000146	0.00031	0.00031
470	-0.003306	0.001296	0.00031	-0.001827
471	-0.001662	0.00031	0.00031	-0.002977
472	-0.00232	-0.001662	0.000474	-0.001991
473	-0.003306	-0.002648	-1.9e-05	-0.000841
474	0.00031	-0.003635	-1.9e-05	-0.003142
475	-0.002813	-0.001005	-0.000347	-0.00232
476	-0.001662	-0.001498	-0.000347	-0.002484
477	-0.002977	-0.000183	-0.000347	0.000146
478	-0.002484	-0.000841	-0.000512	-0.004785
479	-0.001662	-1.9e-05	0.000146	-0.002648
480	-0.001827	-0.000676	0.00031	-0.001169
481	-0.005771	0.000639	0.00031	-0.001334
482	-0.003799	0.000474	0.00031	-0.002977
483	-0.003963	-1.9e-05	0.00031	-0.001498
484	-0.004621	-0.001498	0.000146	-0.001334
485	-0.010209	-0.000183	-0.000183	0.000474
486	-0.003635	-0.005443	-0.000347	-0.000841
487	-1.9e-05	0.000474	-0.000183	-0.001827
488	-0.002155	-0.001005	-0.000512	-0.00232
489	-0.001498	-0.002648	-0.000512	0.000967
490	-0.001827	-0.000841	0.000146	-0.000183
491	-0.001662	-1.9e-05	0.00031	0.000146
492	-0.005771	-0.004621	0.000474	-0.001334
493	0.001625	-0.003799	0.000474	-0.001827
494	-1.9e-05	-0.004128	0.000474	-0.002813
495	-0.00232	-0.006429	0.000146	-0.002484
496	-0.001334	-0.001498	-1.9e-05	-0.001498
497	-0.00347	-0.004785	-0.000183	-0.004456
498	-0.003142	0.001954	-0.000183	0.000146
499	-0.000676	-0.003799	-0.000512	-0.002484
500	-0.004292	0.000803	-0.000347	0.001296
501	-0.003306	-0.001005	-1.9e-05	0.00031
502	-0.003799	-1.9e-05	0.000146	0.00031
503	-0.005771	0.000474	0.00031	-0.000841
504	-0.002484	0.000803	0.000474	0.000967
505	-0.004949	0.00146	0.00031	-0.001662
506	-0.004621	-0.00232	0.00031	-0.000512
507	-0.002977	-0.000183	-0.000183	-0.000841
508	0.000639	-0.002484	-0.000347	-0.005936
509	-0.000841	-0.000347	-0.000512	-0.002484
510	-0.001169	-0.000676	-0.000676	-0.000512
511	0.000146	-0.001334	-0.000183	-0.003799
512	-0.000512	-0.00232	-1.9e-05	-0.00232
513	-0.002484	0.000967	0.000146	-0.000676
514	-0.003306	-0.002155	0.00031	-0.004785
515	-0.004621	0.001625	0.000474	0.001954
516	-0.001334	-0.001498	0.00031	-0.004456
517	-0.004292	-0.001334	0.000146	0.000146
518	-0.005114	0.000639	-0.000183	-0.001169
519	-0.003635	-0.001334	-0.000183	-0.002813
520	-0.003963	0.001789	-0.000347	-0.000512
521	-0.002155	0.002282	-0.000512	-0.001498
522	-0.005278	0.001132	-0.000347	-0.000676
523	-0.001662	-0.000841	-0.000183	-0.000183
524	-0.000347	-0.000183	0.000146	-0.000841
525	-0.005607	-0.001662	0.000474	-0.003799
526	-0.002155	0.000474	0.000474	-0.003306
527	-0.000676	-0.002484	0.00031	-0.00347
528	-0.00347	-0.001005	0.00031	0.003104
529	-0.002977	-0.001991	-1.9e-05	-0.002648
530	-0.001827	0.000146	-0.000347	-0.001991
531	-0.003963	-0.001169	-0.000347	-0.001827
532	-0.004949	-0.001169	-0.000676	-0.000347
533	-0.005771	-0.001498	-0.000347	-0.001991
534	-0.004949	0.004419	0.000146	-0.00232
535	0.00031	-0.000183	0.00031	-0.000183
536	-0.00232	-0.00347	0.000474	-0.001005
537	-0.006922	-0.001662	0.00031	-0.002648
538	-0.000841	-0.000347	0.00031	-0.004456
539	-0.003635	-0.001662	0.000146	-0.001991
540	-0.003306	-0.004128	-0.000347	-0.001662
541	0.000474	-0.00232	-0.000183	-0.000183
542	-1.9e-05	-0.000183	-0.000347	-0.001827
543	-0.00725	-0.003963	-0.000347	-0.000183
544	-0.000347	-0.005278	-0.000347	-0.003635
545	-0.002648	0.001296	-1.9e-05	-0.001005
546	-0.001662	-0.001005	0.00031	-0.001169
547	-0.002977	-0.000512	0.000146	-0.002155
548	-0.00232	0.000474	0.000474	-0.001827
549	-0.00347	-0.003799	0.00031	-0.000676
550	-0.004292	-0.001991	0.00031	-0.001169
551	-0.006429	0.000146	-1.9e-05	0.001132
552	-0.003963	-0.002155	-0.000183	-0.001662
553	-0.002648	0.00146	-0.000347	0.000639
554	-0.004456	0.000803	-0.000512	-0.000841
555	-0.000347	0.000146	-0.000183	-0.001991
556	-0.003306	0.000803	-1.9e-05	-0.000347
557	0.001625	-0.000512	0.00031	-0.001005
558	-0.007908	0.001625	0.000474	-0.004785
559	-0.002484	-1.9e-05	0.000639	-0.005278
560	-0.003306	-0.000841	0.00031	-0.001334
561	-0.000841	-0.004128	0.00031	-0.004621
562	-0.002813	-0.001827	-0.000183	-0.001498
563	-0.001334	-0.001169	-0.000347	-0.000512
564	-0.000841	-0.000512	-0.000347	-0.00347
565	-0.0061	-0.00347	-0.000512	-0.002813
566	-0.002813	-0.00232	-0.000512	0.00409
567	-0.001498	-0.001169	-1.9e-05	-0.003635
568	0.000803	-0.002155	0.00031	0.000474
569	-0.000347	0.000146	0.00031	-0.006429
570	0.000146	0.003433	0.00031	-0.003799
571	-0.004128	0.001132	0.000474	0.00146
572	-0.001662	-0.001169	0.000146	-0.001005
573	-0.002648	-0.001498	-0.000347	-0.00232
574	-0.004292	-0.002155	-0.000512	-0.003142
575	-0.001334	0.000803	-0.000183	-0.001005
576	-0.001169	-0.00232	-0.000512	-0.002155
577	-0.002484	0.000146	-0.000347	0.001132
578	-0.000841	0.00031	0.000146	-0.00232
579	-0.001991	-0.001169	0.000146	0.005076
580	-0.004949	-0.002813	0.00031	-0.001169
581	-0.002813	-0.000676	0.00031	-0.001334
582	-0.004785	0.00031	0.000474	-0.001498
583	-0.004785	-0.002648	0.000146	-0.000841
584	-0.004456	-0.001334	-1.9e-05	-0.002648
585	-0.00347	-0.003963	-0.000183	-0.001498
586	-0.00347	-0.00232	-0.000512	-0.001005
587	-0.001334	-0.003799	-0.000676	0.00031
588	-0.003799	-0.002484	-0.000347	0.003104
589	-0.002977	-0.00347	-0.000183	-0.002813
590	-0.000183	0.000474	0.000146	-0.000512
591	-0.004949	-0.002484	0.00031	-0.006429
592	0.001296	-0.001005	0.00031	-0.000183
593	-0.003635	-0.001334	0.000474	-0.001662
594	-0.000841	0.001954	0.00031	-1.9e-05
595	-0.000512	0.00409	-0.000183	-0.001662
596	0.002611	0.000146	-0.000512	-0.001334
597	0.003926	-0.001991	-0.000347	0.000803
598	0.003433	-0.004456	-0.000512	0.001625
599	-0.00232	-1.9e-05	-0.000512	-0.000512
600	0.001132	-0.001334	0.000146	0.001296
601	0.002611	-0.000841	0.00031	0.00294
602	-0.000676	-1.9e-05	0.000146	-0.004785
603	0.00146	0.001296	0.000474	-0.001991
604	0.00294	-0.001169	0.000639	-0.003799
605	-0.002648	-0.002155	0.000146	-0.002648
606	0.003104	0.002775	-0.000347	-0.005278
607	0.000146	-0.000183	-0.000347	-0.002155
608	-0.003142	-0.000841	-0.000347	-0.003963
609	-0.000183	0.001789	-0.000512	-0.002484
610	-0.001498	0.002282	-0.000347	-0.002484
611	0.002118	0.00146	-0.000183	-0.002155
612	-0.000347	-0.001498	0.000146	0.000146
613	-0.002155	-0.000676	0.00031	-0.000841
614	-0.001005	-0.001827	0.000474	-0.000841
615	0.002611	-0.002648	0.000474	-0.002155
616	-0.000676	-0.001827	0.000146	0.000803
617	0.00409	-0.002484	-0.000347	-0.00347
618	0.000146	-0.001005	-0.000347	-0.001991
619	0.000474	-1.9e-05	-0.000347	-0.004621
620	-0.001991	0.000967	-0.000512	-0.003799
621	-0.000676	-0.001169	-1.9e-05	-0.004292
622	-0.00347	-0.000676	-1.9e-05	-0.004949
623	-0.001498	-0.000347	0.000146	-0.001991
624	-0.001991	-0.000841	0.00031	-0.004456
625	0.002611	-0.001827	0.000474	-0.00347
626	0.001132	0.000474	0.000639	-0.001662
627	-0.000347	-0.000676	0.000146	-0.001827
628	0.001132	0.00146	-1.9e-05	-0.000183
629	-0.001498	0.001296	-0.000183	0.002282
630	0.001132	0.00031	-0.000512	0.000146
631	-0.000183	0.001132	-0.000347	0.000639
632	0.001296	-1.9e-05	-0.000512	-0.001334
633	-0.000183	0.001625	0.000146	-0.000347
634	0.002282	0.000967	0.00031	-0.001662
635	-0.000841	0.002775	0.00031	-0.002484
636	0.001625	-0.004621	0.00031	-0.002977
637	0.000474	-0.001169	0.000474	-0.003799
638	-1.9e-05	-0.000347	0.00031	0.000474
639	-0.001334	-0.004128	-0.000183	-0.001005
640	-0.000841	-0.001991	-0.000512	-0.003635
641	-0.000183	-0.001827	-0.000512	-0.000512
642	-0.002484	-0.001991	-0.000347	-0.002648
643	-0.000183	-1.9e-05	-0.000512	-0.001498
644	-0.000512	0.002447	-1.9e-05	-0.001169
645	0.002447	-0.000841	0.00031	-0.001334
646	-0.002155	-0.002648	0.00031	-0.001498
647	0.00294	-0.002813	0.00031	-0.002813
648	0.008199	-0.000841	0.000474	0.003597
649	0.001954	-0.002813	0.00031	-0.00232
650	0.000146	0.000803	-0.000183	-0.001991
651	0.002775	0.000474	-0.000347	-0.002484
652	-0.001005	0.000146	-0.000347	-0.004128
653	0.000474	-0.001662	-0.000347	-0.003306
654	0.00031	0.000803	-0.000512	-0.003142
655	-0.001005	-1.9e-05	0.000146	-0.005936
656	-0.000841	-0.000841	0.000146	-0.001662
657	-0.000841	0.001954	0.000474	-0.003142
658	-0.001005	-0.000841	0.00031	-0.003799
659	-0.000512	0.001296	0.000474	-0.001991
660	-0.004621	0.000474	0.00031	-0.002484
661	0.000639	0.000474	-0.000183	-0.001827
662	0.002447	0.001132	-0.000512	-0.002155
663	-0.006429	-0.000347	-0.000347	0.000146
664	0.001954	-0.001991	-0.000676	-0.000183
665	-0.001991	0.001789	-0.000512	0.000146
666	0.001132	-0.001662	-1.9e-05	-0.001005
667	0.00146	-1.9e-05	0.00031	-0.001169
668	-0.005443	-0.000676	0.00031	-0.002484
669	-0.002484	0.00146	0.000474	-0.004785
670	-0.000183	-0.001005	0.000474	-0.006264
671	0.000803	-0.001662	0.000474	-0.004128
672	-0.001005	-0.00347	-0.000347	-0.005278
673	0.000803	-0.002155	-0.000347	-0.004128
674	0.002611	-0.001662	-0.000676	-0.00347
675	-0.000512	-0.002155	-0.000512	-0.002977
676	-1.9e-05	0.00031	-0.000512	-0.001498
677	-0.000512	-0.001498	-1.9e-05	-0.001334
678	0.000803	-0.000676	0.00031	-0.002648
679	-0.000676	-0.001334	0.00031	-0.001005
680	-0.001334	0.001954	0.00031	-0.002813
681	-0.001827	-0.00232	0.00031	-0.003142
682	0.000803	-0.001169	0.00031	0.000146
683	-0.000347	-0.000347	-0.000183	-0.000512
684	-0.001005	0.000146	-0.000183	0.00031
685	0.001296	0.00294	-0.000183	-0.000841
686	0.000967	-0.001169	-0.000676	-0.002813
687	-0.001498	-0.002813	-0.000512	-0.000183
688	0.000803	0.000803	0.000146	-0.006922
689	0.004748	-0.004292	0.00031	-0.002977
690	-0.001169	-0.001827	0.000474	-0.003799
691	-1.9e-05	-0.000512	0.00031	-0.003306
692	0.000967	-0.005607	0.000474	-0.003306
693	-0.001005	-0.004128	0.00031	-0.001334
694	0.000474	-0.001827	-0.000183	-0.002484
695	-0.003306	-0.002813	-0.000347	-0.00232
696	-0.001498	-0.004292	-0.000512	-0.000841
697	-0.004456	-0.000676	-0.000512	-0.002155
698	-0.002813	-0.000676	-0.000512	-0.001827
699	-1.9e-05	0.00146	0.000146	0.001132
700	0.010171	-1.9e-05	0.00031	0.000639
701	-0.00232	0.001789	0.00031	0.000639
702	0.001296	0.001954	0.00031	-0.005771
703	0.000967	-0.000512	0.00031	-0.001498
704	0.004748	-0.001498	-1.9e-05	-0.002977
705	0.000639	-0.000512	-0.000183	-0.00232
706	-0.001991	-0.003142	-0.000347	-0.001334
707	0.00031	-0.00232	-0.000512	-0.000347
708	-0.001005	-0.003799	-0.000512	0.001296
709	0.000146	-0.004292	-0.000512	-0.001827
710	-0.002648	-0.000512	-1.9e-05	-0.002155
711	0.005898	-0.002977	0.000146	0.000639
712	-0.002977	-0.00232	0.00031	-0.001827
713	-0.001005	0.000639	0.000474	-0.001662
714	-0.001334	-0.003306	0.000474	-0.001005
715	-0.004128	-0.000676	0.00031	-0.001662
716	-0.000841	-0.000183	-1.9e-05	-0.000347
717	-0.004128	-0.00347	-0.000183	-0.002155
718	0.002118	0.001132	-0.000347	-1.9e-05
719	0.003761	-0.00232	-0.000512	-0.001334
720	0.000803	-1.9e-05	-0.000347	0.00146
721	-0.001498	-0.001662	-1.9e-05	-0.000183
722	0.005569	-0.002155	0.00031	-0.000183
723	-0.000347	-0.002813	0.00031	-0.003306
724	0.001296	-0.003963	0.000474	-0.005278
725	-0.001334	-0.002648	0.000474	-0.002648
726	-0.000183	-0.003635	0.00031	-0.003142
727	-0.000183	-0.002155	-1.9e-05	-0.00347
728	-0.000347	-0.003963	-0.000347	-0.004292
729	-0.002155	-0.001498	-0.000347	-0.000183
730	0.000146	-0.00232	-0.000347	-0.001991
731	-0.001334	-0.000841	-0.000347	-0.002977
732	-0.002813	0.000474	-0.000183	-0.002155
733	-0.000841	0.001296	0.00031	0.000639
734	0.000146	-0.000841	0.000146	-0.005114
735	0.000146	0.001625	0.000146	-0.002155
736	0.000474	0.000803	0.000639	-0.000841
737	-1.9e-05	-0.001005	0.00031	-0.001827
738	0.000474	-0.001169	-1.9e-05	-0.001005
739	0.000639	-0.001005	-0.000183	-0.002484
740	-0.000183	-0.003142	-0.000512	-0.00232
741	0.001789	-0.003635	-0.000347	-0.002484
742	-0.001169	-0.001334	-0.000347	-0.001991
743	0.000639	-0.004456	-1.9e-05	-0.005936
744	-0.003799	-0.002813	0.00031	0.000803
745	-0.001169	-0.002648	0.00031	-0.003306
746	0.002282	-0.002977	0.000474	-0.002813
747	0.000474	-0.003963	0.00031	-0.004128
748	-0.002155	0.000639	0.000146	-0.001005
749	-0.002648	-0.001991	-0.000183	-0.001334
750	-0.001662	0.002447	-0.000676	-0.00232
751	0.000967	0.004255	-0.000512	0.003597
752	0.003104	0.011979	-0.000512	0.011322
753	0.002775	0.021676	-0.000347	0.017896
754	0.002447	0.024142	0.000146	0.024799
755	-0.007908	0.033346	0.000146	0.031538
756	0.004419	0.036469	0.00031	0.034661
757	0.002447	0.042221	0.000474	0.045015
758	0.003268	0.045508	0.000146	0.049453
759	0.003761	0.026114	0.000146	0.056849
760	0.00672	0.032031	-0.000183	0.060958
761	0.002447	0.036633	-0.000183	0.067861
762	0.001296	0.039427	-0.000347	0.071641
763	0.002611	0.048467	-0.000512	0.076079
764	0.001789	0.055041	-0.000183	0.081502
765	0.001954	0.020033	-0.000183	0.086269
766	-0.003306	0.022991	0.000146	0.089227
767	0.002447	0.022334	0.000474	0.09235
768	0.001789	0.028579	0.000474	0.097445
769	0.006391	0.031867	0.000474	0.105005
770	-0.004128	0.04255	0.000146	0.103362
771	0.004419	0.046494	-1.9e-05	0.108621
772	0.00146	0.045344	-0.000512	0.112237
773	0.004255	0.058328	-0.000512	0.115195
774	0.003268	0.061451	-0.000512	0.121934
775	0.003761	0.061122	-0.000512	0.12292
776	0.001954	0.058328	-1.9e-05	0.127358
777	-0.006593	0.060465	0.000146	0.129659
778	0.001789	0.068189	0.00031	0.131467
779	0.001625	0.068682	0.000474	0.136726
780	0.005241	0.074928	0.000146	0.13837
781	0.004583	0.079201	0.000474	0.138534
782	0.00031	0.078873	-1.9e-05	0.140013
783	-1.9e-05	0.085611	-0.000512	0.143465
784	0.004419	0.088898	-0.000512	0.143465
785	0.001132	0.093007	-0.000512	0.147081
786	0.004255	0.101554	-0.000183	0.151683
787	-0.000183	0.100075	-0.000183	0.149875
788	-0.006922	0.100896	0.00031	0.153655
789	0.000146	0.105663	0.000474	0.156285
790	0.002611	0.095801	0.000474	0.157928
791	0.002775	0.099582	0.000474	0.159736
792	0.005241	0.10254	0.000146	0.158586
793	0.003597	0.106649	-0.000183	0.16401
794	-1.9e-05	0.110265	-0.000183	0.165982
795	0.002118	0.114374	-0.000512	0.168447
796	0.002447	0.116017	-0.000347	0.16779
797	0.002118	0.122592	-0.000347	0.168283
798	0.001625	0.126536	-0.000183	0.166475
799	-0.001334	0.072298	0.00031	0.167954
800	-0.000841	0.051589	0.000474	0.167954
801	0.001954	0.048467	0.000474	0.166804
802	0.000803	0.044851	0.000474	0.173542
803	0.002447	0.052082	0.000146	0.170913
804	0.00031	0.057671	0.000146	0.173707
805	0.00031	0.060793	-0.000512	0.173378
806	0.002282	0.071477	-0.000347	0.178637
807	0.001954	0.071312	-0.000676	0.175186
808	0.001789	0.079366	-0.000512	0.180116
809	0.00294	0.081995	0.000146	0.179952
810	-0.002813	0.08709	0.00031	0.181924
811	-0.000512	0.089885	0.00031	0.178966
812	0.005405	0.09613	0.000474	0.181431
813	0.000639	0.098431	0.00031	0.179623
814	0.00294	0.102376	0.000146	0.174693
815	0.00146	0.10632	-1.9e-05	0.179952
816	0.002775	0.108786	-0.000183	0.180281
817	-0.000841	0.115524	-0.000512	0.183075
818	0.001132	0.115853	-0.000676	0.179459
819	-0.000183	0.118154	-0.000512	0.182253
820	0.001954	0.120948	-0.000183	0.183568
821	-0.001498	0.1267	0.00031	0.187513
822	-0.001334	0.127194	0.00031	0.182089
823	0.003926	0.132453	0.00031	0.187513
824	0.003761	0.130645	0.00031	0.188334
825	0.002611	0.13837	0.00031	0.190635
826	0.002611	0.137219	-0.000183	0.188992
827	0.000967	0.13574	-0.000347	0.189156
828	0.001625	0.143794	-0.000347	0.191786
829	0.002447	0.140178	-0.000512	0.18932
830	0.000639	0.147574	-0.000512	0.188827
831	0.002611	0.146259	0.000146	0.188499
832	-0.001334	0.15119	0.00031	0.192608
833	-0.001498	0.151354	0.00031	0.188499
834	0.002447	0.154641	0.000474	0.1908
835	0.002282	0.154641	0.00031	0.189156
836	0.000967	0.156449	0.00031	0.192772
837	-0.000676	0.154477	-0.000183	0.190307
838	-0.001498	0.15497	-0.000347	0.189978
839	0.002282	0.15612	-0.000512	0.192772
840	-0.000183	0.159079	-0.000347	0.194251
841	0.000474	0.1576	-0.000347	0.193922
842	0.001625	0.160722	-1.9e-05	0.193101
843	0.000803	0.163023	0.000146	0.200168
844	0.000146	0.16516	0.000474	0.194416
845	0.002611	0.165489	0.000474	0.196059
846	0.002775	0.163352	0.00031	0.194251
847	0.001296	0.168118	0.00031	0.192608
848	0.003926	0.168776	0.000146	0.194251
849	-0.000841	0.167132	-0.000347	0.192443
850	0.004583	0.161709	-0.000512	0.193594
851	0.001132	0.157271	-0.000512	0.195402
852	0.00146	0.154641	-0.000512	0.192936
853	0.00031	0.156778	-1.9e-05	0.195237
854	0.000967	0.159572	0.000146	0.197867
855	-0.002155	0.163023	0.00031	0.192936
856	0.00031	0.163188	0.00031	0.19458
857	0.000967	0.164174	0.00031	0.195566
858	0.001296	0.164667	0.00031	0.191786
859	0.001954	0.165982	-0.000183	0.197045
860	0.000474	0.164667	-0.000183	0.194251
861	0.00146	0.166311	-0.000347	0.197867
862	-1.9e-05	0.166804	-0.000512	0.197538
863	0.00146	0.168283	-0.000183	0.196059
864	0.001132	0.169433	-1.9e-05	0.196388
865	-0.001005	0.169926	0.000146	0.20099
866	-0.001498	0.171406	0.000474	0.19721
867	0.000967	0.169433	0.000474	0.196223
868	0.002447	0.171899	0.000474	0.19721
869	0.002282	0.171241	0.00031	0.19458
870	-0.000183	0.176172	0.000146	0.194416
871	-0.002813	0.174857	-0.000183	0.193429
872	0.001625	0.175021	-0.000512	0.195073
873	0.002282	0.175843	-0.000676	0.195073
874	-0.000347	0.176994	-0.000347	0.195566
875	0.00146	0.17913	-1.9e-05	0.195237
876	0.003926	0.169762	0.00031	0.205921
877	-0.001005	0.162366	0.00031	0.195402
878	0.003268	0.148724	0.000639	0.19721
879	0.001789	0.149875	0.00031	0.198689
880	0.00031	0.096788	0.00031	0.196059
881	0.000146	0.100732	-0.000183	0.199182
882	0.005076	0.093665	-0.000512	0.194416
883	0.002447	0.093007	-0.000347	0.199511
884	0.001625	0.094322	-0.000512	0.19836
885	0.002118	0.096623	-0.000841	0.197538
886	0.000967	0.088405	0.002775	0.19836
887	0.001132	0.007542	0.010829	0.203455
888	-1.9e-05	0.01576	0.021512	0.196223
889	0.006391	0.018225	0.026771	0.196059
890	0.002611	0.028415	0.029894	0.197538
891	0.002118	0.037126	0.014116	0.19836
892	0.002611	0.042714	0.018061	0.199346
893	0.003104	0.048631	0.020197	0.198524
894	0.003104	0.055041	0.030387	0.19836
895	0.003926	0.059972	0.032524	0.197045
896	0.003104	0.067861	0.038441	0.198853
897	0.002775	0.071148	0.042385	0.197045
898	0.002118	0.07953	0.049124	0.203455
899	-1.9e-05	0.079201	0.052575	0.194251
900	0.000474	0.079859	0.055863	0.199182
901	0.003268	0.087748	0.06408	0.199346
902	0.00294	0.093665	0.066053	0.198853
903	0.002118	0.094815	0.072627	0.195402
904	0.004583	0.100896	0.07575	0.197538
905	0.008035	0.105334	0.08331	0.197045
906	0.007706	0.110922	0.085611	0.197374
907	0.008035	0.116182	0.093007	0.197867
908	0.009021	0.117003	0.090378	0.198524
909	0.010336	0.121112	0.09876	0.199018
910	0.017732	0.123085	0.100403	0.196059
911	0.022827	0.12818	0.077229	0.198031
912	0.02973	0.127851	0.023484	0.197045
913	0.035975	0.132946	0.002282	0.20099
914	0.042221	0.132782	-0.001005	0.195566
915	0.047152	0.137219	0.004583	0.19195
916	0.057835	0.131631	0.006556	0.198196
917	0.057671	0.11651	0.011322	0.198689
918	0.058985	0.115853	-1.9e-05	0.197045
919	0.063094	0.120784	-1.9e-05	0.198853
920	0.068682	0.120126	0.000146	0.192608
921	0.075585	0.124071	0.000474	0.197045
922	0.078544	0.128837	0.001954	0.196388
923	0.082653	0.129823	0.000967	0.196881
924	0.084461	0.134425	0.013787	0.196059
925	0.087584	0.135083	0.017239	0.198196
926	0.090871	0.138699	0.025457	0.198689
927	0.09613	0.140506	0.029566	0.197538
928	0.095308	0.143301	0.035811	0.199346
929	0.091692	0.14478	0.045672	0.198524
930	0.066875	0.149875	0.049124	0.196059
931	0.03729	0.149217	0.054383	0.191457
932	0.016417	0.151847	0.052247	0.199182
933	0.011158	0.15497	0.039263	0.199182
934	0.003761	0.153162	0.038112	0.200825
935	0.006556	0.156449	0.037126	0.198524
936	0.010993	0.154806	0.037126	0.197867
937	0.011651	0.154641	0.046823	0.196059
938	0.017239	0.151518	0.05274	0.200332
939	0.02332	0.152505	0.058328	0.199018
940	0.026278	0.154806	0.064902	0.197703
941	0.032688	0.158093	0.066217	0.19721
942	0.034496	0.158421	0.073284	0.183568
943	0.038605	0.160394	0.074764	0.195402
944	0.045508	0.157764	0.026443	0.194909
945	0.043865	0.16516	0.001132	0.20099
946	0.052247	0.16516	0.00031	0.199346
947	0.060465	0.167625	-0.000183	0.200004
948	0.058328	0.168118	-0.000183	0.198853
949	0.066053	0.16779	-0.000512	0.201812
950	0.06408	0.168447	0.003926	0.199018
951	0.070162	0.172227	-0.001334	0.199675
952	0.030059	0.173542	0.000146	0.197538
953	0.002282	0.174035	-0.000183	0.183897
954	0.000967	0.171241	0.001296	0.188499
955	0.011322	0.173542	-0.000183	0.18554
956	0.017567	0.174693	0.000803	0.181103
957	0.025457	0.175186	0.002118	0.162695
958	0.033674	0.178309	-0.000183	0.115689
959	0.040249	0.178309	-0.000347	0.069011
960	0.000146	0.180281	-0.000183	0.045508
961	0.001789	0.178802	-0.000347	0.028744
962	-0.000512	0.183239	-0.000676	0.019704
963	-0.000183	0.182911	-0.000183	0.013787
964	0.003761	0.183404	0.000146	0.001789
965	0.0105	0.182089	0.00031	0.009678
966	0.021183	0.184883	0.00031	0.012144
967	0.02595	0.184883	0.000146	0.008363
968	0.032524	0.182911	0.000146	0.00409
969	0.039098	0.182417	-1.9e-05	0.006062
970	0.041399	0.184883	-0.000183	0.003926
971	0.035811	0.184718	-0.000183	0.010171
972	0.043371	0.186526	-0.000676	0.009021
973	0.044522	0.187677	-0.000676	0.011158
974	0.051754	0.185705	-0.000183	0.010993
975	0.059643	0.188334	0.000474	0.00146
976	0.05915	0.18554	0.000146	0.004583
977	0.067532	0.189485	0.002118	0.00409
978	0.071148	0.187841	0.002611	0.000803
979	0.072627	0.186855	0.000967	0.001296
980	0.076407	0.187019	0.000146	0.001789
981	0.068518	0.184225	-0.001334	0.001789
982	0.05389	0.162859	0.000146	0.004255
983	0.055863	0.153491	-0.000676	0.002611
984	0.03992	0.123578	0.003268	0.000146
985	0.040413	0.019868	-0.000183	0.00409
986	0.035975	0.008857	0.000146	-0.003142
987	0.042385	0.00935	0.001789	-0.000183
988	0.000803	0.013623	0.000967	0.003761
989	0.000474	0.010007	0.00031	0.001954
990	0.00031	0.006391	0.000146	0.002447
991	0.00146	0.006062	-0.000183	0.001954
992	0.000474	0.0105	-0.000183	0.003268
993	0.000639	0.00294	-0.000347	0.002611
994	-0.000676	0.001789	-0.000347	0.004255
995	-0.000512	0.004419	-0.000183	-0.001827
996	-1.9e-05	0.006556	-1.9e-05	0.000639
997	-0.000841	0.004255	0.000146	0.000474
998	0.001789	0.005405	0.00031	-0.000676
999	0.007706	0.009021	0.001132	0.003104
1000	0.021676	0.010829	0.00146	0.001132
1001	0.024799	0.014938	0.000146	0.003926
1002	0.028579	0.010336	-0.000676	0.001789
1003	0.000474	0.017239	-1.9e-05	0.001789
1004	0.00146	0.013459	-0.001005	0.000967
1005	0.004583	0.015595	0.000474	0.000967
1006	0.013952	0.016581	0.007706	0.000639
1007	0.017239	0.01954	0.000146	0.000474
1008	0.02595	0.022827	0.000146	-0.001662
1009	0.034168	0.031373	0.000474	-0.001169
1010	0.037619	0.03614	0.000474	-1.9e-05
1011	0.045344	0.041892	0.000474	0.000474
1012	0.048138	0.046166	0.004255	0.001296
1013	0.053726	0.056191	0.003104	0.001296
1014	0.061944	0.060793	0.001132	0.000146
1015	0.069011	0.066053	-0.000841	-0.000347
1016	0.074271	0.069176	0.000803	0.001296
1017	0.075914	0.016581	0.002611	0.001296
1018	0.078708	0.003268	0.000146	0.000146
1019	0.084954	0.001954	-0.000183	0.000639
1020	0.090049	0.005241	0.000474	0.000474
1021	0.094651	0.005405	0.00031	0.000474
1022	0.09613	0.013623	0.000474	0.000474
1023	0.098267	0.020855	0.000474	-1.9e-05
1024	0.10517	0.028415	0.000146	0.000146
1025	0.1101	0.034661	-0.000347	-0.000347
1026	0.115524	0.041399	0.005898	0.000474
1027	0.117003	0.046166	0.015924	-0.000347
1028	0.120948	0.052082	0.015595	-0.000183
1029	0.117825	0.057999	-1.9e-05	-0.000347
1030	0.122756	0.063752	0.000146	-0.001498
1031	0.125386	0.061779	0.000474	-0.000512
1032	0.128015	0.047973	0.000146	0.000803
1033	0.128015	0.041235	0.000474	-1.9e-05
1034	0.132946	0.028086	0.000474	0.000639
1035	0.135083	0.015431	0.000146	0.000803
1036	0.13952	0.010336	-0.000512	-1.9e-05
1037	0.139849	0.01691	-0.000347	0.000967
1038	0.141657	0.022005	-0.000347	0.000474
1039	0.145602	0.028579	-1.9e-05	-0.000183
1040	0.146752	0.036469	-0.000183	-1.9e-05
1041	0.146588	0.042221	-1.9e-05	0.000146
1042	0.149053	0.045672	0.000146	-0.000676
1043	0.149053	0.054219	0.00031	0.001625
1044	0.149875	0.055863	0.000474	0.001296
1045	0.156613	0.064245	0.00031	0.00146
1046	0.153655	0.072298	-1.9e-05	-0.000676
1047	0.156449	0.07049	-0.000347	-0.000347
1048	0.15875	0.080681	0.001296	0.000146
1049	0.163516	0.083968	0.006227	-0.000347
1050	0.162695	0.08972	0.006884	0.00031
1051	0.16516	0.095473	0.020197	-1.9e-05
1052	0.16253	0.102211	0.000803	-0.000347
1053	0.167132	0.106485	0.000639	-0.000347
1054	0.165489	0.107964	0.00031	0.001132
1055	0.166968	0.108457	0.00031	0.000146
1056	0.169762	0.112566	0.000639	0.001625
1057	0.170584	0.115195	0.004912	0.000639
1058	0.170091	0.117168	0.010993	0.00031
1059	0.173871	0.118811	0.011651	0.000639
1060	0.177487	0.121934	0.011486	-0.000512
1061	0.171899	0.121441	-0.002648	-0.000512
1062	0.173378	0.1267	-0.000512	-1.9e-05
1063	0.175843	0.128673	0.002118	-0.001334
1064	0.179459	0.132289	0.007706	-0.001334
1065	0.17798	0.138205	0.012308	0.000803
1066	0.176172	0.136233	0.019868	-0.000183
1067	0.176665	0.141986	0.018225	0.00146
1068	0.177815	0.143794	0.025785	0.00031
1069	0.178802	0.146588	0.034168	0.000474
1070	0.179788	0.145437	0.042221	-0.000512
1071	0.181431	0.150368	0.042057	0.000803
1072	0.177487	0.150861	0.042714	0.000967
1073	0.184061	0.153984	0.054219	0.000474
1074	0.18439	0.156285	0.061122	0.00146
1075	0.18817	0.156613	0.068354	0.001296
1076	0.185212	0.159572	0.07197	0.004255
1077	0.184061	0.156285	0.074764	0.000639
1078	0.183239	0.159408	0.078215	0.002775
1079	0.18554	0.159901	0.086762	0.002775
1080	0.182746	0.164174	0.06293	0.002447
1081	0.185869	0.16253	0.030223	0.002611
1082	0.186855	0.166639	0.032853	0.003926
1083	0.183239	0.163845	0.025457	0.00294
1084	0.185869	0.16779	0.035482	0.004419
1085	0.18439	0.167625	0.019211	0.004748
1086	0.187677	0.170091	0.002282	0.008857
1087	0.186198	0.173707	0.005241	0.0105
1088	0.187348	0.17272	0.002611	0.023484
1089	0.186526	0.171077	0.000967	0.030059
1090	0.188992	0.1742	0.004255	0.035318
1091	0.191128	0.175186	0.0105	0.045015
1092	0.187513	0.173542	0.017403	0.04896
1093	0.189978	0.177487	0.024142	0.056191
1094	0.190471	0.177651	0.025128	0.058821
1095	0.186691	0.18061	0.033839	0.067861
1096	0.191621	0.180116	0.041235	0.072298
1097	0.19195	0.181103	0.050274	0.070819
1098	0.188663	0.181924	0.054219	0.081667
1099	0.19195	0.180281	0.060629	0.085447
1100	0.193101	0.179952	0.068025	0.087255
1101	0.191786	0.184554	0.074106	0.095473
1102	0.192115	0.181431	0.077065	0.095637
1103	0.193758	0.184061	0.08216	0.101554
1104	0.18554	0.183404	0.087912	0.104348
1105	0.162695	0.18554	0.086597	0.107964
1106	0.149875	0.188334	0.093829	0.113388
1107	0.15119	0.18554	0.09613	0.115524
1108	0.153655	0.183404	0.103691	0.120291
1109	0.152505	0.182253	0.106978	0.122756
1110	0.154312	0.182582	0.005405	0.1267
1111	0.155627	0.182417	0.000474	0.128673
1112	0.158586	0.185869	-1.9e-05	0.133439
1113	0.161873	0.184718	-0.000183	0.134261
1114	0.165653	0.179952	-0.000512	0.137877
1115	0.16894	0.18176	-0.000676	0.139849
1116	0.164503	0.180281	-0.000841	0.142479
1117	0.162695	0.181431	0.001789	0.140835
1118	0.165489	0.182746	0.00935	0.141657
1119	0.165817	0.182746	0.013623	0.141821
1120	0.166968	0.18439	0.02069	0.142972
1121	0.169433	0.183568	0.028744	0.150368
1122	0.170748	0.183404	0.033346	0.150204
1123	0.170419	0.18554	0.045015	0.153984
1124	0.176829	0.184225	0.048631	0.156285
1125	0.171241	0.184554	0.055205	0.157928
1126	0.172063	0.185047	0.057013	0.159572
1127	0.174035	0.187348	0.061286	0.165817
1128	0.170913	0.136398	0.061286	0.163681
1129	0.173049	0.071312	0.068682	0.165324
1130	0.178966	0.071641	0.075092	0.165653
1131	0.174857	0.075092	0.077558	0.169598
1132	0.176501	0.074271	0.084625	0.168776
1133	0.178966	0.080845	0.083968	0.170913
1134	0.179952	0.083639	0.098431	0.170091
1135	0.182089	0.089556	0.098102	0.170913
1136	0.181924	0.094815	0.100568	0.17272
1137	0.179788	0.097116	0.105498	0.173049
1138	0.181596	0.104677	0.106485	0.174528
1139	0.18439	0.10895	0.110429	0.174035
1140	0.178966	0.105992	0.116839	0.177815
1141	0.184061	0.112401	0.118483	0.18061
1142	0.181431	0.119304	0.122427	0.179623
1143	0.181596	0.115524	0.124728	0.181596
1144	0.184554	0.118483	0.128015	0.181596
1145	0.182582	0.12292	0.130645	0.181103
1146	0.186526	0.128673	0.129823	0.189814
1147	0.187184	0.131796	0.133275	0.185705
1148	0.184718	0.135576	0.134918	0.186198
1149	0.187513	0.136562	0.138699	0.186855
1150	0.188499	0.13952	0.138863	0.183897
1151	0.188334	0.141164	0.144944	0.183239
1152	0.1908	0.142643	0.142643	0.184883
1153	0.186855	0.146095	0.148724	0.184554
1154	0.184554	0.146423	0.151683	0.184061
1155	0.188006	0.152011	0.153819	0.184718
1156	0.188992	0.146588	0.155299	0.185376
1157	0.187348	0.154312	0.161051	0.188827
1158	0.189814	0.153819	0.158586	0.188992
1159	0.187841	0.156613	0.160558	0.188006
1160	0.189156	0.159079	0.164174	0.188827
1161	0.189156	0.161215	0.160558	0.190964
1162	0.188499	0.161544	0.164667	0.186855
1163	0.190964	0.164996	0.166475	0.190635
1164	0.191786	0.167625	0.167132	0.191293
1165	0.191786	0.165982	0.168283	0.190142
1166	0.187677	0.167461	0.171241	0.1908
1167	0.191128	0.170748	0.168118	0.186033
1168	0.190471	0.169762	0.17157	0.187841
1169	0.193594	0.169433	0.170091	0.195895
1170	0.190307	0.172556	0.173214	0.189156
1171	0.193429	0.170913	0.173871	0.191128
1172	0.191293	0.172885	0.174857	0.19195
1173	0.190142	0.172885	0.176665	0.191786
1174	0.191293	0.176008	0.186198	0.196223
1175	0.182417	0.172227	0.179952	0.193101
1176	0.187184	0.176172	0.178802	0.193429
1177	0.193101	0.176008	0.184061	0.193101
1178	0.188499	0.177651	0.181431	0.195566
1179	0.192772	0.179295	0.183568	0.19573
1180	0.194087	0.180938	0.180281	0.196552
1181	0.188663	0.18061	0.183732	0.195895
1182	0.1908	0.183732	0.182911	0.196552
1183	0.194416	0.180774	0.18061	0.197538
1184	0.192772	0.180281	0.181596	0.195237
1185	0.190964	0.184225	0.182582	0.198689
1186	0.19458	0.185705	0.183404	0.194416
1187	0.193265	0.182582	0.183239	0.19573
1188	0.194416	0.179295	0.187019	0.195895
1189	0.192936	0.182582	0.185376	0.195073
1190	0.192115	0.182582	0.191293	0.191786
1191	0.193429	0.181267	0.186526	0.197867
1192	0.19458	0.180445	0.188663	0.195073
1193	0.191621	0.191457	0.185212	0.195237
1194	0.193594	0.18817	0.179788	0.19573
1195	0.194744	0.188499	0.173707	0.19573
1196	0.193758	0.190471	0.164338	0.200168
1197	0.193101	0.191457	0.160887	0.199839
1198	0.192608	0.189649	0.165982	0.200661
1199	0.197045	0.188499	0.164667	0.200004
1200	0.195073	0.191128	0.166968	0.198853
1201	0.197703	0.188663	0.166311	0.198031
1202	0.195895	0.189485	0.170091	0.196223
1203	0.196223	0.123578	0.169105	0.198031
1204	0.194909	0.065724	0.172885	0.199346
1205	0.194909	0.021676	0.171899	0.193594
1206	0.194744	0.008528	0.173542	0.198524
1207	0.194909	0.012965	0.174364	0.196059
1208	0.19458	0.024964	0.174857	0.198853
1209	0.193594	0.02595	0.176665	0.196881
1210	0.19458	0.037126	0.178802	0.196059
1211	0.192936	0.042057	0.182089	0.194251
1212	0.195073	0.045837	0.180281	0.19721
1213	0.192443	0.054548	0.183075	0.199839
1214	0.195566	0.059314	0.181596	0.19836
1215	0.195402	0.066381	0.181924	0.197703
1216	0.196552	0.069669	0.182746	0.198689
1217	0.19458	0.073449	0.181431	0.199346
1218	0.196552	0.070326	0.181267	0.199675
1219	0.19458	0.07838	0.183239	0.203784
1220	0.196223	0.078215	0.18439	0.196388
1221	0.193758	0.084954	0.184554	0.196881
1222	0.192936	0.085283	0.186526	0.197538
1223	0.196881	0.092514	0.181924	0.197374
1224	0.195566	0.095308	0.183404	0.198031
1225	0.192279	0.099089	0.186198	0.194744
1226	0.195402	0.105005	0.187841	0.198524
1227	0.19721	0.107799	0.187348	0.198853
1228	0.194416	0.112894	0.189649	0.198524
1229	0.193594	0.116839	0.18817	0.199018
1230	0.189814	0.124235	0.188827	0.19721
1231	0.19458	0.122098	0.189485	0.198853
1232	0.193429	0.128015	0.191786	0.19721
1233	0.188334	0.12555	0.189649	0.198853
1234	0.194416	0.133275	0.191293	0.199182
1235	0.194744	0.130481	0.190964	0.198031
1236	0.193758	0.121441	0.188663	0.200661
1237	0.195237	0.117332	0.1908	0.197867
1238	0.196223	0.114702	0.189978	0.201647
1239	0.19573	0.115524	0.191457	0.201483
1240	0.192608	0.117825	0.1908	0.200825
1241	0.19195	0.12555	0.194909	0.19721
1242	0.194744	0.120455	0.190964	0.197538
1243	0.191457	0.127851	0.19195	0.198031
1244	0.193922	0.129988	0.196717	0.199511
1245	0.195073	0.135083	0.19458	0.200004
1246	0.193758	0.136891	0.194087	0.197867
1247	0.193101	0.139849	0.194087	0.201319
1248	0.194909	0.142807	0.193429	0.200004
1249	0.194416	0.145273	0.192443	0.201976
1250	0.195895	0.146259	0.192115	0.200661
1251	0.195566	0.147738	0.192772	0.202305
1252	0.194251	0.15234	0.195237	0.197867
1253	0.193922	0.15234	0.19195	0.200332
1254	0.192936	0.150039	0.192936	0.19836
1255	0.194251	0.153984	0.194416	0.199182
1256	0.195073	0.153984	0.195073	0.201812
1257	0.19458	0.147903	0.190471	0.200168
1258	0.193265	0.128837	0.192772	0.199346
1259	0.195237	0.1267	0.192772	0.200661
1260	0.191457	0.129166	0.193101	0.197867
1261	0.194087	0.132289	0.192443	0.19721
1262	0.193101	0.13952	0.19195	0.19721
1263	0.193594	0.141493	0.193265	0.19721
1264	0.18932	0.133932	0.194087	0.202469
1265	0.192608	0.137384	0.193758	0.195073
1266	0.193922	0.0105	0.194087	0.200497
1267	0.193922	0.000967	0.197374	0.199511
1268	0.19195	0.003104	0.196717	0.200168
1269	0.19195	0.004912	0.193758	0.197538
1270	0.193265	0.004748	0.194416	0.197374
1271	0.192279	0.00294	0.193265	0.197538
1272	0.19195	0.00935	0.19458	0.196881
1273	0.193101	0.016746	0.194909	0.200168
1274	0.192772	0.000474	0.196223	0.198689
1275	0.190471	0.003268	0.193265	0.200004
1276	0.194416	0.00787	0.193429	0.199346
1277	0.194251	0.016088	0.198196	0.199346
1278	0.194909	0.023649	0.194251	0.199182
1279	0.190142	0.032031	0.194087	0.20099
1280	0.191128	0.035975	0.194087	0.196223
1281	0.189978	0.04633	0.196388	0.19836
1282	0.19195	0.049781	0.196388	0.200168
1283	0.189814	0.057835	0.19721	0.197867
1284	0.190471	0.060465	0.198853	0.201319
1285	0.189814	0.068189	0.193429	0.200661
1286	0.187184	0.072134	0.196552	0.198689
1287	0.192443	0.075914	0.197045	0.200004
1288	0.104184	0.080187	0.198524	0.201319
1289	0.090049	0.084132	0.196388	0.203455
1290	0.082982	0.082817	0.19721	0.203455
1291	0.094651	0.086433	0.195073	0.200004
1292	0.09613	0.094651	0.200661	0.201483
1293	0.100732	0.093829	0.197867	0.198853
1294	0.103197	0.098431	0.197045	0.200661
1295	0.091035	0.103691	0.195402	0.200332
1296	0.04896	0.105005	0.197867	0.198031
1297	0.00409	0.109607	0.197374	0.198196
1298	0.011651	0.114702	0.196717	0.201319
1299	0.023484	0.11914	0.197867	0.198689
1300	0.022498	0.121441	0.196881	0.20477
1301	0.031538	0.123413	0.198524	0.202962
1302	0.040577	0.126536	0.19573	0.199018
1303	0.043536	0.131631	0.197538	0.199018
1304	0.052575	0.133932	0.199675	0.200661
1305	0.057671	0.136233	0.197374	0.199675
1306	0.065724	0.138041	0.197703	0.202469
1307	0.067532	0.132453	0.199182	0.200661
1308	0.074928	0.139356	0.196552	0.198524
1309	0.07838	0.144122	0.200332	0.201154
1310	0.085118	0.147409	0.19836	0.198196
1311	0.089556	0.130645	0.194087	0.201483
1312	0.092186	0.061615	0.180116	0.198524
1313	0.097609	0.002282	0.102869	0.200825
1314	0.101061	0.011158	0.021676	0.202305
1315	0.103526	0.018554	0.005076	0.195566
1316	0.106649	0.019868	0.001789	0.196059
1317	0.109279	0.031045	0.002775	0.203455
1318	0.110922	0.027265	0.005569	0.196059
1319	0.116017	0.042714	-0.000183	0.196881
1320	0.116839	0.04633	0.00146	0.195895
1321	0.122592	0.054548	0.00031	0.199511
1322	0.121441	0.059643	-0.000183	0.200332
1323	0.122263	0.063094	-0.000841	0.199346
1324	0.124728	0.07049	-0.000512	0.20099
1325	0.127522	0.075421	-0.001005	0.199346
1326	0.132782	0.082324	0.000146	0.200332
1327	0.134754	0.084625	-0.000347	0.196881
1328	0.132617	0.090871	0.000639	0.200661
1329	0.13574	0.084461	0.000474	0.197867
1330	0.135904	0.096294	0.00031	0.198524
1331	0.128837	0.102704	0.00031	0.198196
1332	0.13196	0.104019	-1.9e-05	0.199346
1333	0.133768	0.107964	-0.000347	0.199839
1334	0.137384	0.111744	-0.000183	0.199018
1335	0.140178	0.114867	-0.000347	0.200004
1336	0.140506	0.120455	-0.000512	0.200825
1337	0.143958	0.12177	-0.000347	0.201154
1338	0.149382	0.124399	0.000146	0.197374
1339	0.144615	0.127687	0.000146	0.202469
1340	0.148067	0.118154	0.00031	0.19836
1341	0.151025	0.128344	0.00031	0.200661
1342	0.147574	0.128344	0.000146	0.201483
1343	0.149875	0.136726	-0.000183	0.201319
1344	0.154312	0.134918	-0.000183	0.198689
1345	0.153984	0.137548	-0.000512	0.200497
1346	0.156449	0.136562	-0.000512	0.197703
1347	0.157928	0.146095	-0.000512	0.201319
1348	0.154641	0.144615	-0.000183	0.199346
1349	0.158586	0.142807	-0.000183	0.200332
1350	0.15612	0.097938	0.000474	0.200661
1351	0.159408	0.007542	0.000474	0.202305
1352	0.158914	0.013294	0.000474	0.200332
1353	0.162366	0.022663	0.000474	0.197374
1354	0.088898	0.028908	0.000146	0.200004
1355	0.060629	0.03729	-0.000183	0.199839
1356	0.013952	0.04255	-0.000347	0.201483
1357	0.013623	0.046166	-0.000183	0.200168
1358	0.012144	0.059643	-0.000512	0.200661
1359	0.00409	0.0603	-0.000676	0.198524
1360	-0.000676	0.067861	0.00031	0.200661
1361	0.002775	0.070819	0.000474	0.200332
1362	0.00294	0.070983	0.00031	0.199018
1363	0.003104	0.076736	0.000474	0.20214
1364	0.003433	0.083639	0.00031	0.199675
1365	-0.000183	0.085118	0.000146	0.200004
1366	-0.000676	0.089227	-1.9e-05	0.200497
1367	0.001296	0.095801	-0.000347	0.197045
1368	0.001132	0.09876	-0.000347	0.197867
1369	0.00031	0.038769	-0.000512	0.199018
1370	0.002118	0.005898	-0.000512	0.198031
1371	-0.001334	0.006391	0.000146	0.201647
1372	0.000803	0.00935	0.00031	0.202469
1373	0.00031	0.016417	0.00031	0.201319
1374	0.001296	0.020855	0.000639	0.198689
1375	0.000967	0.03088	0.000474	0.19573
1376	0.001789	0.026936	-1.9e-05	0.199018
1377	0.001132	0.01313	-0.000183	0.202305
1378	-0.001662	0.018225	-0.000347	0.19836
1379	0.000474	0.014445	-0.000512	0.20099
1380	-0.000183	0.013623	-0.000512	0.200661
1381	-0.000347	0.002447	-0.000183	0.199511
1382	-0.000512	-0.000512	-1.9e-05	0.199839
1383	-0.000512	-0.000512	0.00031	0.199675
1384	-1.9e-05	-0.001827	0.00031	0.199018
1385	0.00031	0.000474	0.000474	0.197703
1386	0.000474	0.00031	0.00031	0.19836
1387	0.000803	0.002282	-1.9e-05	0.197538
1388	0.000639	0.000803	-0.000347	0.200497
1389	0.00146	0.005734	-0.000347	0.199182
1390	-1.9e-05	0.013952	-0.000676	0.196881
1391	-0.000347	0.020033	-0.000512	0.19836
1392	-0.000183	0.028086	-0.000347	0.199839
1393	-0.000512	0.034661	0.00031	0.20099
1394	-0.000347	0.043371	0.000146	0.200332
1395	0.000146	0.047152	0.000146	0.199018
1396	0.00031	0.048631	0.000146	0.200332
1397	0.00031	0.047809	0.00031	0.200661
1398	0.000474	0.000474	0.000146	0.201976
1399	0.000474	-0.000183	-0.000183	0.202305
1400	-1.9e-05	0.000639	-0.000347	0.199182
1401	-0.000183	0.001296	-0.000183	0.200497
1402	-0.000347	0.000474	-0.000676	0.201812
1403	-0.000347	-0.000347	-0.000183	0.201154
1404	-0.000676	0.000474	-1.9e-05	0.196717
1405	-0.000183	0.002611	0.00031	0.20099
1406	-1.9e-05	-0.000841	0.000474	0.19721
1407	0.00031	0.002447	0.000474	0.196388
1408	0.000474	0.009514	0.000474	0.19721
1409	0.000474	0.016581	0.00031	0.199839
1410	0.00031	0.021348	-0.000183	0.199182
1411	0.000146	0.027593	-0.000347	0.19836
1412	-0.000183	0.034496	-0.000347	0.197538
1413	-0.000347	0.03992	-0.000512	0.202962
1414	-0.000512	0.046659	-0.000512	0.201483
1415	-0.000183	0.050603	-0.000183	0.198689
1416	-0.000512	0.059643	0.000146	0.202633
1417	-1.9e-05	0.064902	0.000146	0.19721
1418	0.000146	0.063916	0.000474	0.198031
1419	0.000474	0.069833	0.000639	0.198196
1420	0.00031	0.072956	0.000146	0.198196
1421	0.000474	0.07575	-0.000183	0.198689
1422	0.00031	0.082488	-0.000347	0.194087
1423	-0.000183	0.08709	-0.000512	0.199839
1424	-0.000347	0.094158	-0.000512	0.199018
1425	-0.000512	0.095801	-0.000512	0.197045
1426	-0.000512	0.103526	0.000146	0.19573
1427	-0.000183	0.103197	0.000146	0.200332
1428	-1.9e-05	0.107635	0.000474	0.200004
1429	0.000146	0.10254	0.00031	0.199018
1430	0.000474	0.100896	0.00031	0.199839
1431	0.00031	0.100075	0.00031	0.202633
1432	0.000146	0.101883	-0.000183	0.196223
1433	0.00031	0.107635	-0.000183	0.201647
1434	-1.9e-05	0.109772	-0.000512	0.199346
1435	-0.000183	0.114374	-0.000512	0.202469
1436	-0.000512	0.117003	-0.000183	0.20099
1437	-0.000512	0.120784	-0.000183	0.200661
1438	-1.9e-05	0.11914	0.00031	0.19836
1439	0.000146	0.121605	0.000146	0.199018
1440	-1.9e-05	0.126372	0.00031	0.196881
1441	0.000474	0.131138	0.000474	0.198524
1442	0.00031	0.132124	0.000146	0.19721
1443	0.000474	0.136398	-0.000347	0.197374
1444	0.000146	0.140178	-0.000347	0.20099
1445	-0.000183	0.143958	-0.000512	0.197867
1446	-0.000347	0.146588	-0.000512	0.200661
1447	-0.000347	0.145602	-0.000183	0.20214
1448	-0.000512	0.150532	-0.000183	0.202962
1449	-0.000183	0.146916	0.000146	0.204441
1450	0.000146	0.150039	0.00031	0.200825
1451	0.000146	0.151025	0.00031	0.198689
1452	0.00031	0.153819	0.00031	0.202469
1453	0.000474	0.154148	0.000146	0.199839
1454	0.000474	0.156942	-0.000183	0.197703
1455	0.00031	0.156778	-0.000347	0.195073
1456	-0.000347	0.158093	-0.000512	0.199675
1457	-0.000347	0.162695	-0.000512	0.19721
1458	-0.000512	0.162859	-0.000347	0.197538
1459	-0.000347	0.163845	0.000146	0.198853
1460	-0.000183	0.163023	0.000146	0.199018
1461	0.000146	0.167625	0.000474	0.198853
1462	-1.9e-05	0.167297	0.000474	0.19573
1463	0.000474	0.169433	0.00031	0.200661
1464	0.000146	0.16894	0.000146	0.199182
1465	0.000474	0.170091	-0.000347	0.201319
1466	0.000639	0.169598	-0.000347	0.198196
1467	-1.9e-05	0.17157	-0.000347	0.202305
1468	-0.000183	0.17157	-0.000347	0.200332
1469	-0.000347	0.173871	-0.000512	0.199346
1470	-0.000347	0.17157	-0.000183	0.199018
1471	-0.000347	0.174528	0.000146	0.196552
1472	0.000146	0.174364	0.000146	0.194087
1473	0.000146	0.173871	0.000474	0.194087
1474	0.00031	0.176665	0.000474	0.196223
1475	0.000474	0.179788	0.000146	0.19458
1476	0.00031	0.176501	-1.9e-05	0.197867
1477	0.000474	0.177158	-0.000347	0.199511
1478	-0.000183	0.18061	-0.000512	0.199839
1479	-0.000183	0.180281	-0.000347	0.199839
1480	-0.000347	0.181267	-0.000347	0.199839
1481	-0.000183	0.18061	-1.9e-05	0.199675
1482	-0.000183	0.18176	0.000146	0.199346
1483	0.000146	0.182253	0.00031	0.199346
1484	-1.9e-05	0.181924	0.000474	0.201319
1485	0.000474	0.181924	0.00031	0.197867
1486	0.00031	0.181267	-1.9e-05	0.200825
1487	0.000639	0.178473	-0.000183	0.200825
1488	0.00031	0.182089	-0.000347	0.19836
1489	-0.000183	0.180445	-0.000347	0.198689
1490	-0.000183	0.181924	-0.000512	0.197045
1491	-0.000183	0.180445	-1.9e-05	0.200497
1492	-0.000512	0.178802	0.000146	0.196552
1493	-0.000676	0.181924	0.00031	0.199018
1494	-1.9e-05	0.178802	0.00031	0.196717
1495	0.00031	0.175679	0.00031	0.200004
1496	0.000146	0.179952	0.000639	0.200825
1497	0.00031	0.185212	0.000146	0.201319
1498	0.00031	0.183075	-0.000183	0.199346
1499	0.000146	0.187184	-0.000347	0.202962
1500	-0.000183	0.184225	-0.000512	0.197867
1501	-0.000183	0.185212	-0.000676	0.202798
1502	-0.000183	0.183404	-0.000512	0.19836
1503	-0.000347	0.183897	-0.000183	0.199182
1504	-0.000512	0.183404	0.000146	0.199346
1505	-1.9e-05	0.181596	0.000474	0.19836
1506	0.000474	0.183732	0.000474	0.197867
1507	-1.9e-05	0.183404	0.000146	0.198031
1508	0.000474	0.185047	0.000146	0.200661
1509	0.00031	0.181596	0.000146	0.198524
1510	0.000146	0.189485	-0.000512	0.19836
1511	-0.000183	0.187677	-0.000347	0.197538
1512	-0.000676	0.189978	-0.000676	0.197703
1513	-0.000183	0.189156	-1.9e-05	0.196388
1514	-0.000512	0.189978	-1.9e-05	0.199511
1515	-0.000347	0.187677	0.000146	0.198689
1516	-1.9e-05	0.187513	0.00031	0.199182
1517	0.000474	0.187348	0.00031	0.200661
1518	0.00031	0.188499	0.000474	0.199839
1519	0.000146	0.192279	0.000146	0.19573
1520	0.000474	0.187841	-0.000183	0.196881
1521	0.000146	0.190142	-0.000347	0.199346
1522	-1.9e-05	0.189485	-0.000512	0.197374
1523	-0.000512	0.187677	-0.000676	0.198524
1524	0.00031	0.188992	-0.000347	0.201812
1525	-0.001005	0.191786	-1.9e-05	0.20099
1526	-0.000512	0.189814	0.000146	0.200332
1527	0.000146	0.189978	0.000474	0.199839
1528	0.00031	0.187513	0.000474	0.197703
1529	0.000146	0.189978	0.000639	0.201483
1530	0.000474	0.189485	0.000146	0.197703
1531	0.000474	0.192608	-1.9e-05	0.199346
1532	0.000146	0.191786	-0.000347	0.195566
1533	-0.000183	0.192608	-0.000512	0.201812
1534	-0.000347	0.193594	-0.000347	0.198853
1535	-0.000183	0.193429	-0.000512	0.194087
1536	-0.000512	0.193429	-0.000183	0.199018
1537	-0.000347	0.195566	-1.9e-05	0.197538
1538	-1.9e-05	0.19573	0.00031	0.201154
1539	0.000146	0.18932	0.00031	0.19836
1540	0.000474	0.1908	0.00031	0.200332
1541	0.00031	0.192772	-1.9e-05	0.199346
1542	0.000474	0.191457	-0.000347	0.201154
1543	0.000146	0.187513	-0.000512	0.197867
1544	-1.9e-05	0.190142	-0.000512	0.199018
1545	-0.000512	0.191457	-0.000512	0.198689
1546	-0.000347	0.192443	-0.000183	0.203455
1547	-0.000512	0.193594	-1.9e-05	0.199675
1548	0.000146	0.194744	0.000474	0.199018
1549	-1.9e-05	0.195237	0.000474	0.201483
1550	0.000474	0.196881	0.00031	0.19721
1551	0.000146	0.194251	0.000474	0.199839
1552	0.00146	0.194087	0.000146	0.19836
1553	0.001132	0.196059	-0.000183	0.198524
1554	0.000967	0.192936	-0.000183	0.198524
1555	0.000146	0.19458	-0.000347	0.201154
1556	0.001132	0.193758	-0.000676	0.197703
1557	-0.000347	0.193758	-0.000183	0.20099
1558	0.001625	0.189485	-1.9e-05	0.199839
1559	0.001132	0.190964	0.000146	0.20099
1560	0.000474	0.187677	0.00031	0.199182
1561	0.001132	0.190142	0.00031	0.202633
1562	-1.9e-05	0.184225	0.000474	0.193922
1563	0.001132	0.188006	0.000146	0.196552
1564	0.000639	0.186855	-0.000183	0.19721
1565	-0.000512	0.187513	-0.000183	0.197538
1566	-0.001169	0.187677	-0.000347	0.197374
1567	-0.002648	0.189814	-0.000512	0.195402
1568	-0.001169	0.188663	-0.000347	0.197538
1569	-0.001005	0.187677	-0.000183	0.199346
1570	-0.001662	0.184718	0.000474	0.19836
1571	0.000803	0.184883	0.00031	0.196552
1572	0.000803	0.187184	0.00031	0.200004
1573	0.002118	0.181431	0.000474	0.200332
1574	0.001954	0.185376	-1.9e-05	0.206249
1575	0.004748	0.183075	-0.000183	0.200332
1576	0.001132	0.188006	-0.000183	0.201319
1577	-0.000512	0.185212	-0.000347	0.199675
1578	0.003597	0.184061	-0.000676	0.198689
1579	-0.001662	0.183897	-0.000183	0.199182
1580	0.003761	0.185376	-0.000183	0.200332
1581	0.001132	0.181596	0.000474	0.20099
1582	-0.001334	0.181103	0.000474	0.195402
1583	0.003926	0.182582	0.000474	0.200332
1584	0.006391	0.180116	0.000639	0.198524
1585	-1.9e-05	0.153655	0.00031	0.197045
1586	0.004583	0.153491	-0.000183	0.197703
1587	0.00031	0.151025	-0.000347	0.196223
1588	0.003268	0.152011	-0.000512	0.199511
1589	0.007213	0.157764	-0.000676	0.20099
1590	0.012144	0.157271	-0.000183	0.199346
1591	0.015595	0.159243	-1.9e-05	0.201647
1592	0.023813	0.160887	-1.9e-05	0.204934
1593	0.028744	0.162037	0.000146	0.200004
1594	0.02447	0.167132	0.000474	0.200497
1595	0.009021	0.163023	0.000474	0.200004
1596	0.00031	0.164174	0.00031	0.20099
1597	0.002611	0.166475	-0.000347	0.197538
1598	0.000474	0.168776	-0.000347	0.196223
1599	0.001625	0.169762	-0.000347	0.199018
1600	-0.000841	0.173871	-0.000676	0.198689
1601	-1.9e-05	0.173378	-0.000347	0.197867
1602	-0.000512	0.17535	-1.9e-05	0.199511
1603	0.002611	0.174364	0.000146	0.198031
1604	0.00031	0.174693	0.000474	0.20099
1605	0.001789	0.176501	0.000474	0.198196
1606	0.006391	0.179295	0.000474	0.199839
1607	0.013952	0.176336	0.00031	0.200332
1608	0.02332	0.17913	-0.000183	0.199839
1609	0.028908	0.181267	-0.000512	0.197703
1610	0.036304	0.182253	-0.000347	0.201319
1611	0.045837	0.180116	-0.000347	0.203291
1612	0.050603	0.181924	-0.000347	0.197538
1613	0.052904	0.18061	-1.9e-05	0.197045
1614	0.062766	0.180938	0.00031	0.197045
1615	0.063423	0.183404	0.00031	0.197867
1616	0.074106	0.183404	0.000474	0.199018
1617	0.077886	0.185212	0.000474	0.199018
1618	0.08216	0.18176	0.000146	0.195566
1619	0.085447	0.184061	-1.9e-05	0.20099
1620	0.088241	0.182089	-0.000347	0.196388
1621	0.091528	0.18554	-0.000512	0.198689
1622	0.094322	0.183404	-0.000347	0.199346
1623	0.061451	0.185869	-0.000347	0.202305
1624	0.007542	0.184718	0.000146	0.20099
1625	0.01576	0.187348	0.000146	0.199018
1626	0.02069	0.18554	0.00031	0.197867
1627	0.018718	0.188499	0.000474	0.201154
1628	0.022991	0.187841	0.000639	0.20099
1629	0.028908	0.186526	0.000146	0.199018
1630	0.035482	0.185705	-0.000347	0.200168
1631	0.046001	0.186526	-0.000347	0.197867
1632	0.048302	0.188334	-0.000512	0.201483
1633	0.053562	0.186691	-0.000512	0.20099
1634	0.061779	0.184883	-0.000347	0.201319
1635	0.057342	0.184225	0.000146	0.198031
1636	0.01691	0.186362	0.00031	0.201483
1637	0.017403	0.18061	0.00031	0.199511
1638	0.016581	0.180281	0.000146	0.19836
1639	0.012144	0.178637	0.000474	0.201976
1640	0.000803	0.174857	0.000146	0.200332
1641	0.001296	0.17272	-0.000183	0.202305
1642	0.000639	0.166311	-0.000183	0.197374
1643	-0.000183	0.163845	-0.000512	0.201319
1644	0.000967	0.166146	-0.000347	0.202962
1645	0.000803	0.165489	-0.000512	0.201483
1646	0.002447	0.163023	0.000146	0.198031
1647	0.000803	0.164338	0.000146	0.198196
1648	0.000146	0.164996	0.00031	0.198031
1649	0.000146	0.165982	0.000474	0.202633
1650	0.000639	0.167297	0.000474	0.197538
1651	0.000146	0.169926	0.00031	0.201319
1652	0.001296	0.167625	-0.000183	0.19721
1653	-1.9e-05	0.170091	-0.000183	0.198689
1654	0.000639	0.171406	-0.000676	0.198689
1655	-0.000841	0.172885	-0.000512	0.198031
1656	-0.001991	0.173049	-0.000347	0.199839
1657	0.002282	0.173707	-1.9e-05	0.199675
1658	0.004255	0.174364	0.00031	0.199018
1659	0.006227	0.175186	0.00031	0.20099
1660	0.006391	0.180281	0.00031	0.201976
1661	0.008363	0.174528	0.00031	0.201154
1662	0.015102	0.175679	0.000146	0.205099
1663	0.020855	0.177651	-0.000183	0.197374
1664	0.026771	0.177487	-0.000512	0.199346
1665	0.035975	0.179623	-0.000512	0.198853
1666	0.041399	0.181924	-0.000183	0.200004
1667	0.047645	0.178637	-0.000183	0.200661
1668	0.052575	0.181924	0.000146	0.199346
1669	0.059314	0.177487	-1.9e-05	0.197045
1670	0.061944	0.178473	0.000474	0.197045
1671	0.063916	0.184061	0.000474	0.198689
1672	0.075585	0.181596	0.000474	0.197703
1673	0.077229	0.182746	0.000474	0.198853
1674	0.080352	0.183897	-0.000347	0.20099
1675	0.087255	0.18439	-0.000347	0.197867
1676	0.093993	0.186691	-0.000512	0.19836
1677	0.09498	0.187841	-0.000512	0.201647
1678	0.100732	0.187019	-0.000347	0.198853
1679	0.105334	0.189485	-1.9e-05	0.20214
1680	0.110922	0.186033	0.00031	0.199839
1681	0.110758	0.185869	0.00031	0.201976
1682	0.115031	0.188992	0.000474	0.20214
1683	0.115524	0.188499	0.00031	0.202798
1684	0.121277	0.185705	0.000146	0.201812
1685	0.123413	0.188334	-1.9e-05	0.201812
1686	0.124071	0.190142	-0.000347	0.200825
1687	0.128673	0.188334	-0.000512	0.200497
1688	0.130316	0.187513	-0.000512	0.199675
1689	0.136398	0.185376	-0.000347	0.200825
1690	0.137712	0.184883	-1.9e-05	0.202469
1691	0.138863	0.186198	0.000474	0.201154
1692	0.139849	0.186855	0.000146	0.201647
1693	0.145602	0.186691	0.00031	0.200497
1694	0.149217	0.189649	0.000639	0.197045
1695	0.146588	0.183239	0.00031	0.19836
1696	0.151025	0.181924	-0.000183	0.200004
1697	0.152011	0.179623	-0.000512	0.199675
1698	0.156285	0.182417	-0.000347	0.202962
1699	0.157107	0.146916	-0.000512	0.200661
1700	0.158586	0.071641	-0.000347	0.201647
1701	0.159243	0.070819	-1.9e-05	0.199675
1702	0.160229	0.077558	0.000146	0.201319
1703	0.159079	0.082488	0.00031	0.199675
1704	0.163845	0.088241	0.00031	0.200004
1705	0.163845	0.094322	0.00031	0.196717
1706	0.165817	0.093993	0.000146	0.199511
1707	0.166639	0.100732	-0.000183	0.199839
1708	0.169105	0.105005	-0.000347	0.198689
1709	0.169105	0.110429	-0.000347	0.202305
1710	0.170584	0.114867	-0.000512	0.200168
1711	0.17157	0.115853	-0.000183	0.200168
1712	0.170748	0.118154	-1.9e-05	0.200168
1713	0.172227	0.121605	0.00031	0.2074
1714	0.173214	0.124564	0.00031	0.200825
1715	0.17535	0.130645	0.00031	0.201647
1716	0.176336	0.12818	0.000474	0.202305
1717	0.176665	0.132453	0.00031	0.201483
1718	0.175186	0.133768	-0.000183	0.201483
1719	0.178802	0.135904	-0.000512	0.200825
1720	0.178637	0.141493	-0.000512	0.200661
1721	0.179623	0.14478	-0.000512	0.200168
1722	0.176994	0.145108	-0.000183	0.198031
1723	0.180938	0.146095	-0.000183	0.197867
1724	0.177322	0.150861	0.00031	0.203455
1725	0.178802	0.149875	0.000474	0.194251
1726	0.182417	0.153984	0.000474	0.196059
1727	0.184225	0.153326	0.000474	0.198689
1728	0.179788	0.156613	0.000146	0.200497
1729	0.183404	0.155792	-0.000183	0.202633
1730	0.183568	0.161709	-0.000347	0.201812
1731	0.186526	0.161215	-0.000512	0.197045
1732	0.182911	0.161873	-0.000347	0.202305
1733	0.185047	0.164338	-0.000347	0.200497
1734	0.186855	0.160887	0.000146	0.202633
1735	0.186033	0.163023	0.000146	0.201154
1736	0.190307	0.165324	0.000474	0.202305
1737	0.185869	0.167297	0.000474	0.19836
1738	0.190635	0.16779	0.00031	0.198689
1739	0.187348	0.169762	0.000146	0.201319
1740	0.188992	0.168283	-0.000183	0.199839
1741	0.189978	0.170255	-0.000347	0.201483
1742	0.190307	0.168612	-0.000347	0.197703
1743	0.189649	0.168776	-0.000347	0.201976
1744	0.194087	0.175021	-0.000512	0.199511
1745	0.190142	0.171899	-0.000183	0.201812
1746	0.191457	0.170091	0.00031	0.202798
1747	0.191786	0.172885	0.000474	0.201319
1748	0.18817	0.1742	0.000474	0.201483
1749	0.192443	0.175021	0.000146	0.202305
1750	0.186855	0.175021	0.000146	0.199182
1751	0.189649	0.177815	-0.000347	0.200661
1752	0.190307	0.176994	-0.000183	0.201812
1753	0.193594	0.179952	-0.000512	0.199675
1754	0.1908	0.177651	-0.000512	0.201812
1755	0.192115	0.178309	-0.000347	0.199675
1756	0.193265	0.181924	0.000146	0.20099
1757	0.194251	0.177815	0.000146	0.200004
1758	0.191457	0.183404	0.00031	0.200168
1759	0.191786	0.181431	0.000474	0.198031
1760	0.192115	0.179952	0.00031	0.199839
1761	0.180938	0.174528	0.00031	0.199018
1762	0.177487	0.179623	-0.000347	0.196881
1763	0.175021	0.18061	-0.000512	0.197703
1764	0.177158	0.179623	-0.000512	0.200661
1765	0.174693	0.174693	-0.000512	0.20099
1766	0.177322	0.174364	-0.000183	0.201154
1767	0.175021	0.175186	-1.9e-05	0.199675
1768	0.174035	0.173214	0.000146	0.198196
1769	0.172556	0.177651	0.000146	0.200825
1770	0.173049	0.177815	0.00031	0.196717
1771	0.176172	0.162859	0.000474	0.200661
1772	0.179623	0.14856	-1.9e-05	0.200332
1773	0.180938	0.150861	-0.000183	0.20099
1774	0.182417	0.151683	-0.000347	0.199018
1775	0.181267	0.155792	-0.000512	0.200168
1776	0.17913	0.154477	-0.000512	0.201976
1777	0.178144	0.15612	-0.000183	0.205263
1778	0.177651	0.153162	-1.9e-05	0.199839
1779	0.180116	0.148067	0.00031	0.200497
1780	0.176008	0.147903	0.00031	0.201319
1781	0.180281	0.15234	0.000474	0.194416
1782	0.1742	0.153819	0.000474	0.199839
1783	0.176665	0.15497	-1.9e-05	0.199182
1784	0.177158	0.154477	-0.000347	0.200497
1785	0.176994	0.154641	-0.000512	0.201812
1786	0.182582	0.159901	-0.000347	0.203291
1787	0.180445	0.15612	-0.000512	0.199675
1788	0.17913	0.160887	-0.000183	0.202633
1789	0.183568	0.161215	-0.000183	0.200168
1790	0.181596	0.163845	0.000146	0.198853
1791	0.183568	0.163023	0.00031	0.201319
1792	0.172227	0.167461	0.00031	0.196717
1793	0.005898	0.166639	0.000474	0.19721
1794	0.009843	0.169433	0.00031	0.200661
1795	0.015595	0.168612	-1.9e-05	0.197374
1796	0.023484	0.168776	-0.000183	0.196223
1797	0.029237	0.171899	-0.000347	0.200332
1798	0.036304	0.170913	-0.000512	0.198196
1799	0.042714	0.178637	-0.000347	0.201812
1800	0.049781	0.176172	-1.9e-05	0.198031
1801	0.05537	0.177487	0.00031	0.200004
1802	0.060465	0.177158	0.000639	0.19836
1803	0.065231	0.18176	0.000474	0.199511
1804	0.073284	0.177487	0.00031	0.199346
1805	0.078873	0.174857	0.00031	0.200661
1806	0.081174	0.180445	-0.000183	0.198689
1807	0.08331	0.181431	-0.000347	0.197374
1808	0.092514	0.180445	-0.000347	0.201647
1809	0.097281	0.182582	-0.000512	0.199511
1810	0.098595	0.184061	-0.000512	0.200168
1811	0.10517	0.186033	-0.000183	0.198853
1812	0.105992	0.169433	0.000146	0.200825
1813	0.109114	0.15497	0.00031	0.198196
1814	0.112894	0.150861	0.000474	0.196388
1815	0.116017	0.150368	0.00031	0.196717
1816	0.118154	0.150697	0.000146	0.19836
1817	0.123413	0.151847	-0.000183	0.194416
1818	0.124235	0.153326	-0.000347	0.197374
1819	0.126865	0.155956	-0.000512	0.199182
1820	0.130809	0.1576	-0.000512	0.198031
1821	0.131796	0.158257	-0.000512	0.197538
1822	0.136069	0.161215	-1.9e-05	0.199675
1823	0.135904	0.158257	0.000146	0.200661
1824	0.141164	0.16253	0.00031	0.199346
1825	0.143136	0.16253	0.000146	0.199018
1826	0.146916	0.164667	0.000474	0.198853
1827	0.146752	0.164338	0.000146	0.202305
1828	0.150532	0.166146	-0.000183	0.203948
1829	0.149217	0.167297	-0.000347	0.201976
1830	0.151518	0.167625	-0.000512	0.201812
1831	0.154312	0.171406	-0.000183	0.199018
1832	0.154477	0.170255	-0.000183	0.198031
1833	0.154641	0.173707	-1.9e-05	0.202798
1834	0.161873	0.171899	0.000146	0.19836
1835	0.157435	0.175021	0.000474	0.198031
1836	0.161873	0.176336	0.00031	0.199346
1837	0.165489	0.176336	0.00031	0.199511
1838	0.164831	0.175515	-1.9e-05	0.198689
1839	0.167625	0.177815	-0.000183	0.200332
1840	0.169926	0.178144	-0.000512	0.199018
1841	0.167461	0.178309	-0.000512	0.199346
1842	0.169433	0.178473	-0.000512	0.199675
1843	0.170913	0.181103	-0.000183	0.199182
1844	0.169269	0.178144	-0.000183	0.197867
1845	0.176501	0.179952	0.000146	0.201154
1846	0.172885	0.181431	0.00031	0.200825
1847	0.176336	0.183732	0.000474	0.199511
1848	0.176172	0.184554	0.000474	0.201319
1849	0.17913	0.183568	0.000146	0.196881
1850	0.176008	0.18554	0.000146	0.199839
1851	0.177815	0.186033	-0.000183	0.198853
1852	0.179623	0.187184	-0.000347	0.199839
1853	0.179459	0.18932	-0.000347	0.198524
1854	0.18061	0.187677	-0.000183	0.199018
1855	0.182253	0.186855	-1.9e-05	0.198031
1856	0.183075	0.190307	0.000146	0.202469
1857	0.182089	0.188334	0.000146	0.197867
1858	0.182582	0.189485	0.00031	0.199675
1859	0.183732	0.186691	0.000639	0.199839
1860	0.184883	0.188992	0.00031	0.198689
1861	0.183897	0.190142	-0.000183	0.200825
1862	0.187677	0.189649	-0.000347	0.195237
1863	0.183404	0.189978	-0.000512	0.201154
1864	0.184718	0.189814	-0.000183	0.203784
1865	0.186033	0.190964	-0.000347	0.201812
1866	0.186526	0.18932	-1.9e-05	0.199839
1867	0.186855	0.194087	0.00031	0.203126
1868	0.186033	0.189649	0.00031	0.195073
1869	0.187513	0.193429	0.00031	0.19836
1870	0.18932	0.190635	0.00031	0.197867
1871	0.189814	0.192115	-1.9e-05	0.197703
1872	0.187019	0.187677	-0.000347	0.198853
1873	0.190142	0.188663	-0.000183	0.196552
1874	0.186198	0.19195	-0.000347	0.201319
1875	0.186362	0.190142	-0.000512	0.198853
1876	0.189156	0.190142	-0.000183	0.201319
1877	0.1908	0.190964	-0.000183	0.200168
1878	0.188663	0.191621	0.00031	0.199511
1879	0.187513	0.189485	0.00031	0.193594
1880	0.187513	0.192443	0.000474	0.196388
1881	0.191457	0.189814	0.00031	0.199675
1882	0.190142	0.193265	0.00031	0.197703
1883	0.188992	0.193265	-1.9e-05	0.198853
1884	0.18932	0.192936	-0.000183	0.20099
1885	0.191786	0.193101	-0.000347	0.200168
1886	0.192279	0.194087	-0.000347	0.198853
1887	0.192443	0.193594	-1.9e-05	0.199182
1888	0.192115	0.196552	-0.000183	0.200825
1889	0.191128	0.192443	0.000639	0.201647
1890	0.189156	0.192936	0.000146	0.202469
1891	0.189814	0.194087	0.000474	0.197374
1892	0.194744	0.190142	0.00031	0.199182
1893	0.191293	0.192443	0.000146	0.200004
1894	0.197045	0.191786	-0.000183	0.19721
1895	0.193758	0.19458	-0.000347	0.201319
1896	0.194744	0.196881	-0.000183	0.202305
1897	0.192936	0.193594	-0.000512	0.199839
1898	0.194909	0.194087	-0.001005	0.199182
1899	0.195237	0.196881	0.000146	0.203455
1900	0.193101	0.194416	0.000146	0.195895
1901	0.193265	0.195073	0.00031	0.198031
1902	0.194087	0.195073	0.00031	0.200332
1903	0.193429	0.194909	0.000803	0.19836
1904	0.194744	0.196552	0.00031	0.197867
1905	0.194744	0.196388	-0.000183	0.197538
1906	0.193265	0.197045	-0.000183	0.199675
1907	0.175021	0.196223	-0.000347	0.197867
1908	0.140671	0.19458	-0.000347	0.197538
1909	0.14478	0.193101	-0.000512	0.199346
1910	0.146752	0.195895	0.000146	0.201319
1911	0.14856	0.185376	0.000146	0.198196
1912	0.149217	0.192115	0.000146	0.199839
1913	0.152176	0.19195	0.00031	0.199346
1914	0.153819	0.191293	0.000474	0.200168
1915	0.15497	0.19195	0.000146	0.199182
1916	0.157928	0.193101	0.000146	0.201154
1917	0.157435	0.190964	-0.000183	0.198853
1918	0.16138	0.192608	-1.9e-05	0.20099
1919	0.160229	0.194251	-0.000347	0.192608
1920	0.160887	0.196388	-0.000676	0.197045
1921	0.161544	0.193429	0.000146	0.199675
1922	0.170748	0.192936	0.000146	0.193429
1923	0.167297	0.193429	0.000803	0.199018
1924	0.170419	0.195402	0.000474	0.199182
1925	0.166968	0.193594	0.001132	0.199018
1926	0.168283	0.194909	0.00031	0.199839
1927	0.171241	0.194416	0.000474	0.201812
1928	0.170748	0.193758	-0.000676	0.200825
1929	0.174857	0.194251	-0.000183	0.202305
1930	0.172392	0.193101	-0.000512	0.199839
1931	0.174693	0.195073	0.000146	0.201647
1932	0.176008	0.194087	0.000967	0.200168
1933	0.181103	0.196717	0.000639	0.199346
1934	0.174528	0.195895	0.000639	0.19836
1935	0.179623	0.196717	0.000474	0.201319
1936	0.177815	0.192772	-0.000676	0.197045
1937	0.181431	0.194087	0.000803	0.199511
1938	0.179623	0.195566	0.002447	0.199675
1939	0.182089	0.192772	-0.003306	0.192608
1940	0.182089	0.192443	0.000967	0.19458
1941	0.187184	0.192936	0.008035	0.197374
1942	0.182911	0.194744	0.017732	0.199675
1943	0.184061	0.192608	0.014116	0.195402
1944	0.186855	0.197045	0.022663	0.201812
1945	0.179623	0.196552	0.030716	0.199182
1946	0.186855	0.197867	0.033674	0.203126
1947	0.186362	0.195237	0.04107	0.198524
1948	0.186362	0.195566	0.026443	0.199511
1949	0.186855	0.195073	0.010007	0.200497
1950	0.18817	0.197374	0.011979	0.198524
1951	0.186855	0.195895	0.018882	0.19836
1952	0.189978	0.194416	0.022991	0.198196
1953	0.18932	0.19721	0.023977	0.199675
1954	0.188499	0.195402	0.032524	0.197703
1955	0.192443	0.197538	0.032524	0.200004
1956	0.188992	0.196552	0.042057	0.19573
1957	0.187019	0.19836	0.040906	0.199839
1958	0.189485	0.19458	0.043536	0.197538
1959	0.189978	0.196881	0.049617	0.197045
1960	0.189485	0.196717	0.056356	0.200332
1961	0.189814	0.198853	0.060629	0.19836
1962	0.190635	0.194251	0.068682	0.200332
1963	0.192115	0.195237	0.069176	0.202469
1964	0.191128	0.196881	0.076736	0.201647
1965	0.192443	0.198196	0.074435	0.199182
1966	0.195237	0.197867	0.079366	0.202962
1967	0.192115	0.196552	0.082653	0.198196
1968	0.194087	0.19836	0.087584	0.201812
1969	0.194251	0.196059	0.08857	0.201154
1970	0.191293	0.196059	0.081174	0.199346
1971	0.192608	0.194909	0.081995	0.197867
1972	0.193429	0.196717	0.084789	0.199346
1973	0.192608	0.194087	0.082488	0.196552
1974	0.194909	0.196552	0.079694	0.20099
1975	0.197374	0.200332	0.0769	0.196881
1976	0.195073	0.198689	0.07953	0.200168
1977	0.190964	0.195895	0.082653	0.203291
1978	0.191128	0.200004	0.079694	0.198853
1979	0.189814	0.195895	0.004255	0.199675
1980	0.19195	0.194909	0.009843	0.200497
1981	0.188992	0.197045	0.015102	0.201483
1982	0.187841	0.197703	0.021512	0.199839
1983	0.000803	0.197867	0.025621	0.20099
1984	0.000146	0.19721	0.028579	0.201647
1985	0.00031	0.195402	0.034825	0.201647
1986	0.00672	0.196388	0.036797	0.199346
1987	0.011815	0.198524	0.043536	0.200661
1988	0.015924	0.195566	0.048302	0.201647
1989	0.028086	0.198689	0.051425	0.201647
1990	0.034825	0.193594	0.058164	0.201647
1991	0.040906	0.194909	0.0603	0.201976
1992	0.045672	0.195073	0.067039	0.199018
1993	0.055041	0.194909	0.067696	0.200004
1994	0.056356	0.193758	0.065231	0.198031
1995	0.064409	0.196717	0.062601	0.199511
1996	0.075257	0.196223	0.061286	0.202469
1997	0.076407	0.19836	0.054876	0.199346
1998	0.079366	0.19836	0.051754	0.198689
1999	0.0769	0.197374	0.051096	0.201812
2000	0.086433	0.199182	0.05537	0.198689
2001	0.0935	0.197045	0.053562	0.197374
2002	0.097445	0.19836	0.060629	0.201483
2003	0.101718	0.196388	0.061122	0.19836
2004	0.107635	0.196717	0.06556	0.198689
2005	0.106978	0.194744	0.058985	0.199346
2006	0.112401	0.198524	0.058821	0.201154
2007	0.11536	0.19458	0.062273	0.197538
2008	0.118647	0.197374	0.057835	0.200497
2009	0.12177	0.197045	0.054055	0.197703
2010	0.113881	0.197867	0.058492	0.200168
2011	0.123413	0.200661	0.062108	0.199018
2012	0.12933	0.202305	0.063916	0.196717
2013	0.129001	0.200825	0.069997	0.200004
2014	0.13574	0.19836	0.07049	0.20099
2015	0.135083	0.200497	0.068518	0.19836
2016	0.13837	0.197538	0.07049	0.197703
2017	0.141164	0.200004	0.064574	0.197045
2018	0.144615	0.197867	0.039427	0.196552
2019	0.147409	0.199511	0.030552	0.201647
2020	0.147409	0.199675	0.03088	0.199511
2021	0.140342	0.200661	0.036633	0.20214
2022	0.151025	0.195073	0.041728	0.199675
2023	0.153655	0.197703	0.019211	0.20099
2024	0.153819	0.198689	0.000474	0.199182
2025	0.160065	0.198031	0.00031	0.19836
2026	0.160065	0.198689	0.000146	0.199182
2027	0.160065	0.196552	-0.000512	0.198031
2028	0.161051	0.200332	-0.000347	0.20362
2029	0.164996	0.196881	-0.000512	0.198689
2030	0.160887	0.196223	-0.000512	0.200332
2031	0.165653	0.196223	-0.000183	0.199182
2032	0.154806	0.199346	0.000146	0.201647
2033	0.163188	0.193429	0.00031	0.199018
2034	0.169269	0.202305	0.000146	0.201647
2035	0.169433	0.196717	0.000474	0.199675
2036	0.172556	0.194744	0.000146	0.200497
2037	0.170255	0.199675	-1.9e-05	0.199346
2038	0.168283	0.194909	-0.000347	0.207071
2039	0.170913	0.19458	-0.000347	0.203455
2040	0.171734	0.195566	-0.000183	0.200332
2041	0.168118	0.195402	-0.000512	0.197374
2042	0.173542	0.196388	-0.000183	0.199182
2043	0.162859	0.199511	0.000146	0.198853
2044	0.171899	0.193758	0.000146	0.197867
2045	0.17535	0.20099	0.000146	0.200661
2046	0.174364	0.200497	0.00031	0.199839
2047	0.171899	0.198689	0.00031	0.198689
2048	0.175186	0.200332	-1.9e-05	0.199182
2049	0.17535	0.200497	-0.000183	0.199182
2050	0.175679	0.198031	-0.000183	0.199511
2051	0.179952	0.198031	-0.000512	0.200168
2052	0.178802	0.197703	-0.000347	0.199018
2053	0.181103	0.198689	-1.9e-05	0.200497
2054	0.175186	0.19836	0.00031	0.199675
2055	0.179623	0.200168	0.000146	0.199346
2056	0.181924	0.196881	0.000146	0.200332
2057	0.184554	0.196552	0.00031	0.198853
2058	0.182582	0.197374	0.000474	0.199675
2059	0.185212	0.197538	0.000146	0.198524
2060	0.182089	0.199511	-0.000183	0.201319
2061	0.186855	0.196223	-0.000347	0.198196
2062	0.183075	0.193758	-0.000183	0.201154
2063	0.184883	0.19836	-0.000347	0.198853
2064	0.187184	0.198853	-1.9e-05	0.199182
2065	0.183075	0.197703	-1.9e-05	0.199675
2066	0.186033	0.201976	0.00031	0.200661
2067	0.184061	0.19573	0.00031	0.196388
2068	0.183404	0.198196	0.00031	0.194251
2069	0.187348	0.198853	0.000474	0.195566
2070	0.187513	0.198524	-0.000183	0.197045
2071	0.185376	0.197538	-0.000183	0.195566
2072	0.190635	0.192936	-0.000347	0.198524
2073	0.189814	0.195073	-0.000347	0.200332
2074	0.188827	0.198689	-0.000347	0.199346
2075	0.188992	0.200661	-0.000183	0.200004
2076	0.18932	0.200168	0.000146	0.200004
2077	0.187184	0.197538	-1.9e-05	0.199675
2078	0.187184	0.197703	0.00031	0.197374
2079	0.188006	0.198689	0.000474	0.200168
2080	0.186691	0.195073	0.000146	0.197867
2081	0.187513	0.197538	-0.000183	0.200661
2082	0.185212	0.196881	-0.000183	0.197703
2083	0.188499	0.198031	-0.000512	0.200168
2084	0.187348	0.195566	-0.000512	0.199675
2085	0.190964	0.200168	-0.000512	0.19836
2086	0.187184	0.198031	-1.9e-05	0.20099
2087	0.191128	0.198196	0.000146	0.202798
2088	0.188499	0.199346	0.00031	0.199675
2089	0.192115	0.198031	0.00031	0.199346
2090	0.188499	0.19573	0.00031	0.199839
2091	0.189814	0.196881	0.00031	0.200332
2092	0.190471	0.196881	-0.000183	0.20477
2093	0.192936	0.196717	-0.000183	0.198031
2094	0.194087	0.199018	-0.000676	0.200497
2095	0.192936	0.198524	-0.000512	0.200168
2096	0.191457	0.199511	-0.000512	0.202469
2097	0.18932	0.198031	-1.9e-05	0.200661
2098	0.191128	0.199346	0.000146	0.201812
2099	0.192936	0.197703	0.000474	0.197867
2100	0.191128	0.199839	0.00031	0.198031
2101	0.192115	0.201483	0.00031	0.200004
2102	0.192608	0.199346	0.000146	0.199018
2103	0.191621	0.197703	-1.9e-05	0.199675
2104	0.194744	0.200004	-0.000512	0.198853
2105	0.196552	0.199182	-0.000183	0.201976
2106	0.193101	0.196881	-0.000512	0.200168
2107	0.193922	0.199839	-0.000347	0.201319
2108	0.195237	0.199018	0.000146	0.200497
2109	0.19573	0.198689	0.000639	0.204606
2110	0.195073	0.198524	0.000474	0.195402
2111	0.194087	0.202633	0.000803	0.200004
2112	0.194909	0.199018	-0.000841	0.198853
2113	0.196552	0.200661	0.001296	0.198689
2114	0.193758	0.197045	0.00409	0.199182
2115	0.192936	0.198853	0.001625	0.19836
2116	0.197703	0.197867	0.002775	0.197538
2117	0.19573	0.196388	0.003104	0.198689
2118	0.191457	0.199675	0.00409	0.200168
2119	0.192279	0.199018	0.00146	0.198524
2120	0.137384	0.198031	0.004255	0.202798
2121	0.059314	0.199346	0.002282	0.198524
2122	0.030716	0.198689	0.00294	0.192936
2123	0.030059	0.197538	0.002775	0.197703
2124	0.031702	0.198689	0.005241	0.201647
2125	0.040084	0.19836	0.004583	0.198031
2126	0.045672	0.197374	0.002775	0.201154
2127	0.052247	0.19721	0.003761	0.199182
2128	0.05652	0.199346	0.000967	0.201483
2129	0.063259	0.196881	0.001296	0.200004
2130	0.066875	0.200004	0.000967	0.199675
2131	0.071312	0.195895	0.002447	0.205099
2132	0.078215	0.197703	0.001625	0.198853
2133	0.081831	0.200004	0.001954	0.199839
2134	0.087584	0.195895	0.003433	0.199182
2135	0.091857	0.19721	0.002775	0.200332
2136	0.097116	0.199018	0.002118	0.199018
2137	0.09876	0.19721	0.004255	0.198689
2138	0.105334	0.199018	0.002118	0.19573
2139	0.107306	0.195895	0.002118	0.200332
2140	0.108457	0.19721	0.005898	0.201647
2141	0.111415	0.199839	-0.000183	0.200332
2142	0.119304	0.195895	0.003926	0.204934
2143	0.118154	0.19573	0.003926	0.197867
2144	0.123085	0.195402	0.005241	0.199346
2145	0.126865	0.19836	0.005076	0.201319
2146	0.130152	0.196717	0.004583	0.20099
2147	0.132946	0.196388	0.004748	0.199839
2148	0.141	0.196717	0.005569	0.197867
2149	0.139849	0.19721	0.001789	0.201812
2150	0.138041	0.196059	0.00294	0.200168
2151	0.147409	0.195402	0.003433	0.198853
2152	0.143794	0.198689	0.003597	0.201647
2153	0.14856	0.194087	0.004255	0.203291
2154	0.148724	0.196552	0.004748	0.199511
2155	0.147903	0.199018	0.002611	0.198689
2156	0.151025	0.200004	0.006556	0.201154
2157	0.151354	0.197867	0.00672	0.200825
2158	0.138534	0.198031	0.000474	0.200168
2159	0.12818	0.198689	0.003268	0.199839
2160	0.129823	0.197867	0.005241	0.201647
2161	0.136398	0.199346	0.002447	0.201812
2162	0.134425	0.200332	0.003926	0.200497
2163	0.137219	0.196717	0.002118	0.201154
2164	0.141986	0.196223	0.001625	0.20362
2165	0.138534	0.194744	0.00409	0.198689
2166	0.145273	0.193265	0.002775	0.196552
2167	0.147245	0.193594	0.003761	0.195895
2168	0.150368	0.191128	0.003104	0.199018
2169	0.151354	0.19458	0.003761	0.196717
2170	0.152011	0.194416	0.004419	0.196552
2171	0.154477	0.196059	0.007049	0.202798
2172	0.157271	0.195237	0.008857	0.198031
2173	0.15612	0.199182	0.011979	0.200168
2174	0.1576	0.196388	0.011815	0.199346
2175	0.158586	0.197867	0.00935	0.201154
2176	0.159243	0.196223	0.015102	0.20214
2177	0.164174	0.196881	0.019704	0.202305
2178	0.161873	0.196223	0.023484	0.200661
2179	0.166311	0.193429	0.028251	0.200497
2180	0.164996	0.195566	0.03351	0.198524
2181	0.166146	0.193594	0.03729	0.20214
2182	0.168283	0.195237	0.045344	0.200004
2183	0.171406	0.193594	0.049946	0.200497
2184	0.170748	0.194087	0.061779	0.200497
2185	0.17272	0.19573	0.063587	0.200661
2186	0.174693	0.197045	0.067039	0.196717
2187	0.173871	0.196552	0.074106	0.195073
2188	0.174857	0.199675	0.078873	0.200825
2189	0.176008	0.195895	0.084954	0.199018
2190	0.174364	0.194416	0.086104	0.199839
2191	0.173871	0.192936	0.093829	0.201812
2192	0.177322	0.197867	0.092514	0.198524
2193	0.176665	0.199182	0.097445	0.201154
2194	0.180774	0.197045	0.095473	0.202305
2195	0.178309	0.196223	0.111251	0.200168
2196	0.181103	0.196223	0.107635	0.203948
2197	0.182582	0.197045	0.112237	0.193429
2198	0.178966	0.197538	0.115689	0.198524
2199	0.17272	0.197703	0.118811	0.200825
2200	0.159901	0.196388	0.003597	0.199346
2201	0.146095	0.197045	0.000474	0.202798
2202	0.140342	0.194909	0.000146	0.198689
2203	0.140506	0.199346	0.005076	0.200332
2204	0.142807	0.197045	0.014609	0.200497
2205	0.145108	0.197374	0.021183	0.199675
2206	0.145273	0.197867	0.034332	0.200168
2207	0.135576	0.199182	0.032031	0.201154
2208	0.130152	0.199182	0.039427	0.1908
2209	0.127029	0.19836	0.048795	0.19721
2210	0.123742	0.199346	0.054219	0.200497
2211	0.13196	0.19721	0.057835	0.200497
2212	0.132124	0.197867	0.064409	0.200825
2213	0.135576	0.197045	0.071312	0.200661
2214	0.137877	0.196717	0.074106	0.20099
2215	0.142643	0.196552	0.076736	0.20099
2216	0.143301	0.196552	0.083803	0.205263
2217	0.150368	0.201812	0.091528	0.201483
2218	0.14593	0.199018	0.075914	0.200825
2219	0.151354	0.199839	0.078708	0.190142
2220	0.151847	0.200168	0.084625	0.197867
2221	0.154641	0.198524	0.089063	0.202962
2222	0.155956	0.196059	0.0935	0.199182
2223	0.151683	0.198853	0.094158	0.197867
2224	0.144615	0.197538	0.098102	0.197867
2225	0.145273	0.198853	0.105005	0.199182
2226	0.14971	0.199675	0.105498	0.202633
2227	0.149875	0.196552	0.108621	0.201812
2228	0.149382	0.19836	0.10895	0.201319
2229	0.149875	0.199346	0.10139	0.200168
2230	0.151683	0.198524	0.103197	0.188334
2231	0.157764	0.196552	0.104348	0.200661
2232	0.155956	0.200661	0.110429	0.200332
2233	0.156778	0.192608	0.110758	0.199346
2234	0.160229	0.1908	0.112566	0.198853
2235	0.159243	0.194909	0.117332	0.205756
2236	0.163352	0.195402	0.119962	0.197538
2237	0.164503	0.188827	0.123085	0.199675
2238	0.164503	0.186362	0.127851	0.203784
2239	0.165982	0.191786	0.127522	0.202962
2240	0.163516	0.1908	0.126536	0.199018
2241	0.165489	0.192608	0.126207	0.19195
2242	0.168118	0.192115	0.137055	0.200661
2243	0.168447	0.194416	0.134918	0.201154
2244	0.168776	0.190964	0.137548	0.202962
2245	0.171406	0.195895	0.139685	0.199018
2246	0.170419	0.19573	0.141164	0.204113
2247	0.1742	0.19195	0.140178	0.198689
2248	0.170913	0.19721	0.138699	0.202633
2249	0.172063	0.191786	0.139027	0.200661
2250	0.155792	0.195895	0.138041	0.200497
2251	0.09876	0.19573	0.147409	0.203948
2252	0.072627	0.196388	0.145273	0.194087
2253	0.073284	0.193922	0.150697	0.199346
2254	0.080352	0.196881	0.152011	0.198853
2255	0.079366	0.193758	0.154312	0.198689
2256	0.088734	0.195566	0.152998	0.199346
2257	0.089885	0.19573	0.1576	0.200497
2258	0.0935	0.196223	0.158093	0.198689
2259	0.098595	0.196717	0.16138	0.198689
2260	0.098595	0.195237	0.16138	0.201319
2261	0.102376	0.19836	0.157928	0.201976
2262	0.107635	0.195073	0.163845	0.199018
2263	0.108128	0.196388	0.162695	0.197374
2264	0.11158	0.195237	0.169598	0.196881
2265	0.105992	0.199675	0.169598	0.19721
2266	0.08972	0.192936	0.168776	0.199839
2267	0.039591	0.196059	0.168776	0.200168
2268	0.024799	0.194087	0.170091	0.197374
2269	0.031373	0.198689	0.169598	0.199346
2270	0.029237	0.196552	0.171406	0.201483
2271	0.027593	0.196223	0.169105	0.197867
2272	0.031867	0.196059	0.161873	0.200497
2273	0.034332	0.193429	0.169433	0.199839
2274	0.039756	0.197374	0.174693	0.200004
2275	0.052411	0.196223	0.173707	0.196881
2276	0.050932	0.196552	0.175186	0.200497
2277	0.05652	0.19573	0.177487	0.199346
2278	0.0603	0.198031	0.17798	0.201319
2279	0.067039	0.196552	0.177487	0.18554
2280	0.06934	0.197867	0.181431	0.058164
2281	0.076079	0.19458	0.182253	0.006556
2282	0.082982	0.198853	0.179952	0.002611
2283	0.084954	0.197045	0.172556	0.000639
2284	0.091364	0.200497	0.182253	0.000967
2285	0.095637	0.198031	0.18439	0.000803
2286	0.101061	0.197538	0.182417	0.000803
2287	0.100075	0.195237	0.183239	0.000803
2288	0.105827	0.197703	0.18176	0.000803
2289	0.106649	0.192279	0.185212	0.000146
2290	0.104512	0.193265	0.184718	-0.001334
2291	0.106156	0.195566	0.185212	-0.001334
2292	0.109443	0.192936	0.187184	0.001132
2293	0.111087	0.19573	0.187019	-0.000676
2294	0.112894	0.196059	0.177487	0.00031
2295	0.117661	0.195402	0.184225	-0.000841
2296	0.119633	0.197538	0.189814	-0.001169
2297	0.12177	0.197045	0.188334	0.000474
2298	0.120784	0.195402	0.188992	0.000146
2299	0.122756	0.197538	0.186033	0.00146
2300	0.118318	0.196388	0.196059	-0.000183
2301	0.126043	0.197374	0.192443	0.000803
2302	0.125714	0.199346	0.195402	0.000146
2303	0.124893	0.197374	0.191128	-1.9e-05
2304	0.126536	0.195402	0.190635	-0.000183
2305	0.12818	0.198196	0.184225	0.000474
2306	0.128015	0.196552	0.191786	-0.001005
2307	0.130481	0.196717	0.188827	-0.000512
2308	0.126865	0.196881	0.190142	-0.000183
2309	0.127029	0.194744	0.193265	0.000146
2310	0.130152	0.197703	0.191786	0.000639
2311	0.127029	0.195895	0.192279	0.000474
2312	0.118811	0.196552	0.194416	0.000803
2313	0.103197	0.195566	0.196552	-1.9e-05
2314	0.088077	0.19836	0.194416	0.00031
2315	0.067368	0.195566	0.197045	-0.000512
2316	0.058164	0.203455	0.187348	-0.000183
2317	0.050274	0.199511	0.19573	-0.000183
2318	0.046001	0.197538	0.191457	-0.000347
2319	0.036633	0.193594	0.196223	-0.000183
2320	0.032031	0.196059	0.19195	0.000474
2321	0.030716	0.19573	0.192279	0.000146
2322	0.031209	0.19195	0.192936	0.000639
2323	0.028251	0.200332	0.19458	0.00031
2324	0.028251	0.193758	0.19195	0.00031
2325	0.029894	0.19573	0.193922	0.000146
2326	0.025457	0.195237	0.194744	-0.000183
2327	0.022169	0.196881	0.192772	-0.000183
2328	0.020526	0.195895	0.194416	-0.000347
2329	0.019704	0.197045	0.19458	-0.000347
2330	0.01691	0.197045	0.195073	-1.9e-05
2331	0.013623	0.197538	0.195402	0.000146
2332	0.006062	0.196717	0.197703	0.000474
2333	0.005241	0.198031	0.194744	0.000474
2334	0.002775	0.19573	0.200004	0.000474
2335	0.003104	0.198853	0.196552	0.00031
2336	0.003104	0.199511	0.197045	-0.000183
2337	0.001625	0.200168	0.197374	-1.9e-05
2338	-0.000512	0.195073	0.193922	-0.000512
2339	0.002118	0.192115	0.194251	-0.000183
2340	-0.001498	0.197045	0.19836	-0.000512
2341	-0.000183	0.196552	0.196388	-1.9e-05
2342	0.000474	0.196223	0.195402	0.000146
2343	0.000146	0.192608	0.194251	0.00031
2344	0.00031	0.197374	0.193101	0.000474
2345	0.000803	0.197045	0.199182	0.00031
2346	-0.002813	0.199346	0.196223	0.000474
2347	0.007542	0.19721	0.193922	-1.9e-05
2348	0.012472	0.199018	0.193758	-0.000183
2349	0.021019	0.200004	0.190635	-0.000512
2350	0.027758	0.20099	0.195895	-0.000347
2351	0.03614	0.19836	0.198196	-0.000512
2352	0.044029	0.19836	0.196223	-1.9e-05
2353	0.044358	0.202305	0.196223	0.000146
2354	0.052082	0.19836	0.199018	0.00031
2355	0.058328	0.198031	0.196059	0.00031
2356	0.064574	0.195402	0.200661	0.000474
2357	0.068847	0.196388	0.197538	0.000146
2358	0.073778	0.198524	0.197045	-1.9e-05
2359	0.082817	0.194744	0.198031	-1.9e-05
2360	0.083146	0.19573	0.201154	-0.000512
2361	0.08857	0.197703	0.192279	-0.000676
2362	0.090871	0.196388	0.198853	-0.000347
2363	0.100403	0.196552	0.19721	-0.000183
2364	0.10139	0.199346	0.193758	-1.9e-05
2365	0.105827	0.196388	0.200825	0.00031
2366	0.110593	0.195402	0.199839	0.00031
2367	0.109279	0.197703	0.199511	0.00031
2368	0.11158	0.200825	0.199018	0.000474
2369	0.122098	0.200004	0.195895	-1.9e-05
2370	0.119797	0.195402	0.19836	-1.9e-05
2371	0.124564	0.197045	0.20214	-0.000347
2372	0.126536	0.199018	0.198853	-0.000512
2373	0.128344	0.197045	0.200168	-0.000676
2374	0.137219	0.198031	0.200332	-0.000183
2375	0.137219	0.199018	0.19573	-1.9e-05
2376	0.137712	0.197538	0.195566	0.000146
2377	0.137055	0.195073	0.200168	0.00031
2378	0.144122	0.198853	0.196552	0.000474
2379	0.145273	0.195895	0.200004	0.000474
2380	0.14593	0.200825	0.197374	-0.000183
2381	0.147574	0.199018	0.197374	-0.000183
2382	0.152998	0.197374	0.199675	-0.000347
2383	0.146095	0.202305	0.19836	-0.000347
2384	0.158257	0.197867	0.198689	-0.000512
2385	0.15612	0.204441	0.199018	-0.000183
2386	0.157435	0.197538	0.198524	0.000146
2387	0.158421	0.194744	0.198689	0.000146
2388	0.158586	0.193101	0.198853	0.00031
2389	0.162202	0.200004	0.19836	0.000639
2390	0.164831	0.198031	0.199839	0.00031
2391	0.166311	0.19836	0.196388	-1.9e-05
2392	0.164831	0.200332	0.198524	-0.000183
2393	0.166968	0.200497	0.195402	-0.000183
2394	0.167625	0.200497	0.194909	-0.000512
2395	0.171734	0.198689	0.196717	-0.000347
2396	0.172392	0.198031	0.197867	-0.000183
2397	0.173378	0.199346	0.198031	-1.9e-05
2398	0.17272	0.19836	0.200825	0.000146
2399	0.173049	0.200332	0.198689	0.00031
2400	0.177487	0.200825	0.196223	0.000474
2401	0.178144	0.199675	0.199018	0.000474
2402	0.17535	0.198524	0.199511	0.000146
2403	0.174364	0.199511	0.198853	-0.000183
2404	0.178473	0.200825	0.199182	-0.000347
2405	0.175021	0.199511	0.199346	-0.000512
2406	0.179459	0.201319	0.195895	-0.000512
2407	0.181924	0.198196	0.19836	-0.000183
2408	0.181267	0.200661	0.199511	0.000146
2409	0.181103	0.198524	0.20099	0.00031
2410	0.182089	0.200825	0.197703	0.00031
2411	0.18176	0.198031	0.199182	0.000474
2412	0.184554	0.198031	0.198196	0.000474
2413	0.180774	0.196059	0.197538	0.000146
2414	0.187019	0.199675	0.199839	-1.9e-05
2415	0.182417	0.202633	0.197538	-0.000512
2416	0.184883	0.200497	0.196717	-0.000512
2417	0.188006	0.200332	0.192608	-0.000347
2418	0.187677	0.196881	0.200004	-0.000183
2419	0.184883	0.199182	0.195073	0.000146
2420	0.187184	0.200004	0.199018	0.00031
2421	0.185869	0.200497	0.195895	0.000146
2422	0.187841	0.197374	0.199182	0.000474
2423	0.186526	0.199675	0.198524	0.000474
2424	0.189649	0.196881	0.200004	-0.000183
2425	0.190307	0.19721	0.197538	-0.000183
2426	0.188006	0.199182	0.199018	-0.000347
2427	0.1908	0.195237	0.197045	-0.000347
2428	0.188663	0.188992	0.197045	-0.000347
2429	0.192443	0.189485	0.196717	-0.000183
2430	0.18932	0.18932	0.196059	0.000146
2431	0.188663	0.187019	0.19836	0.000146
2432	0.188334	0.187348	0.195402	0.00031
2433	0.190471	0.188334	0.198196	0.000474
2434	0.189814	0.187841	0.19836	0.000146
2435	0.188663	0.180281	0.199511	-0.000183
2436	0.193594	0.181924	0.198524	-0.000183
2437	0.188006	0.187513	0.199018	-0.000347
2438	0.192115	0.189814	0.196223	-0.000512
2439	0.194416	0.182582	0.197867	-0.000512
2440	0.195237	0.184554	0.198689	-0.000183
2441	0.195566	0.187019	0.200661	0.000146
2442	0.192279	0.187841	0.198196	0.000146
2443	0.192772	0.189156	0.198524	0.000474
2444	0.192608	0.184061	0.198524	0.000474
2445	0.194744	0.187348	0.197703	0.00031
2446	0.19573	0.184061	0.196717	-1.9e-05
2447	0.192443	0.185705	0.192443	-0.000183
2448	0.19458	0.187348	0.192115	-0.000512
2449	0.194416	0.187513	0.194251	-0.000512
2450	0.19458	0.183897	0.200168	-0.000512
2451	0.193758	0.187841	0.194744	-0.000347
2452	0.190142	0.184883	0.200168	0.000146
2453	0.192936	0.174035	0.196388	0.000474
2454	0.192443	0.097281	0.197374	0.000146
2455	0.192443	0.100239	0.199675	0.000474
2456	0.196717	0.104677	0.201319	0.000639
2457	0.195237	0.10632	0.193758	-0.000183
2458	0.193429	0.110265	0.185705	-0.000347
2459	0.19573	0.109114	0.166804	-0.000512
2460	0.193429	0.115853	0.147245	-0.000347
2461	0.192443	0.117496	0.125879	-0.000347
2462	0.192936	0.119633	0.107142	-0.000347
2463	0.190964	0.124235	0.0935	-1.9e-05
2464	0.192608	0.123085	0.078544	0.000146
2465	0.192608	0.128344	0.055205	0.000474
2466	0.192279	0.132946	0.030716	0.000146
2467	0.169269	0.132617	0.028086	0.000146
2468	0.045344	0.136562	0.015924	0.000146
2469	0.011322	0.132782	0.003926	-0.000347
2470	0.018389	0.138699	0.001625	-0.000183
2471	0.025457	0.143958	0.00672	-0.000347
2472	0.03236	0.144122	-0.000841	-0.000512
2473	0.039427	0.148724	-1.9e-05	-0.000347
2474	0.044522	0.151518	-0.000512	-1.9e-05
2475	0.046659	0.151354	0.000639	0.000146
2476	0.055698	0.154641	0.00031	0.00031
2477	0.060958	0.155956	0.00031	0.000474
2478	0.066875	0.157271	-1.9e-05	0.00031
2479	0.068518	0.159736	0.000967	-1.9e-05
2480	0.076572	0.159079	0.000639	-1.9e-05
2481	0.08216	0.163845	-1.9e-05	-0.000347
2482	0.085611	0.159572	0.002775	-0.000347
2483	0.088898	0.15875	0.008035	-0.000347
2484	0.095144	0.158093	0.016417	-0.000183
2485	0.098267	0.165489	0.018882	0.000146
2486	0.100403	0.166146	0.027922	0.000146
2487	0.106978	0.164667	0.034332	0.00031
2488	0.109114	0.165489	0.044358	0.00031
2489	0.11799	0.16779	0.045672	-1.9e-05
2490	0.116839	0.168776	0.038934	-1.9e-05
2491	0.12555	0.175021	0.026936	-0.000183
2492	0.124399	0.167625	0.029401	-0.000183
2493	0.124071	0.140178	0.034661	-0.000347
2494	0.123906	0.138534	0.039263	-0.000347
2495	0.120126	0.135576	0.044851	-0.000183
2496	0.119633	0.142314	0.050603	0.00031
2497	0.126372	0.141	0.032031	0.000474
2498	0.12933	0.14593	0.030059	0.00031
2499	0.128673	0.144451	0.024306	0.000474
