Ladekurvenmessung

Zeit: 2018_05_04 10.01.49

Info: FVA3, v = 1.05, T = 23, F = 20, h = 587.3

Ladewiderstand[Ohm]: 1012700

Störkapazität[pF]: 0.000000

Entladezeit[ms]: 200

Abtastrate[Hz]: 250000

Anzahl der Messwerte: 2500.000000

Verzögerung[ms]: 3

Ladespannung[V]: 0.200000


	Kurve_1	Kurve_2	Kurve_3	Kurve_4	Kurve_5	Kurve_6	Kurve_7
0	0.001132	-0.021221	0.000967	-0.003635	-0.001827	-0.001498	-0.00232
1	0.000967	-0.01366	0.004419	0.002775	0.001625	0.000639	-0.001169
2	0.005405	-0.019084	0.005241	0.002611	0.000474	0.003926	-0.002813
3	0.001132	-0.017934	0.000474	0.000146	0.003926	-0.001498	0.001296
4	0.006391	-0.019742	0.008363	-0.001334	0.000803	0.000474	0.00146
5	0.003104	-0.019577	0.003268	0.001625	-0.002155	0.001625	-0.001169
6	0.001132	-0.023357	0.002118	-0.00347	0.001296	0.004583	0.002118
7	0.001132	-0.021221	0.003761	0.001789	-0.001005	0.003926	0.000474
8	0.00409	-0.020728	0.002775	-0.001005	0.000146	-0.000512	0.001789
9	0.000474	-0.021221	0.001132	-0.000512	0.00294	0.002775	0.00935
10	0.00294	-0.021714	0.006556	-0.001662	-0.000676	-0.000676	0.003268
11	-1.9e-05	-0.021714	0.005241	-0.003635	-0.0061	-0.003635	-0.000841
12	-0.000183	-0.017112	0.005569	-0.000841	0.001132	-0.002484	0.003597
13	0.00294	-0.017605	0.010336	-0.001334	-0.000841	0.001132	0.000474
14	-0.000183	-0.017934	0.00146	-0.001991	-0.001169	-0.002155	0.000967
15	0.003104	-0.018591	0.006391	-0.003635	-1.9e-05	0.001625	0.002447
16	-1.9e-05	-0.017276	0.006884	0.002447	0.000803	-0.003306	-0.001498
17	0.00409	-0.019906	0.005076	0.000967	0.001954	0.000967	-0.001498
18	0.000474	-0.018262	0.005241	0.002611	0.003268	-0.000183	0.007377
19	0.007542	-0.02007	0.006391	-1.9e-05	0.000474	0.000474	-0.002977
20	-0.000512	-0.021221	0.005076	0.000639	0.002611	-0.001498	0.008692
21	0.000474	-0.020728	0.006227	0.000967	0.001296	0.003597	-0.001991
22	0.003597	-0.027795	0.005734	-1.9e-05	0.001789	0.001132	-0.001827
23	0.002447	-0.022207	0.00787	0.000146	0.002447	0.000967	0.002611
24	0.001132	-0.021056	0.011158	-0.000183	-0.000512	0.002611	-0.001498
25	0.000146	-0.0227	0.002282	-0.000841	-0.003799	-0.003306	-0.000183
26	-0.000512	-0.021878	0.000967	-0.00232	-0.001005	-0.003963	-0.001005
27	-0.00232	-0.024179	0.009514	-0.001991	-0.000512	-0.007086	0.00146
28	0.002447	-0.022043	0.007542	-0.001334	0.000639	-0.002813	0.002447
29	-0.000183	-0.020563	0.00672	-0.004949	-0.001334	-0.002484	0.003104
30	0.00409	-0.022207	0.008528	-0.002155	-0.001662	-0.002977	0.001296
31	-0.003142	-0.026645	0.00787	-0.002648	0.002447	-0.002648	0.003104
32	0.000474	-0.020399	0.010829	-0.002484	0.001954	0.000639	-0.001991
33	-0.001498	-0.025001	0.006227	0.003926	0.00409	-0.001662	0.001789
34	0.00146	-0.023686	0.008692	0.003761	0.00294	-0.000347	0.003597
35	0.00031	-0.021056	0.004583	-0.000347	0.003104	-0.000676	0.002611
36	0.000967	-0.024508	0.013623	-0.001169	0.00294	-0.000841	-0.001169
37	0.000803	-0.023522	0.005734	0.00294	0.002775	-0.000676	-0.002648
38	0.002611	-0.023357	0.011158	-0.002155	0.00031	0.000146	-0.000183
39	0.000474	-0.026152	0.011815	0.000639	0.003433	0.000967	-0.000512
40	-0.000512	-0.026973	0.010993	0.000967	0.001625	0.000639	0.000639
41	-0.002484	-0.024344	0.00935	-0.001169	0.000803	-0.000841	-0.004128
42	-0.005114	-0.032068	0.011486	-0.000512	0.002118	-0.000676	-0.010538
43	-0.005936	-0.028946	0.013787	-1.9e-05	0.000967	0.003268	-0.000512
44	-0.004456	-0.02648	0.00935	-0.001169	0.002611	0.000803	-0.001005
45	-0.003142	-0.025001	0.012308	-0.000676	0.001296	-0.004621	-0.000676
46	-0.007086	-0.022536	0.001132	-0.003635	0.002282	0.002447	0.00031
47	0.000639	-0.027959	0.010336	-0.001005	0.001296	-0.002977	-0.000183
48	-0.004949	-0.02911	0.008363	-0.000347	0.002447	-0.004785	0.003268
49	-0.001827	-0.026645	0.011158	-0.002155	0.001625	0.000146	-0.000841
50	-0.001334	-0.028288	0.010664	-0.001991	0.000967	-0.002484	0.000146
51	-0.001169	-0.030918	0.008363	-0.001827	0.000474	-0.002155	0.001132
52	0.001296	-0.026316	0.010007	0.003433	0.003104	-0.001169	-0.001334
53	-0.001662	-0.027138	0.012308	-0.000183	0.000146	-0.001005	-0.011852
54	-0.000183	-0.025165	0.010993	-0.001005	0.004419	0.000639	-0.003963
55	-0.000183	-0.029439	0.010664	-0.001005	0.001296	0.002775	-0.000676
56	-0.002484	-0.030096	0.009514	0.00146	0.002775	0.004912	-0.004621
57	-0.001498	-0.032233	0.008035	-0.000183	0.004419	0.007049	-0.001498
58	0.000803	-0.02911	0.010171	-0.000183	0.000803	-0.00232	-0.002813
59	-0.000676	-0.032561	0.008035	-1.9e-05	0.00031	-0.002977	0.001625
60	-0.004292	-0.030425	0.013459	-0.002977	0.001296	-0.000183	-0.001662
61	-0.00232	-0.026973	0.009185	-0.001827	0.004583	-0.004292	0.001789
62	-0.002977	-0.029603	0.01313	-0.001662	-0.003799	-0.001827	0.000146
63	-0.004949	-0.026809	0.011979	-0.002155	0.001954	-0.000347	0.001296
64	-0.003142	-0.027959	0.010993	-0.001662	0.00031	-0.001005	-0.005278
65	-0.005114	-0.02533	0.006556	0.001132	0.003104	-0.000676	-0.001498
66	-0.003799	-0.026316	0.011486	-0.001827	0.00031	0.000474	0.000639
67	-0.002813	-0.023851	0.008857	0.000639	0.003268	-0.001662	-0.002977
68	-0.003799	-0.025658	0.00787	-0.002648	0.001132	0.003926	0.000474
69	-0.003799	-0.024672	0.005241	-0.000676	0.000146	-0.00347	-0.004128
70	-0.002648	-0.025165	0.005076	-0.00232	0.001132	-0.001827	-0.001991
71	-0.002813	-0.026316	0.009514	0.000803	0.005076	0.00031	-0.00347
72	-0.001498	-0.030754	0.008199	-0.001005	0.001789	0.000146	0.001296
73	0.00031	-0.02648	0.006556	-1.9e-05	0.001132	-0.00232	-0.005443
74	-0.004621	-0.02533	0.009843	-0.00232	0.006556	-0.000347	-0.003963
75	-0.0061	-0.027302	0.008857	0.000967	-0.001334	-0.001005	-0.00232
76	-0.007908	-0.025165	0.010664	-0.001498	0.002611	-0.002648	-0.002813
77	-0.005278	-0.0227	0.011322	-0.000841	0.00146	-0.000347	-0.001991
78	-0.012017	-0.021714	0.00672	0.001132	0.002118	-0.003306	-0.002155
79	-0.006429	-0.025001	0.012801	-0.001991	0.001789	-0.005443	0.000146
80	-0.008401	-0.021221	0.006556	-0.00347	-0.004128	-0.004785	-1.9e-05
81	-0.006264	-0.022536	0.005241	-0.004292	-0.002484	-0.001169	-0.000841
82	-0.00725	-0.023522	0.004419	-0.001005	0.006391	-0.002648	-0.002648
83	-0.005114	-0.023522	0.006556	-0.004949	0.000967	-0.001169	0.001954
84	-0.006757	-0.021221	0.002611	0.00031	0.009843	-0.00232	-0.001334
85	-0.003799	-0.022043	0.004912	0.00146	-0.004949	-0.00232	0.001954
86	-0.005278	-0.017441	0.004255	-0.004785	-0.000676	-0.000841	-0.000512
87	-0.004128	-0.021056	0.005241	0.00031	0.004255	-0.001498	0.000146
88	-0.004621	-0.017441	0.00672	0.000803	0.001132	0.000639	-0.002648
89	-0.004949	-0.016948	0.003268	-0.000183	0.002775	-0.001498	-0.001827
90	-0.003142	-0.018262	0.001954	0.001789	0.002118	-0.012346	-1.9e-05
91	-0.007086	-0.020728	0.002447	0.000639	0.004583	-0.00232	-0.001827
92	-0.003635	-0.019742	0.000803	0.000474	-0.000347	-0.001334	-0.004292
93	-0.007086	-0.017112	-0.000183	-0.000347	0.002118	-0.004292	-0.00347
94	-0.007579	-0.019742	0.002775	-0.002155	-1.9e-05	0.00146	-0.00232
95	-0.007086	-0.017769	-0.005278	-0.000183	0.001954	0.001132	-0.002484
96	-0.00347	-0.022536	0.000474	-0.001169	0.000967	0.002447	-0.000512
97	-0.010702	-0.012017	-0.001498	0.001132	0.000474	-0.001827	-0.000512
98	-0.006593	-0.017276	-0.001169	0.001132	-0.000512	0.000967	-0.000512
99	-0.007908	-0.014811	-0.004292	0.001789	0.000474	-0.000512	-0.001827
100	-0.00725	-0.019577	-0.004456	0.001625	-0.001169	-0.003635	0.002282
101	-0.004128	-0.014482	-0.003799	0.00146	-0.001827	-0.007415	-0.001334
102	-0.005936	-0.014975	-0.005443	0.000967	-0.001498	-0.003963	0.000967
103	-0.004785	-0.01366	-0.005278	-0.000676	-0.002484	-0.001991	-0.001662
104	-0.003142	-0.013003	-0.0061	0.001954	0.001132	-0.001662	-0.002155
105	-0.004292	-0.013825	-0.00725	-0.000347	-0.002813	0.00146	0.000474
106	-0.004785	-0.015797	-0.00988	-0.002484	0.000967	-0.003142	-0.002813
107	-0.002484	-0.019906	-0.008401	-0.000512	0.001789	-0.001827	-0.001005
108	-0.008565	-0.013825	-0.005771	0.000146	0.001954	-0.004785	-0.001005
109	-0.007086	-0.016619	-0.009551	-0.001005	0.001789	0.000803	-0.005114
110	-0.006264	-0.008237	-0.004128	0.003597	0.000474	-0.00347	0.00031
111	-0.004785	-0.011031	-0.008894	-0.002648	0.00146	-1.9e-05	-0.001334
112	-0.006922	-0.013003	-0.007086	0.001954	0.003926	-0.004621	-0.001005
113	-0.000183	-0.015797	-0.006593	-0.001662	-0.000512	-0.003142	0.000146
114	-0.007086	-0.013003	-0.009716	0.000146	0.000146	-0.001827	-0.001334
115	-0.005443	-0.014811	-0.010045	0.00031	-0.000512	-0.003142	-0.001827
116	-0.007744	-0.013825	-0.011359	-0.00725	0.00031	-0.002484	-0.001169
117	-0.002813	-0.011524	-0.011031	-0.001991	-0.005114	0.001789	-0.002648
118	-0.00232	-0.012181	-0.012839	-0.005607	-0.001662	-0.001334	-0.000347
119	-0.008237	-0.011031	-0.013003	-0.003799	-0.00725	-0.001827	-0.002813
120	-0.003963	-0.010538	-0.011688	-0.00232	-0.001005	-0.000183	-0.007415
121	-0.005607	-0.005607	-0.013989	0.000474	0.000803	-0.003142	-0.00232
122	-0.003635	-0.010866	-0.012017	-1.9e-05	-0.000347	0.000474	-0.001498
123	-0.006922	-0.009387	-0.013496	0.000474	-0.000183	-0.002648	-0.001662
124	-0.006264	-0.010538	-0.009387	0.00031	0.001625	-0.002813	-0.001827
125	-0.004949	-0.008565	-0.012181	-1.9e-05	-0.000512	-0.002484	-0.001334
126	-0.003963	-0.009387	-0.011524	-0.001827	-0.002484	0.000639	-0.005114
127	-0.005443	-0.008894	-0.01251	0.000146	0.002282	-0.00347	0.001132
128	-0.00347	-0.010209	-0.010045	-0.001991	-0.004621	-0.002813	0.002118
129	-0.005443	-0.009223	-0.010866	0.000967	-0.005936	0.000967	-0.003142
130	-0.004949	-0.011688	-0.01251	-0.002155	-0.005771	-0.001991	-0.000841
131	-0.009058	-0.00725	-0.01251	-0.002155	-0.001169	-0.002155	-0.00232
132	-0.005278	-0.005114	-0.01251	0.00031	-0.007908	-0.000676	-0.002977
133	-0.005443	-0.008894	-0.01251	-0.003142	-0.008894	-0.003306	-0.002977
134	-0.007086	-0.010209	-0.012839	-0.007579	-0.00347	-0.002484	0.00031
135	-0.006922	-0.009058	-0.012346	-0.001662	-0.002484	-0.00347	-0.001827
136	-0.006264	-0.007086	-0.014482	-0.002155	-0.00232	-0.001005	-0.000183
137	-0.003963	-0.006757	-0.01366	-0.001662	-0.005771	-0.000512	-0.002155
138	-0.005936	-0.006429	-0.015797	-0.000676	-0.001498	-0.00347	0.000474
139	-0.004949	-0.009223	-0.011688	-0.001005	-0.0061	-0.000676	0.000146
140	-0.006757	-0.006922	-0.013167	0.002611	-0.004949	-0.003635	-0.000347
141	-0.003963	-0.008894	-0.013003	-0.000676	-0.001334	-0.00232	-0.000512
142	-0.005607	-0.003799	-0.011031	0.001625	-0.000841	-0.000841	0.00031
143	-0.003306	-0.005278	-0.011359	-0.001169	-0.004949	0.000639	-0.005278
144	-0.00725	-0.004128	-0.014482	0.002118	-0.000512	0.00031	-0.00347
145	-0.0061	-0.00988	-0.012346	0.001954	-0.004128	-0.005443	-0.004456
146	-0.006593	-0.006757	-0.012181	0.002447	-1.9e-05	-1.9e-05	-0.00347
147	-0.00347	-0.00873	-0.012674	0.003926	-0.004621	-0.001169	0.00146
148	-0.006922	-0.006757	-0.012017	0.009843	-0.005936	0.000474	-0.00347
149	-0.005936	-0.009058	-0.012181	0.001789	-0.006757	-0.000512	-0.001169
150	-0.004456	-0.008894	-0.014975	0.000474	-0.007086	0.000474	-1.9e-05
151	-0.006922	-0.00988	-0.010702	-0.000841	-0.007086	0.00031	-0.002484
152	-0.00725	-0.007744	-0.01366	0.002611	-0.004456	-0.002648	0.00031
153	-0.004785	-0.004621	-0.013003	0.00146	-0.005114	-0.000183	0.003104
154	-0.002484	-0.007579	-0.010702	-1.9e-05	-0.007086	0.002282	-0.003635
155	-0.006757	-0.005607	-0.013825	0.000803	-0.005607	-0.004456	0.000146
156	-0.006922	-0.008401	-0.011524	-0.001827	-0.006757	0.003761	-0.001827
157	-0.007086	-0.007086	-0.012181	0.001954	-0.0061	-0.002648	-0.000841
158	-0.001005	-0.010538	-0.010538	0.001789	-0.010373	-0.00347	-0.002977
159	-0.005114	-0.005936	-0.009387	0.005405	-0.006593	-0.003963	-0.005114
160	-0.002813	-0.010538	-0.00873	0.000146	-0.009223	-0.001991	0.000639
161	-0.003635	-0.008401	-0.014975	-1.9e-05	-0.007415	-0.001169	-0.003306
162	-0.005278	-0.005443	-0.00873	-1.9e-05	-0.011195	-0.002813	-0.000347
163	-0.003799	-0.00725	-0.008401	0.001625	-0.00725	-0.003142	-0.00232
164	-0.005936	-0.00725	-0.005114	-0.000183	-0.005114	0.000803	0.003104
165	-0.006264	-0.004621	-0.005607	0.001625	-0.009223	0.001296	-0.003142
166	-0.002648	-0.007415	-0.008237	0.002118	-0.006593	-1.9e-05	-0.002977
167	-0.005278	-0.006757	-0.00347	0.002447	-0.010045	0.003597	-0.000512
168	-0.008237	-0.005443	-0.007415	0.000803	-0.007415	0.002118	-0.000676
169	-0.002813	-0.007579	-0.006429	0.00146	-0.011852	0.001954	-0.006593
170	-0.006429	-0.004128	-0.008894	0.007377	-0.009716	0.000146	-0.005607
171	-0.005607	-0.010538	-0.006593	-0.001991	-0.011524	-0.000841	0.000474
172	-0.005607	-0.00873	-0.007086	-0.001662	-0.008072	-0.003799	-0.000841
173	-0.006757	-0.005607	-0.004292	-0.001827	-0.010702	-0.00232	-0.000841
174	-0.004456	-0.004949	-0.009551	0.001625	-0.009223	-0.002155	-0.001334
175	-0.004292	-0.006922	-0.0061	-0.001169	-0.00873	-0.001334	0.002282
176	-0.004785	-0.002813	-0.004456	-0.001827	-0.010209	-0.002648	-0.002648
177	-0.003635	-0.005936	-0.00232	-0.00232	-0.009716	-0.003799	0.000146
178	-0.004949	-0.003306	-0.003799	0.001789	-0.009716	-0.00347	0.000146
179	-0.00347	-0.005936	-0.001498	-0.000841	-0.005278	0.003268	-0.001827
180	-0.000512	-0.005114	-0.001334	0.00294	-0.004949	0.000474	-0.001169
181	-0.005771	-0.003306	-0.001991	0.003926	-0.00873	-0.001498	0.004255
182	-0.00347	-0.008565	-1.9e-05	0.001132	-0.008237	-0.001334	-0.001005
183	-0.008072	-0.010866	-0.003963	0.003268	-0.001991	-0.000512	-0.000183
184	0.000146	-0.008237	0.002447	0.001789	-0.010538	0.00294	-0.003142
185	-0.001827	-0.004949	-0.002155	0.000474	-0.008565	-1.9e-05	-0.001005
186	-0.004785	-0.008072	0.001625	-0.001498	-0.008565	0.001296	0.00146
187	-0.007415	-0.003635	0.000474	0.002282	-0.007415	0.002775	-0.00232
188	-0.001005	-0.006593	0.001954	-0.003799	-0.012181	-0.000676	-0.001991
189	-0.0061	-0.005278	-0.001169	0.002447	-0.006757	-1.9e-05	-0.000183
190	-0.003963	-0.006593	0.002282	-0.001005	-0.011031	0.001789	0.000639
191	-0.001991	-0.004128	0.000967	0.003761	-0.011524	-0.000183	-0.002648
192	-0.005443	-0.006593	-0.000841	-0.004456	-0.00988	-0.001169	-0.001827
193	-0.004621	-0.000347	0.00294	-0.000183	-0.00988	-0.000347	-0.000676
194	-0.003635	-0.006264	0.003104	0.001296	-0.006922	0.002447	0.00031
195	-0.002155	-0.010702	0.002447	0.00146	-0.008237	0.004583	0.000967
196	-0.005114	-0.005443	0.001625	0.002447	-0.006429	0.000803	0.001954
197	-0.001827	-0.00725	0.003268	0.002611	-0.008401	0.001625	-0.001498
198	-0.003635	-0.002813	0.003104	0.003761	-0.0061	0.001789	-0.001827
199	-0.002648	-0.007415	0.005076	-0.001498	-0.008565	0.001789	-0.003142
200	-0.000183	-0.003635	-0.001334	0.002447	-0.009223	0.000967	-0.002977
201	-0.001169	-0.005936	0.003761	-0.002813	-0.010538	0.005734	-0.003306
202	0.000474	-0.005771	0.002282	0.003268	-0.008565	-0.001827	-0.002648
203	0.003761	-0.001334	0.002447	-0.012839	-0.010045	0.001132	-0.002155
204	-0.004949	-0.006429	0.00146	-0.001334	-0.00725	0.000474	-0.001334
205	-0.003963	-0.007579	0.003104	0.003761	-0.01251	0.000474	0.000967
206	-0.002155	-0.007744	0.003433	0.000803	-0.007744	0.000146	-0.001991
207	-0.002155	-0.008565	0.001954	0.000146	-0.006593	-0.000676	0.002447
208	-0.005443	-0.004456	0.008857	0.001954	-0.010209	-0.001498	-0.002813
209	-0.002484	-0.006922	0.004583	-0.000347	-0.011031	-0.001498	-0.001169
210	0.001625	-0.004949	0.004748	-0.001334	-0.010538	0.00294	-0.004621
211	-0.001991	-0.0061	0.005076	0.001296	-0.009223	0.001132	-0.00232
212	-0.001991	-0.006757	0.006556	0.001296	-0.010866	0.003433	-0.001498
213	0.000639	-0.001169	0.003926	0.001789	-0.014482	-0.002484	-0.001662
214	-0.001169	0.00146	0.001789	-0.005443	-0.012346	0.000474	-0.002648
215	-0.001662	-0.00725	0.002611	-0.000841	-0.011031	-0.001334	0.000474
216	0.00031	-0.005114	0.003597	0.001625	-0.011852	0.000967	-0.001169
217	-0.003799	-0.004785	0.003597	0.001296	-0.011031	0.00031	-0.004949
218	-0.001827	-0.003799	0.004583	0.000803	-0.00988	-0.000512	-0.00347
219	-0.003963	-0.00347	0.004255	0.003433	-0.009223	-0.000183	-0.00347
220	-0.003799	-0.0061	0.003926	0.000639	-0.008894	-0.000841	-0.001498
221	-0.004949	-0.002484	-0.000676	-0.001662	-0.008894	0.000474	0.001625
222	-0.00232	-0.001334	0.008035	-0.003306	-0.010702	0.000474	-0.001334
223	-0.001005	-0.006922	0.001954	-0.004621	-0.006264	-0.001005	-0.001169
224	-0.002484	-0.003306	-0.000183	-0.004456	-0.009551	-0.001498	0.001132
225	-0.00232	-0.003142	0.001132	-0.009387	-0.009716	-0.00347	-0.001827
226	-0.001827	-0.005607	0.002775	-0.008565	-0.00725	-0.001005	0.002118
227	-0.003306	-0.006593	0.005076	-0.005771	-0.005771	-0.000841	-0.000183
228	-0.002484	-0.004949	0.005076	-0.005936	-0.000512	-0.004292	0.000474
229	-0.003799	-0.004785	0.006062	-0.004949	-0.005114	-0.00347	-0.001991
230	-0.004621	-0.002484	0.006391	-0.002813	-0.002977	-0.001827	0.001625
231	-0.000512	-0.004456	0.008035	-0.004621	-0.000347	0.001132	-1.9e-05
232	-0.002155	-0.004456	0.00672	-0.001334	0.005898	-0.001827	-0.002977
233	-0.002484	-0.007415	0.00409	-0.000841	-0.003799	0.001625	-0.000512
234	-0.005114	-0.002813	0.007706	0.00031	0.004583	-0.000676	-0.003306
235	-0.004785	-0.003635	0.010336	0.003268	-0.002484	-0.001334	-0.00347
236	-0.005114	-0.013825	0.004583	0.000474	0.002611	0.003597	-0.004621
237	-0.004785	-0.007744	0.007049	-0.003142	0.005734	0.000967	0.00294
238	-0.003963	-0.003799	0.00935	0.000474	0.003761	-0.000183	-0.00232
239	-0.005114	-0.008237	0.005241	-0.000676	0.004255	-0.000183	-0.001662
240	-0.005607	-0.004785	0.002775	-0.001827	0.00409	-0.001334	0.002447
241	-0.005936	-0.005443	0.00672	-0.001169	0.001132	-0.000183	-0.002155
242	-0.007415	-0.00725	0.005076	0.00146	0.002282	-0.000183	-0.001334
243	-0.006429	-0.006429	0.003433	-0.001169	0.004255	-0.000676	0.002775
244	-0.004785	-0.003963	0.003268	-1.9e-05	0.002611	-0.002977	-0.001169
245	-0.002813	-0.007579	0.007213	0.002447	0.006062	-0.003635	0.001789
246	-0.006429	-0.003635	0.005898	-0.002155	0.002118	0.000474	-0.001498
247	-0.004128	-0.011524	0.005076	0.00031	0.002118	-0.002484	-0.001827
248	-0.001991	-0.006757	0.007542	-0.00232	0.001789	-0.001169	0.002282
249	-0.004128	-0.001662	0.005405	-0.00232	0.000967	-0.000676	-0.002484
250	-0.002648	-0.005936	0.006884	-0.002484	0.000967	0.002118	-0.001662
251	-0.005771	-0.00232	0.002611	0.003926	0.004255	0.003433	-0.002648
252	-0.005114	-0.004785	0.00935	-0.000183	0.002118	0.004912	-0.002484
253	-0.008401	-0.004128	0.005734	0.003597	0.002775	0.00294	-0.004621
254	-0.006593	-0.006757	0.006062	0.002118	0.002282	-0.000676	-0.000512
255	-0.002977	-0.008072	0.003597	0.001954	-0.002648	0.001625	-0.001827
256	-0.002648	-0.009223	0.003761	-0.000183	-0.000676	-0.001827	-0.002484
257	-0.00232	-0.004292	0.001625	0.00409	-0.001005	0.000803	-0.001827
258	-0.002648	-0.008072	0.000803	-0.002484	-0.002648	-0.003799	0.00031
259	-0.001169	-0.00988	-0.002484	-0.002813	-0.002813	-0.002155	0.000803
260	-0.003142	0.000146	-0.002155	-0.00347	-0.00347	-0.004128	-0.001334
261	-0.000347	-0.004949	0.003104	-0.005936	-0.004621	-0.002648	-0.00232
262	-0.002648	-0.001498	-0.002648	-0.002813	-0.000841	-0.004785	0.000146
263	-0.002977	-0.004949	0.004419	-0.004292	-0.006757	0.000803	0.000803
264	-0.002648	-0.002155	0.003104	0.000146	-0.003142	-0.002155	-0.006429
265	0.003761	-0.007579	0.002447	-0.002484	-0.00232	-0.004949	-0.001334
266	-0.001827	-0.001827	0.007213	-0.001169	-0.003142	-0.005114	-0.002813
267	0.003104	-0.004456	0.004255	-0.001498	-0.002977	-0.005771	-0.003799
268	-0.000347	-0.00347	0.00031	0.00146	-0.004456	-0.007086	-0.004456
269	-0.000841	-0.002484	-0.000183	-1.9e-05	-0.005278	-0.000841	-0.004785
270	0.000474	-0.006593	-0.000183	-0.002155	-0.004949	-0.001169	-0.00347
271	-0.003142	-0.001334	-0.001169	-0.001169	-0.005278	0.000474	-0.000512
272	0.001789	-0.003635	-1.9e-05	0.001625	-0.006264	0.000474	-0.007908
273	-0.001991	-0.003963	-0.001169	0.001789	-0.00347	-0.003635	-0.002155
274	-0.001005	-0.005936	0.001625	-0.002484	-0.010373	0.00146	-0.001005
275	-0.002155	-0.005443	0.000639	0.000803	-0.00725	-0.003963	-0.001827
276	-0.001498	-0.00725	0.001132	-0.00232	-0.010209	-0.001991	-0.002977
277	-0.004949	-0.007415	0.002118	-0.001991	-0.010373	-0.001827	0.000474
278	0.003104	-0.00347	0.004748	-0.002648	-0.014811	0.000639	-1.9e-05
279	-0.004621	-0.003963	-0.000512	0.000474	-0.014482	-0.001169	-0.003142
280	-0.000347	-0.004128	0.003268	-0.005936	-0.013989	-0.000841	-0.001334
281	-0.003142	-0.002813	0.000474	-0.004785	-0.012346	-0.000183	-0.000841
282	0.001954	-0.005443	0.002775	-0.004128	-0.010209	0.000639	-0.000183
283	0.005076	-0.001334	0.002611	0.000474	-0.008237	-0.000676	-0.000676
284	0.002118	-1.9e-05	0.004419	-0.000512	-0.005114	0.001296	-0.000512
285	0.003597	-0.000841	0.004748	-1.9e-05	-0.008565	0.002118	-0.002813
286	-0.001334	-0.001827	0.00409	-0.000841	-0.006922	0.003926	-0.001498
287	0.000967	-0.004292	0.002447	-1.9e-05	-0.009223	0.003104	-0.004292
288	-0.000347	-0.003306	0.002118	0.000967	-0.009223	-0.000183	-0.000183
289	-0.000512	-0.005114	0.002118	-0.001498	-0.007579	0.005898	-0.0061
290	-0.001169	-0.005278	0.000803	-0.002155	-0.008237	0.005734	-0.000183
291	-0.000512	-0.006922	0.003268	-0.005936	-0.007744	0.007213	-0.004128
292	-0.001827	-0.005936	-0.002155	-0.004292	-0.00988	0.004255	0.004748
293	-0.002813	-0.005443	0.000803	-0.002484	-0.011359	0.005898	0.000474
294	-0.003306	0.00146	0.001954	-0.003142	-0.009058	0.004748	-0.000347
295	-0.000676	-0.005936	-0.000676	-0.001827	-0.011688	0.002775	0.000967
296	-0.004456	-0.004128	-0.001498	-0.001662	-0.008401	0.003104	-1.9e-05
297	-0.001005	-0.003306	0.00294	-0.003799	-0.008894	0.004419	-0.002813
298	-0.003799	-0.003963	0.001789	-0.001005	-0.008237	0.003268	-0.001005
299	-0.000347	-0.005607	0.001954	-0.003142	-0.009551	0.002775	-0.000512
300	0.001132	-0.001498	0.002611	-0.001991	-0.007579	-0.001662	-0.003635
301	-0.005771	-0.002813	-0.000512	-0.001827	-0.008072	-0.005114	-0.001827
302	-0.001498	-0.002977	0.000146	-0.001498	-0.006757	0.000803	-0.004128
303	0.004912	-0.002977	-0.000347	-0.002155	-0.009058	0.003433	-0.001169
304	0.005076	-0.007086	-0.001334	-0.001662	-0.008237	0.00031	-0.004128
305	0.001296	-0.004456	-0.000841	0.000803	-0.005771	-0.001005	-0.001827
306	0.001132	-0.009058	-0.003799	-0.001662	-0.007415	0.00146	-0.004785
307	-0.000512	-0.005443	-0.001827	-0.000841	-0.006264	0.002282	-0.001169
308	0.000639	-0.0061	-0.001169	-0.002155	-0.004621	0.005241	-0.002484
309	-0.001662	-0.006593	-0.004128	-0.004456	-0.009223	-0.000183	-0.001005
310	0.000639	-0.005771	-0.001827	-0.00347	-0.006593	0.002118	0.003761
311	-0.000841	-0.003306	-0.001827	0.000146	-0.006922	0.000146	-0.001169
312	-0.001827	-0.004456	-0.005278	-0.001005	-0.006264	-0.001005	-0.001169
313	-0.000512	-0.004456	-0.0061	-0.002813	-0.001827	-0.002155	-0.001005
314	-0.000183	-0.003799	-0.003799	-0.000841	-0.00725	-0.000512	0.001789
315	0.000967	-0.000347	-0.005114	-0.006593	-0.005278	-0.00232	-0.00347
316	-0.002648	-0.003963	-0.005936	-0.006922	-0.002484	-0.002484	-0.001991
317	-0.000512	-0.0061	-0.004621	-0.001827	-0.003635	-0.001005	-0.004292
318	-0.000841	-0.001991	-0.005936	-0.004785	-0.003799	-0.002155	-0.001005
319	-0.002484	-0.001334	-0.008072	-0.002648	-0.001827	0.000803	-0.004292
320	0.002611	-0.003306	-0.003799	-0.003963	-0.002484	-0.006593	-0.002484
321	0.000803	-0.006429	-0.005936	-0.00232	-0.002977	-0.000183	-0.004621
322	-0.001498	-0.001662	-0.005771	-0.00347	0.00935	0.002611	-0.00347
323	-0.002155	-0.002155	-0.007086	-0.002155	-0.013989	-1.9e-05	-0.006264
324	0.000474	-0.003142	-0.004949	-0.002155	0.003433	0.000474	-0.004456
325	0.007706	-0.003306	-0.004785	-0.001662	-0.002484	0.001625	-0.001169
326	0.000146	-0.004128	-0.0061	-0.001827	-0.001498	-0.004456	-0.003799
327	0.000474	-0.008072	-0.002813	-0.0061	-0.006922	0.000146	0.001625
328	-0.001662	-0.002977	-0.003142	-0.008894	-0.005771	-0.002648	-0.003306
329	0.00031	-0.007908	0.001954	-0.003635	-0.004292	-0.001991	-0.007086
330	-0.001498	-0.006593	-0.007086	-0.003635	-1.9e-05	-0.004292	-0.002155
331	-0.001991	-0.003963	-0.00725	-0.007086	-0.002977	-0.00347	-0.001169
332	-0.004128	-0.003963	-0.005278	0.000639	0.001132	-0.003306	-0.003142
333	0.000146	-0.001827	-0.005278	-0.004949	0.00787	-0.002648	0.00031
334	-0.003799	0.001625	-0.005443	-0.003635	0.000474	-0.002813	-0.001827
335	0.003104	-0.000841	-0.006922	-0.00232	-0.001662	-0.003142	0.000146
336	0.003104	-0.000512	-0.005114	-0.001334	0.00031	-0.001169	0.000639
337	0.000967	-0.002648	-0.005936	-0.001827	-0.000183	-0.003306	-0.001169
338	0.005076	-0.005443	-0.006757	-0.002155	-0.000347	-0.001991	-0.002813
339	-0.001169	-0.005443	-0.004949	0.003926	0.004255	-0.004949	-0.000841
340	0.002282	-0.005936	-0.002813	0.00031	0.000967	-0.00232	0.000146
341	-0.001662	-0.003635	-0.0061	-0.004292	0.003104	-0.000347	-0.00347
342	0.00031	-0.006593	-0.001169	-0.004456	0.002447	-0.001498	-0.003306
343	-0.000183	-0.005114	-0.005114	-0.002648	0.003433	-0.000841	-0.006757
344	-0.002648	-0.004292	-0.001662	-0.005607	0.0105	-0.001662	-0.00232
345	-0.003142	-0.00347	-0.005607	-0.001169	0.004748	-0.001991	-0.004785
346	-0.000512	-0.005278	-0.005771	-0.003635	-0.000841	-0.000512	-0.000512
347	-0.003963	-0.00232	-0.002977	0.000474	0.001132	-0.004128	-0.001827
348	-0.004456	-0.003799	-0.008894	-0.005771	0.001789	-0.004456	0.000639
349	0.002118	-0.007415	-0.00725	-0.005114	0.001296	-0.005936	-0.00347
350	-0.001498	-0.003306	0.000474	-0.005936	0.002118	-0.005607	0.000146
351	0.005076	-0.004128	-0.004128	-0.006264	0.001132	0.000639	0.001132
352	0.002282	-0.003799	-0.002648	-0.004292	0.002282	-0.004456	-0.003799
353	0.003433	-0.003963	-0.003306	-0.006922	0.00031	-0.001827	-0.000841
354	-0.002648	-0.003799	-0.00725	-0.005443	0.006062	-0.001334	-0.000512
355	0.000474	-0.004949	-0.004621	-0.005771	0.003433	-0.0061	-0.003142
356	-0.002484	0.000803	-0.005771	-0.00347	0.005898	-0.001005	-0.004292
357	0.005405	-0.004456	-0.002813	-0.00232	0.002447	-0.004456	0.000967
358	0.000803	-0.001991	-0.005443	-0.001662	0.005405	-0.006264	-0.000841
359	-0.000183	-0.004456	-0.002155	-0.002813	0.002118	0.00146	-0.001662
360	0.004912	-0.004456	-0.004292	-0.001334	0.002118	-0.004621	-0.007744
361	-0.00232	-0.005607	-0.003142	-0.003635	0.003268	-0.00725	0.00294
362	-0.000512	-0.007415	-0.000512	-0.005278	-0.001169	-0.001991	-0.001662
363	-0.001498	-0.007908	-0.003306	-0.005114	0.001789	-0.005443	-0.00232
364	-0.003142	-0.006593	-0.004621	-0.007579	0.003268	-0.003142	-0.001334
365	-0.00232	-0.003799	-0.00347	-0.005936	0.003268	-0.005114	-0.002484
366	-0.002484	-0.006264	-0.005607	-0.005114	-0.006922	-0.001827	-0.005114
367	-0.004128	-0.003142	-0.004785	-0.0061	0.001789	-0.004785	-0.001662
368	-0.000676	-0.00347	-0.007415	-0.00725	-0.001498	-0.004456	-0.000841
369	-0.002648	-0.003799	-0.003306	-0.003142	0.000474	-0.004456	-0.001169
370	0.000146	-0.004621	0.001132	-0.0061	0.00146	0.001789	-0.001827
371	-0.001662	-0.001827	-0.004128	-0.004128	0.002282	-0.0061	-0.005114
372	-0.00347	-0.013496	-0.003963	-0.002648	-0.000183	-0.006429	-0.001991
373	-0.004949	-0.004456	-0.002813	-0.002977	0.000967	-0.000676	-0.005443
374	-0.001498	-0.001169	-0.002648	-0.006922	-0.001005	-0.003799	-0.005278
375	-0.001498	-0.006922	-0.005771	-0.005443	0.003268	-0.001169	-0.001169
376	-0.001991	-0.004456	-0.004949	-0.00725	0.001296	-0.002155	-0.002484
377	-0.001005	-0.004128	-0.006593	-0.003963	-0.012181	-0.000347	-0.002977
378	-0.003799	-0.005278	-0.005443	-0.005278	-0.000841	-0.005114	0.00031
379	-0.005607	-0.004456	-0.007744	-0.006757	0.000474	-0.001005	-0.004292
380	-0.001991	-0.00347	-0.004621	-0.003963	-0.001334	-0.004621	-0.000183
381	-0.003635	-0.004456	-0.002484	-0.007908	-0.002813	-0.00232	-0.003142
382	-0.001827	-0.005936	-0.005278	-0.007086	-0.000347	-0.004292	-0.00232
383	-0.004128	-0.005771	-0.004785	-0.007086	-0.001498	-0.003963	-0.001662
384	-0.008894	-0.002155	-0.00232	-0.002977	-0.003306	-0.004128	0.000639
385	-0.007908	-0.005607	-0.005278	-0.006922	-0.006593	-0.001827	-0.002155
386	-0.006757	-0.008565	-0.006757	-0.007415	-0.001498	-0.002813	-0.001662
387	-0.004785	-0.008237	-0.004456	-0.007086	-0.003306	-0.001169	0.000146
388	-0.007744	-0.000841	-0.005936	-0.001005	-0.011195	-0.001498	-0.002813
389	-0.004128	-0.008401	-0.003799	-0.004949	-0.004292	-0.002813	-0.001005
390	-0.003963	-0.003799	-0.005443	-0.003799	-0.005114	-0.002813	-1.9e-05
391	-0.003963	-0.001991	-0.004292	0.002282	-0.003635	-0.000512	-0.001169
392	-0.006593	-0.008237	-0.004621	-0.002977	-0.003635	-0.001169	-0.006429
393	-0.005936	-0.003963	-0.004949	-0.003799	-0.005114	0.00146	-0.001169
394	-0.004949	-0.005936	-0.000183	-0.004456	-0.004456	-0.001005	-0.004621
395	-0.006757	-0.005936	-0.004128	-0.006429	-0.004292	0.000639	0.002118
396	-0.006757	-0.004292	-0.00232	-0.001662	-0.005114	0.001789	-0.002813
397	-0.005607	-0.004949	-0.005278	-0.005114	-0.005771	0.000639	-0.003142
398	-0.003142	-0.003963	-0.005607	-0.004456	-0.008237	0.001954	-0.002977
399	-0.004292	-0.003142	-0.008072	-0.004621	-0.011852	0.004255	-0.003635
400	-0.001498	-0.005443	-0.004949	-0.005278	-0.008894	-0.001991	-0.001991
401	-0.002813	-0.004292	-0.006922	-0.005114	-0.003963	-0.002977	0.00146
402	-0.004292	-0.006264	-0.0061	-0.003306	-0.013496	0.004583	-0.000183
403	-0.004785	-0.004785	-0.004785	-0.001827	-0.006922	-0.001334	-0.000183
404	-0.003799	-0.005443	-0.003142	-0.008072	-0.011688	0.000967	-0.002484
405	-0.003635	-0.005278	-0.005607	-0.001991	-0.011195	0.000803	-0.001169
406	0.001954	-0.008401	-0.006757	-0.007744	-0.009387	0.001625	0.004912
407	-0.000676	-0.007579	-0.003142	-0.004621	-0.00725	-0.000676	-0.002484
408	-0.001334	-0.004292	-0.006264	-0.005771	-0.00988	0.00031	-0.002155
409	-0.000183	-0.004621	-0.002648	-0.00347	-0.009223	0.002282	-0.003306
410	-0.002648	-0.00347	-0.000841	-0.006922	-0.009716	0.00146	-0.005771
411	-0.003142	-0.004456	-0.004785	-0.007908	-0.010209	-0.000676	-0.006593
412	-0.002648	-0.001991	-0.003963	-0.00232	-0.011688	-0.001498	-1.9e-05
413	-0.001827	-0.001005	-0.001827	-0.001662	-0.014482	0.000967	-0.004621
414	-0.000183	-0.004292	-0.005936	-0.00232	-0.009058	-0.001662	-0.002977
415	-0.002484	-0.005771	0.000474	-0.004949	-0.01251	0.005569	-0.001169
416	-0.002813	-0.001334	-0.004456	-0.00232	-0.010702	-0.001169	-0.003306
417	-0.001662	-0.006264	-0.002813	-0.005443	-0.009387	0.004912	-0.001334
418	-0.005278	-0.002155	-0.001334	-0.001991	-0.010373	0.005076	-0.001169
419	-0.001827	-0.005936	-0.001498	-0.004949	-0.009716	0.001132	-0.002648
420	-0.004292	-0.003306	-0.007579	-0.001991	-0.009058	0.000639	-0.005114
421	-0.003142	-0.004128	-0.00873	-0.004292	-0.00988	0.002118	-0.002648
422	-0.003306	-0.00347	-0.007415	-0.00232	-0.013496	0.005076	-0.003635
423	-0.001827	-0.002813	-0.006922	-0.003963	-0.009387	0.001132	-0.000183
424	-0.002155	-0.002155	-0.007415	-0.001662	-0.011688	0.000474	-0.003963
425	-0.001991	-0.005114	-0.004949	-0.006757	-0.011524	-0.001334	0.00146
426	-0.001169	-0.007579	-0.004292	-0.006757	-0.009387	0.000803	-0.000347
427	-0.004292	-0.004456	-0.00347	-0.003306	-0.011688	0.000146	0.003433
428	-0.002155	-0.002648	-0.001827	-0.004292	-0.003799	-0.000841	0.00146
429	-0.006264	-0.005771	-0.003306	-0.004292	-0.005771	0.003268	-0.003963
430	-0.006757	-0.003963	0.002282	-0.003142	-0.005936	-0.000183	-0.001662
431	-0.00347	-0.001991	-0.002813	-0.003963	-0.001662	0.001789	-0.00347
432	-0.005278	-0.004949	-0.000841	-0.001662	-0.006264	0.005076	-0.002155
433	-0.005771	-0.003635	-0.003635	0.00031	-0.007086	-1.9e-05	-0.002648
434	-0.00347	-0.0061	-0.002977	-0.003635	-0.006429	0.003597	-0.001005
435	-0.005443	-1.9e-05	-0.003963	0.000146	-0.004621	-0.000347	-0.002484
436	-0.005607	-0.006593	-0.00725	-0.002977	-0.002155	-0.001498	-0.000841
437	-0.005114	-0.009716	-0.003142	-0.001991	-0.004128	0.000803	-0.006757
438	-0.011195	-0.007579	-0.001498	-0.005114	-0.006593	0.001789	0.000967
439	-0.005443	-0.005443	-0.007744	-0.005278	-0.007086	-0.001334	-0.001991
440	-0.000512	-0.003799	-0.004128	-0.007908	-0.002648	0.00031	-0.004456
441	-0.007415	-0.006264	-0.001662	-0.008072	-0.00232	0.001296	0.000146
442	-0.004785	-0.008072	-0.007086	-0.001991	-0.001334	-0.000183	-1.9e-05
443	-0.005607	-0.004949	-0.003306	-0.001827	-0.00232	0.001296	0.000967
444	-0.006429	-0.007086	-0.003306	0.00031	-0.00232	-0.000347	-0.001662
445	-0.002484	-0.005771	-0.003142	-0.002484	-0.00232	0.000474	-0.001827
446	-0.005443	-0.001005	-0.004949	-0.000841	0.000474	-0.001169	-0.003963
447	-0.002813	-0.002648	-1.9e-05	-0.002155	-0.001498	0.003268	-0.002977
448	-0.002813	-0.003963	0.000146	-0.001169	0.000474	-0.002813	-0.002484
449	-0.004128	-0.003799	-0.000347	-0.002977	0.001625	-0.000183	-0.001498
450	-0.001991	-0.003963	-0.006757	-0.001169	0.001132	0.000146	0.001789
451	-0.006429	-0.0061	-0.005771	-0.002977	0.00146	0.00031	-0.005114
452	-0.006757	-0.005936	-0.003799	-0.003799	0.003104	-0.004456	-0.00232
453	-0.002155	-0.005278	-0.005443	-0.000183	0.000146	-1.9e-05	-0.001662
454	-0.005443	-0.008565	-0.004785	-0.002155	0.002118	0.000967	-0.002813
455	-0.004128	-0.006922	-0.004785	-0.002813	-0.002484	-0.006429	-0.000183
456	-0.003963	-0.004128	-0.006922	-0.002977	-0.001169	0.001625	-0.002813
457	-0.005278	-0.002155	-0.004949	-0.002977	0.00146	-0.001334	-0.00232
458	-0.001334	-0.004621	-0.006593	-0.005771	-0.001005	-0.000512	-0.001334
459	-0.003142	-0.00347	-0.004128	-0.007415	0.00146	-0.003142	-0.003142
460	-0.002155	-0.001498	-0.002813	-0.004292	0.001954	-0.001169	0.005405
461	-0.001827	-0.001005	-0.005443	0.000639	0.000967	-0.004456	0.00146
462	-1.9e-05	-0.004456	-0.001662	-0.001334	0.000474	-0.001991	-0.006757
463	-0.00232	-0.001991	-0.002977	-0.003963	0.001296	-0.001498	-0.000183
464	0.003597	-0.002813	-0.001498	-0.000676	0.001789	-0.000347	-0.003799
465	-0.000183	-0.001169	-0.005278	0.001296	0.006227	-0.001498	-0.005114
466	-0.00232	-0.001827	-0.000841	-0.003635	0.00146	0.00146	-0.001005
467	0.000639	-0.005443	-0.004621	0.001132	0.005734	-0.000841	-0.003799
468	-0.000347	-0.001827	-0.00347	0.001132	0.005241	0.000639	-0.005771
469	-0.001169	-0.005607	-0.007086	0.002775	0.002611	-0.002813	-0.003306
470	0.003104	-0.004785	-0.006264	-0.000183	0.003433	-0.001005	-0.001498
471	-0.004949	-0.005443	-0.003635	-0.002155	0.003433	0.000639	-0.003635
472	-0.001334	-0.002977	-0.002155	-0.003142	0.002282	-0.006429	0.002775
473	-0.001334	-0.001334	-0.001827	-0.002813	0.005569	-0.002648	-0.005607
474	-0.002155	0.000146	-0.002484	-0.002813	0.00294	0.001789	0.003104
475	0.001954	-0.001334	-0.000841	-0.001005	0.002611	-0.005443	0.005076
476	-0.001334	0.000146	-0.001991	-0.003963	0.00409	-0.006429	0.000146
477	-0.000676	-0.004621	-0.001005	-0.004292	0.005241	-0.001169	0.002118
478	0.000967	-0.001662	-0.00232	-0.001005	0.007213	-0.005443	-0.000183
479	0.00294	-0.002648	-0.007086	-0.003635	0.004419	-0.002484	-0.002977
480	-1.9e-05	-0.001991	-0.001991	-0.002648	0.005405	-0.000512	-0.001498
481	0.008035	-0.007086	-0.002977	-0.004785	0.00672	-1.9e-05	-0.000512
482	-0.000676	-0.000347	-0.001827	-0.000512	0.007049	-0.000676	-0.001662
483	0.000803	-0.003306	-0.000676	-0.002648	0.005241	-0.001169	0.00294
484	0.003268	-0.005114	-0.002155	0.001296	0.005405	0.004748	-0.004128
485	0.003104	-0.004128	0.000474	-0.000512	0.009514	0.000639	0.001954
486	0.00031	-0.002813	-0.001334	-0.001827	0.006391	0.000803	0.00146
487	0.00146	-0.005936	-1.9e-05	0.002118	0.003761	-0.001498	0.000474
488	-0.001827	-0.003306	-0.001005	0.001132	0.005076	-1.9e-05	-0.000512
489	-1.9e-05	-0.003963	-0.001005	0.002775	0.004583	-0.001169	-0.001334
490	0.002447	-0.002977	-0.002648	0.002611	0.004255	-1.9e-05	-0.002484
491	-0.00232	-0.004785	-0.00232	-0.0061	0.003433	-0.002155	0.000146
492	0.000474	-0.005936	0.000639	-0.004785	0.005405	-0.001498	0.000146
493	-0.005114	-0.004128	-0.005278	-0.003142	0.008035	-0.005114	-0.001991
494	-0.000347	-0.004621	-0.001991	-0.004292	0.002447	0.000146	-0.002484
495	-0.002484	-0.001662	0.001954	-0.001005	0.009021	-0.001991	0.001954
496	-0.002155	-0.005936	-0.002484	-0.001498	0.005076	-0.000347	-0.001991
497	-0.001498	-0.000183	-0.004949	-0.000841	0.009678	-1.9e-05	-0.001827
498	0.003268	-0.004949	0.003104	-0.001991	0.006391	-0.001498	-0.001662
499	0.00031	-0.002155	-0.001991	-0.000347	0.010664	-0.001827	-0.00232
500	0.002775	-0.003799	0.002611	0.000146	0.00787	-0.000841	-0.000183
501	0.001789	-0.008072	0.000803	0.000639	0.005898	0.001132	-0.005771
502	0.004583	-0.002977	0.000803	-0.001498	0.008199	0.002447	-0.001334
503	-0.006429	-0.003963	-0.000183	-0.001498	0.008528	-1.9e-05	-0.005278
504	0.004583	-0.008401	-0.00347	0.000146	0.010664	-0.001498	-0.003963
505	0.003104	-0.00347	-0.000841	0.000474	0.006391	0.001296	-0.009551
506	0.003597	-0.004128	-0.001005	-0.00232	0.009843	0.00146	-0.001827
507	0.004912	-0.00873	0.000146	-0.000676	0.006227	-0.001169	-0.00347
508	0.004255	-0.001991	-0.001662	0.000146	0.007542	-0.001169	0.000474
509	0.005898	-0.004949	0.000803	0.000967	0.005241	0.000474	-0.003799
510	0.004255	-0.002648	-0.003306	0.000474	0.006556	-0.00347	-0.000841
511	0.006062	-0.003635	-1.9e-05	-0.003142	0.005569	-0.001827	0.000967
512	0.005241	-0.00347	-0.005443	-0.002484	0.005569	-0.000841	-0.002813
513	0.006227	-0.003142	0.00031	-0.008072	0.001954	-0.003306	-0.000183
514	-1.9e-05	-0.003306	0.000146	-0.003635	0.010664	-0.002977	-0.001005
515	0.006227	-0.004456	-0.00232	0.000146	0.005405	-0.001334	0.001954
516	0.007542	-0.001827	0.000146	-0.001827	0.00672	-0.000347	-0.011359
517	0.007542	-0.001991	-0.000183	-0.000841	0.008035	0.000474	-0.001005
518	0.008035	-0.003799	-0.004456	0.000967	0.00672	0.000474	-0.001991
519	0.009185	-0.003306	-0.003799	-0.000841	0.00935	0.001625	-0.005771
520	0.008528	-0.004456	0.00031	-0.000676	0.006227	0.004255	-0.006922
521	0.007377	-0.000512	-0.0061	-0.000841	0.008692	-0.001334	-0.003142
522	0.009021	-0.004621	-0.001498	-0.001662	0.005405	0.00409	-0.001169
523	0.006062	0.00031	-0.004621	-0.000512	0.005734	-0.000512	-0.00232
524	0.007706	-0.001827	-0.000841	-0.003635	0.006227	-0.000676	-0.000183
525	0.004255	-0.001827	-0.001169	-0.001169	0.004255	-0.002484	0.000146
526	0.005569	-0.001169	-0.001827	-0.003142	0.000146	-0.00347	-0.000841
527	0.00409	-0.001827	-0.002155	-0.00347	0.00409	-0.003635	-0.012346
528	0.009514	-0.004785	0.000967	-0.005278	0.003761	-0.00347	-1.9e-05
529	0.009678	-0.001827	-0.00232	-0.000512	0.003761	-0.004621	-0.003142
530	0.009185	-0.001827	-0.000347	-0.003142	0.004912	-0.005936	0.000146
531	0.008857	-0.003142	0.001296	-0.005114	0.004419	-0.001991	-0.001827
532	0.010336	-0.003142	-0.002155	-0.003306	0.007542	-0.006757	0.00031
533	0.011815	-0.001991	-0.000347	-0.002648	0.00409	-0.000183	-0.001827
534	0.013787	0.000967	-0.001169	0.000803	0.00672	-0.002813	-0.001334
535	0.014116	-0.00347	-0.001169	-0.002155	0.002118	-0.002484	-0.002648
536	0.010993	-0.0061	0.000146	-0.002484	0.00409	-0.002155	-0.005607
537	0.011651	-0.003306	-0.001498	-0.002977	-0.000841	-0.001662	-0.001991
538	0.011158	-0.004456	-0.000841	-0.001991	0.000146	-0.002484	-0.013332
539	0.00672	-0.009058	0.000474	-0.005278	0.004748	-0.00232	-0.004621
540	0.009021	-0.003799	-0.000841	0.002118	0.003433	-0.00232	-0.004292
541	0.00935	-0.004785	-0.001662	0.001789	-0.000183	-0.001334	-0.004292
542	0.009185	-0.003142	0.002775	0.000146	0.00409	0.001132	-1.9e-05
543	0.011322	-0.004949	-0.001169	-0.006757	0.000803	-0.004621	-0.001005
544	0.005898	-0.003963	-0.003306	-0.001991	0.000639	-0.004456	-0.001498
545	0.006227	-0.001991	-0.000841	-0.001169	0.000967	-0.003306	-0.001169
546	0.012472	-0.004128	-0.001169	-0.003799	-0.002155	-0.004785	-0.003142
547	0.007706	-0.003635	-0.005114	-0.005443	0.001132	-0.002648	0.002611
548	0.008528	-0.001334	-0.000841	-0.002484	-0.000347	-0.001169	-0.003963
549	0.010171	-0.002813	-0.001827	-0.004128	-0.000841	-0.002648	-0.003142
550	0.011815	-0.00232	0.001296	-0.00347	0.00294	-0.001662	-0.001169
551	0.011158	-0.001991	0.002447	0.001625	0.001132	-0.002977	-0.00347
552	0.013787	-0.002813	-0.001005	-0.000512	-0.002648	0.000474	-0.00232
553	0.010829	-0.001169	0.005076	-0.000347	0.004419	0.002447	-0.002155
554	0.015595	-0.005443	-0.000512	-0.003306	0.001954	-1.9e-05	-0.002977
555	0.009843	-0.00232	-0.002813	0.002282	0.001789	-0.002484	-0.002977
556	0.008528	-0.002813	-0.001991	-0.003799	0.000967	0.000474	-0.002813
557	0.013623	-0.005114	-0.001005	0.001789	0.000803	-0.003142	-0.001827
558	0.006062	-0.00347	-0.000183	0.003433	-0.001334	-0.002813	-0.000183
559	0.008035	-0.008894	-0.002813	-0.000512	-0.001827	0.000474	-0.001991
560	0.010336	-0.002813	-0.001169	-0.003142	-0.001991	-0.003963	-0.002155
561	0.006227	-0.003799	-0.002484	-0.000841	0.000474	-0.003799	-0.000841
562	0.007377	-0.003635	-0.001827	-0.000841	-0.00347	-0.001991	-0.001827
563	0.008363	-1.9e-05	-0.003635	0.000967	-0.006757	-0.004456	-0.001827
564	0.006062	0.001132	0.002775	-0.000347	-0.000347	-0.00347	0.001132
565	0.008035	-0.004292	-0.002813	-0.002648	-0.001827	-0.004128	-0.00232
566	0.008199	-0.002484	-0.005443	-0.000512	-0.001662	-0.003963	-0.003799
567	0.007542	-0.002813	-0.003635	-0.001827	-0.002484	-0.001334	-0.000841
568	0.007377	-0.004621	0.003104	-0.002484	-0.001991	-0.000676	0.000474
569	0.010336	-0.006429	-0.001334	-0.001827	-0.002484	-0.000347	-0.00347
570	0.007706	-0.000183	-0.005443	0.000967	0.000639	-0.003963	-0.00232
571	0.008363	-0.004456	-0.000512	-0.000183	-0.001827	-0.001334	-0.004949
572	0.004748	-0.001991	-0.004128	-0.002155	0.00146	-0.00232	-0.00347
573	0.005898	-1.9e-05	0.000967	-0.000512	-0.002813	0.000639	-0.000676
574	0.003268	-0.001827	-0.002648	-0.000676	-0.001662	-0.003306	-0.003142
575	0.003926	-0.003963	-0.003635	-0.003799	-0.001991	-0.003799	0.000146
576	0.001954	-0.001005	-0.001827	-0.001991	-0.004128	-0.005114	-0.000676
577	0.003104	-0.002977	-0.002155	-0.001827	-0.004785	-0.004621	-0.002977
578	-0.000347	-0.001334	-0.001498	-0.002648	0.002118	-0.003799	-0.001334
579	0.000474	-1.9e-05	-0.005443	-0.002813	-0.001991	-0.003142	0.000639
580	0.000474	-0.0061	-0.003963	-0.000841	-0.00232	-0.006757	-1.9e-05
581	0.001954	-0.001498	-0.004785	-0.001662	-0.001991	-0.003799	0.000803
582	0.001789	-0.005936	-0.000512	-0.001991	-0.00232	-0.001169	0.000967
583	0.00031	-0.002155	-0.002648	-0.002648	0.001954	-0.00347	-0.001005
584	0.001296	-0.001991	-0.000347	-0.002648	-0.004621	0.000967	-0.001334
585	0.001625	-0.001498	-0.003635	0.001954	-0.002484	-0.002155	-0.004128
586	0.002775	-0.002813	-0.011031	-0.002155	-0.001991	0.000803	-0.001005
587	-0.002155	-0.001827	-0.005771	0.003104	-0.001827	-0.002977	-0.003635
588	-0.00347	-0.003635	-0.002484	0.000146	-0.003963	-0.001334	-0.002155
589	-0.001005	-0.003306	-0.002484	0.001789	0.000474	-0.002155	-0.002648
590	-0.001169	-0.001662	0.001132	-0.001498	-0.000512	0.001789	-0.000676
591	-0.004456	-0.005607	-0.005278	-1.9e-05	-0.001334	-0.000841	-0.003142
592	-0.00347	-0.005278	-0.000183	0.006884	-0.00232	0.001296	-0.000183
593	-0.009058	-0.002813	-0.001334	0.000803	-0.001005	0.00031	-0.001991
594	-0.008072	-0.0061	-0.002484	0.001296	-0.001498	-1.9e-05	-0.002648
595	-0.009223	-0.004949	-0.001005	-0.001498	-0.003635	-0.000512	0.000639
596	-0.011031	-0.003306	-0.004785	-0.002155	-0.003142	-0.000676	-0.000347
597	-0.00725	-0.005443	-0.009716	-0.000512	-0.005278	0.002282	-1.9e-05
598	-0.009058	-0.00347	-0.004621	-0.001334	-0.005278	-0.006593	0.003597
599	-0.002977	-0.005114	-0.002648	-0.002648	-0.004128	0.000474	-0.001498
600	-0.007908	0.000474	-0.003306	0.000803	-0.004128	-0.00347	-0.000841
601	-0.002484	-0.003142	-0.003142	-0.004128	-0.007086	0.000967	0.00146
602	-0.004621	-0.001169	-0.004785	-0.000841	-0.007086	-0.005607	-0.000512
603	-0.008237	-0.002648	-0.002155	-0.001991	-0.005114	-1.9e-05	-0.001827
604	-0.008401	-0.001334	-0.004785	0.000639	-1.9e-05	-0.001169	-0.003635
605	-0.007908	-0.002484	-0.000512	-0.003142	0.00031	0.000639	-1.9e-05
606	-0.010209	-0.00232	-0.002648	0.001296	-0.00347	0.003268	-0.004456
607	-0.007908	-0.004128	-0.001498	0.001789	-0.001498	0.002282	-0.001334
608	-0.012181	-0.004456	-0.006429	0.004255	-0.005443	0.006227	-0.001827
609	-0.015304	-0.006922	-0.004456	-0.004292	-0.000512	-0.000183	-0.001498
610	-0.012674	-0.005114	-0.006593	0.003104	-0.005443	0.001625	-0.00232
611	-0.010866	-0.003142	-0.00232	-0.001005	-0.00347	0.00031	-0.00232
612	-0.013332	-0.010702	-0.002648	-0.002155	-0.004456	0.002447	-0.000183
613	-0.014647	-0.005278	-0.003142	-1.9e-05	-0.003963	-0.001498	-0.000512
614	-0.007086	-0.005443	-0.00347	-0.005443	-0.002484	0.000967	-0.002813
615	-0.017112	-0.004621	-0.004456	-0.002484	-0.001334	-0.001005	0.000639
616	-0.012017	-0.002977	-0.003635	-0.001991	-0.002155	0.00294	-0.002484
617	-0.012839	-0.000841	-0.002484	-0.001005	-0.000183	0.000803	-0.009716
618	-0.013332	-0.007908	-0.001334	-0.005278	-0.005114	0.000474	-0.000512
619	-0.014482	-0.00232	-0.001334	0.003761	-0.004292	0.003597	-0.002484
620	-0.013989	-0.003799	-0.004292	-0.002813	-0.001827	-0.005443	-0.002155
621	-0.010866	0.000803	-0.003142	-0.00232	-0.004128	0.001625	-0.005607
622	-0.012181	-0.000347	-1.9e-05	-0.001334	-0.00232	-0.000512	-0.001991
623	-0.012181	-0.004456	0.001296	-0.001169	-0.00232	0.00031	-0.000676
624	-0.012017	-0.001498	-0.005278	-1.9e-05	-0.001169	-0.001991	-1.9e-05
625	-0.010373	-0.004621	-0.00347	0.001625	-0.002977	0.004748	-0.001827
626	-0.013825	-0.003635	-0.003799	0.000803	0.00146	0.000146	0.000146
627	-0.012839	-0.004621	-0.003306	-0.001991	-0.000512	0.004583	-0.001991
628	-0.014811	-0.004128	-0.005278	-0.001827	-0.000347	0.002282	-0.003142
629	-0.013496	-0.002484	-0.004456	-0.003635	-0.003306	0.006391	-0.001334
630	-0.014482	0.002611	-0.004292	-0.001169	-0.00232	0.004419	-0.000676
631	-0.014153	-0.003306	-0.004128	-0.001827	-0.002484	-0.000347	0.000967
632	-0.014153	-0.001169	-0.005443	-0.000676	-0.002648	0.002611	0.00031
633	-0.010702	0.001132	-0.001827	-0.00232	-0.003963	0.004255	-0.001827
634	-0.013989	-0.004128	-0.005278	-0.000183	-0.001169	0.001296	0.000967
635	-0.013332	-0.005114	-0.002648	-0.000841	-0.003799	0.00294	0.006556
636	-0.008894	-0.001498	-0.004456	-0.000676	-0.003142	0.000146	0.000639
637	-0.016454	-0.005114	-0.003142	-0.001498	0.001132	-0.000183	0.000146
638	-0.013003	-0.001498	-0.001169	-1.9e-05	0.003761	0.002447	0.004255
639	-0.010702	-0.003635	0.00146	-1.9e-05	0.00672	0.001132	-0.002813
640	-0.012346	-0.005114	-0.001498	-0.001662	-0.002155	0.003104	-1.9e-05
641	-0.012346	-0.001498	-0.003142	0.00146	0.000474	-0.001827	-0.001498
642	-0.011359	-0.004128	-0.001662	0.002611	-0.000512	0.000474	-0.001662
643	-0.016948	-0.004456	-0.001991	0.001789	0.001132	-0.001169	-0.001991
644	-0.006922	-0.003963	-0.000347	0.002775	-0.003306	0.002118	-0.005443
645	-0.015304	-0.006922	-0.003963	0.002282	0.000146	-0.000512	-0.001662
646	-0.012017	-0.00232	-0.005114	-0.001169	-0.002977	0.000474	-1.9e-05
647	-0.013003	-0.004292	-0.0061	-0.001005	0.000967	0.001954	-0.001005
648	-0.011359	-0.001827	-0.001827	-0.003142	-0.000347	0.001132	0.00031
649	-0.011852	0.004748	-0.001827	-0.000676	-0.000347	0.00031	-0.000347
650	-0.008401	-0.002977	0.00031	-0.001169	-0.004621	-1.9e-05	-0.001662
651	-0.006593	-0.005607	-0.005771	-0.004949	-0.003799	-0.002155	-0.001169
652	-0.008894	-0.002155	-0.001169	-0.002977	-0.003799	-0.012181	-0.002648
653	-0.009223	-0.003142	-0.004785	-0.001005	-0.001662	-0.007415	-0.002648
654	-0.00725	-0.005771	-0.004621	-0.004128	-0.003799	-1.9e-05	-0.001334
655	-0.00725	-0.004456	-0.00232	-1.9e-05	-0.003963	-0.003635	-0.001334
656	-0.004949	-0.005607	-0.003799	-0.002813	0.000803	-0.004128	0.000639
657	-0.009716	-0.005936	-0.00232	-0.003142	-0.001169	0.001296	-0.001169
658	-0.008237	-0.002484	-0.001827	-0.003963	-0.003142	-0.000183	-0.00347
659	-0.008401	-0.005114	-0.001991	-0.004128	0.001789	0.00031	0.001296
660	-0.004785	-0.001662	-0.001005	-0.00232	0.000146	0.002775	0.000803
661	-0.002977	-0.004785	-0.000512	-0.003799	-0.003963	0.001789	-0.004621
662	-0.004949	-0.00347	0.000474	-0.000347	0.003433	0.002118	-0.00232
663	-0.002648	-0.004128	0.002118	-0.004292	0.000639	-0.009058	-0.001827
664	-0.004949	-0.001991	-0.003142	-0.003306	0.001625	-0.009387	-0.001334
665	-0.001991	-0.005278	0.000474	-0.002648	0.000474	-0.006264	0.000639
666	-0.005443	0.00146	-0.001169	-0.002484	-0.000676	-0.002155	-0.001827
667	-0.005607	-0.005936	-0.001334	-0.002484	-0.001498	-0.004621	0.005569
668	-0.005771	-0.003142	-0.003142	-0.000512	-0.001334	-0.005278	0.000967
669	-0.00347	-0.005278	-0.001334	-0.004292	-0.002155	-0.000841	0.000474
670	-0.002977	-0.003963	-0.002648	-0.002155	-0.001498	0.001132	-0.002813
671	-0.001169	-0.002155	-0.002813	-0.003635	-0.000347	0.00146	0.000474
672	-0.002977	-0.009223	-0.002648	-0.00347	-0.001991	0.005734	-0.003142
673	-0.001827	-0.001334	-0.004292	-0.004128	0.001625	0.000803	0.000967
674	-1.9e-05	-0.001662	-0.004785	-0.002977	-0.002648	-0.001005	-0.000183
675	-0.002155	-0.002813	-0.001498	-0.002484	-0.002648	0.003597	-0.004292
676	0.00294	-0.004456	-0.002813	-0.004292	-0.001662	0.002775	-0.001169
677	0.001625	-0.00232	-0.00347	-0.003306	-0.005607	0.000803	-0.004456
678	0.003761	-0.005936	-0.001169	-0.006264	-0.007579	0.003761	-1.9e-05
679	0.000639	-0.007908	-0.004456	-0.003799	0.000474	0.007377	-0.000841
680	0.002282	-0.008237	0.002447	-0.005278	-0.000676	-0.003635	-0.000512
681	-0.000183	-0.003963	-0.002155	-0.000512	-1.9e-05	0.00146	-0.002813
682	0.001954	-0.004621	-0.001005	-0.002977	0.000146	-0.009387	0.00146
683	-0.000676	-0.001498	-0.001169	-0.000676	-0.002813	0.001132	-0.00232
684	-0.000512	-0.004785	-0.000676	-0.003142	-0.000841	-0.000841	-0.001334
685	0.00294	-0.00232	-0.001662	-0.005443	-0.000676	0.001132	-0.004128
686	0.001296	-0.00347	0.003761	-0.004456	-0.001991	0.006391	-0.001334
687	0.004419	-0.004292	-0.004456	-0.001991	-0.001991	0.010336	-0.005607
688	0.000474	-0.000512	-0.001662	-0.005278	-0.001334	0.010336	-0.003799
689	0.003433	-0.00347	-0.002484	-0.005114	0.001954	0.006556	-0.000512
690	0.000639	-0.003799	-0.004128	-0.003635	-0.004292	0.004912	-0.000183
691	0.001954	-0.003799	0.00031	-0.00725	-0.004128	0.010664	0.00031
692	-0.001991	-0.004128	-0.003635	-0.004621	-0.001005	0.003761	-0.001827
693	0.002611	-0.003963	-0.001005	-0.001662	-0.005114	0.007377	0.006062
694	-0.001005	-0.00232	0.002282	-0.002648	-0.000676	0.009021	-0.003142
695	0.003433	-0.004785	-0.000512	-0.003799	-0.004128	0.006391	0.000803
696	0.00031	-0.000183	-0.001827	-0.002155	0.000639	0.008857	-0.003306
697	-0.000676	-0.001005	0.001625	-0.002484	-0.002155	0.006884	-0.000183
698	0.002775	-0.004456	-0.003635	-0.001662	-0.003635	0.006391	-0.001169
699	0.003926	-0.009716	-1.9e-05	-1.9e-05	-0.000183	0.004912	-0.001498
700	0.005405	-0.007086	-0.000841	-0.00232	-0.002648	0.006556	-0.000512
701	0.005734	-0.00725	-0.004621	-0.002977	-0.005607	-0.000841	-0.001334
702	0.006556	-0.004621	-0.004949	-0.003799	-0.005114	-1.9e-05	-0.003635
703	0.00146	-0.005607	-0.005607	-0.001334	-0.002813	-0.009058	-1.9e-05
704	0.002447	-0.007086	-0.005936	-0.003306	-0.008565	-0.001827	0.001132
705	0.001789	-0.003963	-0.001005	-0.003635	-0.001169	-1.9e-05	-0.000183
706	0.003597	-0.005443	-0.002648	-0.003306	-0.003963	-0.002648	-0.000676
707	0.003104	-0.005771	-0.004456	-0.002813	-0.001498	-0.004292	-0.000183
708	0.000967	-0.004128	-0.001827	-0.008237	-0.003635	-1.9e-05	0.000639
709	0.005898	-0.001334	-0.004128	-0.00347	-0.004456	-0.002813	-0.001827
710	0.010007	-0.004785	-0.001827	-0.002813	-0.004785	-0.003306	-0.000841
711	0.000474	-0.001498	-0.003306	-0.004621	0.000146	-0.004292	0.000967
712	0.00935	-0.002977	-0.001662	-0.002813	-1.9e-05	-0.004292	-0.001498
713	0.003597	-0.001498	-0.002155	-0.001498	-0.002155	-0.001991	-0.005114
714	0.003761	-0.002977	-0.002813	-0.002155	-0.004949	-0.002155	-0.001662
715	0.006884	-0.003963	-0.001334	0.002775	-0.002813	-0.001169	-0.004292
716	0.001789	-0.004128	0.001132	0.003268	0.001789	-0.001334	-0.004949
717	0.004912	-0.004292	0.002611	-0.001498	-0.003142	-0.002977	-0.007415
718	0.005241	-0.003142	-0.005607	0.00409	-1.9e-05	-0.006264	-0.001991
719	0.003433	-0.002813	-0.002155	0.001296	-0.002484	-0.001827	0.000803
720	0.005241	-0.002977	-0.004292	-0.001334	-0.001991	-0.003142	-0.001827
721	0.008199	0.000803	-0.005443	-0.001827	-0.001991	-0.00232	-0.002648
722	0.002447	-0.005278	-0.006593	-0.001169	-0.001991	-0.00232	0.002282
723	0.008035	-0.005114	-0.00347	-0.002648	-0.003799	-0.002155	0.000967
724	0.004255	-0.00347	-0.007086	0.000146	-0.001334	-0.003635	0.000967
725	0.004912	-0.004456	-0.003306	-0.00347	-0.006593	-0.005771	0.002447
726	0.002118	-0.002155	-0.001169	-0.00232	-0.006922	-0.0061	-1.9e-05
727	0.005569	-0.001498	-0.003635	-0.002813	-0.001991	-0.005443	0.00146
728	0.005405	0.002611	-0.002155	-0.000676	-0.006264	-0.006922	-0.001334
729	0.010171	-0.004292	-0.00232	-0.001169	-0.006593	-0.005443	0.001296
730	0.002282	-0.001991	-1.9e-05	-0.001334	-0.00232	-0.002813	-0.002977
731	0.007377	-0.004456	-0.000183	-0.000347	-0.003635	-0.000841	-0.001827
732	0.008035	0.000803	-0.002484	0.003104	-0.000347	-0.002813	-0.002977
733	0.005405	-0.006264	-0.002813	-0.000512	-0.001498	0.001132	0.000803
734	0.00787	-0.004128	-0.001662	0.001954	-0.001498	-0.000183	-0.004949
735	0.00935	-0.002484	-0.004128	0.00146	0.000474	-0.003635	0.00031
736	0.006884	-0.003963	-0.003963	0.00031	-0.000183	-0.001169	-0.000676
737	0.006062	-0.002813	0.002447	0.004748	-0.00232	-1.9e-05	0.000803
738	0.004912	-0.006593	-0.001334	0.000146	-0.003142	-0.000512	0.003597
739	0.003597	-0.00347	-0.003306	0.00146	0.003433	-0.001498	0.001296
740	0.007542	-0.003799	-0.002155	0.002447	-0.008401	-0.000676	0.000639
741	0.001789	-0.004292	-0.004785	-0.001169	-0.005443	-0.001334	0.000803
742	0.003761	-0.003799	-0.003142	-0.004949	-0.004292	-0.002648	0.000967
743	0.004583	-0.000512	-0.001498	0.008035	-0.004292	-0.002484	-1.9e-05
744	0.00294	-0.004621	-0.004292	-0.003306	-0.001991	-0.005607	0.000803
745	0.005241	-0.000347	-0.000676	-0.000512	-0.003142	-0.005114	-0.000676
746	0.005569	-0.001991	-0.00347	0.000146	-0.000347	-0.002977	0.001625
747	0.001954	-0.005278	-0.001991	0.001954	0.000967	-0.001662	0.001625
748	0.000803	-0.002155	-1.9e-05	0.000803	-0.00347	-0.001005	0.001132
749	0.002611	-0.005443	-0.002648	0.003433	0.002447	-0.001662	-0.002155
750	0.006556	-0.001005	0.003104	0.003433	0.001625	-0.001169	-0.003963
751	0.012308	0.005241	0.001132	0.008199	0.001954	0.004255	0.001132
752	0.017403	0.010007	0.005405	0.015595	0.019047	0.011322	0.008199
753	0.024635	0.017239	0.015595	0.022169	0.01691	0.017074	0.019047
754	0.028744	0.023977	0.022498	0.035482	0.026771	0.02332	0.027265
755	0.039591	0.024142	0.031702	0.034825	0.032853	0.034661	0.035154
756	0.044358	0.038605	0.037126	0.043207	0.040084	0.038276	0.040249
757	0.051754	0.040742	0.045837	0.048795	0.045179	0.047645	0.047316
758	0.05652	0.04896	0.048631	0.052904	0.052575	0.048631	0.053069
759	0.062601	0.054219	0.061451	0.057013	0.055863	0.058821	0.062108
760	0.069669	0.062437	0.063094	0.068025	0.064902	0.063587	0.064902
761	0.071805	0.068518	0.068518	0.070162	0.070983	0.066217	0.071805
762	0.079037	0.074599	0.074928	0.077722	0.071805	0.075585	0.074599
763	0.087255	0.078215	0.079694	0.083639	0.079859	0.077722	0.082324
764	0.090049	0.083968	0.086433	0.089063	0.084625	0.08709	0.085776
765	0.09613	0.090871	0.088405	0.085283	0.090049	0.087255	0.092021
766	0.100568	0.08972	0.096294	0.097774	0.094651	0.093172	0.093665
767	0.100075	0.096623	0.100896	0.099582	0.100239	0.096294	0.097116
768	0.109114	0.099746	0.10254	0.105663	0.102869	0.102047	0.095473
769	0.106978	0.103691	0.099089	0.110593	0.109279	0.102704	0.101061
770	0.116675	0.107142	0.110758	0.112566	0.109607	0.113552	0.11158
771	0.120126	0.112894	0.110922	0.11536	0.111415	0.115031	0.110265
772	0.122592	0.112566	0.117332	0.119469	0.11799	0.119304	0.118976
773	0.124399	0.119304	0.118811	0.123413	0.121277	0.12177	0.121605
774	0.12818	0.119304	0.12555	0.123578	0.119633	0.1267	0.124235
775	0.131467	0.123742	0.127687	0.129823	0.126043	0.122427	0.130645
776	0.13196	0.128344	0.129495	0.121605	0.128344	0.123906	0.132617
777	0.135411	0.121605	0.131138	0.130152	0.129001	0.13311	0.135083
778	0.138041	0.133603	0.136069	0.134425	0.138205	0.13459	0.138699
779	0.14215	0.136726	0.137548	0.138863	0.137055	0.135247	0.138534
780	0.143794	0.140671	0.135904	0.143301	0.141493	0.132617	0.142807
781	0.146752	0.14215	0.146423	0.143629	0.140835	0.144451	0.144122
782	0.149382	0.145273	0.142479	0.149217	0.147409	0.144944	0.145273
783	0.152833	0.145108	0.149546	0.149217	0.146095	0.148067	0.144615
784	0.152176	0.147081	0.148396	0.151025	0.153326	0.149875	0.151683
785	0.160558	0.149382	0.154477	0.156285	0.153326	0.154312	0.155134
786	0.159243	0.153491	0.151683	0.158093	0.154806	0.152669	0.155463
787	0.163681	0.151847	0.156778	0.156285	0.1576	0.15612	0.157928
788	0.160558	0.154312	0.158421	0.160722	0.156449	0.156942	0.159901
789	0.162859	0.152176	0.160394	0.160229	0.160229	0.160887	0.155792
790	0.163845	0.159079	0.160558	0.163023	0.158914	0.164338	0.15875
791	0.163516	0.157435	0.161544	0.162859	0.159901	0.159736	0.162366
792	0.16138	0.158257	0.164996	0.162695	0.163023	0.165653	0.163845
793	0.16253	0.161873	0.161544	0.163023	0.165489	0.167132	0.165324
794	0.164996	0.163023	0.163845	0.167954	0.167461	0.168612	0.164503
795	0.164667	0.16401	0.165653	0.167954	0.167625	0.165489	0.170255
796	0.168447	0.167297	0.166475	0.168776	0.169105	0.173049	0.167132
797	0.171241	0.169762	0.167132	0.173214	0.171241	0.167461	0.171734
798	0.173542	0.174528	0.171406	0.170091	0.165489	0.169598	0.174364
799	0.171734	0.173871	0.168612	0.174857	0.174693	0.172392	0.176172
800	0.176336	0.169269	0.17535	0.174693	0.172227	0.174035	0.173378
801	0.175186	0.174364	0.172063	0.176336	0.176665	0.172556	0.172063
802	0.178473	0.170913	0.173214	0.176501	0.176501	0.176172	0.174528
803	0.1742	0.173871	0.1742	0.180445	0.176336	0.178637	0.176336
804	0.177322	0.171899	0.177651	0.177651	0.180116	0.175186	0.176336
805	0.181103	0.172227	0.177487	0.182746	0.179952	0.177158	0.176008
806	0.176008	0.1742	0.179952	0.180774	0.17913	0.17913	0.179459
807	0.178637	0.176172	0.177651	0.182417	0.179623	0.182911	0.182089
808	0.180116	0.178144	0.179295	0.176336	0.178637	0.179788	0.176829
809	0.175843	0.175515	0.179623	0.179295	0.179459	0.183239	0.183075
810	0.176829	0.178309	0.179295	0.115853	0.181596	0.178637	0.186198
811	0.174857	0.177815	0.18061	0.001132	0.177487	0.181103	0.183239
812	0.17798	0.181924	0.180938	0.011322	0.184554	0.181924	0.183732
813	0.180774	0.181267	0.18554	0.020197	0.18061	0.186033	0.184061
814	0.179459	0.182582	0.182253	0.029237	0.18554	0.184554	0.188334
815	0.181103	0.183732	0.185212	0.034168	0.184225	0.186691	0.187348
816	0.181596	0.18554	0.186855	0.039263	0.186198	0.184225	0.184718
817	0.182911	0.183075	0.186855	0.046494	0.186033	0.185376	0.187677
818	0.184718	0.187841	0.183568	0.054712	0.188827	0.182582	0.183239
819	0.188006	0.183404	0.183732	0.062108	0.185705	0.191621	0.184225
820	0.184883	0.191293	0.183732	0.066053	0.189485	0.189156	0.187348
821	0.186198	0.184225	0.186198	0.070162	0.184883	0.189978	0.188499
822	0.18554	0.184718	0.186198	0.076736	0.189814	0.191293	0.186033
823	0.190307	0.186033	0.186691	0.078873	0.187677	0.186526	0.192608
824	0.18439	0.186691	0.189156	0.084296	0.187513	0.19195	0.189978
825	0.184718	0.184883	0.18817	0.088405	0.189814	0.190471	0.186526
826	0.184061	0.190471	0.186198	0.093993	0.188499	0.192115	0.189485
827	0.185212	0.189156	0.186855	0.096623	0.189485	0.193429	0.191786
828	0.188006	0.187513	0.189814	0.101554	0.192608	0.191786	0.190964
829	0.186198	0.191786	0.189814	0.105334	0.202962	0.192608	0.192936
830	0.1908	0.186198	0.190964	0.109936	0.188499	0.19458	0.192443
831	0.18554	0.196388	0.18932	0.113388	0.193594	0.191128	0.191786
832	0.188006	0.189814	0.191786	0.116182	0.191786	0.193758	0.193922
833	0.18817	0.191293	0.189156	0.121277	0.192443	0.192443	0.196223
834	0.192115	0.193429	0.191293	0.116346	0.189814	0.193429	0.196223
835	0.188334	0.191293	0.193594	0.125714	0.193922	0.196717	0.194087
836	0.189814	0.189649	0.193429	0.126372	0.19458	0.19573	0.194251
837	0.18932	0.192443	0.189978	0.133932	0.194909	0.195073	0.191128
838	0.191786	0.189978	0.194909	0.133768	0.193265	0.19458	0.194744
839	0.188663	0.190964	0.193101	0.138041	0.196881	0.195895	0.190307
840	0.190471	0.191786	0.195566	0.141493	0.19458	0.195566	0.198196
841	0.190471	0.191621	0.196388	0.140835	0.193922	0.196388	0.193429
842	0.186691	0.184554	0.194416	0.143958	0.199675	0.194416	0.196059
843	0.185376	0.18817	0.195566	0.146588	0.196223	0.196388	0.195073
844	0.191786	0.194744	0.192772	0.14971	0.196059	0.199839	0.193429
845	0.191128	0.191293	0.194416	0.149382	0.196223	0.199839	0.195073
846	0.185376	0.192936	0.197045	0.152833	0.195402	0.196881	0.193594
847	0.192608	0.193101	0.194251	0.154312	0.192115	0.201647	0.198031
848	0.186691	0.194251	0.19195	0.156285	0.195073	0.19573	0.164338
849	0.19195	0.189814	0.195237	0.156778	0.193594	0.19721	0.059643
850	0.193429	0.19458	0.193429	0.161051	0.194416	0.196223	0.003926
851	0.191786	0.193758	0.193594	0.159572	0.184883	0.196223	0.002118
852	0.194744	0.200168	0.190964	0.162695	0.193758	0.196881	-0.002648
853	0.195402	0.182417	0.193429	0.164338	0.195073	0.19458	0.005405
854	0.191293	0.195402	0.19458	0.16779	0.197374	0.196717	0.012472
855	0.19721	0.194416	0.195237	0.171406	0.197374	0.196717	0.021512
856	0.197703	0.190307	0.192443	0.166639	0.196717	0.197703	0.026771
857	0.190635	0.192279	0.19836	0.170419	0.196223	0.201812	0.035811
858	0.195237	0.192936	0.200168	0.16516	0.194744	0.20214	0.043207
859	0.191786	0.189978	0.194251	0.173707	0.198689	0.197867	0.047152
860	0.194416	0.193922	0.200332	0.172063	0.196881	0.19836	0.054383
861	0.192443	0.196223	0.192608	0.176501	0.200004	0.199511	0.060958
862	0.195073	0.192115	0.19836	0.176008	0.193101	0.200168	0.065231
863	0.195895	0.19836	0.194416	0.17798	0.195566	0.197703	0.038276
864	0.19836	0.189978	0.195566	0.177815	0.195402	0.199346	0.047152
865	0.1908	0.193429	0.193594	0.180938	0.196388	0.198689	0.051918
866	0.19458	0.194416	0.198524	0.175843	0.195237	0.198689	0.055205
867	0.197045	0.195402	0.196388	0.182746	0.19458	0.195402	0.066381
868	0.19458	0.194416	0.195566	0.183239	0.196388	0.200332	0.074928
869	0.195402	0.199182	0.198031	0.184554	0.195566	0.203455	0.076407
870	0.194909	0.196223	0.193922	0.184061	0.196552	0.199675	0.080187
871	0.195895	0.196388	0.193922	0.181431	0.197045	0.203291	0.083639
872	0.193594	0.196552	0.196552	0.185047	0.197867	0.201976	0.088241
873	0.201976	0.19573	0.197045	0.185376	0.195402	0.200825	0.093665
874	0.195402	0.197045	0.194416	0.186691	0.196717	0.199182	0.099253
875	0.199346	0.193101	0.196223	0.188499	0.197703	0.200168	0.101554
876	0.193594	0.191457	0.192279	0.189649	0.197703	0.201976	0.105005
877	0.196223	0.19458	0.197867	0.185376	0.193429	0.201483	0.109279
878	0.200004	0.194087	0.196388	0.189485	0.194744	0.197703	0.116182
879	0.193594	0.192608	0.200168	0.183897	0.191457	0.201319	0.118154
880	0.190471	0.198524	0.198689	0.191457	0.193922	0.201319	0.11914
881	0.19458	0.188663	0.197045	0.187184	0.195402	0.197538	0.121934
882	0.194909	0.192115	0.196059	0.190635	0.194251	0.201154	0.124399
883	0.1908	0.195895	0.195895	0.190142	0.193922	0.201154	0.127358
884	0.194744	0.194416	0.196388	0.19195	0.197703	0.200004	0.12933
885	0.194087	0.196388	0.194909	0.19195	0.19195	0.199346	0.130645
886	0.192772	0.198853	0.197045	0.1908	0.197374	0.20099	0.131796
887	0.195895	0.194416	0.195895	0.193758	0.198524	0.199346	0.130316
888	0.195237	0.196881	0.196059	0.19195	0.193758	0.202305	0.140178
889	0.195566	0.199675	0.196223	0.192279	0.195566	0.200661	0.143465
890	0.196881	0.192279	0.198524	0.194744	0.196552	0.202633	0.146259
891	0.193594	0.198524	0.198031	0.192443	0.197045	0.202798	0.147574
892	0.195237	0.195895	0.201976	0.191293	0.197045	0.200661	0.146588
893	0.194087	0.199182	0.199839	0.198031	0.20477	0.197867	0.150039
894	0.196223	0.194744	0.199839	0.195237	0.198031	0.202469	0.152998
895	0.19573	0.197374	0.197538	0.19836	0.198853	0.20214	0.153984
896	0.192279	0.194251	0.196223	0.19573	0.196388	0.20099	0.1576
897	0.193101	0.193101	0.198031	0.198524	0.192608	0.201154	0.156449
898	0.196552	0.191293	0.196717	0.197045	0.194744	0.199018	0.160229
899	0.19458	0.194909	0.194251	0.197374	0.196223	0.200004	0.161215
900	0.18439	0.193594	0.198031	0.164174	0.193922	0.199346	0.165817
901	0.191457	0.195073	0.197045	0.163023	0.195895	0.20099	0.164831
902	0.197538	0.193758	0.191786	0.163681	0.19836	0.200332	0.169433
903	0.19573	0.191128	0.197867	0.165817	0.194251	0.19836	0.169762
904	0.196059	0.194909	0.194087	0.168776	0.199839	0.19721	0.171077
905	0.198196	0.192936	0.196388	0.170419	0.195895	0.202469	0.172392
906	0.19721	0.197045	0.195895	0.173542	0.197538	0.197374	0.174035
907	0.197045	0.193922	0.195073	0.171734	0.196059	0.201647	0.173049
908	0.196552	0.198031	0.195566	0.168612	0.197867	0.199182	0.175021
909	0.199346	0.197374	0.196552	0.174693	0.19721	0.200661	0.174364
910	0.199182	0.196223	0.195237	0.178637	0.19721	0.199675	0.178473
911	0.187184	0.196059	0.198524	0.176008	0.195402	0.203126	0.180445
912	0.19721	0.19573	0.198031	0.178144	0.196717	0.200825	0.182253
913	0.201812	0.198031	0.196717	0.179952	0.19721	0.201812	0.182253
914	0.195073	0.195566	0.194251	0.182582	0.196717	0.20362	0.18061
915	0.196717	0.192772	0.196223	0.18176	0.196717	0.198524	0.182582
916	0.195237	0.19721	0.199675	0.183404	0.197374	0.200332	0.182089
917	0.194909	0.19573	0.199839	0.187513	0.195237	0.197703	0.184554
918	0.198689	0.196223	0.1908	0.006556	0.197538	0.197538	0.186526
919	0.194744	0.198196	0.19195	0.010336	0.196717	0.199839	0.188006
920	0.195566	0.197703	0.193922	-0.001005	0.19458	0.201319	0.186198
921	0.197538	0.196552	0.189814	-0.000347	0.196552	0.197703	0.190471
922	0.191128	0.196717	0.195073	-0.008072	0.195566	0.200661	0.194416
923	0.191786	0.199511	0.192608	0.004748	0.19573	0.200661	0.18932
924	0.197374	0.19721	0.194416	0.012308	0.191786	0.19721	0.189978
925	0.195402	0.20099	0.195073	0.014116	0.196388	0.200661	0.191293
926	0.197374	0.195566	0.195402	0.025621	0.196059	0.201812	0.191621
927	0.195237	0.198031	0.199511	0.036797	0.196717	0.199018	0.192115
928	0.196059	0.196881	0.20099	0.041564	0.195237	0.19721	0.193594
929	0.194087	0.197867	0.196223	0.047973	0.200168	0.19721	0.193101
930	0.19721	0.19573	0.197538	0.058164	0.19458	0.199675	0.196223
931	0.195402	0.201647	0.195895	0.061286	0.196388	0.201812	0.191457
932	0.195566	0.193594	0.196881	0.070655	0.19573	0.200661	0.194416
933	0.194744	0.195895	0.196552	0.074271	0.193101	0.204113	0.196388
934	0.193429	0.195566	0.194087	0.076736	0.197045	0.199675	0.195237
935	0.194087	0.194744	0.190635	0.08331	0.19458	0.199511	0.198524
936	0.193429	0.197374	0.194744	0.087748	0.196223	0.201483	0.197374
937	0.199182	0.197374	0.198031	0.089556	0.194087	0.200825	0.193429
938	0.19195	0.198524	0.194909	0.095966	0.198524	0.197867	0.198524
939	0.196223	0.198524	0.192608	0.096952	0.19458	0.201812	0.198853
940	0.194744	0.199839	0.190307	0.103362	0.199346	0.197045	0.198031
941	0.196881	0.194909	0.193429	0.102047	0.196223	0.196552	0.196881
942	0.194909	0.198853	0.195073	0.109279	0.196881	0.19573	0.194909
943	0.195237	0.196059	0.19721	0.114374	0.197045	0.196717	0.203126
944	0.193429	0.199346	0.195895	0.117825	0.196881	0.199018	0.200497
945	0.195566	0.195073	0.198196	0.119633	0.200332	0.198853	0.203455
946	0.194087	0.196717	0.194087	0.126207	0.193429	0.196552	0.20099
947	0.194416	0.192443	0.196059	0.127851	0.195895	0.199182	0.202305
948	0.194909	0.197703	0.198689	0.130316	0.195073	0.200497	0.200168
949	0.196059	0.197867	0.19573	0.132946	0.197045	0.198031	0.200825
950	0.197374	0.193922	0.198853	0.134261	0.194744	0.20099	0.200332
951	0.189978	0.199018	0.193265	0.136562	0.196388	0.196881	0.202469
952	0.194744	0.195237	0.193429	0.137877	0.194416	0.197538	0.20214
953	0.195566	0.202798	0.192936	0.143136	0.195237	0.196552	0.19836
954	0.196059	0.195566	0.195402	0.141986	0.195073	0.200168	0.203455
955	0.195073	0.196388	0.195402	0.146259	0.19458	0.195895	0.204606
956	0.196059	0.196717	0.193922	0.144451	0.192936	0.19836	0.202633
957	0.196552	0.195237	0.191786	0.149875	0.193429	0.193265	0.202305
958	0.194909	0.196881	0.193101	0.148724	0.193922	0.196388	0.20362
959	0.199182	0.196223	0.196223	0.147081	0.195237	0.19458	0.201812
960	0.199018	0.19721	0.197538	0.152833	0.194087	0.197045	0.202305
961	0.19836	0.201319	0.19721	0.155134	0.195895	0.19573	0.201154
962	0.19836	0.197703	0.197374	0.15497	0.198689	0.199182	0.203455
963	0.198689	0.197045	0.197045	0.159079	0.194909	0.19721	0.202469
964	0.194744	0.200497	0.19721	0.160722	0.197374	0.197867	0.199839
965	0.197538	0.196223	0.19836	0.159572	0.19458	0.198689	0.200825
966	0.194087	0.19721	0.197703	0.160394	0.198031	0.194909	0.200661
967	0.198689	0.195237	0.199346	0.159736	0.193594	0.200168	0.199839
968	0.19721	0.197045	0.193265	0.164667	0.19573	0.189978	0.199675
969	0.198689	0.195402	0.191621	0.158914	0.19458	0.196388	0.201812
970	0.197538	0.200332	0.197538	0.162202	0.195402	0.198031	0.201483
971	0.198031	0.197703	0.19573	0.163188	0.193265	0.194087	0.201812
972	0.193594	0.198853	0.191457	0.163352	0.192443	0.196717	0.202633
973	0.194416	0.19458	0.196223	0.161544	0.194416	0.19721	0.202633
974	0.198853	0.197374	0.19195	0.169433	0.192608	0.194251	0.200168
975	0.193594	0.200332	0.196388	0.165489	0.19195	0.19458	0.20214
976	0.200332	0.199839	0.19458	0.166804	0.191128	0.19721	0.199675
977	0.197867	0.197538	0.197867	0.169105	0.194416	0.195073	0.200168
978	0.199511	0.196881	0.199018	0.172063	0.19458	0.197703	0.20099
979	0.197867	0.198853	0.193429	0.174857	0.195566	0.188334	0.205099
980	0.200332	0.196881	0.198689	0.176172	0.200332	0.201483	0.195566
981	0.19836	0.201319	0.197374	0.173707	0.193429	0.198853	0.197538
982	0.197867	0.200332	0.196881	0.177487	0.196059	0.200825	0.197045
983	0.198031	0.198689	0.199675	0.17913	0.197374	0.201647	0.196552
984	0.196388	0.197703	0.196881	0.176336	0.193922	0.199511	0.191621
985	0.19836	0.197538	0.193594	0.17913	0.195073	0.197867	0.196059
986	0.200168	0.19573	0.196388	0.181103	0.19721	0.199182	0.197538
987	0.197045	0.197703	0.198524	0.176336	0.198853	0.199511	0.191293
988	0.201319	0.196059	0.199182	0.180281	0.188499	0.199182	0.197703
989	0.20099	0.194416	0.196717	0.179952	0.197045	0.197374	0.196881
990	0.198031	0.194909	0.194087	0.17913	0.193101	0.194744	0.195895
991	0.19195	0.19721	0.193101	0.18176	0.195895	0.201319	0.193265
992	0.200004	0.195895	0.19458	0.178473	0.196717	0.197045	0.202305
993	0.200497	0.198524	0.196059	0.183897	0.191293	0.198524	0.195895
994	0.19836	0.199675	0.195402	0.183732	0.194251	0.197867	0.193265
995	0.196717	0.199182	0.197374	0.182089	0.188499	0.198196	0.196059
996	0.201976	0.199511	0.196059	0.185047	0.19195	0.19721	0.193429
997	0.201812	0.201976	0.19836	0.186691	0.194909	0.19836	0.192772
998	0.19836	0.199511	0.19721	0.179623	0.19195	0.198031	0.194087
999	0.201976	0.197374	0.199182	0.167954	0.193594	0.200004	0.192443
1000	0.202798	0.196059	0.199018	0.172063	0.199182	0.197867	0.191128
1001	0.20099	0.199839	0.195402	0.169269	0.193594	0.197703	0.135576
1002	0.196881	0.197538	0.196223	0.173378	0.200332	0.19836	-0.012017
1003	0.197703	0.198031	0.198524	0.171406	0.192443	0.201154	0.00146
1004	0.198524	0.196223	0.19573	0.174857	0.197045	0.201812	0.006391
1005	0.198853	0.193265	0.199182	0.179623	0.199675	0.197538	0.013294
1006	0.197703	0.195566	0.19573	0.172556	0.19458	0.19836	0.022005
1007	0.200168	0.196717	0.199346	0.175679	0.193922	0.197703	0.033674
1008	0.201154	0.196388	0.19573	0.180938	0.191457	0.19721	0.035154
1009	0.200004	0.195073	0.19721	0.171734	0.193758	0.197703	0.045344
1010	0.20099	0.196388	0.198689	0.177322	0.191457	0.198853	0.051425
1011	0.202469	0.19836	0.19573	0.177651	0.197045	0.195402	0.054219
1012	0.20099	0.198853	0.201483	0.177651	0.192443	0.198524	0.066053
1013	0.19721	0.201319	0.19836	0.182089	0.193429	0.198031	0.064574
1014	0.19836	0.194087	0.200825	0.178802	0.194744	0.199511	0.070819
1015	0.195237	0.20099	0.197867	0.183404	0.195566	0.196059	0.076572
1016	0.203126	0.198196	0.206907	0.182911	0.194087	0.201812	0.079694
1017	0.199346	0.197703	0.200004	0.185212	0.198031	0.201976	0.081009
1018	0.201812	0.200168	0.202305	0.182911	0.194087	0.199346	0.087912
1019	0.200825	0.200004	0.197374	0.184061	0.195073	0.195566	0.092186
1020	0.200825	0.193429	0.199675	0.184061	0.194087	0.19836	0.096952
1021	0.201647	0.19836	0.199182	0.184554	0.193594	0.198031	0.099417
1022	0.201319	0.196388	0.197703	0.185869	0.195402	0.194909	0.107635
1023	0.198524	0.196881	0.195566	0.185869	0.189978	0.196881	0.11536
1024	0.19836	0.193594	0.197374	0.183897	0.194251	0.198031	0.113223
1025	0.198031	0.192772	0.198524	0.185705	0.192115	0.19836	0.117168
1026	0.197703	0.201154	0.201154	0.187184	0.193265	0.196881	0.122427
1027	0.199182	0.196717	0.184061	0.184061	0.193758	0.203948	0.122427
1028	0.19836	0.197703	0.198689	0.191786	0.196059	0.202305	0.127687
1029	0.203291	0.199346	0.193101	0.189485	0.192936	0.202305	0.13196
1030	0.197374	0.197538	0.197703	0.189485	0.194416	0.205592	0.130974
1031	0.199182	0.199182	0.199018	0.18554	0.193758	0.203126	0.135904
1032	0.199182	0.204934	0.197374	0.189156	0.196717	0.200661	0.136726
1033	0.201647	0.198853	0.200497	0.189814	0.196223	0.202469	0.13952
1034	0.198853	0.198853	0.197538	0.192115	0.193265	0.19836	0.139027
1035	0.20214	0.198196	0.201154	0.191621	0.190307	0.202962	0.14215
1036	0.200661	0.196388	0.200004	0.192772	0.194744	0.201976	0.14478
1037	0.199675	0.197045	0.199839	0.193265	0.195073	0.201812	0.149217
1038	0.199346	0.199182	0.193429	0.194087	0.192115	0.201976	0.146259
1039	0.198031	0.19573	0.199675	0.194416	0.197867	0.201154	0.15234
1040	0.200004	0.196223	0.204113	0.192443	0.194087	0.204113	0.154312
1041	0.198196	0.198524	0.198524	0.193594	0.193265	0.200004	0.158914
1042	0.197374	0.194744	0.199346	0.195566	0.198524	0.202305	0.160887
1043	0.19721	0.198853	0.201483	0.194909	0.196881	0.200825	0.160558
1044	0.199182	0.196717	0.195402	0.194251	0.193758	0.202633	0.163845
1045	0.196223	0.200004	0.19836	0.196059	0.197045	0.199018	0.156778
1046	0.19721	0.203126	0.200825	0.193101	0.193758	0.202305	0.162366
1047	0.193265	0.200332	0.199511	0.194416	0.198524	0.197867	0.165653
1048	0.203948	0.19836	0.200004	0.194416	0.198196	0.201319	0.166968
1049	0.199675	0.201812	0.198196	0.192772	0.195895	0.205263	0.166475
1050	0.202305	0.198196	0.198524	0.194087	0.19721	0.200168	0.168118
1051	0.202469	0.19836	0.195566	0.194744	0.197703	0.200497	0.168612
1052	0.205099	0.19573	0.197703	0.195237	0.19573	0.20477	0.170255
1053	0.200825	0.193922	0.199018	0.19573	0.196881	0.205099	0.171077
1054	0.199018	0.193594	0.196717	0.194416	0.200004	0.204441	0.17157
1055	0.201812	0.194087	0.200825	0.195895	0.190635	0.204277	0.172227
1056	0.196881	0.197538	0.199839	0.195402	0.19195	0.201154	0.164503
1057	0.199182	0.193922	0.198196	0.195895	0.195566	0.203291	0.174035
1058	0.196388	0.19721	0.199675	0.198524	0.19721	0.200497	0.177322
1059	0.199182	0.197703	0.202305	0.194909	0.192443	0.203291	0.179459
1060	0.19836	0.199839	0.199675	0.197703	0.199511	0.205592	0.183897
1061	0.199346	0.197538	0.199346	0.196717	0.19458	0.20099	0.181267
1062	0.19836	0.197867	0.196881	0.196717	0.19721	0.199018	0.180445
1063	0.200004	0.196223	0.201647	0.189814	0.195402	0.201483	0.183897
1064	0.198031	0.200168	0.198031	0.194909	0.197045	0.200661	0.180445
1065	0.197867	0.196552	0.200497	0.195895	0.196717	0.199839	0.185376
1066	0.202469	0.198853	0.197374	0.194744	0.196881	0.201483	0.183075
1067	0.199511	0.196881	0.202305	0.197374	0.19573	0.198853	0.177487
1068	0.200497	0.202798	0.201812	0.197538	0.200004	0.206249	0.178144
1069	0.198524	0.196717	0.201647	0.198524	0.197867	0.200497	0.187677
1070	0.20214	0.19836	0.20214	0.202469	0.198524	0.202305	0.178637
1071	0.200004	0.200332	0.200332	0.202305	0.198524	0.20362	0.182253
1072	0.197045	0.197867	0.199839	0.199839	0.198689	0.19721	0.186033
1073	0.201812	0.200168	0.199346	0.200168	0.197538	0.199511	0.187677
1074	0.199346	0.198524	0.201319	0.195566	0.195895	0.201483	0.186855
1075	0.196388	0.19573	0.200004	0.197374	0.198524	0.200168	0.189485
1076	0.197374	0.200004	0.200497	0.19458	0.19573	0.200004	0.188827
1077	0.19836	0.196717	0.199346	0.195073	0.194909	0.20099	0.191293
1078	0.199346	0.196881	0.201154	0.194251	0.195566	0.19836	0.191457
1079	0.196223	0.198524	0.194251	0.198689	0.19836	0.200332	0.1908
1080	0.198196	0.195237	0.200497	0.196552	0.197045	0.204441	0.193429
1081	0.195895	0.200004	0.200497	0.200661	0.196223	0.200825	0.189978
1082	0.19836	0.199839	0.201319	0.198031	0.199675	0.1908	0.193758
1083	0.199346	0.203784	0.199018	0.195566	0.197374	0.19836	0.191128
1084	0.196717	0.199018	0.200661	0.198524	0.201647	0.198031	0.188827
1085	0.202962	0.201647	0.199839	0.203291	0.202633	0.199018	0.192443
1086	0.198031	0.201483	0.201812	0.198689	0.197703	0.200661	0.194251
1087	0.198689	0.19721	0.201154	0.199675	0.19836	0.199018	0.192279
1088	0.198031	0.197538	0.200825	0.199675	0.200004	0.198524	0.195895
1089	0.19836	0.197374	0.204277	0.199182	0.196717	0.198853	0.193429
1090	0.196717	0.19721	0.204606	0.200825	0.200661	0.198853	0.193265
1091	0.19836	0.195237	0.200332	0.199675	0.198689	0.198031	0.19573
1092	0.194087	0.19836	0.20214	0.205592	0.201154	0.200332	0.194416
1093	0.19721	0.197374	0.201647	0.200497	0.198689	0.192115	0.193101
1094	0.195073	0.198689	0.201319	0.199018	0.200332	0.198853	0.195237
1095	0.197867	0.19573	0.199839	0.200661	0.195073	0.197703	0.197045
1096	0.192443	0.200661	0.197867	0.201647	0.199839	0.197703	0.192772
1097	0.195566	0.195402	0.201976	0.200825	0.200004	0.197045	0.200825
1098	0.198689	0.197045	0.199346	0.200332	0.197867	0.195566	0.195566
1099	0.199839	0.197374	0.199346	0.197045	0.19836	0.196059	0.199839
1100	0.197045	0.197045	0.19836	0.198853	0.197374	0.19721	0.19836
1101	0.199182	0.197867	0.199346	0.198853	0.202633	0.197374	0.198689
1102	0.199839	0.195566	0.201154	0.20214	0.198524	0.199018	0.199346
1103	0.199675	0.200332	0.200004	0.200497	0.200004	0.195237	0.201812
1104	0.200825	0.197374	0.200661	0.201483	0.200497	0.196388	0.199839
1105	0.198853	0.203784	0.20362	0.200168	0.205592	0.194416	0.198689
1106	0.199346	0.196717	0.201976	0.199839	0.200825	0.196552	0.19836
1107	0.196223	0.197703	0.200497	0.201647	0.199839	0.19573	0.198689
1108	0.200661	0.195402	0.203784	0.200661	0.199182	0.196717	0.200168
1109	0.196552	0.195895	0.199675	0.205099	0.200332	0.195073	0.199346
1110	0.198524	0.193922	0.202469	0.198196	0.198196	0.196388	0.205592
1111	0.196059	0.19836	0.202469	0.200497	0.197867	0.19573	0.201319
1112	0.198031	0.194416	0.202469	0.199018	0.200497	0.195566	0.20362
1113	0.195895	0.19721	0.200004	0.203126	0.200497	0.19573	0.202305
1114	0.196059	0.198031	0.201483	0.195073	0.200332	0.193101	0.203126
1115	0.197374	0.198196	0.20099	0.200497	0.196717	0.194087	0.20099
1116	0.200661	0.198853	0.202798	0.084625	0.200825	0.192443	0.204113
1117	0.20099	0.198524	0.196059	0.090213	0.200497	0.196059	0.197703
1118	0.199018	0.199839	0.200332	0.097774	0.199346	0.193594	0.199346
1119	0.197538	0.198031	0.202962	0.100239	0.200332	0.200825	0.203291
1120	0.200497	0.197703	0.199839	0.106978	0.201154	0.19458	0.203455
1121	0.201976	0.198196	0.198853	0.109443	0.199675	0.195402	0.20362
1122	0.196388	0.196388	0.199346	0.114209	0.200497	0.195402	0.203291
1123	0.200332	0.199346	0.201647	0.115031	0.201812	0.19573	0.207893
1124	0.198853	0.203455	0.200825	0.122098	0.202633	0.195073	0.203455
1125	0.198031	0.198524	0.203291	0.121441	0.200168	0.196059	0.207893
1126	0.197374	0.200004	0.195566	0.126536	0.200332	0.190471	0.20477
1127	0.197045	0.19721	0.2074	0.126207	0.201976	0.193594	0.206414
1128	0.196552	0.197703	0.202633	0.131796	0.200825	0.191457	0.205427
1129	0.197374	0.19836	0.199675	0.139192	0.199675	0.194087	0.205427
1130	0.198196	0.197045	0.206085	0.134261	0.200497	0.195895	0.207564
1131	0.197538	0.196388	0.204606	0.135904	0.198853	0.190307	0.208057
1132	0.199675	0.19836	0.202798	0.141164	0.197867	0.1908	0.204934
1133	0.19573	0.201483	0.201812	0.143958	0.20099	0.192608	0.209372
1134	0.193758	0.199675	0.203784	0.147245	0.20099	0.19458	0.203948
1135	0.197867	0.200004	0.205756	0.149053	0.200168	0.190307	0.207071
1136	0.196388	0.199675	0.200332	0.14971	0.197538	0.196223	0.207564
1137	0.197045	0.201483	0.200332	0.153984	0.203948	0.193594	0.206249
1138	0.197703	0.19721	0.204934	0.153491	0.201647	0.194251	0.209372
1139	0.200825	0.197538	0.202798	0.161215	0.202633	0.190307	0.206907
1140	0.20099	0.196717	0.203455	0.158257	0.201647	0.193429	0.208057
1141	0.198031	0.201154	0.200332	0.163681	0.202798	0.196717	0.20855
1142	0.200332	0.195402	0.20362	0.160394	0.202962	0.195073	0.210029
1143	0.197374	0.199675	0.203455	0.165324	0.201319	0.196388	0.204113
1144	0.19458	0.198853	0.201647	0.162859	0.203126	0.196881	0.210687
1145	0.19721	0.199346	0.203948	0.166968	0.201976	0.197703	0.211344
1146	0.19573	0.199839	0.203291	0.164667	0.202633	0.19458	0.209372
1147	0.195073	0.196881	0.202469	0.167625	0.201483	0.194251	0.212495
1148	0.195402	0.197703	0.203455	0.169433	0.20477	0.194251	0.210523
1149	0.196881	0.196388	0.203784	0.170419	0.201319	0.198196	0.21233
1150	0.19836	0.199018	0.202469	0.171899	0.198524	0.193101	0.211344
1151	0.198524	0.196059	0.204277	0.170748	0.202305	0.194744	0.216604
1152	0.194744	0.197703	0.200332	0.173378	0.203948	0.19195	0.210523
1153	0.197867	0.194909	0.202305	0.172227	0.200825	0.193758	0.214303
1154	0.198196	0.199511	0.201483	0.180938	0.202305	0.194087	0.208386
1155	0.199182	0.199018	0.200661	0.174528	0.201647	0.193758	0.215453
1156	0.200332	0.196717	0.201647	0.177322	0.200497	0.19573	0.215125
1157	0.199346	0.195402	0.199675	0.179295	0.201976	0.196059	0.212166
1158	0.199675	0.199675	0.203784	0.172885	0.202962	0.196388	0.209043
1159	0.199511	0.198524	0.202469	0.180938	0.201647	0.196552	0.21233
1160	0.198196	0.197703	0.201154	0.182746	0.199839	0.197703	0.211016
1161	0.20099	0.19836	0.202305	0.179295	0.201647	0.197867	0.212824
1162	0.198031	0.198689	0.202305	0.181267	0.200168	0.200168	0.211509
1163	0.20099	0.197867	0.200661	0.180774	0.201319	0.193594	0.215289
1164	0.196223	0.196223	0.201154	0.181596	0.200004	0.198031	0.213974
1165	0.198524	0.19836	0.200004	0.184554	0.201483	0.195073	0.216111
1166	0.201812	0.198196	0.200661	0.182417	0.201154	0.194416	0.215453
1167	0.19836	0.200497	0.202962	0.184225	0.203784	0.196388	0.215946
1168	0.201976	0.197867	0.197374	0.179295	0.198689	0.201812	0.212166
1169	0.194744	0.20099	0.196059	0.180774	0.20362	0.193594	0.215289
1170	0.197374	0.198853	0.199018	0.180116	0.19836	0.200004	0.21759
1171	0.196059	0.197538	0.197374	0.181267	0.199675	0.198196	0.21381
1172	0.199675	0.19458	0.198853	0.179459	0.200497	0.196388	0.21759
1173	0.199346	0.201483	0.198853	0.180774	0.198853	0.197045	0.213645
1174	0.199511	0.196717	0.201812	0.181924	0.197703	0.195073	0.219069
1175	0.19836	0.198524	0.202305	0.184554	0.199839	0.194087	0.21759
1176	0.199675	0.201976	0.203126	0.180774	0.199182	0.19573	0.21759
1177	0.199182	0.196388	0.201483	0.189814	0.203291	0.194909	0.215946
1178	0.198853	0.197703	0.20362	0.185047	0.205921	0.19573	0.219727
1179	0.198853	0.200004	0.206742	0.188992	0.20099	0.19721	0.216111
1180	0.198031	0.19836	0.205099	0.192115	0.202962	0.19573	0.216111
1181	0.19721	0.201483	0.204934	0.188992	0.201976	0.194251	0.216604
1182	0.196223	0.199511	0.20214	0.1908	0.203291	0.195073	0.221863
1183	0.203126	0.198196	0.205427	0.190307	0.200497	0.200825	0.217919
1184	0.200825	0.20099	0.196881	0.192772	0.20477	0.197867	0.21381
1185	0.200497	0.200497	0.202633	0.190635	0.201483	0.195237	0.219398
1186	0.197867	0.197538	0.19836	0.190471	0.198524	0.197867	0.217919
1187	0.203455	0.19721	0.198689	0.188992	0.196881	0.197538	0.218083
1188	0.200004	0.200661	0.196059	0.194087	0.198524	0.194251	0.217426
1189	0.197045	0.19721	0.197867	0.188499	0.199675	0.195566	0.221534
1190	0.201483	0.203784	0.201647	0.192279	0.201812	0.197703	0.21759
1191	0.197374	0.201319	0.200332	0.189814	0.20362	0.196717	0.220713
1192	0.19721	0.196552	0.203455	0.191128	0.201812	0.200004	0.217754
1193	0.198524	0.200004	0.201976	0.193429	0.200661	0.202962	0.216932
1194	0.201154	0.195566	0.198689	0.190471	0.200497	0.199839	0.219398
1195	0.198031	0.199839	0.202633	0.199346	0.201812	0.197045	0.221206
1196	0.197374	0.200332	0.203126	0.192608	0.200004	0.199839	0.216439
1197	0.198524	0.194087	0.200168	0.198196	0.20477	0.197374	0.216932
1198	0.200168	0.196388	0.203126	0.194416	0.199675	0.199675	0.216932
1199	0.198031	0.198689	0.201154	0.196059	0.204606	0.198689	0.21496
1200	0.199511	0.19458	0.20477	0.19458	0.201812	0.199839	0.217919
1201	0.19721	0.201319	0.201647	0.19573	0.200332	0.197045	0.214467
1202	0.20099	0.19573	0.200168	0.194416	0.200332	0.197045	0.215125
1203	0.202798	0.197538	0.198196	0.197374	0.201319	0.196717	0.21496
1204	0.199839	0.195073	0.201483	0.195566	0.19573	0.199182	0.215289
1205	0.202305	0.197538	0.199346	0.197703	0.197045	0.200332	0.213481
1206	0.200497	0.198196	0.198853	0.197374	0.201483	0.198031	0.212824
1207	0.199346	0.192279	0.200332	0.194251	0.199839	0.199346	0.216111
1208	0.199839	0.196223	0.200825	0.19721	0.197703	0.196223	0.216932
1209	0.200661	0.196388	0.203948	0.189485	0.200497	0.20099	0.210194
1210	0.199182	0.199182	0.201483	0.196223	0.201647	0.197703	0.211016
1211	0.199675	0.197867	0.202469	0.196717	0.201812	0.198689	0.209043
1212	0.200004	0.199182	0.201647	0.195402	0.20099	0.198689	0.207235
1213	0.198031	0.198524	0.20214	0.198031	0.200661	0.200497	0.207893
1214	0.197703	0.199839	0.202469	0.199675	0.203455	0.198689	0.206414
1215	0.201154	0.197045	0.204277	0.19836	0.201812	0.200661	0.205427
1216	0.199839	0.199346	0.201154	0.199511	0.202633	0.19573	0.202305
1217	0.196552	0.201154	0.206085	0.200332	0.200825	0.20099	0.203291
1218	0.193758	0.198524	0.20477	0.198853	0.200661	0.19721	0.202962
1219	0.203455	0.196388	0.200825	0.197045	0.201154	0.198031	0.205263
1220	0.199182	0.196881	0.200332	0.199511	0.200332	0.197867	0.20099
1221	0.196059	0.198031	0.201647	0.198853	0.198524	0.197703	0.201976
1222	0.20099	0.194087	0.199839	0.196223	0.198196	0.198524	0.20099
1223	0.197538	0.201319	0.199675	0.188827	0.20099	0.192115	0.202798
1224	0.198689	0.196223	0.201154	0.196388	0.197538	0.203948	0.198689
1225	0.198196	0.198524	0.201812	0.197703	0.195402	0.195073	0.200661
1226	0.200661	0.199675	0.203455	0.191293	0.202305	0.19836	0.198196
1227	0.201647	0.198853	0.20214	0.198031	0.203784	0.198524	0.196388
1228	0.199511	0.203291	0.203455	0.200004	0.199839	0.199511	0.194416
1229	0.19836	0.197703	0.202633	0.200332	0.203291	0.20099	0.197538
1230	0.201319	0.19721	0.205099	0.200332	0.204934	0.200661	0.193922
1231	0.19721	0.202633	0.201319	0.200825	0.202469	0.199346	0.194087
1232	0.197867	0.200825	0.206578	0.199346	0.202962	0.202305	0.190635
1233	0.198853	0.199182	0.199182	0.201647	0.200332	0.201647	0.191786
1234	0.199018	0.198853	0.204606	0.196717	0.202633	0.203455	0.188663
1235	0.197703	0.196059	0.202633	0.204606	0.201319	0.20099	0.186855
1236	0.199182	0.195566	0.201483	0.201483	0.207564	0.205427	0.18817
1237	0.198689	0.195895	0.200497	0.201154	0.205427	0.205099	0.186526
1238	0.198689	0.198689	0.199839	0.200004	0.200825	0.201154	0.191128
1239	0.197703	0.202798	0.201976	0.200004	0.20214	0.201812	0.184225
1240	0.195895	0.197045	0.200825	0.199675	0.202633	0.200004	0.189485
1241	0.197374	0.197703	0.200497	0.196717	0.200004	0.200497	0.18554
1242	0.199346	0.197703	0.200825	0.20214	0.203455	0.19836	0.186855
1243	0.195237	0.196223	0.20477	0.200497	0.201154	0.202798	0.184061
1244	0.194251	0.197867	0.201154	0.201319	0.199675	0.197703	0.183239
1245	0.199839	0.19836	0.203948	0.201319	0.203784	0.199839	0.185376
1246	0.199018	0.201319	0.200661	0.200497	0.203948	0.200661	0.178473
1247	0.196881	0.201647	0.204441	0.206742	0.201812	0.200825	0.181103
1248	0.204934	0.199675	0.202469	0.203126	0.206085	0.200825	0.179788
1249	0.196717	0.198524	0.203126	0.200332	0.203126	0.201154	0.177322
1250	0.199018	0.20477	0.198196	0.201812	0.20362	0.199346	0.17798
1251	0.199511	0.193101	0.199346	0.201483	0.202469	0.204606	0.183075
1252	0.198031	0.196059	0.200168	0.201647	0.203455	0.204606	0.177158
1253	0.198853	0.194087	0.200825	0.203126	0.199675	0.200497	0.179952
1254	0.197045	0.195402	0.199182	0.203948	0.203784	0.202469	0.177815
1255	0.198031	0.195895	0.202798	0.20099	0.202469	0.202798	0.179952
1256	0.19721	0.195566	0.20099	0.200004	0.201154	0.200497	0.181596
1257	0.201154	0.194416	0.199839	0.200825	0.201319	0.20099	0.182417
1258	0.199346	0.201154	0.201812	0.203455	0.199675	0.201647	0.181596
1259	0.200332	0.199511	0.20099	0.203948	0.204606	0.198031	0.178144
1260	0.200168	0.198853	0.201154	0.202469	0.200661	0.197867	0.181103
1261	0.198853	0.206907	0.200168	0.08972	0.201319	0.200332	0.176829
1262	0.200661	0.196223	0.200168	0.094651	0.205099	0.199839	0.179459
1263	0.19836	0.200332	0.201319	0.100403	0.202798	0.200497	0.177158
1264	0.200825	0.199675	0.204277	0.10254	0.204934	0.200661	0.179952
1265	0.197867	0.199346	0.198853	0.110922	0.204277	0.200661	0.178473
1266	0.200497	0.198031	0.201976	0.113716	0.202469	0.201812	0.183568
1267	0.200004	0.198524	0.199675	0.118811	0.204934	0.202798	0.169598
1268	0.195566	0.196717	0.200825	0.120455	0.203291	0.202469	0.178637
1269	0.199675	0.200661	0.203784	0.125221	0.202305	0.205921	0.060629
1270	0.199346	0.199346	0.199182	0.127029	0.203784	0.19836	0.066381
1271	0.196388	0.199346	0.199182	0.129988	0.19836	0.199839	0.006062
1272	0.199511	0.20214	0.20099	0.134261	0.202305	0.195895	0.011486
1273	0.199839	0.193922	0.202962	0.129988	0.20099	0.200661	0.001954
1274	0.198031	0.200332	0.200168	0.136398	0.201976	0.199511	0.010336
1275	0.198689	0.197703	0.201319	0.139849	0.199511	0.198524	0.00146
1276	0.19721	0.199018	0.197867	0.139027	0.200168	0.181596	0.008035
1277	0.19573	0.196717	0.203291	0.139027	0.198853	0.182089	0.017732
1278	0.19721	0.20099	0.200661	0.14856	0.20214	0.187184	0.022005
1279	0.198689	0.199839	0.20099	0.148067	0.20214	0.185869	0.030059
1280	0.199346	0.201647	0.201319	0.152998	0.203455	0.188827	0.035811
1281	0.201319	0.203455	0.201812	0.152998	0.201319	0.192443	0.041728
1282	0.197867	0.202798	0.200497	0.159079	0.202305	0.189814	0.045672
1283	0.201319	0.202633	0.197703	0.162037	0.208222	0.191128	0.01428
1284	0.200497	0.197374	0.200825	0.161544	0.202305	0.195237	0.021676
1285	0.199675	0.19721	0.20362	0.163352	0.203126	0.193101	0.025621
1286	0.200661	0.199018	0.203948	0.166968	0.201976	0.19721	0.032031
1287	0.195895	0.195237	0.20214	0.166146	0.209043	0.192936	0.040084
1288	0.200168	0.197045	0.205263	0.165982	0.203291	0.195237	0.04748
1289	0.19721	0.194251	0.201483	0.170748	0.202962	0.193429	0.054055
1290	0.199511	0.195237	0.200661	0.169598	0.20362	0.194251	0.059807
1291	0.19721	0.198524	0.203291	0.171899	0.202798	0.191128	0.063259
1292	0.198853	0.192115	0.201647	0.170419	0.201319	0.196717	0.070162
1293	0.195402	0.198689	0.199675	0.177487	0.200332	0.190964	0.076243
1294	0.198031	0.198853	0.204113	0.17157	0.200497	0.198196	0.079366
1295	0.197045	0.195237	0.202798	0.176994	0.200825	0.191128	0.085283
1296	0.197538	0.198031	0.199182	0.172063	0.20099	0.194087	0.08594
1297	0.199018	0.204113	0.205427	0.176172	0.201154	0.196223	0.091364
1298	0.197703	0.199346	0.201154	0.178473	0.202962	0.193594	0.095308
1299	0.199839	0.196881	0.20477	0.178144	0.199839	0.198031	0.09876
1300	0.198031	0.199018	0.201976	0.179952	0.203291	0.197867	0.107635
1301	0.20099	0.197374	0.201812	0.18176	0.201647	0.19836	0.105334
1302	0.197045	0.194087	0.203948	0.183568	0.202633	0.195237	0.113059
1303	0.199182	0.195402	0.204113	0.182089	0.204277	0.198196	0.114209
1304	0.199675	0.19573	0.201812	0.182746	0.205756	0.196059	0.116839
1305	0.198524	0.193429	0.203948	0.187348	0.200661	0.197538	0.118154
1306	0.198853	0.197374	0.199675	0.184718	0.20214	0.114209	0.124235
1307	0.199182	0.195073	0.201483	0.182089	0.202305	0.077393	0.132946
1308	0.198853	0.204441	0.201647	0.184225	0.203291	0.081009	0.131796
1309	0.198031	0.195895	0.203291	0.18061	0.203126	0.086762	0.133932
1310	0.196881	0.199511	0.202798	0.186362	0.200332	0.08972	0.136891
1311	0.196223	0.198524	0.202305	0.183732	0.201154	0.096788	0.137219
1312	0.198031	0.199182	0.200168	0.185376	0.200661	0.101061	0.142314
1313	0.197867	0.199182	0.201976	0.186362	0.200332	0.103855	0.143958
1314	0.197703	0.200004	0.20214	0.187184	0.200004	0.111087	0.144451
1315	0.195895	0.198031	0.201976	0.190471	0.202305	0.111087	0.145602
1316	0.198524	0.192936	0.202305	0.195073	0.199839	0.11651	0.146259
1317	0.200004	0.198031	0.201319	0.188499	0.201319	0.119633	0.153326
1318	0.200825	0.19721	0.200661	0.189978	0.198196	0.12555	0.155463
1319	0.197703	0.198689	0.197703	0.189814	0.201976	0.127358	0.153984
1320	0.202305	0.198196	0.201976	0.191128	0.198524	0.135247	0.157435
1321	0.197538	0.200497	0.199839	0.186691	0.202633	0.136891	0.157764
1322	0.199182	0.196388	0.203126	0.192608	0.199182	0.140178	0.161873
1323	0.195566	0.19836	0.201483	0.191457	0.200004	0.137877	0.161873
1324	0.199839	0.195237	0.204113	0.188992	0.197045	0.140671	0.163023
1325	0.197374	0.196059	0.203291	0.192279	0.201483	0.142314	0.165982
1326	0.193101	0.192608	0.200004	0.190964	0.195073	0.142972	0.166968
1327	0.198031	0.184061	0.200661	0.192115	0.198689	0.144122	0.165324
1328	0.203784	0.191128	0.202633	0.187513	0.197374	0.14593	0.173049
1329	0.201976	0.191457	0.199839	0.192936	0.199018	0.152998	0.170091
1330	0.199839	0.192936	0.201319	0.19195	0.199511	0.151683	0.172392
1331	0.198689	0.195073	0.202962	0.008692	0.196717	0.154477	0.17157
1332	0.200004	0.188334	0.203784	0.011979	0.200332	0.159408	0.175515
1333	0.196881	0.191457	0.203455	0.022334	0.198524	0.158586	0.178473
1334	0.200825	0.188992	0.203291	0.029237	0.200497	0.161873	0.176829
1335	0.200332	0.188992	0.204441	0.03729	0.201319	0.163845	0.177487
1336	0.198524	0.190635	0.203948	0.044029	0.200332	0.15875	0.177651
1337	0.197703	0.187019	0.202633	0.049781	0.195895	0.161544	0.176665
1338	0.19836	0.177815	0.201976	0.051096	0.203948	0.165489	0.176829
1339	0.200004	0.183732	0.203948	0.058492	0.200332	0.167461	0.181267
1340	0.19836	0.186526	0.20214	0.067368	0.200168	0.167954	0.17913
1341	0.20099	0.184554	0.203455	0.071312	0.19836	0.171241	0.181103
1342	0.194744	0.187841	0.204934	0.081502	0.199511	0.170255	0.179623
1343	0.195402	0.186691	0.204277	0.083639	0.198031	0.172063	0.185705
1344	0.193922	0.191128	0.202305	0.091035	0.199839	0.176008	0.182582
1345	0.196552	0.18932	0.204277	0.093007	0.201647	0.183239	0.185376
1346	0.195073	0.189814	0.200825	0.097609	0.19573	0.179295	0.17913
1347	0.194744	0.189649	0.203291	0.105005	0.201483	0.175843	0.186691
1348	0.197374	0.192936	0.202798	0.10254	0.194251	0.178802	0.187348
1349	0.199346	0.183732	0.201647	0.095308	0.196552	0.176665	0.186033
1350	0.200661	0.191293	0.203948	0.112894	0.200332	0.178473	0.189978
1351	0.199346	0.192936	0.196717	0.113388	0.199182	0.176994	0.187513
1352	0.201319	0.189649	0.201976	0.119633	0.200332	0.180938	0.186855
1353	0.201483	0.193429	0.20099	0.122427	0.202305	0.179295	0.188006
1354	0.199511	0.191457	0.204606	0.123906	0.195237	0.183732	0.189649
1355	0.19836	0.192772	0.201154	0.130809	0.201319	0.180938	0.182911
1356	0.201483	0.18817	0.201319	0.132289	0.196388	0.183897	0.186526
1357	0.197045	0.192936	0.201154	0.135576	0.199018	0.183239	0.187184
1358	0.204934	0.195073	0.201647	0.137712	0.199182	0.184225	0.190964
1359	0.201812	0.188827	0.206085	0.140013	0.190471	0.184883	0.188827
1360	0.19836	0.183568	0.204113	0.131796	0.196223	0.183897	0.191293
1361	0.19836	0.194744	0.200004	0.14478	0.195402	0.186033	0.192115
1362	0.19721	0.195073	0.20099	0.145766	0.197703	0.185212	0.194416
1363	0.19721	0.191786	0.200332	0.14856	0.196717	0.186691	0.192279
1364	0.19573	0.194087	0.199675	0.002282	0.198689	0.185212	0.192936
1365	0.200825	0.197538	0.201647	0.002282	0.194416	0.189978	0.192115
1366	0.201812	0.195895	0.199346	0.01428	0.198524	0.187019	0.190142
1367	0.19573	0.195073	0.201812	0.016417	0.196388	0.190307	0.196881
1368	0.197703	0.196881	0.19836	0.027922	0.197703	0.187348	0.192608
1369	0.201483	0.194087	0.20214	0.032524	0.197867	0.189978	0.192279
1370	0.198853	0.19836	0.199675	0.041892	0.197045	0.188334	0.192443
1371	0.200497	0.194909	0.197703	0.0437	0.19573	0.191457	0.19458
1372	0.199675	0.196717	0.19836	0.054219	0.201483	0.191786	0.196717
1373	0.197374	0.197703	0.199675	0.057999	0.195237	0.191457	0.195402
1374	0.197867	0.196552	0.19458	0.064409	0.196223	0.191293	0.194744
1375	0.199346	0.192936	0.199511	0.068354	0.196717	0.197867	0.196717
1376	0.19836	0.197045	0.198196	0.074928	0.199346	0.19195	0.19458
1377	0.200332	0.193758	0.199182	0.07838	0.196717	0.189814	0.195895
1378	0.194909	0.193758	0.200332	0.08216	0.193922	0.194416	0.196717
1379	0.193594	0.195895	0.197538	0.090706	0.200168	0.189814	0.19573
1380	0.192443	0.194909	0.198853	0.093993	0.199675	0.1908	0.199511
1381	0.19573	0.196059	0.197867	0.099253	0.196717	0.19195	0.197703
1382	0.200332	0.195402	0.199675	0.102047	0.196881	0.192772	0.196388
1383	0.196881	0.196388	0.194909	0.10517	0.197374	0.188827	0.199018
1384	0.203126	0.196059	0.200661	0.109114	0.195237	0.193758	0.20099
1385	0.199346	0.199182	0.197374	0.112237	0.196059	0.194416	0.199839
1386	0.19836	0.199018	0.200004	0.116182	0.19721	0.194416	0.200497
1387	0.197538	0.199675	0.197045	0.118647	0.195566	0.19721	0.19721
1388	0.199182	0.198196	0.200332	0.113388	0.194744	0.194416	0.19836
1389	0.196059	0.197374	0.199182	0.116839	0.197374	0.197045	0.196552
1390	0.198689	0.20099	0.200497	0.120455	0.199018	0.196059	0.197045
1391	0.196059	0.200004	0.19836	0.124071	0.205592	0.196881	0.197045
1392	0.194087	0.198689	0.199346	0.126043	0.196552	0.195895	0.197538
1393	0.196717	0.201647	0.199675	0.128015	0.197374	0.196552	0.197045
1394	0.197045	0.199018	0.194251	0.130809	0.197703	0.197374	0.200004
1395	0.195402	0.198031	0.201319	0.129659	0.199018	0.192279	0.198853
1396	0.197538	0.199346	0.200332	0.135411	0.19836	0.191457	0.196717
1397	0.198689	0.195402	0.19836	0.137712	0.196717	0.195073	0.201154
1398	0.195237	0.19836	0.196223	0.137055	0.197703	0.196388	0.201647
1399	0.199839	0.20214	0.199018	0.141821	0.199182	0.199675	0.199182
1400	0.19573	0.19721	0.196552	0.143465	0.194744	0.193594	0.198689
1401	0.197045	0.200332	0.19721	0.147903	0.195073	0.198853	0.200825
1402	0.199182	0.20362	0.196059	0.150532	0.20214	0.194909	0.197045
1403	0.198524	0.202633	0.197867	0.152011	0.192279	0.196552	0.200825
1404	0.197703	0.131138	0.196717	0.154312	0.193265	0.196881	0.198689
1405	0.197045	0.133768	0.195895	0.155134	0.197045	0.196388	0.198196
1406	0.193265	0.017239	0.196388	0.157435	0.196388	0.19721	0.19721
1407	0.195566	0.022663	0.197867	0.159736	0.197703	0.194416	0.198853
1408	0.196388	0.031702	0.200825	0.162695	0.197374	0.198853	0.196881
1409	0.192443	0.038276	0.195566	0.159736	0.200168	0.198689	0.196223
1410	0.199675	0.042714	0.198031	0.166311	0.202469	0.199182	0.201976
1411	0.195895	0.053069	0.196388	0.16401	0.199839	0.200332	0.19721
1412	0.196059	0.059643	0.200332	0.167132	0.201483	0.20099	0.198853
1413	0.196552	0.066053	0.198196	0.16779	0.187677	0.200168	0.199182
1414	0.193594	0.072956	0.198031	0.168283	0.198524	0.200168	0.197374
1415	0.197045	0.079037	0.196717	0.17798	0.198524	0.198853	0.201483
1416	0.196059	0.077886	0.195895	0.17157	0.198031	0.200661	0.198853
1417	0.193101	0.08857	0.197538	0.176008	0.198196	0.199675	0.197867
1418	0.198689	0.089885	0.197045	0.171406	0.196881	0.199675	0.196059
1419	0.197703	0.095473	0.194416	0.174528	0.199675	0.200004	0.197703
1420	0.199675	0.104019	0.196552	0.173707	0.197703	0.201154	0.20099
1421	0.192279	0.103691	0.197374	0.172392	0.197374	0.196223	0.19573
1422	0.197538	0.083968	0.196059	0.174364	0.19836	0.197045	0.198196
1423	0.195895	0.091857	0.193922	0.177158	0.199018	0.200825	0.194909
1424	0.195566	0.092514	0.197045	0.176501	0.189649	0.19836	0.198524
1425	0.196223	0.017403	0.195566	0.180116	0.199018	0.197867	0.200332
1426	0.193594	0.026114	0.197538	0.17798	0.198524	0.198853	0.199346
1427	0.191457	0.032688	0.199182	0.183897	0.200825	0.206414	0.196552
1428	0.193758	0.040577	0.198031	0.182911	0.20099	0.201647	0.199346
1429	0.19836	0.045672	0.200004	0.181431	0.199839	0.206907	0.198031
1430	0.196388	0.054219	0.197045	0.183568	0.20362	0.203455	0.199839
1431	0.19836	0.061122	0.198031	0.181431	0.201483	0.205099	0.200497
1432	0.196388	0.067532	0.197045	0.183568	0.205921	0.202962	0.199346
1433	0.19836	0.07049	0.199018	0.182746	0.200168	0.203455	0.200332
1434	0.196388	0.077886	0.19721	0.188499	0.201319	0.201647	0.197867
1435	0.195237	0.081667	0.198689	0.185869	0.201812	0.203126	0.197538
1436	0.196059	0.084625	0.194909	0.180938	0.198524	0.201812	0.197374
1437	0.196881	0.087912	0.196388	0.183239	0.201319	0.203784	0.200661
1438	0.196223	0.092679	0.197703	0.186526	0.196717	0.20099	0.19836
1439	0.19573	0.095144	0.197045	0.182417	0.19836	0.20099	0.203126
1440	0.19836	0.100732	0.198031	0.184883	0.200168	0.204934	0.200661
1441	0.191786	0.104348	0.196223	0.188334	0.199182	0.202469	0.200497
1442	0.197045	0.105992	0.197538	0.188334	0.198853	0.205099	0.198689
1443	0.193429	0.112894	0.198524	0.187184	0.204113	0.20477	0.200497
1444	0.19573	0.115195	0.204441	0.190142	0.201976	0.201812	0.197703
1445	0.19573	0.118811	0.203455	0.192772	0.203126	0.205099	0.199675
1446	0.19721	0.121605	0.203948	0.18817	0.200332	0.209536	0.201154
1447	0.196717	0.127522	0.198196	0.1908	0.203126	0.206578	0.201154
1448	0.198689	0.120291	0.200332	0.188827	0.200825	0.207728	0.204113
1449	0.196717	0.129166	0.196223	0.192772	0.201647	0.206578	0.19573
1450	0.196552	0.130645	0.198853	0.188663	0.202633	0.203126	0.199675
1451	0.196223	0.130481	0.194251	0.189978	0.19836	0.206578	0.199839
1452	0.196881	0.13459	0.198031	0.188663	0.203291	0.205427	0.201154
1453	0.194416	0.134754	0.194744	0.194744	0.195895	0.204113	0.200825
1454	0.196223	0.140835	0.197045	0.190635	0.20099	0.201647	0.205592
1455	0.199675	0.141	0.196223	0.18439	0.201154	0.203784	0.20099
1456	0.200168	0.14593	0.198031	0.192115	0.201647	0.201319	0.200661
1457	0.19721	0.147245	0.19573	0.189156	0.201483	0.204113	0.201483
1458	0.198031	0.150697	0.19195	0.191786	0.201319	0.20099	0.200332
1459	0.196388	0.143301	0.197538	0.193101	0.207235	0.203455	0.201976
1460	0.192443	0.14971	0.200661	0.194744	0.203455	0.202469	0.197045
1461	0.198524	0.150368	0.196388	0.192115	0.202469	0.205099	0.198853
1462	0.196717	0.153326	0.194416	0.194087	0.205427	0.203291	0.199346
1463	0.199839	0.152011	0.198853	0.191457	0.203784	0.204277	0.200825
1464	0.200004	0.153491	0.197703	0.189485	0.204441	0.204441	0.197867
1465	0.19836	0.15497	0.198689	0.192936	0.205263	0.205921	0.198031
1466	0.194909	0.157764	0.196552	0.187019	0.204441	0.205592	0.192608
1467	0.19721	0.158257	0.193429	0.194087	0.203948	0.20362	0.194909
1468	0.195402	0.156778	0.194087	0.193265	0.201812	0.204441	0.199346
1469	0.19458	0.160394	0.191786	0.194744	0.20362	0.200661	0.200004
1470	0.197045	0.160394	0.196552	0.195073	0.20099	0.202633	0.198196
1471	0.197867	0.16516	0.194744	0.193758	0.201154	0.201154	0.199511
1472	0.198524	0.162366	0.199182	0.191786	0.199182	0.202469	0.200168
1473	0.198853	0.166968	0.193101	0.195237	0.201647	0.200661	0.202469
1474	0.194416	0.163188	0.194416	0.192443	0.20099	0.207728	0.201319
1475	0.200497	0.166968	0.193922	0.195402	0.199839	0.200004	0.201319
1476	0.191786	0.168118	0.194744	0.194087	0.198853	0.198689	0.197703
1477	0.196388	0.165324	0.196059	0.191786	0.202469	0.198853	0.200332
1478	0.201319	0.170584	0.197374	0.194744	0.202305	0.20477	0.200497
1479	0.196717	0.174528	0.196552	0.198196	0.201976	0.205592	0.194744
1480	0.197374	0.17272	0.198524	0.19721	0.201154	0.203455	0.201483
1481	0.194909	0.172556	0.196881	0.197374	0.204606	0.204934	0.196552
1482	0.195895	0.174693	0.198196	0.197374	0.203126	0.203948	0.199675
1483	0.195895	0.170748	0.197867	0.196059	0.202469	0.205099	0.199346
1484	0.199182	0.173049	0.196388	0.194416	0.205263	0.203455	0.200332
1485	0.194087	0.172556	0.197538	0.192936	0.201647	0.204113	0.200661
1486	0.195073	0.1742	0.19573	0.192115	0.201319	0.201647	0.199839
1487	0.197538	0.175021	0.198196	0.19721	0.205921	0.207893	0.198853
1488	0.19573	0.176665	0.19573	0.19458	0.20099	0.202469	0.202305
1489	0.198853	0.020033	0.197045	0.197045	0.199675	0.205592	0.198196
1490	0.198031	0.027429	0.19836	0.198031	0.202305	0.205099	0.203455
1491	0.195566	0.034003	0.197703	0.195402	0.199018	0.202469	0.199675
1492	0.19573	0.041892	0.194087	0.199182	0.201483	0.201812	0.198031
1493	0.198853	0.048467	0.199675	0.196388	0.201154	0.202962	0.202305
1494	0.195237	0.05652	0.19573	0.197703	0.201812	0.207071	0.20214
1495	0.206414	0.061122	0.196388	0.196552	0.202305	0.207071	0.200661
1496	0.19573	0.065724	0.194909	0.199346	0.202798	0.201647	0.199675
1497	0.196059	0.071641	0.19573	0.199018	0.201812	0.198853	0.205427
1498	0.198524	0.081995	0.197703	0.199839	0.202962	0.200825	0.194251
1499	0.200004	0.081009	0.195895	0.195073	0.20362	0.203291	0.198031
1500	0.197703	0.084954	0.197867	0.201154	0.203291	0.20099	0.19721
1501	0.197867	0.090706	0.201812	0.199018	0.200497	0.203948	0.197374
1502	0.198853	0.089885	0.196881	0.198689	0.204113	0.200825	0.199018
1503	0.199182	0.097116	0.196388	0.198689	0.195237	0.200004	0.200825
1504	0.197867	0.100732	0.195895	0.194744	0.19836	0.201319	0.202633
1505	0.199839	0.104677	0.195402	0.198689	0.199675	0.198524	0.202798
1506	0.197045	0.10632	0.196388	0.19836	0.197045	0.199018	0.201976
1507	0.196881	0.112894	0.19573	0.198524	0.200825	0.195402	0.201812
1508	0.199346	0.117332	0.197374	0.194087	0.197374	0.19721	0.202962
1509	0.201154	0.119797	0.196388	0.197538	0.201319	0.200825	0.19836
1510	0.199675	0.123742	0.198196	0.19573	0.197703	0.19573	0.200004
1511	0.197538	0.127687	0.196717	0.200004	0.19836	0.19721	0.19836
1512	0.20214	0.13196	0.202305	0.198031	0.199346	0.19836	0.200004
1513	0.198853	0.132617	0.200332	0.204277	0.202633	0.194744	0.199511
1514	0.201812	0.135576	0.193594	0.200168	0.201976	0.19836	0.19721
1515	0.201976	0.141328	0.198689	0.201154	0.199839	0.194087	0.194909
1516	0.199346	0.141164	0.196881	0.198853	0.203784	0.196552	0.20099
1517	0.18554	0.140671	0.196552	0.19721	0.198689	0.195237	0.20214
1518	0.196717	0.142972	0.195895	0.200004	0.201154	0.192772	0.198196
1519	0.19721	0.145108	0.197867	0.197867	0.200661	0.195402	0.201154
1520	0.203126	0.146752	0.195073	0.200825	0.202305	0.196552	0.203126
1521	0.199839	0.146916	0.19721	0.199346	0.200332	0.196223	0.199511
1522	0.198031	0.155299	0.19836	0.200168	0.199182	0.193265	0.202798
1523	0.200168	0.152505	0.200661	0.198031	0.199839	0.190307	0.199839
1524	0.197538	0.155299	0.199182	0.201647	0.204113	0.189978	0.200168
1525	0.196388	0.15497	0.202305	0.199182	0.196388	0.193758	0.20362
1526	0.201976	0.160394	0.196388	0.199511	0.19573	0.193922	0.199018
1527	0.203126	0.158421	0.19836	0.196717	0.19721	0.189485	0.203948
1528	0.197703	0.163188	0.198853	0.200332	0.199839	0.191293	0.200004
1529	0.199839	0.161544	0.198689	0.200168	0.200825	0.194087	0.201319
1530	0.197045	0.162859	0.19573	0.200332	0.196059	0.191786	0.200661
1531	0.202305	0.167132	0.198031	0.201154	0.200661	0.19195	0.199675
1532	0.203291	0.163516	0.201647	0.203455	0.201154	0.194087	0.198524
1533	0.196552	0.171734	0.198524	0.203948	0.200332	0.191621	0.200332
1534	0.204277	0.168283	0.197867	0.201483	0.197045	0.196059	0.196881
1535	0.199018	0.173049	0.196388	0.204441	0.202633	0.192772	0.20099
1536	0.201647	0.174035	0.198689	0.205263	0.198524	0.195402	0.20477
1537	0.200004	0.173049	0.196059	0.204113	0.202798	0.190307	0.199675
1538	0.201647	0.17272	0.19836	0.202962	0.197703	0.194416	0.20214
1539	0.198031	0.173707	0.199182	0.202962	0.19836	0.194744	0.202798
1540	0.201647	0.1742	0.198689	0.201812	0.198031	0.192936	0.200497
1541	0.199346	0.176336	0.196388	0.202305	0.196717	0.192936	0.200004
1542	0.19836	0.178309	0.199346	0.198689	0.197703	0.194416	0.200825
1543	0.19836	0.176665	0.195073	0.204113	0.199675	0.19573	0.199839
1544	0.200332	0.17913	0.194416	0.202798	0.200332	0.195237	0.201319
1545	0.202798	0.181431	0.197045	0.201647	0.197867	0.195895	0.199839
1546	0.199018	0.183239	0.195237	0.199182	0.20214	0.190471	0.201812
1547	0.20099	0.179788	0.198196	0.199839	0.198031	0.20099	0.199346
1548	0.203455	0.183732	0.202962	0.20477	0.197538	0.193101	0.199511
1549	0.201483	0.183568	0.197867	0.199182	0.199511	0.195566	0.199018
1550	0.200661	0.183732	0.199675	0.204441	0.199675	0.192279	0.193594
1551	0.201976	0.184718	0.198524	0.201647	0.198853	0.195895	0.199511
1552	0.200004	0.185047	0.196717	0.20362	0.199675	0.19458	0.197045
1553	0.202633	0.184883	0.200004	0.201812	0.193758	0.193758	0.199346
1554	0.201319	0.181596	0.197374	0.21118	0.199182	0.196388	0.199346
1555	0.199182	0.187841	0.200004	0.20477	0.198196	0.195895	0.201154
1556	0.199675	0.185869	0.196223	0.202305	0.198524	0.199675	0.201154
1557	0.201154	0.182746	0.197703	0.203784	0.199839	0.193101	0.201154
1558	0.201319	0.190142	0.200661	0.202962	0.19721	0.194416	0.200497
1559	0.202469	0.189814	0.196388	0.199182	0.197538	0.19458	0.200661
1560	0.203126	0.188663	0.19836	0.201319	0.197538	0.19195	0.200497
1561	0.203291	0.195073	0.198031	0.201154	0.19573	0.197703	0.201154
1562	0.199182	0.195073	0.197045	0.197867	0.194744	0.195237	0.200497
1563	0.201319	0.193758	0.195895	0.200168	0.195566	0.193922	0.203784
1564	0.196717	0.192936	0.201154	0.201647	0.199511	0.19721	0.19836
1565	0.200332	0.194087	0.200661	0.211673	0.200332	0.19573	0.19836
1566	0.200661	0.196388	0.198031	0.206414	0.198031	0.194087	0.199182
1567	0.197703	0.197703	0.198689	0.203455	0.201647	0.203126	0.19573
1568	0.202798	0.195073	0.198031	0.20214	0.197703	0.196717	0.198524
1569	0.199346	0.19573	0.197045	0.204277	0.202469	0.196388	0.198031
1570	0.202469	0.193429	0.201812	0.203291	0.197703	0.199346	0.200497
1571	0.198196	0.19573	0.196552	0.199839	0.198031	0.194744	0.198689
1572	0.202962	0.193922	0.198031	0.199675	0.198524	0.200168	0.203948
1573	0.200004	0.197045	0.198524	0.202305	0.196717	0.198689	0.197538
1574	0.20099	0.196059	0.197045	0.198196	0.197374	0.193265	0.205756
1575	0.198689	0.195237	0.200661	0.199675	0.197045	0.193594	0.196717
1576	0.200004	0.195073	0.202798	0.203455	0.201812	0.197867	0.20099
1577	0.205099	0.198196	0.201976	0.200497	0.199675	0.199346	0.197538
1578	0.199675	0.198524	0.202798	0.199018	0.200661	0.201812	0.197538
1579	0.201154	0.198196	0.198031	0.191293	0.201319	0.197703	0.201647
1580	0.199346	0.20099	0.19836	0.197374	0.203455	0.195073	0.199839
1581	0.204113	0.200661	0.199839	0.194416	0.197374	0.199182	0.201483
1582	0.200661	0.196552	0.198524	0.196223	0.201647	0.195895	0.201319
1583	0.202798	0.20099	0.20099	0.197045	0.198853	0.196881	0.203455
1584	0.200004	0.202633	0.198689	0.201154	0.201483	0.197045	0.199675
1585	0.201154	0.200332	0.199675	0.196552	0.198524	0.197867	0.207071
1586	0.199018	0.199839	0.199675	0.19573	0.202962	0.19836	0.197703
1587	0.199182	0.199018	0.201647	0.196388	0.203291	0.198196	0.199675
1588	0.201483	0.202305	0.197538	0.197374	0.199675	0.197374	0.199675
1589	0.198689	0.20099	0.204277	0.19573	0.200168	0.205099	0.201812
1590	0.200825	0.19836	0.199675	0.19573	0.201483	0.196223	0.197045
1591	0.19836	0.201976	0.199511	0.194744	0.200168	0.196717	0.191293
1592	0.197867	0.198524	0.197374	0.196388	0.19836	0.199675	0.197045
1593	0.198524	0.205592	0.197374	0.19458	0.198689	0.196552	0.20099
1594	0.199346	0.199511	0.20214	0.194251	0.199346	0.191128	0.198689
1595	0.201976	0.202798	0.196552	0.195895	0.200168	0.195073	0.203126
1596	0.200168	0.203455	0.203291	0.193429	0.199182	0.194744	0.205921
1597	0.198524	0.202305	0.198196	0.196881	0.20214	0.190471	0.199839
1598	0.201812	0.207564	0.199346	0.194416	0.197703	0.196223	0.20099
1599	0.198689	0.205263	0.19836	0.198853	0.200332	0.192936	0.199346
1600	0.201483	0.203455	0.199018	0.195402	0.200661	0.194251	0.20099
1601	0.199839	0.207564	0.196552	0.196717	0.201812	0.193429	0.199675
1602	0.202798	0.202305	0.19836	0.197374	0.199839	0.193265	0.196717
1603	0.198689	0.206578	0.200332	0.198524	0.19836	0.19458	0.198689
1604	0.204606	0.205592	0.201154	0.19721	0.198031	0.199346	0.204441
1605	0.204113	0.203948	0.199346	0.197374	0.199675	0.19573	0.196881
1606	0.204934	0.203455	0.197045	0.195402	0.199511	0.199839	0.202305
1607	0.200661	0.200332	0.200661	0.197538	0.197374	0.198031	0.196388
1608	0.201319	0.205099	0.200661	0.196717	0.201976	0.196059	0.198031
1609	0.20099	0.203948	0.200332	0.197045	0.199346	0.199839	0.198853
1610	0.205099	0.205427	0.199511	0.193101	0.201154	0.196717	0.197374
1611	0.205427	0.202798	0.201483	0.195402	0.200332	0.188499	0.205756
1612	0.196881	0.212166	0.193594	0.19836	0.202633	0.193758	0.204277
1613	0.20477	0.203291	0.199346	0.19573	0.200497	0.196388	0.201812
1614	0.20099	0.206907	0.197374	0.198196	0.202633	0.196059	0.203455
1615	0.205099	0.20477	0.201154	0.191621	0.199346	0.199839	0.201154
1616	0.198689	0.210358	0.198031	0.197703	0.198853	0.194251	0.197374
1617	0.203948	0.205592	0.194251	0.197867	0.200004	0.196223	0.201154
1618	0.199839	0.209372	0.198689	0.197374	0.198524	0.197867	0.190964
1619	0.20099	0.208386	0.200661	0.196059	0.202305	0.196223	0.197703
1620	0.203291	0.212166	0.198853	0.199346	0.200661	0.199018	0.197374
1621	0.202469	0.211673	0.199675	0.194909	0.199839	0.197867	0.199675
1622	0.202962	0.210523	0.207728	0.199182	0.200332	0.188663	0.199182
1623	0.200332	0.209536	0.197045	0.194744	0.199346	0.194909	0.201319
1624	0.201976	0.209701	0.196552	0.194087	0.19573	0.19573	0.197374
1625	0.204934	0.207893	0.195895	0.194251	0.201647	0.196059	0.199675
1626	0.205099	0.211509	0.200332	0.192608	0.196388	0.193758	0.200332
1627	0.200004	0.209208	0.196223	0.193265	0.196223	0.191293	0.20099
1628	0.20099	0.210523	0.200004	0.193265	0.19836	0.195895	0.202633
1629	0.197703	0.212824	0.197538	0.194416	0.200497	0.195402	0.187841
1630	0.201154	0.207893	0.200661	0.193922	0.20214	0.197045	0.203784
1631	0.199839	0.215946	0.197867	0.195566	0.20477	0.194744	0.199675
1632	0.20099	0.215125	0.199675	0.192608	0.200661	0.196059	0.202305
1633	0.194909	0.214796	0.198689	0.200004	0.197045	0.18932	0.19836
1634	0.200168	0.213152	0.19458	0.194251	0.203455	0.193265	0.199511
1635	0.201812	0.214796	0.199346	0.193429	0.195237	0.194909	0.201647
1636	0.204277	0.214796	0.199018	0.193265	0.201976	0.196552	0.19836
1637	0.200004	0.215453	0.199346	0.196388	0.203291	0.198524	0.201647
1638	0.204934	0.213645	0.200004	0.202962	0.20099	0.197538	0.200497
1639	0.203948	0.210687	0.199346	0.197703	0.198196	0.197045	0.198031
1640	0.199346	0.215946	0.199346	0.197867	0.198031	0.197703	0.19721
1641	0.200168	0.213317	0.20099	0.197045	0.203126	0.199511	0.201647
1642	0.199675	0.21759	0.199839	0.198853	0.201976	0.197538	0.196881
1643	0.202305	0.216275	0.205427	0.19458	0.201812	0.196059	0.200004
1644	0.199018	0.215618	0.188334	0.199182	0.203948	0.193758	0.200004
1645	0.199839	0.214467	0.198031	0.200825	0.200661	0.19573	0.200661
1646	0.200497	0.214796	0.196881	0.19573	0.199511	0.196388	0.20099
1647	0.20099	0.217426	0.19573	0.199018	0.199182	0.198524	0.200661
1648	0.202798	0.214796	0.197374	0.195895	0.200497	0.194251	0.19836
1649	0.201319	0.222521	0.197374	0.195566	0.197867	0.199346	0.201483
1650	0.204113	0.216111	0.195895	0.199182	0.201647	0.197374	0.200497
1651	0.20099	0.214796	0.193922	0.196223	0.199018	0.195237	0.201154
1652	0.201976	0.215453	0.200497	0.200661	0.20214	0.202305	0.197374
1653	0.200497	0.222849	0.198524	0.197374	0.203784	0.199182	0.200497
1654	0.200825	0.218083	0.198031	0.194744	0.198031	0.200825	0.199675
1655	0.201647	0.21496	0.191128	0.198689	0.200332	0.196717	0.201154
1656	0.201976	0.217261	0.197374	0.197538	0.200004	0.197538	0.199511
1657	0.202962	0.218083	0.197538	0.19721	0.200661	0.200168	0.202469
1658	0.205592	0.218576	0.200497	0.199675	0.200004	0.199182	0.198853
1659	0.199346	0.216768	0.19721	0.199182	0.201154	0.197374	0.198524
1660	0.201647	0.215946	0.200497	0.197045	0.199182	0.200004	0.203291
1661	0.20362	0.218412	0.197867	0.200168	0.200332	0.197703	0.201812
1662	0.20099	0.21496	0.202305	0.197867	0.203948	0.198689	0.199511
1663	0.201976	0.22137	0.203126	0.202798	0.205263	0.199675	0.199182
1664	0.20214	0.217261	0.200004	0.19721	0.200168	0.197538	0.199675
1665	0.199675	0.221206	0.197538	0.199346	0.199675	0.199182	0.200004
1666	0.201319	0.217426	0.195566	0.19573	0.199511	0.196388	0.202305
1667	0.197045	0.219398	0.199018	0.199511	0.197538	0.195073	0.19721
1668	0.203948	0.218576	0.198031	0.198524	0.199839	0.196881	0.203126
1669	0.203455	0.216768	0.196388	0.19836	0.199675	0.197867	0.19836
1670	0.202305	0.217754	0.195566	0.19721	0.200825	0.194087	0.201647
1671	0.202962	0.214138	0.196059	0.197867	0.196717	0.195237	0.200168
1672	0.206249	0.217426	0.198853	0.197538	0.202633	0.182417	0.19836
1673	0.202305	0.213974	0.200825	0.196717	0.19836	0.149546	0.198689
1674	0.200497	0.218576	0.203291	0.19836	0.203455	0.030716	0.19836
1675	0.201154	0.211016	0.199182	0.196552	0.200497	0.009843	0.199675
1676	0.198524	0.213481	0.194909	0.196881	0.200825	0.003926	0.198524
1677	0.200004	0.214303	0.200825	0.196059	0.196552	0.006884	0.200497
1678	0.199839	0.212824	0.197374	0.201483	0.199675	0.010171	0.199182
1679	0.200497	0.213152	0.200497	0.199511	0.203126	0.020033	0.200332
1680	0.198524	0.212824	0.199346	0.20099	0.199675	-1.9e-05	0.200168
1681	0.205427	0.208222	0.196223	0.200332	0.201154	0.000639	0.20214
1682	0.19836	0.209372	0.202633	0.198689	0.202305	0.00294	0.200332
1683	0.202633	0.210029	0.200825	0.196059	0.198031	0.009843	0.201976
1684	0.205263	0.208879	0.199511	0.196059	0.202469	0.020033	0.199346
1685	0.203455	0.209536	0.20099	0.199346	0.202798	0.024635	0.199839
1686	0.202798	0.208222	0.200332	0.196059	0.20099	0.032031	0.200661
1687	0.200497	0.198853	0.200332	0.199511	0.200661	0.040577	0.200825
1688	0.206249	0.207728	0.202633	0.19836	0.199018	-0.000512	0.201483
1689	0.199182	0.205592	0.200825	0.193922	0.197045	0.0271	0.202305
1690	0.205756	0.202633	0.200825	0.198196	0.201483	-1.9e-05	0.197703
1691	0.200825	0.206249	0.198196	0.199018	0.199839	-1.9e-05	0.200497
1692	0.201154	0.199839	0.204934	0.197045	0.200168	0.003104	0.204277
1693	0.20099	0.202798	0.201319	0.200004	0.201812	0.012144	0.201319
1694	0.201319	0.200825	0.200661	0.19458	0.200497	0.025785	0.201319
1695	0.200004	0.199182	0.202305	0.202469	0.206085	0.031373	0.200168
1696	0.199511	0.197703	0.202305	0.199839	0.203948	0.036962	0.203291
1697	0.200004	0.197374	0.20214	0.201483	0.199511	0.046166	0.199182
1698	0.201976	0.102047	0.20477	0.196223	0.201812	0.050768	0.200497
1699	0.199511	0.109279	0.201647	0.200004	0.202633	0.059972	0.19836
1700	0.201154	0.109607	0.201647	0.200661	0.200168	0.06556	0.201319
1701	0.203291	0.110922	0.199182	0.201976	0.200004	0.066546	0.199511
1702	0.202962	0.081667	0.194416	0.196223	0.203455	0.074435	0.199675
1703	0.203455	0.079366	0.200661	0.195402	0.199018	0.081831	0.201319
1704	0.200497	0.088405	0.200332	0.199018	0.202469	0.082488	0.197374
1705	0.201647	0.089885	0.200332	0.196059	0.199346	0.089556	0.204934
1706	0.202962	0.093336	0.197867	0.198853	0.204441	0.091035	0.198853
1707	0.202633	0.097445	0.198031	0.197867	0.203455	0.097938	0.203948
1708	0.200497	0.106649	0.201154	0.196552	0.200497	0.097774	0.199182
1709	0.200332	0.102376	0.201154	0.195566	0.201483	0.107306	0.200004
1710	0.199839	0.108786	0.200661	0.199346	0.201812	0.109279	0.200168
1711	0.202305	0.115195	0.20362	0.196059	0.201976	0.113388	0.198689
1712	0.203784	0.111251	0.19836	0.200497	0.201483	0.115853	0.203291
1713	0.202962	0.114374	0.200168	0.201483	0.199511	0.121277	0.201154
1714	0.203291	0.116017	0.201647	0.198196	0.196552	0.126536	0.200004
1715	0.200825	0.11799	0.198689	0.200661	0.199675	0.124399	0.199346
1716	0.202962	0.121112	0.19836	0.197703	0.199018	0.133275	0.19836
1717	0.200825	0.122427	0.197045	0.197703	0.203784	0.131631	0.199018
1718	0.201812	0.124399	0.200004	0.194909	0.201647	0.134918	0.203126
1719	0.200661	0.124893	0.201647	0.199182	0.202633	0.138534	0.202798
1720	0.203126	0.124399	0.20099	0.194251	0.200168	0.142314	0.20099
1721	0.202798	0.132946	0.198524	0.197374	0.201483	0.144615	0.200661
1722	0.202305	0.131631	0.199182	0.196388	0.20099	0.148724	0.201976
1723	0.203291	0.130809	0.198524	0.197703	0.200004	0.143301	0.201154
1724	0.206249	0.127358	0.198689	0.20214	0.200825	0.146259	0.200661
1725	0.197867	0.130645	0.202962	0.194251	0.200168	0.144287	0.198524
1726	0.202305	0.134754	0.204441	0.196881	0.201319	0.026114	0.20099
1727	0.200661	0.13952	0.198196	0.19836	0.199839	0.033346	0.199182
1728	0.204277	0.13837	0.19836	0.19836	0.204113	0.03614	0.201647
1729	0.200825	0.141657	0.201154	0.201812	0.203948	0.051096	0.199511
1730	0.200661	0.142807	0.200661	0.200168	0.203126	0.054055	0.201154
1731	0.200497	0.138863	0.201976	0.197867	0.20362	0.061286	0.198524
1732	0.202962	0.146423	0.201154	0.199675	0.205099	0.066381	0.199511
1733	0.202633	0.146916	0.20362	0.199839	0.203455	0.075914	0.200168
1734	0.205263	0.148724	0.197703	0.199346	0.202633	0.078051	0.200497
1735	0.20099	0.146752	0.200332	0.204441	0.20214	0.084132	0.20099
1736	0.201812	0.149382	0.199839	0.197703	0.20099	0.087584	0.201483
1737	0.205099	0.149382	0.199182	0.19721	0.205099	0.091035	0.20099
1738	0.199511	0.151025	0.201483	0.199346	0.200004	0.093665	0.200825
1739	0.202633	0.152998	0.199182	0.194251	0.204441	0.102704	0.199839
1740	0.200825	0.15612	0.199839	0.202305	0.201976	0.102869	0.20855
1741	0.202469	0.155134	0.201976	0.199182	0.201483	0.107142	0.198524
1742	0.198853	0.155627	0.198689	0.197703	0.202962	0.112894	0.201319
1743	0.201812	0.161051	0.196059	0.199675	0.203784	0.116839	0.204934
1744	0.20099	0.163023	0.201319	0.199675	0.201319	0.1267	0.200332
1745	0.199675	0.16401	0.200004	0.203291	0.203291	0.12292	0.204606
1746	0.202633	0.163681	0.199018	0.194087	0.204606	0.126865	0.199182
1747	0.198689	0.162037	0.200661	0.198524	0.204441	0.130645	0.201812
1748	0.204441	0.162202	0.199346	0.200168	0.199346	0.133768	0.200825
1749	0.203291	0.167132	0.195402	0.201319	0.205921	0.133603	0.199839
1750	0.20214	0.163845	0.198524	0.19836	0.206414	0.133603	0.199839
1751	0.20099	0.165324	0.200497	0.197538	0.203784	0.139027	0.201647
1752	0.202305	0.161544	0.201319	0.200497	0.204113	0.143301	0.199182
1753	0.202798	0.160558	0.200825	0.194087	0.2074	0.145273	0.199018
1754	0.20362	0.163352	0.199675	0.199346	0.203784	0.14856	0.199511
1755	0.201154	0.167625	0.199346	0.199346	0.203126	0.149053	0.199839
1756	0.202633	0.164338	0.200004	0.197045	0.201319	0.146752	0.20099
1757	0.20099	0.169433	0.199839	0.18817	0.200497	0.151025	0.197538
1758	0.202633	0.169762	0.199511	0.197045	0.199346	0.151683	0.20477
1759	0.203126	0.174693	0.196717	0.200497	0.201812	0.155792	0.200004
1760	0.202305	0.1742	0.19836	0.199346	0.201647	0.156778	0.199346
1761	0.202305	0.173871	0.199182	0.201483	0.204277	0.161544	0.196223
1762	0.200004	0.173214	0.200168	0.199675	0.202798	0.16138	0.199839
1763	0.200168	0.173049	0.20099	0.204277	0.200825	0.161051	0.19195
1764	0.203291	0.177158	0.204113	0.199511	0.20214	0.167297	0.197045
1765	0.203784	0.174857	0.201812	0.200004	0.200497	0.16779	0.196388
1766	0.202305	0.181924	0.199346	0.201483	0.204441	0.167132	0.198689
1767	0.202798	0.177322	0.200168	0.197045	0.200004	0.168776	0.199839
1768	0.202305	0.179459	0.199018	0.199675	0.20362	0.172392	0.195237
1769	0.202962	0.176829	0.199675	0.195073	0.200661	0.171077	0.201976
1770	0.204277	0.176008	0.200661	0.198031	0.19836	0.170419	0.201319
1771	0.200332	0.179952	0.198689	0.196223	0.200168	0.171734	0.201976
1772	0.201319	0.178309	0.196388	0.199346	0.200332	0.172392	0.200661
1773	0.200825	0.182417	0.202469	0.195237	0.193922	0.173049	0.202798
1774	0.198524	0.185705	0.201647	0.194251	0.20099	0.177322	0.200497
1775	0.198689	0.186198	0.201976	0.199182	0.203126	0.172885	0.202469
1776	0.196717	0.185047	0.20477	0.198524	0.203455	0.175515	0.202305
1777	0.19836	0.188006	0.206578	0.202305	0.204606	0.178802	0.204277
1778	0.202305	0.184883	0.199839	0.199675	0.199018	0.17535	0.200004
1779	0.200332	0.18439	0.201319	0.201319	0.200825	0.177651	0.19836
1780	0.199839	0.181596	0.202798	0.198524	0.201647	0.181596	0.202798
1781	0.202962	0.186198	0.200332	0.202305	0.201812	0.180116	0.201976
1782	0.202962	0.184225	0.20362	0.200661	0.202798	0.183239	0.199018
1783	0.200497	0.185869	0.200661	0.200497	0.203948	0.178144	0.198524
1784	0.199839	0.185869	0.203784	0.202305	0.201154	0.186855	0.201319
1785	0.197538	0.186033	0.205427	0.202305	0.204113	0.184225	0.196717
1786	0.202469	0.185212	0.201976	0.201154	0.197374	0.184718	0.201812
1787	0.198689	0.186033	0.203784	0.201647	0.20099	0.184718	0.200004
1788	0.200004	0.185212	0.201647	0.199511	0.200661	0.183897	0.200004
1789	0.200825	0.186526	0.201154	0.20362	0.199346	0.183239	0.197703
1790	0.200168	0.191128	0.203126	0.205263	0.199346	0.183568	0.197867
1791	0.199675	0.186855	0.196223	0.198524	0.198689	0.185212	0.199675
1792	0.201154	0.188827	0.197703	0.198524	0.204934	0.186198	0.200168
1793	0.200825	0.190142	0.200497	0.201154	0.197703	0.190635	0.199346
1794	0.197867	0.188663	0.200004	0.201647	0.200661	0.187513	0.196717
1795	0.203291	0.188827	0.202469	0.201976	0.19836	0.187841	0.201483
1796	0.200661	0.18817	0.20477	0.20362	0.199018	0.189814	0.199511
1797	0.203126	0.189156	0.20477	0.19836	0.200497	0.191621	0.200168
1798	0.202798	0.194251	0.203455	0.202633	0.20214	0.188663	0.197538
1799	0.205592	0.188663	0.204277	0.200825	0.201812	0.191786	0.198689
1800	0.204113	0.192443	0.202962	0.20362	0.201976	0.186033	0.19836
1801	0.202633	0.197867	0.205921	0.19836	0.201154	0.196059	0.199018
1802	0.200168	0.191293	0.202798	0.205921	0.199346	0.194087	0.200825
1803	0.201976	0.190964	0.202305	0.198689	0.20362	0.192936	0.20099
1804	0.203126	0.19195	0.201154	0.199511	0.202798	0.193594	0.199839
1805	0.201319	0.193429	0.198524	0.20099	0.201812	0.190142	0.200825
1806	0.20099	0.18932	0.201647	0.200004	0.197867	0.192936	0.201154
1807	0.200497	0.190471	0.202798	0.197374	0.207564	0.191457	0.200332
1808	0.201976	0.190964	0.201483	0.196881	0.197045	0.191128	0.200661
1809	0.201483	0.194416	0.198524	0.201319	0.201976	0.193265	0.204113
1810	0.202798	0.192772	0.201976	0.202469	0.205099	0.192608	0.201647
1811	0.201647	0.193429	0.198689	0.199839	0.199018	0.1908	0.20362
1812	0.201647	0.186033	0.202962	0.200825	0.199839	0.195237	0.203455
1813	0.202633	0.193101	0.197867	0.201647	0.200004	0.192772	0.205921
1814	0.20362	0.194087	0.199511	0.200825	0.199018	0.194087	0.204113
1815	0.20477	0.196059	0.201647	0.200661	0.200332	0.193758	0.199182
1816	0.202962	0.195402	0.200497	0.203784	0.204113	0.195073	0.200825
1817	0.20214	0.193265	0.197703	0.201647	0.201812	0.197703	0.202633
1818	0.205099	0.196223	0.199675	0.199675	0.201154	0.199182	0.196881
1819	0.204113	0.194744	0.19836	0.201812	0.20214	0.195895	0.198853
1820	0.200168	0.193429	0.199511	0.200825	0.200332	0.192115	0.200168
1821	0.204113	0.196388	0.200168	0.199182	0.204441	0.193265	0.199675
1822	0.205427	0.194416	0.198031	0.200332	0.197703	0.194416	0.200332
1823	0.200661	0.183732	0.200332	0.197867	0.19836	0.197538	0.203784
1824	0.201483	0.194251	0.200497	0.197703	0.201319	0.190964	0.203291
1825	0.201319	0.18932	0.199182	0.204441	0.202798	0.195073	0.201812
1826	0.199675	0.193101	0.201154	0.200497	0.203455	0.193922	0.202469
1827	0.200825	0.194087	0.204606	0.200004	0.200168	0.198853	0.20099
1828	0.201812	0.195402	0.204277	0.201647	0.201154	0.196552	0.201483
1829	0.200168	0.196223	0.204606	0.199675	0.201976	0.200004	0.201976
1830	0.202798	0.19573	0.20214	0.202962	0.201647	0.198853	0.200332
1831	0.20362	0.196223	0.201647	0.200004	0.200825	0.195895	0.201483
1832	0.204934	0.194087	0.203291	0.201812	0.202469	0.198524	0.200497
1833	0.206907	0.199675	0.200168	0.204606	0.201647	0.198689	0.199839
1834	0.200497	0.193429	0.203126	0.205592	0.203291	0.199346	0.202798
1835	0.20477	0.193922	0.200497	0.201647	0.203291	0.197867	0.203126
1836	0.206742	0.196717	0.201976	0.205427	0.20362	0.197538	0.201154
1837	0.205099	0.193429	0.202962	0.201154	0.205427	0.198031	0.201647
1838	0.203126	0.19573	0.204113	0.201647	0.201812	0.196717	0.201319
1839	0.202305	0.195895	0.202633	0.202962	0.201647	0.200168	0.202962
1840	0.199018	0.197703	0.202798	0.197703	0.203126	0.199346	0.200497
1841	0.198853	0.194744	0.200004	0.200332	0.203948	0.198031	0.206742
1842	0.202962	0.19458	0.19721	0.199182	0.202469	0.203455	0.202469
1843	0.202469	0.196717	0.205756	0.198689	0.192772	0.201976	0.202305
1844	0.203126	0.195402	0.201154	0.201976	0.201976	0.199839	0.200661
1845	0.200661	0.196552	0.199675	0.199839	0.200661	0.197374	0.205427
1846	0.20362	0.19573	0.201812	0.199346	0.201319	0.201483	0.203784
1847	0.201154	0.19721	0.200497	0.201319	0.198853	0.199018	0.20099
1848	0.203948	0.196223	0.201154	0.200332	0.203948	0.19836	0.204277
1849	0.200825	0.198031	0.206249	0.198031	0.205263	0.197374	0.195402
1850	0.207071	0.19721	0.200004	0.201154	0.20362	0.20362	0.203291
1851	0.200825	0.196717	0.19721	0.201812	0.204113	0.203455	0.200825
1852	0.20214	0.195237	0.202305	0.201154	0.20362	0.202962	0.200332
1853	0.203291	0.19573	0.201154	0.203291	0.200168	0.200168	0.200825
1854	0.201154	0.196059	0.200661	0.199346	0.189978	0.199346	0.198524
1855	0.197374	0.19573	0.200332	0.201976	0.201976	0.20099	0.201976
1856	0.201647	0.199182	0.200168	0.200332	0.204441	0.197867	0.204277
1857	0.203126	0.195073	0.201319	0.204606	0.201319	0.201154	0.203784
1858	0.201319	0.196059	0.199182	0.200497	0.203948	0.200168	0.202469
1859	0.20214	0.196223	0.20099	0.196223	0.203291	0.202798	0.203455
1860	0.196717	0.197045	0.202305	0.200661	0.199675	0.198031	0.205921
1861	0.199182	0.194909	0.20214	0.200168	0.203948	0.202305	0.203784
1862	0.198689	0.199018	0.200332	0.200168	0.203455	0.201483	0.202798
1863	0.200825	0.196552	0.202962	0.199018	0.207893	0.198524	0.201812
1864	0.200497	0.198853	0.199346	0.201976	0.197538	0.115853	0.195237
1865	0.202469	0.198689	0.200497	0.197867	0.197045	0.080845	0.197374
1866	0.198524	0.200661	0.199511	0.202962	0.203948	0.066875	0.19836
1867	0.201483	0.197867	0.199675	0.204606	0.205921	0.048631	0.203291
1868	0.201319	0.197374	0.200825	0.203784	0.203126	0.057506	0.200825
1869	0.200497	0.199675	0.201319	0.202962	0.204441	0.065231	0.198031
1870	0.20099	0.197867	0.20099	0.201154	0.203126	0.070819	0.200825
1871	0.198196	0.198689	0.203126	0.200497	0.204441	0.075092	0.200825
1872	0.201483	0.19573	0.200497	0.200497	0.204277	0.083475	0.200497
1873	0.198689	0.194087	0.200004	0.20362	0.202798	0.085447	0.201319
1874	0.201812	0.196223	0.197045	0.197867	0.199511	0.08857	0.201812
1875	0.196223	0.198031	0.200825	0.202633	0.203455	0.094487	0.199018
1876	0.199182	0.200661	0.200497	0.200497	0.192115	0.102047	0.202469
1877	0.192279	0.197867	0.200004	0.201647	0.199018	0.104184	0.200332
1878	0.200332	0.195566	0.201976	0.199182	0.202962	0.111908	0.203291
1879	0.19721	0.197867	0.197703	0.202798	0.203291	0.111415	0.203455
1880	0.198853	0.193922	0.199182	0.199182	0.20362	0.114867	0.20362
1881	0.201812	0.200004	0.200825	0.201976	0.204113	0.121277	0.198524
1882	0.196223	0.200004	0.203455	0.202305	0.203455	0.124235	0.205099
1883	0.200004	0.196881	0.202305	0.204277	0.20362	0.126372	0.199675
1884	0.200661	0.199346	0.200004	0.200661	0.206907	0.128837	0.201812
1885	0.201319	0.198524	0.20214	0.200332	0.205263	0.132617	0.199675
1886	0.202962	0.200004	0.199018	0.203948	0.206414	0.135411	0.20214
1887	0.202305	0.198031	0.20214	0.200661	0.200825	0.139849	0.199182
1888	0.197538	0.199839	0.200497	0.201483	0.20477	0.139192	0.197538
1889	0.201812	0.197538	0.202962	0.198524	0.204606	0.14593	0.200497
1890	0.197374	0.199675	0.197867	0.206578	0.207893	0.145437	0.199839
1891	0.197538	0.19721	0.201647	0.200661	0.203455	0.152669	0.200825
1892	0.198853	0.19721	0.203948	0.205592	0.207564	0.153819	0.201319
1893	0.199018	0.197045	0.2074	0.202305	0.204441	0.158586	0.207564
1894	0.197045	0.197374	0.204113	0.202962	0.204934	0.156449	0.203455
1895	0.198524	0.196717	0.201319	0.201976	0.204934	0.157928	0.202798
1896	0.196552	0.19836	0.201319	0.199511	0.204277	0.16401	0.200497
1897	0.196717	0.198031	0.198031	0.19836	0.204113	0.159243	0.197374
1898	0.19573	0.198524	0.199346	0.200661	0.200168	0.160887	0.204113
1899	0.197703	0.199018	0.196223	0.201812	0.205263	0.161544	0.202633
1900	0.203455	0.19836	0.195895	0.200661	0.20214	0.164503	0.200661
1901	0.201812	0.200825	0.199182	0.199018	0.205921	0.163352	0.201647
1902	0.199182	0.199511	0.200168	0.19836	0.203455	0.167297	0.200661
1903	0.201154	0.200004	0.19836	0.204441	0.198853	0.168283	0.199018
1904	0.19836	0.197703	0.204606	0.200004	0.203455	0.169105	0.203784
1905	0.196223	0.196223	0.201319	0.203291	0.201812	0.170913	0.202962
1906	0.203291	0.194251	0.205756	0.200332	0.202633	0.172392	0.197374
1907	0.198196	0.197538	0.199675	0.203455	0.203291	0.176008	0.19836
1908	0.200004	0.196059	0.201319	0.203455	0.203784	0.177487	0.202962
1909	0.198031	0.200168	0.200004	0.204277	0.202633	0.177815	0.200332
1910	0.196223	0.195402	0.201154	0.200661	0.203455	0.179623	0.20099
1911	0.192279	0.200004	0.201154	0.20362	0.204606	0.176829	0.197703
1912	0.201319	0.19836	0.199675	0.202633	0.20362	0.180938	0.200497
1913	0.197867	0.19721	0.199675	0.199018	0.203126	0.17913	0.199182
1914	0.198853	0.197867	0.199346	0.199511	0.204277	0.181267	0.201483
1915	0.197703	0.19836	0.202305	0.200004	0.204606	0.182089	0.202305
1916	0.195237	0.19721	0.200004	0.201647	0.202798	0.181267	0.20099
1917	0.197867	0.198031	0.196717	0.202469	0.201154	0.181924	0.199018
1918	0.198196	0.200004	0.199511	0.202798	0.199018	0.182746	0.203126
1919	0.198524	0.198524	0.198031	0.200168	0.206907	0.186691	0.200004
1920	0.198196	0.201812	0.200004	0.202633	0.196552	0.186526	0.198524
1921	0.198689	0.196717	0.199346	0.197867	0.200661	0.185047	0.200825
1922	0.198853	0.200497	0.199346	0.199182	0.210358	0.183732	0.198853
1923	0.202305	0.20362	0.200825	0.19836	0.198524	0.186855	0.199675
1924	0.198853	0.200497	0.197867	0.201319	0.199839	0.185047	0.200004
1925	0.201319	0.196881	0.20362	0.199346	0.199018	0.18817	0.201647
1926	0.193101	0.198196	0.200004	0.200004	0.202469	0.188334	0.198524
1927	0.195895	0.196388	0.204441	0.198853	0.201647	0.190964	0.201647
1928	0.19573	0.19721	0.20099	0.200661	0.202962	0.193265	0.19836
1929	0.19721	0.199018	0.198689	0.201812	0.204441	0.189156	0.199346
1930	0.195895	0.196059	0.199018	0.200661	0.202633	0.190142	0.204441
1931	0.197045	0.199346	0.206249	0.20099	0.202798	0.187513	0.198853
1932	0.200004	0.19836	0.194416	0.203126	0.201154	0.189649	0.199511
1933	0.199675	0.201154	0.198196	0.204113	0.200825	0.182582	0.203948
1934	0.19721	0.200332	0.199839	0.199511	0.200825	0.193758	0.199346
1935	0.196059	0.199346	0.197045	0.201647	0.204277	0.186526	0.201976
1936	0.201154	0.197374	0.201154	0.199018	0.200661	0.190635	0.204934
1937	0.190964	0.197538	0.199346	0.201483	0.200332	0.191457	0.202798
1938	0.198853	0.197374	0.200168	0.200004	0.199675	0.190635	0.201154
1939	0.197374	0.199182	0.197867	0.198853	0.202962	0.193265	0.198524
1940	0.197045	0.196881	0.201319	0.201319	0.201647	0.190307	0.201483
1941	0.196388	0.199839	0.200004	0.205263	0.203291	0.193101	0.199675
1942	0.197538	0.197703	0.206085	0.202962	0.203126	0.193594	0.19836
1943	0.197045	0.199511	0.201483	0.201483	0.201976	0.195237	0.201319
1944	0.19836	0.200004	0.202305	0.203126	0.202798	0.192936	0.201812
1945	0.195237	0.199675	0.201647	0.204441	0.200825	0.194087	0.19721
1946	0.19836	0.196881	0.199346	0.199346	0.202305	0.193101	0.205921
1947	0.196388	0.197045	0.200332	0.20214	0.201483	0.19195	0.202305
1948	0.194909	0.198689	0.200497	0.200825	0.203291	0.194087	0.202798
1949	0.197374	0.19573	0.198689	0.200661	0.199346	0.195895	0.202305
1950	0.194744	0.19836	0.199675	0.201812	0.202305	0.193101	0.201319
1951	0.200168	0.19458	0.202798	0.199675	0.198689	0.194416	0.200332
1952	0.197045	0.19573	0.198689	0.201647	0.201647	0.185212	0.200825
1953	0.197867	0.196881	0.197703	0.19721	0.200497	0.198689	0.201812
1954	0.200168	0.197867	0.195566	0.201976	0.202305	0.190635	0.196223
1955	0.201647	0.199346	0.200332	0.202305	0.195566	0.19458	0.202962
1956	0.19836	0.196881	0.199839	0.201976	0.20099	0.192772	0.198524
1957	0.201483	0.194416	0.199675	0.199018	0.200004	0.195073	0.202469
1958	0.199511	0.199511	0.200661	0.202305	0.203291	0.194909	0.197374
1959	0.195895	0.198853	0.200168	0.201812	0.198524	0.198524	0.19836
1960	0.197045	0.196552	0.200661	0.199839	0.200661	0.196388	0.196223
1961	0.195073	0.199839	0.200825	0.203291	0.202305	0.194744	0.199675
1962	0.199675	0.19721	0.203126	0.200497	0.20099	0.197374	0.199511
1963	0.196552	0.199511	0.201812	0.20214	0.202469	0.19195	0.196059
1964	0.19836	0.19836	0.201483	0.199182	0.199675	0.201483	0.200825
1965	0.19721	0.200004	0.198853	0.203455	0.199182	0.193101	0.201483
1966	0.19721	0.198524	0.196552	0.201154	0.198689	0.195237	0.198524
1967	0.193922	0.200168	0.195073	0.204277	0.198689	0.192279	0.197703
1968	0.200497	0.196059	0.198031	0.19836	0.191621	0.195073	0.202469
1969	0.195566	0.201154	0.194744	0.197374	0.195402	0.192608	0.203948
1970	0.196881	0.199346	0.197703	0.198524	0.196059	0.198689	0.201154
1971	0.195895	0.201483	0.195566	0.199839	0.196881	0.197045	0.199839
1972	0.198524	0.199018	0.199511	0.198031	0.201319	0.195237	0.202305
1973	0.199018	0.202469	0.201319	0.199182	0.197374	0.195402	0.200661
1974	0.199839	0.199675	0.199675	0.199839	0.200168	0.194416	0.201976
1975	0.198689	0.200004	0.203784	0.201154	0.203455	0.196717	0.20214
1976	0.201154	0.201647	0.198196	0.202962	0.199346	0.193922	0.201647
1977	0.196552	0.201647	0.201647	0.200004	0.20099	0.197867	0.198524
1978	0.196223	0.204113	0.201812	0.20362	0.197538	0.199675	0.200661
1979	0.195237	0.197045	0.20099	0.20099	0.199839	0.197867	0.206414
1980	0.198853	0.200497	0.200661	0.201154	0.203784	0.196552	0.200825
1981	0.195402	0.197867	0.200661	0.198689	0.198524	0.20099	0.201976
1982	0.195402	0.19836	0.197867	0.206249	0.199346	0.198031	0.203126
1983	0.197374	0.197703	0.201812	0.202469	0.198853	0.19836	0.201976
1984	0.19573	0.200661	0.198031	0.200661	0.200332	0.198853	0.201647
1985	0.19721	0.195237	0.196388	0.201812	0.196223	0.196717	0.202305
1986	0.193758	0.199675	0.197703	0.202469	0.196881	0.196717	0.198689
1987	0.192443	0.197703	0.197703	0.199511	0.19836	0.19836	0.206085
1988	0.195073	0.19836	0.19836	0.202305	0.198196	0.192772	0.200661
1989	0.197538	0.200168	0.200497	0.20099	0.19721	0.197703	0.199018
1990	0.196059	0.198524	0.196717	0.198853	0.19836	0.197703	0.202962
1991	0.202305	0.198853	0.199182	0.201483	0.200825	0.198689	0.203455
1992	0.193758	0.19836	0.204441	0.197703	0.198853	0.20362	0.200825
1993	0.196552	0.200004	0.199182	0.198689	0.199182	0.200004	0.199018
1994	0.196552	0.196717	0.202633	0.198031	0.200825	0.199675	0.199018
1995	0.195895	0.198524	0.200497	0.201154	0.201647	0.195566	0.200168
1996	0.199182	0.203126	0.202305	0.202305	0.199182	0.199346	0.197867
1997	0.19721	0.197867	0.197045	0.20214	0.201976	0.202469	0.200825
1998	0.19573	0.200004	0.203455	0.200168	0.201647	0.198031	0.200497
1999	0.194251	0.197703	0.197538	0.201154	0.201319	0.198524	0.198689
2000	0.197374	0.198689	0.200332	0.204441	0.200004	0.200168	0.199675
2001	0.196223	0.203126	0.200332	0.200661	0.200004	0.199511	0.201976
2002	0.204934	0.195073	0.199675	0.200825	0.198196	0.197867	0.199839
2003	0.19573	0.195566	0.196223	0.198853	0.195566	0.20477	0.202633
2004	0.19721	0.194909	0.194909	0.197045	0.199018	0.201483	0.204934
2005	0.197703	0.198524	0.199182	0.200497	0.201812	0.199839	0.20099
2006	0.19836	0.203126	0.198196	0.197538	0.201154	0.200004	0.200497
2007	0.197045	0.199675	0.199839	0.195237	0.198524	0.19836	0.200825
2008	0.200004	0.199839	0.201319	0.199839	0.200332	0.19836	0.199675
2009	0.197045	0.203455	0.197703	0.199346	0.201812	0.203784	0.195402
2010	0.19836	0.201812	0.196059	0.201483	0.200661	0.197538	0.206085
2011	0.201483	0.19836	0.201319	0.199018	0.201319	0.196881	0.199839
2012	0.196881	0.200497	0.196881	0.202962	0.201154	0.19836	0.200661
2013	0.20099	0.199018	0.203126	0.201647	0.198031	0.199839	0.205099
2014	0.19573	0.199839	0.198689	0.19836	0.20099	0.197867	0.192936
2015	0.197703	0.198853	0.201319	0.201154	0.20362	0.199839	0.200332
2016	0.195073	0.199346	0.20099	0.20477	0.200332	0.198689	0.197374
2017	0.194416	0.196717	0.195402	0.201154	0.20214	0.20099	0.200825
2018	0.197374	0.199018	0.200661	0.204113	0.195237	0.197374	0.195237
2019	0.196388	0.196388	0.205756	0.199839	0.199675	0.197045	0.199675
2020	0.195402	0.198524	0.194087	0.199018	0.201647	0.200168	0.200661
2021	0.198031	0.198524	0.197045	0.198689	0.198524	0.197374	0.201483
2022	0.197374	0.199675	0.19836	0.198031	0.202305	0.19573	0.200825
2023	0.19721	0.19836	0.199182	0.197703	0.199182	0.198689	0.204606
2024	0.190307	0.197867	0.200497	0.198524	0.198689	0.194251	0.200004
2025	0.199346	0.197045	0.198853	0.200825	0.20099	0.19836	0.204277
2026	0.202633	0.198689	0.19721	0.199675	0.199511	0.200168	0.209865
2027	0.198031	0.197045	0.201976	0.200825	0.203948	0.201812	0.198031
2028	0.198524	0.195402	0.201154	0.197374	0.201483	0.203455	0.201976
2029	0.19721	0.199839	0.200497	0.202798	0.201812	0.198196	0.200661
2030	0.199018	0.197538	0.201976	0.201647	0.202305	0.204113	0.200825
2031	0.19721	0.200168	0.198689	0.202633	0.198853	0.196881	0.201154
2032	0.199511	0.199018	0.200497	0.204277	0.203784	0.201812	0.201976
2033	0.198689	0.201976	0.199839	0.207071	0.201647	0.200332	0.199839
2034	0.197703	0.197374	0.203291	0.20214	0.201647	0.200332	0.201483
2035	0.184061	0.196881	0.201319	0.203126	0.207235	0.200825	0.197374
2036	0.199182	0.197045	0.198524	0.202469	0.202469	0.200004	0.203126
2037	0.194416	0.197703	0.197867	0.203126	0.199839	0.20099	0.202798
2038	0.19836	0.199018	0.200332	0.200825	0.201647	0.20099	0.200004
2039	0.200168	0.196881	0.199346	0.199018	0.201647	0.201154	0.199839
2040	0.197374	0.20099	0.195895	0.202962	0.201319	0.199346	0.201483
2041	0.19721	0.199511	0.19458	0.199346	0.200004	0.206742	0.201319
2042	0.197867	0.198524	0.199675	0.199346	0.20477	0.200168	0.205427
2043	0.197538	0.198196	0.201647	0.197045	0.199182	0.205756	0.203948
2044	0.196059	0.200497	0.200332	0.202798	0.20099	0.196717	0.197045
2045	0.200332	0.199018	0.201647	0.198853	0.20099	0.202798	0.202962
2046	0.187841	0.20099	0.201812	0.200332	0.201483	0.198853	0.201647
2047	0.201154	0.198689	0.197867	0.198524	0.202305	0.199839	0.200168
2048	0.20099	0.200497	0.198689	0.204113	0.20214	0.199182	0.191786
2049	0.196059	0.199675	0.197867	0.201319	0.202633	0.201483	0.201154
2050	0.199675	0.195073	0.199018	0.203784	0.20362	0.199511	0.197703
2051	0.200661	0.199182	0.202469	0.199839	0.20214	0.199675	0.202633
2052	0.196717	0.195566	0.1908	0.202305	0.200825	0.208879	0.199675
2053	0.198689	0.200004	0.1908	0.205592	0.20214	0.197538	0.201483
2054	0.199018	0.195566	0.19836	0.198689	0.198524	0.205592	0.20214
2055	0.196059	0.198031	0.196223	0.203948	0.195237	0.197045	0.202633
2056	0.200825	0.199182	0.198031	0.201976	0.198196	0.200497	0.201812
2057	0.193101	0.200825	0.199346	0.198524	0.200661	0.199839	0.20099
2058	0.199346	0.19836	0.199675	0.198689	0.196881	0.199839	0.205263
2059	0.197703	0.199511	0.196717	0.200332	0.200661	0.196388	0.19836
2060	0.202798	0.197538	0.200825	0.199018	0.200825	0.199839	0.202633
2061	0.198524	0.199346	0.196717	0.203291	0.201319	0.197867	0.202798
2062	0.201976	0.199839	0.199018	0.201319	0.201647	0.19573	0.20362
2063	0.199182	0.201976	0.195073	0.200004	0.20099	0.195402	0.201976
2064	0.200168	0.200332	0.195566	0.202633	0.203126	0.201483	0.20099
2065	0.199511	0.200661	0.198196	0.203291	0.201154	0.202633	0.200661
2066	0.200661	0.200497	0.200825	0.20362	0.201812	0.202962	0.206249
2067	0.200497	0.19721	0.19836	0.205099	0.201976	0.20362	0.199839
2068	0.198031	0.199182	0.197867	0.201812	0.200825	0.202633	0.203126
2069	0.196552	0.198524	0.201319	0.203784	0.197538	0.203291	0.197045
2070	0.19836	0.199182	0.196717	0.199839	0.201647	0.198031	0.200168
2071	0.197538	0.197703	0.203126	0.198524	0.19721	0.200497	0.200497
2072	0.197538	0.193429	0.198689	0.202798	0.203291	0.198524	0.201647
2073	0.195895	0.197045	0.200825	0.200661	0.19721	0.201319	0.202305
2074	0.200332	0.200497	0.198524	0.201483	0.199346	0.186855	0.202633
2075	0.196552	0.19721	0.195566	0.200168	0.201812	0.197045	0.20214
2076	0.195402	0.197703	0.200497	0.200661	0.200332	0.197703	0.20099
2077	0.201976	0.200497	0.201154	0.199346	0.201154	0.202633	0.202633
2078	0.200168	0.19573	0.197867	0.20099	0.199182	0.200497	0.202633
2079	0.199839	0.199182	0.198853	0.198853	0.201319	0.200497	0.203291
2080	0.198689	0.201154	0.199346	0.200661	0.201976	0.199346	0.201976
2081	0.202798	0.198853	0.19836	0.200497	0.200004	0.199675	0.205592
2082	0.198196	0.199675	0.200825	0.201483	0.202962	0.202305	0.198196
2083	0.201154	0.202305	0.201647	0.20855	0.205099	0.201319	0.200004
2084	0.200332	0.199675	0.199511	0.204934	0.200825	0.202305	0.199182
2085	0.199182	0.19836	0.20099	0.205592	0.203455	0.19195	0.205921
2086	0.199018	0.199018	0.200661	0.203126	0.201647	0.202962	0.200825
2087	0.203784	0.198196	0.198031	0.203784	0.204441	0.199346	0.201976
2088	0.202469	0.200004	0.201812	0.200497	0.199018	0.202469	0.201483
2089	0.20214	0.198524	0.198853	0.202305	0.200332	0.201483	0.200661
2090	0.202962	0.196223	0.201319	0.200332	0.200332	0.201812	0.201483
2091	0.192772	0.19836	0.199018	0.201647	0.200168	0.199839	0.200661
2092	0.199839	0.196717	0.199511	0.201319	0.195895	0.199018	0.204277
2093	0.19836	0.198196	0.20214	0.202962	0.203948	0.202469	0.204113
2094	0.195895	0.198689	0.202798	0.204113	0.202305	0.204277	0.199675
2095	0.196223	0.200168	0.200004	0.201154	0.200332	0.200004	0.199675
2096	0.200661	0.199511	0.201976	0.200825	0.201976	0.200332	0.203291
2097	0.201976	0.199511	0.197538	0.202469	0.199839	0.202469	0.199182
2098	0.204606	0.198524	0.200825	0.202633	0.202798	0.195402	0.201976
2099	0.201154	0.196717	0.201154	0.200332	0.199182	0.201812	0.200825
2100	0.202962	0.198196	0.20099	0.200497	0.200004	0.200168	0.200661
2101	0.200497	0.197374	0.201319	0.202633	0.199511	0.201483	0.201319
2102	0.198524	0.198524	0.200168	0.20099	0.202305	0.199511	0.20099
2103	0.200825	0.197045	0.199182	0.200332	0.195402	0.201976	0.200004
2104	0.196223	0.196881	0.201647	0.201319	0.203455	0.201647	0.199346
2105	0.203948	0.194251	0.208386	0.203455	0.202305	0.195073	0.197374
2106	0.197538	0.197374	0.199675	0.203948	0.199675	0.196881	0.200661
2107	0.198031	0.197374	0.204113	0.200661	0.200168	0.201154	0.202305
2108	0.197703	0.198031	0.201647	0.205921	0.197538	0.195895	0.203784
2109	0.201319	0.19458	0.20214	0.200497	0.19836	0.199018	0.206414
2110	0.199346	0.201483	0.200825	0.200004	0.202798	0.202305	0.202962
2111	0.196223	0.199018	0.202962	0.202633	0.199346	0.198689	0.204606
2112	0.200004	0.198196	0.20099	0.199018	0.199675	0.20099	0.201154
2113	0.199018	0.200661	0.200825	0.200661	0.199182	0.199839	0.202798
2114	0.199346	0.196881	0.200168	0.200004	0.197867	0.199018	0.198853
2115	0.201812	0.199839	0.202469	0.201319	0.202633	0.199511	0.202962
2116	0.200332	0.198689	0.205099	0.20214	0.200497	0.198524	0.199675
2117	0.200332	0.201647	0.199018	0.199511	0.19836	0.201976	0.195566
2118	0.200661	0.198524	0.201976	0.200004	0.199182	0.202798	0.198031
2119	0.200004	0.200825	0.201976	0.200497	0.200497	0.199511	0.202305
2120	0.201483	0.198031	0.202633	0.199346	0.199018	0.201483	0.19836
2121	0.198524	0.198524	0.201647	0.201647	0.201647	0.200004	0.20099
2122	0.200168	0.192279	0.202798	0.200497	0.199018	0.206085	0.202962
2123	0.198689	0.197045	0.202633	0.202469	0.20099	0.199675	0.201319
2124	0.197538	0.197045	0.204441	0.200332	0.194744	0.198853	0.20214
2125	0.19573	0.197703	0.20477	0.203455	0.201154	0.200004	0.201647
2126	0.197867	0.196552	0.205592	0.196717	0.199182	0.199346	0.201319
2127	0.190635	0.197045	0.204441	0.202633	0.197867	0.201812	0.199511
2128	0.195566	0.201647	0.200168	0.198524	0.198524	0.195566	0.203948
2129	0.197703	0.200332	0.200825	0.200825	0.196881	0.196552	0.201812
2130	0.195895	0.200661	0.204606	0.201319	0.19836	0.198196	0.203291
2131	0.20099	0.197374	0.204113	0.20099	0.201976	0.199675	0.201319
2132	0.200661	0.199182	0.198031	0.20362	0.203784	0.199182	0.203291
2133	0.199182	0.199511	0.205263	0.200825	0.197867	0.202469	0.202469
2134	0.199182	0.199182	0.201647	0.204113	0.201647	0.199018	0.199182
2135	0.202469	0.19721	0.203291	0.201319	0.200661	0.20099	0.201976
2136	0.19836	0.199839	0.203291	0.203126	0.201976	0.200168	0.201483
2137	0.199675	0.197538	0.204934	0.202633	0.202469	0.20099	0.203784
2138	0.196388	0.203291	0.204934	0.202962	0.20477	0.204606	0.198031
2139	0.202305	0.201976	0.205592	0.199839	0.203291	0.202633	0.202305
2140	0.200497	0.198031	0.204606	0.204934	0.201154	0.198853	0.200004
2141	0.196388	0.198689	0.204277	0.201647	0.205099	0.20362	0.200168
2142	0.19836	0.197703	0.199182	0.202633	0.199511	0.199511	0.201647
2143	0.199511	0.197374	0.20214	0.206742	0.199346	0.199182	0.20362
2144	0.195402	0.198524	0.20362	0.201812	0.20099	0.204113	0.201647
2145	0.196059	0.198524	0.200168	0.200168	0.201812	0.201154	0.203126
2146	0.200661	0.197045	0.202305	0.198196	0.199018	0.200332	0.204441
2147	0.197703	0.198853	0.201812	0.201647	0.204277	0.201812	0.201812
2148	0.198196	0.199182	0.203948	0.202305	0.20099	0.199346	0.203291
2149	0.198689	0.200825	0.202633	0.202962	0.20099	0.20099	0.199839
2150	0.200661	0.200825	0.204606	0.198689	0.203784	0.202469	0.201319
2151	0.199346	0.199675	0.201812	0.202798	0.201647	0.200004	0.202798
2152	0.198853	0.196388	0.204934	0.199346	0.200497	0.203948	0.200332
2153	0.200661	0.200825	0.205592	0.200825	0.201812	0.199675	0.199511
2154	0.200825	0.198196	0.20855	0.204441	0.200332	0.20099	0.201319
2155	0.199018	0.196388	0.204606	0.205427	0.202469	0.201319	0.201647
2156	0.200661	0.194087	0.206578	0.198031	0.202305	0.200168	0.205099
2157	0.20099	0.19721	0.204113	0.202305	0.20099	0.201154	0.201154
2158	0.198689	0.199511	0.204441	0.203784	0.204934	0.199018	0.204606
2159	0.194416	0.198689	0.203784	0.202469	0.202469	0.203291	0.202962
2160	0.199018	0.20214	0.206907	0.203455	0.198853	0.201319	0.203126
2161	0.198689	0.200661	0.201319	0.201483	0.198853	0.20099	0.199839
2162	0.196552	0.196881	0.200661	0.202469	0.202798	0.201812	0.201154
2163	0.201483	0.198196	0.20477	0.203455	0.200661	0.199511	0.200825
2164	0.198524	0.201319	0.19836	0.204606	0.203126	0.198196	0.201812
2165	0.198689	0.198524	0.199511	0.198524	0.198524	0.197703	0.201319
2166	0.198689	0.197867	0.199346	0.202798	0.203291	0.200168	0.197867
2167	0.200168	0.194744	0.202305	0.196223	0.200332	0.202305	0.198196
2168	0.202962	0.20099	0.20099	0.201483	0.199346	0.198524	0.199675
2169	0.201647	0.197703	0.199182	0.197703	0.204441	0.200497	0.198689
2170	0.198689	0.198853	0.201812	0.199346	0.20477	0.199018	0.201319
2171	0.201483	0.200825	0.204113	0.199675	0.201976	0.203291	0.201483
2172	0.197538	0.194909	0.203948	0.199182	0.202798	0.200332	0.201319
2173	0.20099	0.199675	0.205592	0.202469	0.203291	0.197867	0.202962
2174	0.200004	0.198689	0.206249	0.205756	0.20477	0.20099	0.199182
2175	0.200661	0.199018	0.203291	0.200661	0.204606	0.200661	0.203126
2176	0.201647	0.200825	0.205263	0.205756	0.20214	0.198853	0.199182
2177	0.201976	0.195895	0.199839	0.203126	0.207564	0.195566	0.200004
2178	0.198196	0.196223	0.205427	0.202469	0.20099	0.196717	0.202962
2179	0.199675	0.196717	0.199675	0.203455	0.206249	0.200168	0.201483
2180	0.199839	0.19458	0.201483	0.202962	0.216275	0.202633	0.202305
2181	0.19721	0.19721	0.200825	0.203126	0.202305	0.200168	0.205427
2182	0.201647	0.199182	0.205427	0.198196	0.201647	0.202962	0.199839
2183	0.199675	0.196388	0.200332	0.198031	0.206249	0.199839	0.202305
2184	0.199346	0.196881	0.202469	0.200004	0.201319	0.202798	0.196223
2185	0.199346	0.200497	0.202633	0.204277	0.203126	0.200004	0.200004
2186	0.204441	0.198689	0.201812	0.200661	0.203126	0.200497	0.202469
2187	0.199182	0.202305	0.201319	0.202962	0.202798	0.20099	0.196223
2188	0.200825	0.198031	0.201154	0.202633	0.203455	0.198524	0.201319
2189	0.196717	0.199346	0.204441	0.202305	0.205099	0.201319	0.20214
2190	0.199018	0.200004	0.202305	0.202962	0.204277	0.200661	0.202962
2191	0.192279	0.198853	0.203126	0.202633	0.2074	0.200825	0.200497
2192	0.196059	0.197867	0.20362	0.204441	0.206249	0.203126	0.2074
2193	0.196881	0.198853	0.203126	0.205592	0.203455	0.199182	0.202469
2194	0.191128	0.196717	0.196717	0.205099	0.207893	0.198196	0.198524
2195	0.197703	0.19721	0.202798	0.200661	0.201647	0.203455	0.200332
2196	0.195566	0.201647	0.202798	0.202633	0.203784	0.201154	0.200825
2197	0.201812	0.194909	0.201319	0.20099	0.205099	0.204441	0.199675
2198	0.199018	0.202305	0.202305	0.205263	0.202305	0.199346	0.201319
2199	0.201812	0.19836	0.20214	0.199675	0.201976	0.202305	0.202305
2200	0.200168	0.198524	0.200825	0.20362	0.206742	0.199839	0.202469
2201	0.202962	0.199511	0.201483	0.201319	0.199675	0.201319	0.201812
2202	0.198689	0.200004	0.198031	0.20214	0.202798	0.200332	0.200004
2203	0.200661	0.198031	0.201483	0.199675	0.20099	0.200497	0.205263
2204	0.199346	0.198853	0.204934	0.200661	0.201976	0.200497	0.199018
2205	0.202633	0.199182	0.204441	0.201647	0.205756	0.197045	0.201154
2206	0.200497	0.194416	0.203784	0.201812	0.201976	0.201812	0.200004
2207	0.200004	0.198853	0.204934	0.203291	0.206907	0.206414	0.202633
2208	0.204934	0.197867	0.199675	0.204113	0.199346	0.203291	0.200004
2209	0.203455	0.201319	0.201154	0.207235	0.209865	0.200332	0.201812
2210	0.202962	0.197045	0.204113	0.200825	0.204277	0.204113	0.199675
2211	0.201647	0.200825	0.200497	0.208715	0.206249	0.198853	0.200661
2212	0.202962	0.198031	0.202798	0.202798	0.201812	0.202798	0.200332
2213	0.199511	0.199182	0.200661	0.209208	0.202633	0.203784	0.198689
2214	0.200661	0.198031	0.20099	0.202962	0.20099	0.201812	0.200661
2215	0.198853	0.199018	0.201812	0.202469	0.20362	0.199675	0.197374
2216	0.203126	0.196059	0.200004	0.202469	0.203291	0.201976	0.200825
2217	0.199182	0.198853	0.196388	0.203291	0.203291	0.200168	0.199675
2218	0.199018	0.19836	0.206249	0.20099	0.201319	0.20214	0.203291
2219	0.202305	0.197538	0.199018	0.200168	0.200168	0.201154	0.200825
2220	0.199182	0.204113	0.195073	0.195073	0.203291	0.197867	0.202305
2221	0.202305	0.196059	0.201647	0.197867	0.198689	0.197538	0.20362
2222	0.200168	0.196388	0.199182	0.155299	0.202305	0.200497	0.203126
2223	0.203126	0.200004	0.203455	0.157764	0.20099	0.201319	0.20214
2224	0.198524	0.199182	0.200661	0.162366	0.203291	0.198196	0.201647
2225	0.198524	0.193429	0.201154	0.163188	0.199675	0.199182	0.200825
2226	0.19721	0.204606	0.200825	0.165817	0.204441	0.198031	0.200332
2227	0.198031	0.196223	0.201319	0.166311	0.204113	0.204606	0.199511
2228	0.198031	0.198031	0.200661	0.169762	0.205592	0.201483	0.201812
2229	0.206249	0.199675	0.206414	0.167954	0.200004	0.207071	0.202305
2230	0.201483	0.195237	0.202305	0.171077	0.199182	0.200168	0.199018
2231	0.202633	0.196552	0.202469	0.170748	0.199346	0.203455	0.202469
2232	0.198853	0.198031	0.199839	0.1742	0.204606	0.202962	0.202305
2233	0.201154	0.197867	0.202469	0.173214	0.19836	0.20099	0.203784
2234	0.198689	0.197538	0.198689	0.170419	0.203291	0.201976	0.202798
2235	0.199675	0.19836	0.200661	0.173707	0.20099	0.196717	0.201976
2236	0.199346	0.197703	0.198853	0.175843	0.197867	0.200661	0.201319
2237	0.19836	0.201319	0.20099	0.17272	0.207071	0.201483	0.201319
2238	0.201483	0.197374	0.201483	0.175021	0.197867	0.201483	0.203126
2239	0.199182	0.200332	0.199346	0.181103	0.201976	0.199182	0.202798
2240	0.19836	0.199346	0.205921	0.178966	0.200332	0.203948	0.202798
2241	0.196059	0.200004	0.199511	0.181924	0.200661	0.199839	0.203455
2242	0.19721	0.198031	0.203291	0.181924	0.199018	0.201319	0.20099
2243	0.199018	0.199346	0.205099	0.181431	0.201647	0.200004	0.2074
2244	0.197703	0.199511	0.202962	0.181267	0.202633	0.201483	0.201647
2245	0.194416	0.199839	0.19836	0.182911	0.201154	0.198853	0.201812
2246	0.199346	0.19721	0.200332	0.179459	0.200825	0.201812	0.201647
2247	0.19836	0.195895	0.202305	0.18554	0.198853	0.203126	0.199839
2248	0.199675	0.196552	0.199839	0.185705	0.202305	0.202305	0.201647
2249	0.198524	0.198031	0.201812	0.185376	0.201154	0.204441	0.196881
2250	0.199839	0.19836	0.200825	0.189156	0.201647	0.201647	0.200332
2251	0.198689	0.197045	0.201812	0.186033	0.20099	0.203291	0.200661
2252	0.200332	0.19836	0.199018	0.185705	0.199182	0.200497	0.200004
2253	0.20099	0.196223	0.199018	0.182417	0.199511	0.200825	0.200168
2254	0.198853	0.197703	0.200825	0.186033	0.200825	0.197538	0.203784
2255	0.201647	0.196223	0.203455	0.18439	0.19836	0.202962	0.20214
2256	0.200004	0.196059	0.195895	0.186855	0.199675	0.199839	0.202469
2257	0.199511	0.19721	0.199839	0.186033	0.203291	0.205099	0.202798
2258	0.201154	0.20099	0.200004	0.189649	0.196881	0.201812	0.203455
2259	0.198689	0.193922	0.198689	0.187841	0.19836	0.203126	0.201976
2260	0.198196	0.202305	0.200332	0.1908	0.203948	0.205592	0.201319
2261	0.203126	0.199346	0.205427	0.19195	0.203455	0.199511	0.200825
2262	0.19836	0.20099	0.204277	0.190471	0.206742	0.203126	0.199018
2263	0.202962	0.200825	0.203291	0.192443	0.199839	0.208879	0.20099
2264	0.200497	0.19721	0.201483	0.193429	0.201647	0.201154	0.195073
2265	0.199511	0.198524	0.199675	0.189649	0.200661	0.203784	0.201483
2266	0.198689	0.198031	0.201483	0.200168	0.201483	0.203948	0.198689
2267	0.199675	0.197867	0.200332	0.1908	0.202305	0.201319	0.197538
2268	0.199346	0.19836	0.199839	0.189156	0.199675	0.201483	0.200168
2269	0.197867	0.201976	0.201812	0.190635	0.198031	0.204113	0.200332
2270	0.196881	0.198689	0.204606	0.192772	0.200332	0.203291	0.199018
2271	0.199511	0.19721	0.202962	0.191621	0.201319	0.199675	0.205592
2272	0.198524	0.193922	0.202962	0.191786	0.197045	0.201483	0.200497
2273	0.205592	0.198689	0.200497	0.193429	0.203126	0.200332	0.20214
2274	0.201483	0.200004	0.201812	0.191293	0.196388	0.203784	0.20362
2275	0.201812	0.197867	0.203126	0.192608	0.199346	0.19836	0.199511
2276	0.203784	0.199839	0.206085	0.193265	0.202305	0.203126	0.203126
2277	0.199839	0.199511	0.205263	0.195402	0.201154	0.206907	0.200825
2278	0.203784	0.201812	0.203455	0.194416	0.199675	0.203291	0.202633
2279	0.201647	0.198689	0.202962	0.193265	0.201812	0.204934	0.20099
2280	0.204277	0.198031	0.203126	0.196223	0.201976	0.208222	0.202962
2281	0.200332	0.202798	0.20477	0.198031	0.205427	0.205921	0.19836
2282	0.20099	0.201647	0.203948	0.195895	0.205263	0.202798	0.200332
2283	0.198689	0.19836	0.204606	0.201319	0.20214	0.206085	0.201976
2284	0.202469	0.202305	0.201483	0.200661	0.205263	0.204277	0.202305
2285	0.20214	0.197045	0.204277	0.196881	0.198524	0.204934	0.20214
2286	0.20099	0.200332	0.203291	0.197538	0.202305	0.202469	0.202469
2287	0.200497	0.196059	0.203291	0.195073	0.204441	0.204113	0.202469
2288	0.199346	0.200168	0.200332	0.197703	0.202469	0.202962	0.203784
2289	0.200497	0.197867	0.202962	0.194744	0.198689	0.205756	0.202962
2290	0.199346	0.196552	0.199675	0.198689	0.204113	0.200825	0.203126
2291	0.197374	0.200168	0.203948	0.195073	0.199675	0.203784	0.204606
2292	0.199346	0.199511	0.199839	0.197374	0.203291	0.203126	0.201976
2293	0.198524	0.197374	0.202798	0.194251	0.205921	0.205921	0.204277
2294	0.195402	0.202633	0.203948	0.197538	0.200661	0.20477	0.19836
2295	0.204277	0.200661	0.201976	0.19458	0.200661	0.209208	0.200332
2296	0.200825	0.201812	0.203784	0.197703	0.201483	0.20477	0.200332
2297	0.205921	0.199018	0.204113	0.202962	0.203784	0.207071	0.197867
2298	0.201976	0.196388	0.203291	0.200332	0.202798	0.205099	0.199346
2299	0.20099	0.200168	0.202798	0.198689	0.202798	0.203291	0.202633
2300	0.200661	0.19721	0.203784	0.199675	0.202469	0.205263	0.198689
2301	0.200661	0.196881	0.198524	0.201976	0.203291	0.20214	0.200825
2302	0.200332	0.194909	0.206085	0.199182	0.201319	0.206414	0.20214
2303	0.200168	0.198196	0.204113	0.19836	0.20362	0.203784	0.203455
2304	0.202305	0.194744	0.201812	0.197374	0.201647	0.205592	0.202962
2305	0.200004	0.197045	0.200332	0.200332	0.202305	0.201483	0.203455
2306	0.204934	0.194087	0.200825	0.198524	0.20099	0.202633	0.201647
2307	0.202469	0.199675	0.198689	0.199511	0.202962	0.200825	0.201647
2308	0.204277	0.200332	0.202469	0.203455	0.199675	0.202962	0.202469
2309	0.203126	0.197703	0.198196	0.200332	0.200004	0.19721	0.2074
2310	0.20362	0.199839	0.200168	0.198689	0.200004	0.200332	0.204277
2311	0.206907	0.201319	0.203455	0.198689	0.197703	0.198524	0.201483
2312	0.201812	0.199675	0.205099	0.200497	0.204934	0.197374	0.198689
2313	0.203126	0.201812	0.206907	0.199018	0.203291	0.210523	0.19836
2314	0.203291	0.200825	0.200168	0.20099	0.20477	0.203126	0.196223
2315	0.201319	0.197374	0.201647	0.199018	0.201647	0.202305	0.196388
2316	0.20099	0.202633	0.202633	0.197538	0.204934	0.201483	0.199675
2317	0.202305	0.197867	0.203784	0.201976	0.203291	0.206249	0.199182
2318	0.202469	0.199182	0.200168	0.202798	0.201647	0.199018	0.199675
2319	0.196717	0.202962	0.205592	0.201483	0.199018	0.203948	0.196552
2320	0.200168	0.198689	0.205427	0.198689	0.199511	0.202305	0.199839
2321	0.201154	0.196388	0.200661	0.199675	0.200332	0.201483	0.199511
2322	0.199346	0.194251	0.20362	0.202633	0.19458	0.200168	0.202469
2323	0.202633	0.194744	0.203455	0.200332	0.198196	0.198031	0.202633
2324	0.196552	0.196388	0.20477	0.200332	0.199018	0.20099	0.201319
2325	0.199839	0.197045	0.206249	0.200497	0.196881	0.199018	0.203291
2326	0.198524	0.199346	0.19721	0.200497	0.199675	0.197703	0.195237
2327	0.20099	0.200168	0.201319	0.198853	0.201976	0.199018	0.205921
2328	0.20099	0.198524	0.201647	0.203784	0.197703	0.201812	0.201154
2329	0.202305	0.200332	0.200661	0.204606	0.206742	0.198524	0.201483
2330	0.200661	0.204441	0.203784	0.188827	0.200332	0.20214	0.201812
2331	0.202305	0.205756	0.200497	0.010336	0.19721	0.199675	0.201483
2332	0.201154	0.201154	0.201319	-1.9e-05	0.198689	0.197045	0.197045
2333	0.203784	0.202633	0.199511	0.014609	0.201154	0.199511	0.201976
2334	0.195237	0.198524	0.206249	0.019868	0.200332	0.19836	0.200168
2335	0.197703	0.199018	0.203455	0.031867	0.201319	0.200497	0.200332
2336	0.203784	0.199839	0.204441	0.036797	0.200661	0.20214	0.200661
2337	0.196881	0.197374	0.201812	0.046166	0.199839	0.200497	0.200497
2338	0.199675	0.198853	0.203126	0.051754	0.196717	0.200168	0.203126
2339	0.19836	0.196881	0.200168	0.059314	0.198031	0.199675	0.201812
2340	0.200004	0.195895	0.200168	0.064409	0.199839	0.199182	0.203784
2341	0.199346	0.19836	0.197045	0.0603	0.197867	0.197703	0.201483
2342	0.19721	0.197374	0.203126	0.069997	0.195402	0.201483	0.204441
2343	0.200168	0.197045	0.201154	0.080187	0.198853	0.197703	0.199018
2344	0.200825	0.202469	0.196717	0.084132	0.197538	0.192443	0.201647
2345	0.199346	0.196717	0.200661	0.088734	0.197703	0.199675	0.198853
2346	0.199182	0.203126	0.199018	0.094487	0.202305	0.198031	0.202798
2347	0.199839	0.199511	0.202798	0.098924	0.199511	0.199675	0.20099
2348	0.201483	0.200497	0.201976	0.109607	0.199182	0.196223	0.196388
2349	0.201812	0.199182	0.201647	0.113223	0.196552	0.19836	0.199675
2350	0.202798	0.200004	0.201319	0.114867	0.199839	0.19836	0.201319
2351	0.203126	0.199839	0.20214	0.120291	0.197045	0.19721	0.199675
2352	0.197045	0.199839	0.200168	0.121441	0.200661	0.197867	0.20362
2353	0.202469	0.196881	0.201319	0.003433	0.199675	0.199346	0.204606
2354	0.204606	0.197703	0.202798	0.011815	0.200332	0.197703	0.20099
2355	0.20477	0.191786	0.202798	0.01576	0.201483	0.199675	0.197867
2356	0.199182	0.19573	0.202962	0.023977	0.197045	0.198031	0.20099
2357	0.203126	0.198031	0.200661	0.032524	0.196223	0.198689	0.204113
2358	0.201976	0.196881	0.204113	0.036797	0.199839	0.197045	0.200004
2359	0.199018	0.196717	0.202469	0.044686	0.199675	0.19195	0.205592
2360	0.199675	0.197045	0.20099	0.053069	0.198524	0.195895	0.200332
2361	0.201154	0.201319	0.205921	0.057671	0.199511	0.194744	0.205756
2362	0.197538	0.196223	0.201647	0.063916	0.188006	0.195073	0.195895
2363	0.200168	0.201812	0.199675	0.069669	0.198853	0.19721	0.202962
2364	0.200825	0.198689	0.205921	0.069669	0.197045	0.199511	0.202633
2365	0.200004	0.200004	0.200497	0.08331	0.198031	0.195566	0.200168
2366	0.205921	0.198853	0.201812	0.08709	0.19836	0.19573	0.199018
2367	0.198853	0.202798	0.202798	0.091692	0.199839	0.199018	0.199018
2368	0.200004	0.199511	0.204441	0.094651	0.198196	0.200004	0.202469
2369	0.199839	0.199511	0.20099	0.099746	0.200332	0.19721	0.197538
2370	0.20099	0.199839	0.202798	0.098924	0.202469	0.200497	0.196717
2371	0.199675	0.199839	0.201647	0.108621	0.195895	0.193429	0.201812
2372	0.201976	0.200004	0.201976	0.107306	0.201976	0.197538	0.203455
2373	0.197045	0.196717	0.204606	0.116346	0.19458	0.196388	0.200661
2374	0.200168	0.199839	0.198524	0.11799	0.196552	0.192772	0.20362
2375	0.199018	0.194909	0.199018	0.117496	0.195073	0.192608	0.201647
2376	0.199182	0.198689	0.205263	0.123578	0.198031	0.186033	0.202633
2377	0.199511	0.197045	0.201812	0.125386	0.198689	0.19458	0.201154
2378	0.199511	0.199675	0.203948	0.12933	0.202469	0.192115	0.205592
2379	0.20099	0.197538	0.205921	0.131302	0.193922	0.189485	0.20099
2380	0.199511	0.201647	0.201319	0.136069	0.198031	0.17535	0.201483
2381	0.19836	0.20099	0.204277	0.134918	0.199675	0.136726	0.199675
2382	0.204113	0.201154	0.201483	0.14215	0.199018	0.127687	0.19836
2383	0.204277	0.195237	0.202469	0.141986	0.203948	0.123413	0.20099
2384	0.196223	0.200332	0.200004	0.146752	0.199675	0.126207	0.199839
2385	0.205921	0.203784	0.203455	0.141164	0.201154	0.123906	0.203291
2386	0.201812	0.193429	0.202633	0.147903	0.201812	0.12555	0.201483
2387	0.202305	0.19721	0.202305	0.148724	0.202469	0.124235	0.202305
2388	0.200004	0.199511	0.201647	0.152833	0.200004	0.119797	0.200168
2389	0.199182	0.199018	0.202962	0.156285	0.201647	0.122592	0.203291
2390	0.192443	0.196717	0.204441	0.155627	0.200332	0.082817	0.201647
2391	0.201976	0.199839	0.204934	0.157271	0.20214	0.056356	0.201647
2392	0.197374	0.197538	0.201647	0.156613	0.199839	0.002282	0.197867
2393	0.195402	0.199346	0.204441	0.163352	0.200332	0.000639	0.197374
2394	0.195566	0.196388	0.206907	0.161215	0.200004	-0.001991	0.20099
2395	0.195895	0.195895	0.202305	0.164996	0.199675	0.003597	0.203126
2396	0.202798	0.21118	0.202633	0.164503	0.197374	0.003926	0.202305
2397	0.19836	0.194909	0.200168	0.167297	0.203291	-1.9e-05	0.199511
2398	0.201154	0.198196	0.199346	0.166968	0.197045	0.000803	0.203784
2399	0.200497	0.204441	0.197867	0.166804	0.200661	0.000474	0.198853
2400	0.200004	0.195237	0.20214	0.164338	0.200332	0.00146	0.203455
2401	0.199346	0.200825	0.199511	0.164831	0.199182	0.00146	0.201483
2402	0.203948	0.197703	0.201812	0.002775	0.203948	-1.9e-05	0.200661
2403	0.204934	0.195895	0.201483	0.01313	0.200497	0.001132	0.200497
2404	0.207235	0.199511	0.202798	0.026278	0.200332	0.00146	0.202469
2405	0.201319	0.198689	0.201976	0.032195	0.203126	0.002447	0.200825
2406	0.198031	0.202305	0.201483	0.037783	0.197045	0.00146	0.200168
2407	0.20099	0.199675	0.202798	0.044522	0.196717	0.001789	0.200497
2408	0.201483	0.19721	0.207564	0.051918	0.199839	-0.001005	0.197374
2409	0.198031	0.199182	0.203291	0.056684	0.200168	0.000803	0.197867
2410	0.201976	0.200661	0.203784	0.063259	0.199018	0.001132	0.202798
2411	0.198853	0.197867	0.20477	0.067696	0.198031	0.00031	0.204113
2412	0.196717	0.20099	0.201647	0.073449	0.202305	0.00031	0.199675
2413	0.200661	0.197867	0.200497	0.077229	0.195402	0.000474	0.202633
2414	0.19721	0.199675	0.199511	0.082324	0.201483	-0.001498	0.196388
2415	0.201812	0.199018	0.200004	0.08594	0.199182	0.001132	0.202469
2416	0.200332	0.20099	0.196388	0.091857	0.205263	-0.000183	0.200825
2417	0.199839	0.199675	0.194744	0.093336	0.19721	0.000146	0.200332
2418	0.200825	0.1908	0.197538	0.097116	0.199346	0.000146	0.198196
2419	0.201976	0.196388	0.199182	0.102376	0.199018	0.000803	0.197703
2420	0.200497	0.200004	0.199018	0.105992	0.200004	0.00146	0.200661
2421	0.200332	0.203291	0.201647	0.112237	0.199346	-0.000676	0.206578
2422	0.203948	0.199675	0.203126	0.114867	0.200825	0.001625	0.200004
2423	0.202633	0.200004	0.201154	0.119633	0.199839	0.000639	0.203455
2424	0.197703	0.199346	0.20477	0.122592	0.201319	0.002447	0.20099
2425	0.198689	0.199675	0.201647	0.128015	0.202798	-0.003306	0.199511
2426	0.198853	0.199839	0.204277	0.12818	0.200332	-0.000183	0.199675
2427	0.198031	0.199182	0.202469	0.135576	0.19836	0.000146	0.200332
2428	0.199018	0.197374	0.201647	0.135904	0.200497	0.000967	0.201812
2429	0.197703	0.188006	0.199346	0.141	0.19573	-0.002155	0.201976
2430	0.200332	0.197374	0.201976	0.144122	0.199839	0.000967	0.200661
2431	0.197045	0.198524	0.202469	0.142479	0.200332	-0.000183	0.201154
2432	0.19721	0.19836	0.203455	0.144944	0.200661	0.000967	0.201647
2433	0.195895	0.197374	0.198524	0.148396	0.198853	-0.002155	0.200168
2434	0.200332	0.197867	0.19721	0.150039	0.200004	-0.002155	0.201976
2435	0.199675	0.198524	0.201319	0.157107	0.199839	0.002447	0.199346
2436	0.203126	0.198689	0.199346	0.153819	0.203455	0.000803	0.202305
2437	0.197045	0.199182	0.201812	0.157271	0.197867	0.001132	0.198689
2438	0.199182	0.20214	0.200168	0.158914	0.189649	-0.001662	0.197538
2439	0.199182	0.198031	0.201812	0.159408	0.196223	0.00146	0.199018
2440	0.19458	0.192443	0.200825	0.163516	0.203126	0.000967	0.198031
2441	0.199018	0.19836	0.202633	0.167132	0.200825	0.001296	0.195402
2442	0.195566	0.20099	0.200004	0.16401	0.202962	0.000967	0.196223
2443	0.200332	0.197538	0.201319	0.166804	0.20099	0.001789	0.19836
2444	0.196717	0.194087	0.197374	0.170091	0.202633	0.000146	0.196717
2445	0.197045	0.195073	0.202798	0.171734	0.202305	-0.000512	0.201483
2446	0.197703	0.199675	0.201483	0.171406	0.20214	-0.001005	0.196717
2447	0.200825	0.193922	0.201812	0.171077	0.20099	0.000146	0.194251
2448	0.198853	0.200004	0.202798	0.176665	0.201483	-0.002155	0.193101
2449	0.201483	0.200004	0.19721	0.177158	0.191786	-0.001991	0.194087
2450	0.199018	0.195566	0.195237	0.180774	0.195895	0.000803	0.19195
2451	0.200332	0.196717	0.202305	0.179459	0.201976	-0.000841	0.19458
2452	0.191786	0.19721	0.198524	0.179295	0.200004	-1.9e-05	0.190471
2453	0.201319	0.196552	0.200004	0.179788	0.198853	-0.000512	0.192936
2454	0.197374	0.20099	0.20362	0.179459	0.198196	0.001296	0.188499
2455	0.194909	0.201154	0.200004	0.180445	0.199346	0.000474	0.188006
2456	0.199346	0.199511	0.200497	0.179952	0.200825	-0.001498	0.187348
2457	0.197867	0.202798	0.200332	0.182253	0.20362	-0.001169	0.183404
2458	0.200825	0.198196	0.199182	0.181267	0.200332	0.001789	0.182746
2459	0.197703	0.201812	0.196223	0.188992	0.203784	-0.001498	0.178802
2460	0.199675	0.199511	0.201647	0.188334	0.199346	-0.000347	0.181431
2461	0.200661	0.199839	0.201647	0.191786	0.201154	-0.000512	0.178966
2462	0.199675	0.199018	0.199839	0.18817	0.201812	0.000967	0.179459
2463	0.199511	0.197045	0.200332	0.192115	0.200825	-0.001662	0.176008
2464	0.199511	0.197867	0.200168	0.186033	0.198689	-0.001662	0.171406
2465	0.198689	0.197374	0.199182	0.18817	0.20099	-1.9e-05	0.174528
2466	0.197538	0.198031	0.196552	0.188499	0.200497	0.000146	0.17157
2467	0.19836	0.196717	0.19573	0.187513	0.195895	-0.001827	0.150204
2468	0.200825	0.200332	0.201319	0.18817	0.20099	-0.001169	0.030387
2469	0.199346	0.197045	0.196717	0.187184	0.197045	-1.9e-05	0.000146
2470	0.201319	0.200497	0.199839	0.191457	0.199018	-0.002484	0.000474
2471	0.199182	0.198853	0.206742	0.187348	0.196552	0.000146	0.005405
2472	0.203291	0.202633	0.200168	0.190307	0.19721	0.000146	-0.000183
2473	0.203291	0.201647	0.198853	0.187677	0.196223	0.000639	0.002282
2474	0.198853	0.205756	0.201812	0.193265	0.197703	-0.000512	0.001132
2475	0.20099	0.199511	0.202633	0.19195	0.199182	0.00031	-0.000676
2476	0.199346	0.200168	0.201319	0.194744	0.201812	-0.001169	0.004748
2477	0.19458	0.198196	0.203784	0.192608	0.196717	0.00146	0.004748
2478	0.201319	0.200004	0.199182	0.197374	0.201319	-0.001334	0.008363
2479	0.199511	0.198196	0.203455	0.193101	0.20099	-0.000183	0.018389
2480	0.198031	0.198689	0.202798	0.194416	0.201483	-0.000841	0.025128
2481	0.20214	0.200004	0.20099	0.193922	0.199675	-0.000841	0.030552
2482	0.19836	0.197374	0.201976	0.19458	0.200825	-0.000676	0.035482
2483	0.19721	0.195566	0.200497	0.196881	0.20214	-0.001005	0.046001
2484	0.198853	0.19836	0.20099	0.194251	0.198853	-0.001169	0.05011
2485	0.19721	0.20362	0.201976	0.196717	0.200825	-0.000347	0.056356
2486	0.199182	0.199511	0.201483	0.193429	0.197703	-0.001827	0.060629
2487	0.202962	0.198853	0.196881	0.194416	0.203455	0.000146	0.067203
2488	0.198853	0.200004	0.206742	0.193429	0.200661	-0.000183	0.071148
2489	0.201483	0.200332	0.196388	0.194251	0.199346	-0.001498	0.074271
2490	0.20099	0.198196	0.202633	0.189649	0.203291	0.000474	0.081174
2491	0.196059	0.20099	0.202633	0.194087	0.201319	-0.001334	0.083639
2492	0.200004	0.20099	0.201812	0.194087	0.201154	-0.000676	0.087912
2493	0.19721	0.200825	0.200332	0.198524	0.201154	-0.001169	0.092679
2494	0.196717	0.199511	0.202962	0.197703	0.201483	0.000146	0.094815
2495	0.199018	0.198031	0.203126	0.197374	0.200661	-0.000512	0.101061
2496	0.194744	0.200332	0.201647	0.199018	0.202633	-0.000183	0.103855
2497	0.195237	0.199346	0.201812	0.199839	0.199182	-0.000183	0.105992
2498	0.206742	0.200332	0.204934	0.200332	0.200661	-0.000183	0.11158
2499	0.193101	0.19836	0.200168	0.194909	0.199346	-0.001005	0.113552
