Ladekurvenmessung

Zeit: 2018_05_04 09.59.12

Info: FVA3, v = 1.05, T = 23, F = 20, h = 587.3

Ladewiderstand[Ohm]: 1012700

Störkapazität[pF]: 0.000000

Entladezeit[ms]: 200

Abtastrate[Hz]: 250000

Anzahl der Messwerte: 2500.000000

Verzögerung[ms]: 3

Ladespannung[V]: 0.200000


	Kurve_1	Kurve_2	Kurve_3	Kurve_4	Kurve_5	Kurve_6
0	-0.001169	-0.006264	0.006062	0.003268	0.002282	-0.002648
1	0.004583	-0.007744	0.00146	0.000146	0.008035	-0.002813
2	0.005734	-0.00347	0.003104	0.003761	0.001789	0.003433
3	0.003761	-0.002484	0.003761	0.001789	0.004583	-1.9e-05
4	0.006062	-0.005278	-1.9e-05	0.00031	0.003104	0.000967
5	0.003433	-0.005114	0.001954	0.001296	0.006227	0.003104
6	0.006556	-0.005771	-1.9e-05	-0.001827	0.005898	0.003597
7	0.000803	-0.008894	0.002118	0.003597	0.006556	0.004419
8	0.003268	-0.00347	-0.000347	0.002611	0.003597	0.001789
9	0.000146	-0.004621	0.003268	0.002775	0.010336	0.003268
10	0.002775	-0.000512	0.002775	-1.9e-05	0.006556	0.005241
11	0.00146	-0.003142	0.00409	0.00031	0.003268	0.002611
12	-0.000347	-0.003799	0.003104	0.002118	0.003761	-0.000183
13	-0.001827	-0.000676	0.003104	0.002775	0.004583	0.002775
14	0.001296	-0.004128	0.006227	0.000146	0.003761	-0.000183
15	0.003761	-0.002484	0.000639	0.003104	0.001789	-0.001662
16	0.004748	-0.003799	0.000967	0.002282	0.003926	0.001789
17	-0.001169	-0.003963	0.002447	0.004255	0.00031	0.00409
18	0.00409	-0.005936	-1.9e-05	0.004748	0.007542	0.003268
19	0.003597	-0.001498	0.002118	0.005241	0.001789	0.001789
20	0.00031	-0.003963	0.000146	0.001132	0.005076	0.003268
21	0.003761	-0.004456	-0.000676	0.002775	0.007377	0.002611
22	0.003268	-0.004128	0.002775	0.001625	0.006556	0.001296
23	0.00294	-0.004128	-0.001827	-0.000183	0.003761	0.001789
24	0.005734	-0.001991	0.000803	0.002775	0.005898	0.000803
25	0.004419	0.001296	0.000146	0.000146	0.00294	0.003268
26	0.002611	-0.005114	0.000146	0.001954	0.006884	0.005898
27	0.00409	-0.001498	0.001296	-1.9e-05	0.007213	0.003268
28	0.001296	-0.004949	0.000803	0.00294	0.00146	0.004748
29	0.002611	-0.004456	0.000803	0.000474	0.000474	0.004583
30	0.001954	0.00031	0.002118	0.003433	0.000146	0.004419
31	0.002118	-0.004621	0.002118	0.000967	0.003926	0.003104
32	0.003433	-0.002484	0.002775	0.003104	0.007706	0.008692
33	0.004419	-0.001991	0.002118	0.000967	0.000146	0.00409
34	0.00146	-0.004128	0.00294	-1.9e-05	0.001132	0.000639
35	-0.000183	-0.002155	0.000967	-1.9e-05	0.004419	0.003926
36	0.006062	-0.000841	-1.9e-05	-0.001827	0.005241	0.002611
37	0.00146	-0.005278	-0.001334	-0.001005	0.004583	0.002611
38	-0.000183	-0.00232	0.000474	-0.001827	0.004748	0.004748
39	0.000803	-0.004456	-0.001169	0.003104	0.003926	0.00146
40	0.001296	-0.002977	-0.002813	-0.000347	0.006227	0.00031
41	0.001789	-0.004621	-0.001991	0.001789	0.004912	0.003597
42	0.000146	-0.001005	0.000967	-0.001827	0.004255	0.003926
43	0.001625	-0.001498	0.00294	0.001296	0.012965	0.004748
44	0.002611	-0.002155	0.00031	0.00031	0.004912	0.002282
45	-0.001991	0.002282	-0.004292	0.000967	0.005734	0.006391
46	-0.000183	0.000146	0.002611	0.000803	0.004583	0.002447
47	0.002611	-0.004621	0.00031	0.001296	-0.001498	0.006391
48	0.005076	0.00146	0.002611	-0.000183	0.00294	0.003433
49	0.006556	-0.004456	0.000967	0.002118	0.004748	0.002611
50	0.00409	-0.003306	-0.001005	0.000146	-0.000347	0.004255
51	0.003104	-1.9e-05	0.000639	0.002118	0.001296	0.004419
52	0.003761	-0.003799	0.000803	0.00031	0.004912	0.005898
53	0.003268	0.003761	-0.002155	0.000474	0.001132	0.00294
54	0.002118	-0.004128	0.001954	0.00146	0.007049	0.005405
55	0.003597	-0.002155	-0.002648	-0.000347	0.001296	0.002611
56	0.002611	-0.003635	0.003268	-0.000841	0.001789	0.000967
57	0.006227	-1.9e-05	0.001296	-0.002648	0.005898	0.00146
58	0.003268	-0.005443	0.000803	0.001789	0.005734	0.00409
59	0.002282	0.001296	0.000803	-0.004949	0.002118	0.001625
60	0.000474	-0.000347	-1.9e-05	-0.002648	0.00294	0.001625
61	0.003433	-0.002648	0.001296	-0.002977	0.002775	0.003926
62	0.004583	0.001789	0.000967	0.001625	0.002282	0.004583
63	0.001954	-0.003306	0.000474	0.001132	0.001954	0.004419
64	0.002118	-0.001169	0.00146	0.003761	0.00294	0.005569
65	0.000474	-0.001005	0.003104	0.002775	0.005569	0.003104
66	0.002118	0.002775	-0.001005	0.002611	-0.003799	0.001789
67	0.003104	-0.002155	0.00294	-0.001005	0.000474	0.00672
68	-1.9e-05	0.00031	-0.000347	-0.000676	-0.002977	-0.000347
69	0.001954	-0.002155	0.001625	0.002282	-1.9e-05	0.002611
70	0.000146	-0.001498	0.001789	-0.001991	-0.002977	0.003433
71	0.001132	-0.003306	-0.002648	0.001625	-0.001991	0.002282
72	0.003104	-0.000512	0.001789	-0.001498	-0.004456	0.003761
73	0.00146	0.000146	-0.001334	0.001296	0.000146	0.004583
74	0.003926	-0.005936	-0.001662	-0.000347	0.001625	0.000474
75	-0.000347	-0.002813	-0.001498	-1.9e-05	0.000146	0.008528
76	-0.001005	-0.000183	-0.001498	0.000639	-0.001169	0.007377
77	-0.001827	-0.001169	-0.00232	-0.001169	-0.004128	0.004583
78	-0.002155	-0.004128	0.005898	-0.001334	-0.001827	-0.002155
79	-0.00347	0.004255	-0.001169	0.001954	-0.005771	0.003597
80	0.000967	-1.9e-05	0.001789	0.00031	-0.0061	0.001954
81	-0.002155	0.000967	0.000803	0.001296	-0.003963	0.001625
82	-0.003963	0.000803	0.002118	0.001296	-0.002484	0.002775
83	-0.001662	0.00031	-0.002813	-1.9e-05	-0.005936	0.003433
84	-0.00347	-0.001169	-0.001827	0.005076	-0.001662	0.003761
85	0.001789	-0.000512	-0.002484	0.00294	-0.000841	0.001789
86	-0.004292	-0.003963	-0.000676	-0.000676	-0.00232	0.002775
87	-0.000841	-0.000841	-0.003799	0.00146	-0.006757	0.004255
88	0.000639	-0.003142	-0.005114	-0.003799	-0.00347	0.002447
89	0.003433	-0.003963	-0.001169	-0.002484	-0.004128	0.001132
90	-0.001991	-0.000512	-0.002484	0.000474	-0.003635	0.002611
91	0.000474	-0.002155	-0.004292	-0.002977	-0.004949	-0.002484
92	-0.001334	-1.9e-05	-0.001662	-0.00347	-0.001662	0.002447
93	-0.001498	-0.001334	-0.001827	-0.000347	-0.001498	-0.003306
94	-0.00232	0.000146	-0.004621	-0.000347	-0.003963	-0.003142
95	-0.003306	0.000803	-0.000347	0.000967	-0.001005	0.00146
96	-0.001169	0.002282	-0.002155	0.001296	-0.004785	-0.001334
97	-0.005114	0.000146	-0.000347	0.00146	-0.001827	0.002118
98	-0.002484	0.002118	-0.001498	0.002611	-0.007579	0.003104
99	-0.00347	-0.001662	-0.002977	0.000474	-0.00725	0.00031
100	-0.004785	0.001132	-0.001005	0.001954	-0.004949	-0.000183
101	-0.00725	0.00409	0.000639	-1.9e-05	-0.000841	0.003761
102	-0.001334	-1.9e-05	-0.00347	-0.000676	-0.003635	0.001132
103	-0.002813	-0.002484	0.002447	0.000146	-0.00232	0.004912
104	-0.000676	0.002118	-0.001827	-0.000347	-0.001991	0.000146
105	-0.001334	0.000639	-0.000841	-0.000183	-0.00232	0.00409
106	0.00146	0.001296	-0.000347	0.000474	0.000146	-0.000512
107	-0.001827	0.002775	-0.002484	0.000803	-0.003306	-0.000512
108	-0.001005	0.001625	-0.001662	-0.004292	0.000639	-0.001498
109	0.000474	0.001296	-0.001827	-0.001169	-0.010045	0.00146
110	-0.002484	0.002282	-0.001827	-0.001498	-0.003142	-0.003306
111	-0.002813	-0.000841	-0.002484	-0.001334	-0.002648	-0.002648
112	-0.001498	0.001296	0.000803	0.00031	-0.000841	0.000474
113	-0.00232	0.004255	-0.001827	-0.000183	-0.003963	0.000474
114	-0.004621	-0.003963	0.001132	0.00146	-0.000841	0.002611
115	-0.001991	0.003926	-0.001334	0.002118	-0.000841	0.000639
116	0.002447	-0.000347	-0.001169	-0.001005	-0.002813	-0.001991
117	0.002611	0.002447	-0.001991	0.005405	-0.001991	0.000967
118	-0.001005	0.000639	0.000803	0.001132	-0.001169	0.003926
119	-0.002484	-0.000512	-1.9e-05	-1.9e-05	-0.002813	-0.000676
120	-0.000512	-0.001334	-0.000183	0.00409	-0.011688	0.003433
121	-0.000183	-0.000347	-0.000841	0.000803	0.000967	-0.000512
122	0.000146	0.000146	-0.000347	0.001132	-0.00347	0.002611
123	0.000146	-0.001005	0.001789	-0.001169	-0.000841	0.001954
124	0.000639	0.001296	0.000967	0.000803	-0.003306	0.002775
125	-0.002484	0.001132	0.001132	-0.002813	0.00294	0.001625
126	0.000474	0.001954	-0.002484	-1.9e-05	-0.000841	-0.000676
127	-1.9e-05	0.00146	0.000639	0.001625	-0.001169	-0.001991
128	-0.000512	0.004419	-0.004128	0.001789	0.002447	-0.000841
129	-0.000512	-0.000512	0.003761	0.000474	0.000639	0.000967
130	-0.000512	0.003104	-0.000512	0.00146	-0.002813	-0.001991
131	-0.001991	-0.001662	0.000967	0.002775	-0.011031	0.003597
132	0.000146	0.001132	0.000146	0.002447	-0.001334	0.002775
133	-0.002648	-0.002813	0.000146	0.001296	-0.001827	-0.001827
134	0.002447	0.000803	-0.001498	0.001789	-0.005278	0.003761
135	0.002118	0.000803	0.00146	0.00409	-1.9e-05	0.005405
136	-0.004128	-0.000841	0.002118	0.002775	-0.000183	0.001954
137	-0.001005	-0.000841	-0.001334	0.005734	-0.000841	0.004912
138	0.003597	-0.001169	0.002611	0.003597	0.000967	0.004419
139	0.00146	-0.001827	-0.001334	0.007706	-0.000841	0.008035
140	-0.00232	-1.9e-05	-0.001498	0.001625	0.000803	0.004419
141	-0.000347	0.000474	-0.001827	0.002775	-0.001827	0.002447
142	0.001625	-0.004785	-0.000183	-1.9e-05	-0.008565	0.001625
143	0.000803	0.000803	-0.002813	0.000639	-0.003799	0.001132
144	-0.002813	-0.001827	-0.001005	-0.000841	-0.001169	0.000967
145	-1.9e-05	0.000474	-0.002977	0.000146	-0.001662	0.001625
146	-0.000512	0.002282	0.003104	-0.000347	-0.001498	0.001954
147	0.002611	0.003433	0.000803	0.002611	0.00409	0.004748
148	-0.003963	0.001296	-0.000676	0.00146	0.001789	0.003268
149	0.000146	0.004748	-0.000347	-0.001005	0.001625	0.003268
150	-0.000512	-0.000841	0.003761	0.003104	0.006556	0.005241
151	0.004912	0.00031	0.001954	0.001789	0.006556	0.004748
152	0.002118	0.000474	0.00294	0.002282	0.00031	0.005569
153	-0.004292	-0.000841	0.00294	0.000474	-0.004949	0.003597
154	0.003104	-0.001662	0.002447	0.002447	-0.002813	0.003761
155	-0.000183	-0.001498	0.001625	-0.002648	-1.9e-05	0.001625
156	0.00294	-0.000183	-0.000841	-0.003306	-0.000183	0.004419
157	0.00146	-0.001005	0.000803	0.001789	0.00146	0.002118
158	0.000146	0.003597	0.00146	-0.000183	-0.000183	0.000639
159	0.003926	0.00031	-0.004621	-1.9e-05	-0.000183	-1.9e-05
160	0.002447	0.003597	0.001789	0.000639	-0.001662	0.001296
161	-0.000183	-0.000183	0.000967	0.002282	0.000146	-0.001662
162	0.001296	-0.000512	-0.000841	0.000967	0.001296	-0.000512
163	-0.001005	0.002118	0.001789	0.001789	0.000474	0.002611
164	0.002611	0.001954	-0.002484	0.00146	-0.006922	0.000803
165	-0.000512	0.001789	0.000474	0.003104	-0.001005	0.004583
166	0.003104	0.000639	0.000474	0.001954	0.00031	0.003104
167	0.004255	0.000639	0.001625	0.000967	0.00031	0.000639
168	0.005241	0.004419	0.001132	0.005569	0.001132	0.000639
169	0.000639	-0.002155	0.004583	0.005241	-0.000512	0.003104
170	0.002775	-0.000512	-0.001334	0.001625	0.005241	0.003268
171	0.003761	0.003268	0.00031	0.004419	-0.002977	0.004583
172	0.000639	-0.001334	-0.001827	0.003926	0.001789	0.00294
173	0.005405	0.000967	-0.001169	0.00146	0.001789	0.003761
174	0.002775	0.001132	0.002447	0.003104	-0.0061	0.003597
175	0.00031	0.00294	-0.001005	0.00031	-0.005114	-0.000347
176	0.002611	-0.001498	0.001296	0.001132	-0.000841	-0.000512
177	0.003597	0.005076	-0.000512	-0.000347	-0.002648	-0.002484
178	0.00031	-0.002155	0.00031	-0.000676	-0.001334	-0.003142
179	0.004583	-0.002484	0.001296	0.000803	0.002775	0.000474
180	0.000146	0.00146	0.006227	-1.9e-05	0.000474	0.001132
181	0.003104	0.000474	-0.004456	-0.002484	-0.000183	-0.00232
182	0.001954	0.000967	0.004748	0.00294	0.001296	0.004255
183	0.00294	0.001132	-0.001827	0.002447	0.005076	0.001296
184	0.008199	-1.9e-05	0.00146	0.003926	-0.002484	0.001954
185	0.002447	0.00146	0.000967	-1.9e-05	-0.000183	0.00294
186	0.001789	-0.001334	-0.001169	0.004583	-0.001827	0.005898
187	0.001132	-0.001169	0.001132	-0.001498	0.000474	0.00031
188	0.001132	-0.000676	0.001296	-0.000183	0.000639	0.006884
189	-0.002813	-0.003306	0.002611	0.000803	-0.000512	0.001625
190	-0.003306	-0.00232	-0.002155	-0.000676	0.001789	0.004583
191	0.001625	-0.001498	0.0105	-0.002648	-0.000183	0.005734
192	0.001789	0.001296	0.001132	-0.000841	-0.001827	-0.001334
193	-0.001498	0.000803	0.000639	0.003104	0.000967	0.001789
194	0.002775	0.00031	0.004255	0.000803	0.000967	0.00146
195	-0.000512	-0.000841	0.006556	0.000639	-0.000841	0.002611
196	0.002447	-0.001662	0.001789	-0.001005	0.005241	-0.000841
197	0.000146	0.000803	-0.000347	0.002611	-0.000512	0.003597
198	0.002118	-1.9e-05	0.000803	-0.002813	0.001789	-0.000183
199	0.002282	0.000803	0.002118	0.001625	0.00146	0.005569
200	-0.001827	0.001296	0.000967	0.00031	0.000639	0.002118
201	-0.001005	-0.001334	-0.001169	0.000146	0.000803	0.001789
202	-0.001334	0.005076	0.008528	-0.000841	-0.001498	0.001296
203	-1.9e-05	0.004748	-0.002648	-0.002155	-0.002648	-0.001005
204	0.001954	0.00294	0.000967	0.003268	0.003433	0.005241
205	-0.001005	0.003104	0.000474	0.001625	0.000474	0.006556
206	-0.001334	0.00031	0.004255	0.000639	-1.9e-05	-0.001662
207	0.001296	-0.002813	0.001132	0.00031	0.00031	0.002447
208	-0.00232	-0.000841	0.002611	0.002447	0.003926	0.003433
209	0.002447	0.000146	0.00031	-1.9e-05	0.000146	-0.001827
210	-0.000841	-0.002155	0.003268	-0.001827	-0.001827	0.002118
211	0.003104	0.001789	0.00294	-0.001334	-0.001169	-0.000841
212	-0.001169	-0.000183	0.001954	-0.001005	-0.000676	0.00146
213	0.00031	-0.000183	0.004255	-0.000841	0.00031	-0.001334
214	0.001132	-0.000347	-1.9e-05	-0.002977	-0.002648	0.002118
215	0.00031	0.00146	-0.001334	0.000146	0.000474	0.00294
216	-0.001662	0.000639	-0.00232	0.000639	0.00031	0.00672
217	0.000639	-0.000347	0.00146	-0.001662	-1.9e-05	0.00409
218	-0.000676	0.00146	-0.001334	-0.002484	0.000146	0.001625
219	-1.9e-05	-0.000183	0.001132	0.001296	0.001954	0.004419
220	-0.001005	-0.001169	-0.001005	-0.000347	-0.000512	0.001625
221	-0.001827	0.000146	0.002447	-0.000347	0.001954	0.002775
222	0.000474	0.003104	0.000474	0.001625	0.00146	0.001954
223	-0.003799	0.000474	0.001954	0.00146	0.002611	0.003104
224	0.000146	0.004583	-0.001334	-0.000183	0.000474	0.001296
225	-0.003306	-0.005114	0.002611	0.002118	-0.000841	0.004255
226	-0.000347	0.001789	-0.000347	0.002282	0.000803	0.002447
227	-0.001991	-0.000512	0.001789	0.001296	-0.001991	0.00409
228	-0.000183	-0.001827	-0.002155	0.000474	-0.004785	-0.001991
229	-0.003963	-0.001169	-0.001498	0.002775	-0.004949	0.005898
230	0.001954	0.004255	0.000146	-1.9e-05	0.005734	0.006062
231	-0.001991	0.000474	-0.001498	0.001132	-0.000841	0.001625
232	-0.000183	-0.002484	0.000474	-0.001991	0.00031	0.001625
233	0.00031	0.00031	0.001132	0.003926	-0.001991	0.001625
234	0.005734	-0.000841	0.001132	0.00031	-0.001827	0.000639
235	0.00031	0.002447	-0.013167	-0.002155	-0.000841	0.003268
236	-0.001498	0.000146	0.000967	-0.005443	0.000474	-0.000183
237	0.000474	0.003104	-0.000347	-1.9e-05	-1.9e-05	0.000639
238	-0.001498	-0.002155	-0.003963	-0.003306	0.004748	0.002775
239	0.001296	0.003104	0.000146	-0.002155	-0.001005	0.002611
240	-0.002155	0.000474	0.001296	0.005241	0.000967	0.002118
241	0.005898	0.00146	0.000146	-1.9e-05	0.001132	0.000803
242	-0.001169	-0.000676	0.003268	0.001296	-0.000183	0.005569
243	-0.000347	-0.003142	0.003104	-0.000841	-1.9e-05	-0.0061
244	-0.004292	0.00146	0.007213	0.003433	-0.001827	0.005734
245	-0.000841	0.001625	0.00409	-0.000841	0.005405	0.001954
246	-0.001005	0.000803	-0.014318	0.001954	0.005241	0.002118
247	0.000474	-0.000676	0.003761	0.001954	-0.000183	0.005898
248	-0.000676	0.002611	0.001625	0.003104	-0.001662	0.004912
249	-0.000183	-0.001827	0.001132	-0.001662	0.001132	0.000967
250	0.002118	0.00146	0.001132	0.001296	-0.000841	-0.000676
251	-0.0061	-0.004292	-0.002484	0.000803	0.000474	-0.000512
252	0.002447	-0.000183	-0.000512	-0.003142	-0.001827	0.000639
253	-0.000347	0.000474	0.002611	-0.001498	0.003433	0.000803
254	-1.9e-05	-0.001005	0.000474	-0.003799	0.000146	-0.001169
255	-0.000347	0.003104	0.000967	0.00294	0.004255	0.001954
256	0.000639	0.00409	0.001132	-0.001334	0.002282	0.00146
257	-0.002484	-0.001169	-0.003963	-0.000183	0.00031	0.002611
258	0.000146	-0.001991	-0.001991	0.001132	0.001625	0.000803
259	-0.001662	0.00146	0.001954	0.002447	-0.001498	0.002775
260	-0.001827	0.000146	0.001296	-0.00347	0.001625	0.000474
261	0.003104	-0.000183	-0.000676	0.001625	-0.000183	0.001789
262	-0.001005	-0.001991	0.001625	0.001954	-0.000512	0.002118
263	-0.001662	0.000146	-0.001498	0.001296	-0.000183	0.00409
264	0.002282	-0.002977	0.000639	0.005734	-0.000347	0.00146
265	0.003761	0.000146	0.000474	-0.00232	-0.000676	-1.9e-05
266	-0.000183	0.001954	0.000639	-0.001498	-0.000183	-0.001991
267	0.001789	0.001296	-0.000841	-1.9e-05	-0.001005	0.003433
268	0.002611	-0.000676	-0.000676	-0.004128	-0.000347	0.001625
269	0.006227	-0.000676	-0.004292	-0.002813	-0.000676	0.000967
270	0.00031	0.002118	-0.000183	-0.000841	0.000474	0.003926
271	0.003104	0.000803	-0.004949	-0.002977	0.001625	-0.000676
272	0.004583	-1.9e-05	0.001954	0.000639	0.001296	0.003761
273	0.000803	0.003597	-0.000183	0.000803	0.003433	0.000967
274	-0.000676	-0.002155	0.000639	0.001954	0.002611	0.00146
275	0.001296	-0.003799	0.000146	0.001296	0.002775	-1.9e-05
276	-0.000512	-0.001334	0.002118	0.001789	0.000967	0.002282
277	0.000146	0.000146	0.001954	0.000803	0.001789	0.000967
278	0.000146	-0.001169	-0.001662	0.001954	-0.001827	0.002775
279	0.000967	0.004912	-0.001662	0.002118	-0.003963	0.005898
280	0.001625	-0.000183	-0.003635	0.001625	0.000803	0.008363
281	0.001625	-0.001827	0.000474	0.000803	0.001132	0.005405
282	0.001789	-0.001005	-0.001991	0.000967	-1.9e-05	0.001789
283	0.004912	-0.002813	0.000146	0.001296	-0.001005	0.003104
284	0.005734	-0.001169	-1.9e-05	0.001296	0.00031	0.000803
285	0.000639	-0.000676	-1.9e-05	-0.001827	-0.001498	0.002282
286	0.004912	-0.000183	-0.004456	0.000967	0.003597	-0.004785
287	-0.000183	0.000146	0.001132	0.004255	-0.001169	-0.002155
288	0.000967	-0.000512	-0.001827	-0.001827	0.00146	-0.002977
289	0.000803	-0.003963	-0.002977	0.005734	-0.000676	-0.000347
290	0.003926	0.001789	-0.005278	0.002118	0.001132	-0.001662
291	0.000474	-0.001005	-0.001662	-0.001005	0.00146	0.001296
292	-0.001005	0.002118	0.002775	-0.000676	0.001132	0.000803
293	-0.002648	0.001789	0.000803	-0.000512	0.001625	0.001296
294	-0.000841	-0.001334	0.004583	-0.001334	0.000639	0.000474
295	-0.002648	0.001132	0.004255	0.004583	0.003597	0.002775
296	-0.001005	-0.000183	0.001954	0.001625	0.001625	0.000474
297	-0.001005	0.003926	0.00146	-0.000183	-0.002813	-0.001991
298	-0.000183	-1.9e-05	0.001789	0.000474	0.000803	0.002447
299	0.00146	0.001954	-1.9e-05	-0.000512	-0.000841	0.000967
300	0.003433	-1.9e-05	0.001954	0.000639	-0.000676	0.001625
301	0.003104	0.00031	0.000639	0.000474	-0.001334	-0.001169
302	0.002447	-0.00347	0.005898	0.000474	0.004748	0.001789
303	0.00294	0.002118	0.000639	-0.002155	0.003104	-0.001827
304	0.003597	-0.002155	0.000474	-0.004621	0.000639	0.001954
305	0.002282	0.00031	0.001789	-0.004949	0.000967	-0.002155
306	-0.000183	0.000146	-0.000183	0.002282	0.003104	-0.003306
307	-0.000841	0.000803	0.000967	-0.002484	0.000146	-0.004456
308	-0.000512	-0.002648	-1.9e-05	0.001296	0.002611	-0.000183
309	-0.001662	0.001625	0.003104	0.00031	0.001296	-0.002977
310	-0.00232	0.003104	0.001789	-1.9e-05	0.000803	0.000146
311	-0.000183	-0.001169	0.003761	0.001296	0.004583	-0.000347
312	-0.000183	0.002118	0.00146	0.002447	0.000639	0.002611
313	-0.001662	-0.000183	0.003597	0.001954	0.00146	0.003433
314	0.003104	0.002282	-0.003142	0.001954	-0.000183	0.000967
315	-0.001005	-1.9e-05	0.004255	0.001296	0.001789	0.005076
316	0.003761	0.000803	0.00031	0.000474	-0.001334	0.000803
317	-0.001662	-0.001005	0.000967	0.004583	0.000967	0.000639
318	0.003433	0.000967	0.001132	0.001789	0.000967	-0.002813
319	0.003761	-0.001334	-1.9e-05	0.005076	0.001132	0.004912
320	0.000639	0.002447	-0.002648	-0.000676	-0.001169	-0.002484
321	0.004419	-0.000512	-0.001991	0.000803	-0.002484	-0.002155
322	0.000474	-0.001005	-0.002484	-0.001334	-0.004621	0.000146
323	-0.002155	0.00146	-0.002155	0.000639	-0.002484	0.000803
324	0.001954	-0.002155	0.001132	-0.000676	0.001954	-1.9e-05
325	-0.001827	-0.003142	-0.003306	-0.000512	-0.00232	0.000474
326	-1.9e-05	-0.003142	0.001954	0.000967	0.00294	-0.001005
327	0.003926	-0.000841	0.00031	0.00294	-0.000183	0.00146
328	-0.003963	-0.002155	-0.001334	-0.001334	0.003433	0.001132
329	-0.001498	-0.000183	-0.001991	0.004419	-0.003963	0.003597
330	-0.003963	-0.003799	-0.000841	0.000639	0.002118	0.001954
331	-0.001005	-0.000676	0.003104	0.002775	-0.000183	-0.001334
332	-0.003306	0.002282	0.000474	0.000803	-0.001169	0.001625
333	0.001954	0.001954	-0.000512	-0.001662	-0.001827	-0.001991
334	-0.000512	0.000146	-0.000347	0.002447	-0.001827	0.000967
335	-0.000512	-0.002484	0.001625	0.002118	-0.001827	0.004583
336	-0.003142	-0.002648	-0.001334	0.004748	-0.001827	0.000146
337	0.000639	-0.002813	-0.002813	0.000474	0.00146	-0.000512
338	-0.00725	-0.001334	-0.002813	0.003268	-0.000512	-0.000183
339	-0.000347	-0.000512	-0.004456	-0.001498	0.002775	-0.00232
340	-0.002648	-1.9e-05	-0.003635	-0.001498	-0.001827	0.000146
341	-0.005771	-0.001827	-0.002813	-0.006593	0.002775	-0.003142
342	-0.001662	0.000146	-0.001991	-0.001334	-0.000512	-1.9e-05
343	-0.001827	0.000803	0.007213	-0.004128	0.00294	-0.001334
344	-0.004621	0.004583	0.002447	0.001296	-1.9e-05	-0.001662
345	-0.001334	0.00294	-0.001827	0.002611	0.005405	-0.000512
346	-0.00232	0.001789	0.002118	0.00031	-0.002648	-0.000183
347	-0.002813	0.001296	0.002447	-0.000347	-0.004292	0.00146
348	-0.000183	0.001296	0.000146	-0.001005	0.00294	0.001954
349	-0.01629	-0.000347	0.00294	0.003268	0.002118	0.005569
350	-0.005114	0.003433	0.001132	-0.001005	0.000146	0.000474
351	-0.005771	0.00146	0.002447	0.003104	0.00031	0.001789
352	-0.00232	0.001625	-0.000183	0.000803	-0.001334	0.003268
353	-0.000841	0.00409	0.003268	0.001296	-0.003963	0.002118
354	0.001296	-0.002648	-0.001662	-0.00232	-0.003306	-0.000841
355	-0.001169	0.003926	0.00031	-0.002648	-0.001498	0.000803
356	-0.002813	-0.001169	0.000146	-0.001827	-0.000183	-0.001498
357	0.003104	0.00146	0.002611	0.001625	-0.002977	-0.000183
358	0.003597	-0.000183	0.001132	-0.002648	-0.000512	-0.005607
359	0.000146	-0.002155	-0.003635	-0.002484	0.000967	-0.000676
360	-0.006429	-0.000183	0.001296	0.001296	0.004255	-0.001005
361	-0.002155	-0.000347	-0.001169	0.000639	0.002611	-0.001662
362	0.000639	-0.000347	0.001296	0.003597	0.003104	0.001625
363	-0.002484	0.002775	-0.000183	0.004748	0.003926	-0.001334
364	0.000803	0.003104	0.003433	-0.00232	0.001625	0.00031
365	-0.001827	0.004419	0.001296	0.001296	0.00146	0.000146
366	-0.003142	0.003926	0.003761	0.002118	-0.000347	0.005076
367	-0.000347	0.001296	0.00146	-0.002648	0.000474	-0.001005
368	0.002282	0.002775	0.004583	0.004583	0.000146	0.00146
369	0.00146	-0.000512	0.002775	0.007377	-0.002813	-0.002977
370	0.000146	0.001954	0.000639	0.001954	0.003104	0.00146
371	0.002447	-0.001662	-0.001662	0.001625	0.003104	0.001132
372	-0.000512	0.00031	0.000146	0.003268	-0.001662	0.00031
373	0.000146	-0.002155	-0.000841	0.000803	0.001789	-0.002155
374	0.003761	-0.004128	-0.000676	0.008199	0.003761	-0.001169
375	-0.002484	0.000803	0.001789	-0.001498	-0.001169	-0.002484
376	0.001296	0.003761	-0.001498	-0.000841	-0.000676	-0.007086
377	0.001625	-0.000841	0.004583	0.00146	0.001625	0.001625
378	-0.002648	0.002118	-0.000841	-0.000841	0.000967	-0.001005
379	0.00031	0.00294	-1.9e-05	0.002611	0.001625	0.001132
380	-0.000347	0.002775	-0.002484	0.000803	-0.006757	-0.001005
381	-0.002813	0.00294	0.00031	0.001296	0.002282	-0.003142
382	-0.000676	0.004255	0.00146	0.00031	0.003433	-0.002977
383	-0.000183	0.002282	0.001132	0.002775	-0.00232	-0.000183
384	0.000967	-0.000347	0.003104	0.005569	0.000474	-0.001169
385	-0.000841	0.002118	0.00146	0.003433	0.001132	0.005898
386	0.000803	0.002447	0.005898	-0.001498	0.001132	-1.9e-05
387	0.00031	0.00409	-0.000512	0.003433	0.000146	0.002611
388	-0.000512	0.003433	-0.001827	0.001625	0.001296	-1.9e-05
389	0.00146	-0.003142	0.001132	0.00294	-0.000841	-0.001827
390	0.004748	-0.001827	0.003268	-0.001334	0.002447	0.000967
391	0.003268	-0.002977	-0.001991	0.003268	-0.001005	-0.00232
392	-0.002813	-0.002813	0.001954	0.003761	0.003597	-0.001334
393	0.003926	-0.004949	0.00294	0.001132	0.003761	-0.001498
394	0.000474	-0.000183	0.006556	0.003433	0.001132	-0.000347
395	-0.000183	0.001132	0.002447	0.000639	0.003104	-0.001169
396	-0.001334	0.000639	-1.9e-05	-0.011524	0.002118	-0.001169
397	0.00146	0.006884	0.007542	-0.001169	-0.002813	-0.000512
398	-0.005278	0.003597	0.001954	0.001132	0.00409	-0.000512
399	0.001296	0.001296	0.001296	0.00146	0.001789	-0.004949
400	-0.001005	0.001954	0.004583	-0.001169	-1.9e-05	-0.001169
401	-0.000512	0.000803	0.006391	0.001954	0.005076	-0.002977
402	0.00031	0.002282	0.001132	0.003104	0.000146	-0.001169
403	0.000803	0.000146	0.002775	-0.000183	0.004419	-0.001169
404	0.002118	0.000803	-0.00232	0.003268	0.000474	0.001954
405	0.00031	0.000639	0.003433	0.000474	0.004748	0.000146
406	0.000146	-0.000512	0.000803	0.001132	0.002118	-0.002155
407	0.00031	-0.000347	0.000146	-0.006757	0.001789	-1.9e-05
408	0.004419	0.004912	0.003268	-0.00232	0.00146	-0.004128
409	0.001625	-0.003306	0.003268	0.001132	0.001296	-0.002648
410	0.00294	0.002118	0.001132	-0.002484	0.003433	-0.001827
411	0.000146	0.000474	0.00294	0.000146	0.004419	-0.002484
412	0.004255	-0.000676	0.003597	-0.000183	0.00409	-0.005114
413	-0.00232	0.003104	0.004583	0.005734	0.003597	-0.003142
414	0.001132	0.001296	-0.000347	-1.9e-05	0.006227	-0.001498
415	0.000967	0.000474	0.003433	0.003268	0.001132	-1.9e-05
416	0.000639	0.002118	0.004419	0.000803	0.002775	-0.001169
417	-1.9e-05	0.002447	0.002611	0.002447	0.002611	-1.9e-05
418	0.000803	-0.000347	0.003104	-0.000512	0.004583	0.002118
419	0.003268	0.002775	0.007213	0.001625	-0.000183	0.001789
420	-0.000347	-0.000183	0.005569	0.003597	0.004912	-1.9e-05
421	0.002775	0.00146	0.003761	0.004912	0.005898	0.002118
422	0.000639	0.000639	0.005076	0.003433	0.004255	0.001954
423	0.00146	-0.001498	0.002282	-0.000183	0.00409	-0.001334
424	0.002118	-0.00232	0.002775	0.002775	0.005734	-0.002648
425	0.001789	0.000967	0.002611	-0.000183	0.00409	0.000146
426	-0.000183	-0.002813	0.002447	0.002611	0.002775	0.001789
427	0.003926	-0.000841	-1.9e-05	-1.9e-05	0.003268	-0.000512
428	-0.001005	0.000803	-1.9e-05	-1.9e-05	0.001296	0.000146
429	0.001132	-0.000676	-0.001662	0.000146	0.001132	-0.003306
430	-0.00347	0.003597	0.000803	0.00146	-0.000841	-1.9e-05
431	0.000639	0.001625	0.001625	-0.000512	0.00031	-0.005771
432	0.000146	0.000146	0.000639	0.000639	0.001789	-0.001169
433	0.004748	-0.002155	0.003597	-0.001498	0.003597	-0.001662
434	0.00294	0.00146	0.000474	0.000967	0.002611	-0.001991
435	0.000639	-0.000512	-0.000512	-0.001498	0.00787	0.002447
436	0.002282	0.000967	0.001132	-0.000183	0.006062	0.003597
437	-1.9e-05	-0.001991	0.00031	0.002282	0.006391	0.003268
438	0.003268	-0.002648	-0.000841	0.003104	0.00294	0.002118
439	-0.001169	-0.001827	0.001954	0.001954	0.005076	0.005241
440	0.000639	0.000474	0.000474	-0.000183	0.003268	-0.000512
441	0.00146	-0.002977	0.004912	0.002775	0.002611	0.002775
442	-1.9e-05	-0.001005	0.001789	0.002118	0.004583	0.001625
443	0.00146	-0.002813	0.003926	-0.003963	0.005241	0.000967
444	0.002775	0.000639	0.005405	-0.001169	0.007049	0.002447
445	-0.000183	0.003597	0.007213	0.001789	0.001625	0.002611
446	0.001132	-0.001827	-0.000183	-0.002484	0.006227	-0.002484
447	-0.000841	0.003268	0.005734	-0.001169	0.004583	0.002118
448	0.000146	0.000639	0.00409	0.002118	0.00409	-0.000676
449	0.003104	0.001954	0.002282	0.00031	0.004255	0.002118
450	0.000474	-0.004456	0.002447	-0.000512	0.004583	0.004748
451	0.000803	0.002611	0.002447	0.002447	0.004255	0.000474
452	0.00146	-0.000183	0.004583	0.001296	0.006391	0.003597
453	0.001132	0.001789	-0.002484	0.000639	0.005898	0.003926
454	-0.000676	-0.001005	0.011158	0.001789	0.009021	0.003761
455	0.003104	0.001954	0.003926	0.00146	0.010171	0.000803
456	-0.002648	-0.001169	0.007706	0.004419	0.005405	0.002282
457	-0.00232	0.001789	0.003104	-0.00232	0.007049	0.00031
458	0.000474	0.000803	0.005569	-0.001827	0.006062	-0.000512
459	-0.000183	-0.001991	0.003597	0.001625	0.002447	-0.001498
460	0.002611	-0.000841	0.002282	-0.000347	0.003268	0.002775
461	0.000967	-0.001662	0.003926	-0.003306	0.004583	0.002282
462	0.00146	-0.001005	0.00031	-0.002813	-0.000183	0.004255
463	0.001789	0.001625	0.003268	0.000474	0.001789	-0.002155
464	0.00146	-0.000841	0.001132	-0.000347	-1.9e-05	0.001296
465	-1.9e-05	0.001132	0.004419	0.00031	-0.000347	0.00146
466	-1.9e-05	0.002775	0.000474	0.000474	0.002447	0.000474
467	0.003433	-1.9e-05	0.00294	0.000967	0.00294	0.001296
468	0.004255	0.00294	-0.002155	-0.001991	0.00409	-1.9e-05
469	0.000474	0.00146	-0.001991	0.00031	0.005241	0.003433
470	0.005569	0.002282	0.00146	0.003268	0.000146	0.002611
471	0.000474	0.000803	0.003268	0.001789	0.006227	0.000146
472	-0.000841	0.002282	0.002447	0.001789	0.002611	0.004419
473	0.001132	-0.001169	0.002775	0.003268	0.002775	0.007049
474	-0.000512	-0.002155	0.004912	0.002118	0.00146	0.003433
475	-0.000347	-0.000347	0.006062	0.001789	-0.00347	0.006556
476	0.000967	0.000474	0.004912	0.000639	-0.003635	0.001132
477	-0.000347	0.001954	0.005076	0.005569	-0.000183	0.005569
478	0.00294	0.001296	-0.000512	0.001296	-0.003635	0.002775
479	-0.000183	0.000803	0.000967	-0.000347	-0.00347	0.000803
480	0.001132	-0.001169	0.002118	-0.001334	0.001132	0.001296
481	0.001132	0.00031	0.000639	0.002447	-0.002813	0.002282
482	0.002775	-0.002484	0.00294	0.000639	-0.000183	0.003433
483	0.003761	-0.001169	0.00146	-0.000183	-0.001334	-0.002484
484	0.006556	0.000967	0.001132	0.000639	0.00031	0.002611
485	0.001625	0.003433	0.001132	-0.002813	-0.002155	0.000967
486	0.002118	-0.002813	0.003761	0.000639	0.000639	0.002282
487	0.001625	0.005076	0.003104	0.000967	0.001625	0.002447
488	-0.001991	0.001789	0.000639	0.000967	0.000639	0.00146
489	0.000474	0.001132	-1.9e-05	0.000639	0.00146	0.00409
490	-0.000512	0.000474	0.002447	0.003433	0.00294	0.00146
491	-0.001005	-0.001169	0.002775	-0.001005	0.003597	0.001296
492	0.000803	-0.001334	0.004583	0.000474	0.000803	-0.004128
493	-0.000841	-0.002484	0.005569	-0.001827	0.00294	0.001132
494	-0.005771	-0.001169	0.006227	0.001625	0.004583	0.001296
495	-0.001334	0.002775	0.005076	0.000639	-0.001662	0.000146
496	0.000146	0.003926	0.006062	0.002775	-0.0061	0.002118
497	-0.00232	-0.00232	0.006062	0.000967	-0.001005	0.000146
498	0.000967	0.003761	0.003268	-0.001005	-0.002977	0.001789
499	0.000967	0.003104	0.003926	0.002118	-1.9e-05	0.000146
500	0.001954	0.001954	0.004419	0.001954	-0.003799	-0.000841
501	0.001296	0.002447	0.005405	0.000146	0.004419	0.000803
502	0.002447	0.001789	-0.000841	-0.000183	0.002611	0.001132
503	0.000803	-0.001005	0.001296	0.001296	0.003104	0.003433
504	0.002447	0.002611	0.007706	0.00146	0.004583	0.000146
505	-0.000676	0.001132	0.003104	-0.001498	-0.001827	0.003104
506	0.001954	0.001789	0.006227	0.001625	0.000803	-1.9e-05
507	-0.003306	0.00031	0.003761	0.002447	-0.002813	0.00294
508	-1.9e-05	0.001132	0.003268	-0.003963	-1.9e-05	0.00031
509	-0.000512	0.001132	0.005241	0.001789	-0.001991	0.002447
510	-0.00347	-0.000183	0.005898	0.000967	0.000146	0.000803
511	0.002775	-0.000183	0.003268	0.002775	0.000967	0.001132
512	0.001296	0.001789	0.004912	-0.000183	0.000967	-0.000676
513	0.001789	0.000967	0.003104	-1.9e-05	-0.000183	0.001789
514	0.002611	-0.001827	0.003926	0.00294	-0.002648	0.002447
515	0.00409	0.002775	0.00146	-1.9e-05	-0.00232	0.002282
516	0.001789	-0.001334	0.004912	0.002447	-0.001498	0.000803
517	0.004255	0.002282	-0.001334	0.00294	-0.001662	0.001954
518	0.002611	-0.001334	0.001954	-0.00232	-0.001334	0.004583
519	0.002118	0.000967	-0.000676	0.000967	-0.000183	-0.001169
520	0.001132	0.001132	0.001954	0.00031	-0.000676	0.00294
521	0.000474	0.00409	-1.9e-05	-0.000183	-0.000512	-0.000347
522	0.00031	0.002447	0.00409	0.001296	-0.001334	0.002775
523	-1.9e-05	0.001296	0.002775	-0.000347	0.004912	-0.002977
524	-0.000347	0.001132	0.000967	0.004255	-0.000183	0.003761
525	0.000146	0.000474	0.003104	0.002611	0.001625	0.001625
526	-0.000512	0.00294	0.002775	0.004583	0.000474	0.002447
527	-0.00347	-1.9e-05	0.003597	0.002118	0.000803	0.000474
528	0.003268	0.002775	-0.001334	0.00409	-0.002155	0.000803
529	-0.001827	0.000803	0.003926	0.005241	-0.003963	0.003104
530	0.001132	-0.000512	0.002775	0.00031	-0.002977	-0.000512
531	0.00031	-0.001169	0.001296	0.001789	-1.9e-05	0.002611
532	0.001789	0.00294	0.004419	0.00146	-0.00347	0.000967
533	0.001132	0.000803	0.000146	0.003926	-0.000676	0.000803
534	0.008528	0.004748	-1.9e-05	-0.00232	-0.000841	0.000474
535	0.002775	0.000474	0.00146	-0.003963	0.001132	0.003761
536	0.00294	0.001954	-0.001827	0.000803	0.002611	-0.001827
537	0.002282	0.000967	-0.000512	0.00409	0.001132	-0.000183
538	0.00031	-0.000512	-0.000183	0.000146	0.002447	0.000639
539	0.000474	-0.000512	-0.001827	0.001625	0.00294	-0.001662
540	0.000146	0.000803	0.001625	0.001132	0.000474	0.000967
541	-0.001334	-0.002813	-0.000183	0.001625	-0.000183	0.00146
542	-0.003799	-0.000512	0.004583	0.002447	0.003597	0.00146
543	-0.001827	0.002775	-0.001169	0.006391	-0.000512	0.004912
544	-0.001169	0.00146	0.004255	0.003761	0.002611	-0.001334
545	0.003104	0.001789	0.003761	0.00294	0.000967	0.005734
546	0.002447	0.001625	0.00409	0.00294	-0.002648	0.003433
547	-0.001827	-0.000183	0.002282	0.001132	-0.00347	0.001954
548	0.001789	-0.001827	0.003597	0.002775	0.000803	-0.000841
549	0.003597	0.001296	-0.000512	0.000639	-0.003306	0.004419
550	-0.000841	-0.001005	0.002447	0.001625	-1.9e-05	0.001132
551	0.004748	-0.000512	0.000474	0.002447	0.000967	0.00031
552	0.001296	-0.000676	0.002447	0.000474	-0.000841	-0.001334
553	0.001625	-0.000347	-0.000512	-0.000512	-0.001005	0.000474
554	0.00031	0.002447	-1.9e-05	0.000803	0.002611	-1.9e-05
555	0.004419	0.00146	0.002447	-0.002155	-0.00232	-1.9e-05
556	0.003761	0.002611	-0.007579	-0.000183	-0.001662	-0.003306
557	0.00146	0.000474	-0.001991	-0.001991	0.001954	-0.001005
558	0.002447	0.003597	0.001296	0.000474	0.001954	0.002611
559	-0.000347	-0.004456	0.001132	0.005076	0.002611	-1.9e-05
560	0.00031	0.002611	-0.001005	0.006062	-0.000183	0.005898
561	0.00031	-0.000841	0.007706	0.003104	0.002447	-0.003306
562	0.00294	0.001296	0.001789	0.006391	-0.001991	0.001296
563	0.000639	-0.000512	0.00146	0.003104	0.00031	0.002447
564	0.000639	-1.9e-05	0.001954	0.00294	0.000146	0.000639
565	0.000639	-0.000347	0.000639	0.002447	-0.003963	0.003104
566	0.002282	0.001296	0.003926	0.003268	-0.001991	-0.000183
567	0.003926	0.001789	0.00409	0.003104	-0.000183	0.000803
568	0.003926	-0.000676	-0.001334	-0.003635	0.000967	0.000474
569	0.001296	0.001296	0.001296	-0.00347	0.001132	0.002118
570	0.001625	0.001954	-0.000183	-0.007744	0.002447	-0.001498
571	0.001625	0.000967	-0.002813	-0.002155	0.001789	0.007213
572	-0.000676	-0.001991	0.003104	-0.010045	0.000474	-0.00232
573	0.002282	-1.9e-05	-0.000183	-0.00347	0.00031	0.000639
574	0.001625	-0.004456	0.003433	-0.007415	0.001296	0.000474
575	-0.000183	0.00409	0.00031	-0.003635	0.00146	-0.002155
576	-1.9e-05	-0.000841	0.000474	-0.002813	0.001132	0.001789
577	0.003433	0.002282	-0.001827	-0.00232	-0.001169	0.002775
578	-0.000841	0.001296	-0.001005	-0.00232	0.001132	0.000474
579	0.002118	0.000474	-0.000841	-0.002813	-0.002813	0.00031
580	-0.001169	-0.001169	0.003433	-0.000347	0.00031	0.001625
581	0.000803	0.002447	-1.9e-05	-0.002977	-0.000512	0.00031
582	0.002282	-0.002484	0.00146	-1.9e-05	-0.000676	-0.008565
583	0.003268	0.00294	0.001789	-0.001991	-0.000183	0.000803
584	0.00031	-0.001005	-0.002155	-0.00232	-0.00232	0.00146
585	0.003597	-0.005443	0.000474	-0.00347	-0.000347	0.001789
586	0.000474	-0.001498	-0.000512	-0.002648	-0.001498	0.000474
587	0.002611	-0.001169	-0.002484	-0.003799	0.001132	0.00031
588	0.004255	-0.001827	-0.002155	-0.002977	-0.001334	-0.000347
589	0.001789	-0.002484	0.000474	-0.00232	0.001789	-0.000676
590	0.000474	-0.001334	-0.000512	-0.007086	-0.001334	-0.000183
591	0.000803	-0.001662	-0.000183	-0.001169	0.001954	0.00146
592	0.002775	0.002775	0.00146	-0.00232	0.000967	-0.004128
593	0.000803	-0.000512	0.000803	-0.001991	0.003104	-0.00988
594	0.001789	0.002282	-0.000183	-0.000512	0.000639	0.001132
595	-0.001005	0.001789	0.005569	-0.001827	0.003268	0.000474
596	0.006884	0.000639	0.003761	-0.003306	0.000967	0.001296
597	0.000803	0.000146	0.003926	-0.001991	0.00031	0.003761
598	0.001132	0.000474	0.001789	-0.003306	0.00146	0.001296
599	0.003104	-1.9e-05	0.002447	0.00146	-1.9e-05	0.003597
600	0.003761	0.000803	0.002611	-0.001991	-0.000676	0.000639
601	0.00146	-0.001498	-0.001005	-0.000183	-0.001498	0.003268
602	0.009185	-0.001169	0.002282	0.000146	0.000803	0.006556
603	0.002118	0.000803	0.001789	-0.001169	-0.003142	0.00146
604	0.002447	-0.003142	0.000639	-0.00347	0.002775	-0.004456
605	0.007049	0.001132	0.001625	-0.002977	0.000967	0.000967
606	0.00294	-0.000841	0.003926	-0.003963	0.001789	0.000146
607	0.005734	0.001954	-0.000841	-0.004456	0.003761	-0.004621
608	0.003926	-0.003635	0.003761	-0.002484	0.002118	0.002775
609	0.001132	0.000967	-0.000512	-0.004456	0.003268	-0.002484
610	0.006227	-0.000183	0.005241	-0.000676	0.001789	0.000146
611	0.007213	0.005569	0.000967	0.000803	0.001132	-0.003963
612	0.001625	-0.001005	0.00146	0.000803	-0.000841	0.002447
613	0.001132	0.000967	0.003761	-0.000347	0.004419	0.00294
614	-0.002155	0.001132	0.00409	0.003597	-0.000512	0.003761
615	-0.001991	-0.001005	0.001789	-0.000841	0.002118	0.002611
616	-0.002813	-0.000676	0.006884	0.003597	-0.002813	0.002447
617	-0.003142	0.000967	0.006884	0.000639	-0.000841	0.001625
618	-0.001662	0.000146	0.007213	0.003433	0.001789	0.003268
619	-0.000183	0.00146	0.003597	-0.001991	0.002775	0.001954
620	-0.003306	0.00146	0.00146	-0.002813	-0.001662	0.002447
621	0.003104	-0.000676	0.002775	-0.002484	0.002447	0.001296
622	0.004419	0.004912	0.001789	-0.001334	0.00031	0.00294
623	-1.9e-05	-0.007086	0.001625	-0.002813	-0.001662	0.000474
624	0.003433	-0.005278	0.002775	-0.001498	-1.9e-05	0.000146
625	0.001789	-0.001005	0.003433	0.00031	0.001296	0.005241
626	0.003104	-0.000676	0.001625	0.002282	0.001296	-0.001005
627	0.000639	-0.000512	0.00294	-0.002648	0.00031	0.005898
628	-0.000512	0.003597	0.00409	0.001296	-0.001662	0.000967
629	0.001789	0.00146	0.005241	-0.000183	0.001789	0.003433
630	0.001789	0.000639	0.003268	0.003104	0.002118	0.001132
631	-0.004785	0.003268	0.00294	0.001789	0.00031	0.003268
632	0.002282	-0.001169	0.003104	0.00031	0.000639	0.003433
633	-0.001334	-0.001498	0.00294	0.002118	0.000803	0.004748
634	-0.005443	-0.004128	0.001954	-0.00347	-0.000676	0.004748
635	-0.001169	-0.003142	0.001954	0.000474	0.001625	0.003104
636	-0.002155	-0.001498	0.001954	0.000474	0.001296	0.004748
637	-0.00725	0.004748	-0.001662	0.000146	-0.000841	0.003104
638	0.000146	-0.004621	0.003761	-0.000676	0.003104	0.001954
639	-0.00232	0.001296	0.003433	-0.000183	-0.002813	0.000474
640	-0.002155	-0.000841	0.003104	-0.001498	-0.000676	0.00146
641	0.000967	-0.000676	-0.000676	-0.001827	-1.9e-05	-1.9e-05
642	-0.001991	-0.002155	0.003104	-1.9e-05	0.002447	-0.001498
643	0.003597	0.000146	0.002611	-0.001662	0.000803	0.001625
644	0.005405	-0.011852	0.00031	-0.000676	0.001789	-0.002155
645	0.00409	0.001954	-0.005278	-0.004292	0.002447	0.005241
646	0.003926	-1.9e-05	0.000639	0.002118	0.007377	0.003104
647	-0.000347	-0.001662	0.004255	-0.000841	0.003104	0.003433
648	-0.000676	0.000803	0.000146	0.002282	0.002611	0.004583
649	-0.000183	-0.000512	0.005241	0.001296	0.004912	0.003104
650	-1.9e-05	0.002447	0.004583	0.003433	0.000967	0.003104
651	-0.001169	0.000474	0.002447	-0.001005	0.001132	0.001789
652	0.003104	0.002282	0.002282	0.00146	-1.9e-05	0.003104
653	-0.001991	0.001132	0.003926	0.000474	0.002282	0.004912
654	0.000639	0.000803	0.003433	-1.9e-05	-0.000183	-0.002155
655	-0.000841	-0.008565	0.001132	-0.001498	0.001954	0.001625
656	-0.000841	-0.000676	-0.000676	-0.002977	-0.00725	-0.001334
657	0.000639	-0.002813	0.004912	0.000146	0.003926	0.002282
658	0.011322	-0.003635	0.006884	-0.001662	0.001296	0.003268
659	-0.001498	-0.001169	0.003433	-0.002813	-0.000347	0.000146
660	-0.001005	-0.000676	0.003926	-0.004785	0.001296	-0.000183
661	0.003761	0.002775	0.002611	0.002447	0.00031	0.00031
662	0.000146	-0.001334	0.002282	-0.000841	-1.9e-05	0.004419
663	-0.002813	0.002611	0.000639	0.000146	0.000639	0.003268
664	0.001789	-0.000183	0.001296	0.001625	0.002118	-0.000183
665	-0.005607	0.002611	0.001789	0.001132	-0.000512	0.004583
666	-0.005443	-0.000676	0.003433	0.001132	0.001132	-0.002155
667	0.000803	-0.000183	0.001789	0.000474	-0.007908	0.004748
668	0.00031	-0.000841	0.001789	0.001789	0.003268	0.001132
669	0.008035	-1.9e-05	0.002775	-1.9e-05	0.001132	0.00146
670	-1.9e-05	0.000639	0.001954	-0.00232	-0.000841	0.004255
671	0.00146	-0.000841	0.002282	-0.001169	0.001954	0.002775
672	0.003104	-0.001662	0.005734	0.000146	-0.001827	-0.001169
673	0.002775	0.000639	0.002282	-0.001169	-0.000512	-0.001662
674	-0.004621	-0.004128	0.003268	-0.001991	-0.001662	0.001132
675	0.007377	-0.003963	-0.001498	0.000639	0.000639	-0.00347
676	0.006062	-0.001498	0.003926	0.001132	-0.001169	0.004419
677	0.000146	-0.002977	0.000803	-0.002484	0.000474	-0.000841
678	-0.000841	-0.000841	0.004583	-0.000512	-0.002648	0.00146
679	-0.000841	-0.000347	0.00146	-0.000512	0.002611	0.000474
680	-0.001991	-0.001334	0.000146	0.000639	0.001296	-0.000347
681	-0.002977	0.000639	0.001954	0.00146	0.00031	-0.000676
682	-0.002648	0.001954	0.002118	0.000803	0.004912	0.003597
683	-0.002484	-0.003635	0.002611	0.000967	0.000803	0.003433
684	-0.004292	0.003761	0.000474	-0.001005	0.000803	0.000967
685	-0.007744	0.000967	0.00146	-0.005607	0.00294	0.000474
686	-0.002155	0.003268	-0.000183	-0.001662	0.001789	0.002447
687	-0.00347	0.003597	0.005405	0.002118	-1.9e-05	0.000967
688	-0.001334	0.001296	-0.002484	-0.004621	0.000639	-0.000512
689	-0.002813	-0.002155	-0.000183	-0.001991	-0.002813	0.003597
690	0.00031	-0.001169	0.002118	-1.9e-05	0.001625	-0.000183
691	-0.002155	-0.004292	0.001625	0.000803	-0.000183	0.003268
692	0.001296	-0.003306	-0.000512	-0.000512	0.000639	0.004255
693	-0.003963	0.000639	0.003761	-0.000183	0.004748	0.001625
694	0.001296	-0.005936	-1.9e-05	-0.001498	0.001789	-0.000841
695	-0.003799	0.00146	0.003104	-0.000512	-0.001005	-0.000183
696	-0.001827	0.003761	-0.001662	-0.001498	0.002118	-0.00232
697	-0.004949	0.000474	-0.000347	0.001789	0.001296	-0.000183
698	-0.004456	0.001296	0.008528	0.001789	0.003761	-0.001334
699	-0.004128	0.002611	-0.001827	0.001789	0.002282	-0.002484
700	-0.003799	-0.001498	-0.000512	-0.00347	0.002118	0.002611
701	-0.001827	0.003433	0.000146	0.001789	0.004419	-0.000512
702	-0.003963	0.000803	0.00146	0.00031	0.001954	-0.000512
703	-0.000841	0.002447	-0.000347	-0.001827	0.002282	0.00031
704	-0.005771	0.000146	0.005241	0.002611	-0.001005	0.001625
705	-0.003799	0.000803	0.002611	-0.001005	-0.002977	-0.004621
706	-0.004292	0.000639	0.001789	-0.002813	-0.001334	-0.001005
707	-0.001498	-0.000183	0.008035	-0.003306	0.00294	-0.000512
708	-0.000676	0.001132	0.004748	0.001789	-0.000183	-0.002813
709	-0.001334	0.000803	-0.001005	-0.002484	-0.002813	-0.002648
710	-0.00347	-0.000676	-1.9e-05	-0.003963	-0.003635	-0.002648
711	0.002447	-0.001827	0.000967	-0.00232	0.000474	0.000803
712	-0.003799	0.000967	0.000146	0.002611	-0.002155	-0.001005
713	-0.003306	-0.001334	0.000474	-0.001827	-1.9e-05	-0.002484
714	-0.003142	-0.000183	-0.00347	-0.001169	0.000639	0.000474
715	-0.002813	-1.9e-05	0.002447	-0.001005	-0.009058	-1.9e-05
716	-0.000841	-0.000512	0.001954	-0.00232	-0.003635	-0.001005
717	-0.001334	-0.000183	0.000803	-0.001991	-0.001005	0.002118
718	-1.9e-05	0.001296	-0.002813	0.001132	0.000474	-0.001334
719	-0.000841	0.000803	0.003597	-0.003142	-0.000183	0.000474
720	0.001789	0.003104	-0.011359	-0.001169	0.000803	0.001789
721	-0.003142	0.000803	0.001296	0.000639	-0.001991	0.00409
722	-0.000676	0.000474	0.00146	-0.001827	0.000639	0.001625
723	-0.001827	-0.000676	0.002447	0.003433	0.004748	0.009514
724	0.000639	0.000474	0.002775	-0.000347	0.001625	0.003268
725	-0.002484	-0.000841	-0.000841	0.002282	-0.000676	0.00672
726	0.001789	-0.005278	0.004255	-0.001498	-0.004621	0.003761
727	-0.001334	0.000474	0.001954	0.001132	-0.002977	0.001625
728	-0.000841	-0.004785	-0.000512	-0.003142	0.00146	0.00146
729	-0.000183	0.000967	-0.000841	0.00031	-0.00347	-0.000347
730	-0.000512	-1.9e-05	0.001296	-0.001169	-0.001991	0.001132
731	0.000474	0.000474	-0.008072	-0.002813	-0.000347	-0.002648
732	-0.001005	0.001625	-0.001005	-0.001498	-0.001498	0.003926
733	-0.000512	0.00409	0.002775	-0.003142	0.000146	0.000803
734	0.001132	-0.001169	-0.000512	0.003597	0.001954	0.002118
735	0.002282	0.000803	-0.003142	-0.006922	-0.001005	0.000803
736	-0.003963	0.006062	0.001132	-0.00347	-0.000347	0.002282
737	0.000639	0.003926	0.00031	-0.000347	0.001789	0.00031
738	-0.001991	0.002775	0.000474	0.00031	-1.9e-05	0.001789
739	-0.000183	-0.001827	0.000146	-0.002813	0.000967	0.001625
740	-0.000512	0.001789	0.001789	0.002775	0.00146	0.00672
741	0.000474	-0.001498	0.001954	-0.002813	0.002118	0.000803
742	0.00294	-0.001827	0.000474	-1.9e-05	0.000146	-0.000676
743	-0.003306	-0.001662	-0.000512	-1.9e-05	0.002447	0.001132
744	0.002775	-0.003963	-0.000512	0.000639	-0.001991	-0.001005
745	-0.002155	-0.000183	0.004419	0.002118	0.00146	-0.001662
746	-0.003142	0.003433	0.003104	0.003597	-0.003799	0.00146
747	-0.0061	-0.00232	0.003104	0.00031	0.001789	0.003104
748	-0.00725	-0.001005	0.001132	-0.001991	0.002447	-1.9e-05
749	0.002447	-0.000183	0.000639	0.000803	0.000803	0.001954
750	-0.000183	0.000967	-0.001498	-0.002813	0.001954	0.000639
751	0.005898	0.005241	0.003926	0.004748	0.006556	0.006391
752	0.018225	0.012965	0.014116	0.010664	0.013294	0.012637
753	0.018225	0.019375	0.020197	0.017074	0.02069	0.022005
754	0.026936	0.031538	0.027429	0.023156	0.030223	0.028579
755	0.03236	0.037948	0.035647	0.037783	0.035482	0.038605
756	0.039427	0.040413	0.044522	0.039427	0.045508	0.044193
757	0.047973	0.052082	0.048631	0.048467	0.04748	0.052411
758	0.050932	0.054219	0.056191	0.057999	0.054055	0.057177
759	0.059807	0.063094	0.061615	0.062437	0.058492	0.061451
760	0.06408	0.065067	0.066217	0.068354	0.064245	0.066875
761	0.070162	0.070326	0.070655	0.071312	0.071477	0.072791
762	0.075585	0.076736	0.078873	0.0769	0.075092	0.078215
763	0.083968	0.082817	0.083803	0.080187	0.080845	0.081995
764	0.08594	0.084461	0.087419	0.085118	0.090049	0.08972
765	0.093336	0.089227	0.08857	0.088405	0.094815	0.091692
766	0.092186	0.097445	0.096459	0.096623	0.094158	0.097445
767	0.100403	0.096952	0.099582	0.09991	0.100239	0.10139
768	0.104512	0.104677	0.102211	0.102869	0.10895	0.106978
769	0.10632	0.108293	0.107142	0.106485	0.110429	0.107964
770	0.108786	0.114209	0.114209	0.110429	0.113552	0.109607
771	0.113716	0.115524	0.117168	0.116182	0.116675	0.116839
772	0.115853	0.120784	0.120784	0.118811	0.120784	0.120619
773	0.119797	0.122427	0.124071	0.121605	0.124564	0.124564
774	0.126043	0.127851	0.127522	0.129166	0.127029	0.134261
775	0.127194	0.13311	0.130809	0.1267	0.129495	0.136562
776	0.131467	0.131467	0.130152	0.131796	0.13196	0.140013
777	0.132946	0.137055	0.134754	0.137384	0.13574	0.141657
778	0.136233	0.135411	0.135904	0.136069	0.134918	0.141164
779	0.142643	0.137877	0.142807	0.139685	0.140013	0.146752
780	0.140506	0.142479	0.142972	0.140178	0.140178	0.143301
781	0.142314	0.142314	0.146916	0.143958	0.146259	0.14971
782	0.147738	0.146095	0.144451	0.144615	0.144451	0.150204
783	0.148067	0.147574	0.149382	0.147574	0.148231	0.154148
784	0.151518	0.150532	0.151518	0.150039	0.149217	0.152505
785	0.153819	0.153655	0.153655	0.155627	0.154312	0.1576
786	0.156613	0.156778	0.155463	0.150204	0.158093	0.156778
787	0.15612	0.156613	0.153984	0.155299	0.158093	0.162037
788	0.159736	0.157107	0.160722	0.15612	0.16138	0.165489
789	0.160229	0.158586	0.161051	0.162202	0.161709	0.162202
790	0.164174	0.157928	0.163188	0.158914	0.166639	0.164338
791	0.160558	0.159572	0.166475	0.166146	0.166639	0.164831
792	0.160394	0.16253	0.167954	0.166639	0.167461	0.166968
793	0.164667	0.162366	0.167297	0.164338	0.167625	0.170091
794	0.165489	0.164338	0.173049	0.170913	0.168612	0.173378
795	0.167132	0.167132	0.168776	0.167132	0.172392	0.172063
796	0.167297	0.168612	0.170913	0.169433	0.171077	0.182253
797	0.169762	0.170913	0.175021	0.16779	0.169269	0.175843
798	0.1742	0.173378	0.174364	0.172556	0.17157	0.176008
799	0.178309	0.173871	0.174035	0.175021	0.173707	0.177815
800	0.176008	0.174693	0.178473	0.17272	0.174693	0.178473
801	0.181103	0.176665	0.177322	0.17272	0.179459	0.177158
802	0.178637	0.175843	0.178802	0.178637	0.17798	0.179788
803	0.177651	0.175843	0.180281	0.1742	0.180281	0.179295
804	0.178966	0.179459	0.180938	0.175186	0.182911	0.17913
805	0.182582	0.179952	0.182253	0.176665	0.183568	0.181267
806	0.178309	0.182089	0.179623	0.177322	0.181267	0.181267
807	0.182582	0.181431	0.183239	0.176665	0.186691	0.182253
808	0.180938	0.182253	0.183568	0.180116	0.183404	0.184554
809	0.181267	0.183075	0.184883	0.185212	0.183075	0.183732
810	0.184718	0.181431	0.179295	0.183732	0.182417	0.185212
811	0.181267	0.183732	0.186033	0.183897	0.188827	0.185869
812	0.18439	0.183568	0.189814	0.185047	0.186198	0.185869
813	0.183732	0.184061	0.191786	0.185376	0.187513	0.190142
814	0.186033	0.183404	0.1908	0.185047	0.192115	0.188334
815	0.182417	0.186691	0.188499	0.188663	0.188334	0.188663
816	0.187677	0.18554	0.190307	0.18554	0.190964	0.187677
817	0.187841	0.18817	0.189485	0.190142	0.187513	0.189156
818	0.190307	0.18932	0.189814	0.18554	0.190471	0.190635
819	0.190635	0.190471	0.191293	0.18817	0.187019	0.192115
820	0.190142	0.189156	0.192608	0.188499	0.190964	0.189485
821	0.191786	0.188992	0.188499	0.190471	0.192608	0.190471
822	0.186855	0.188334	0.192608	0.189485	0.193429	0.192772
823	0.185376	0.188827	0.192936	0.191293	0.193101	0.192279
824	0.188827	0.189485	0.192443	0.190964	0.19458	0.191457
825	0.190635	0.189485	0.192443	0.191621	0.193265	0.19195
826	0.187019	0.193265	0.194909	0.19458	0.196552	0.197374
827	0.19195	0.19195	0.19721	0.190471	0.193922	0.193429
828	0.18554	0.193758	0.199346	0.19195	0.196717	0.196717
829	0.193758	0.192279	0.196059	0.190964	0.192772	0.196388
830	0.189814	0.191293	0.196552	0.192443	0.193758	0.196223
831	0.193922	0.192608	0.19836	0.194251	0.192115	0.192443
832	0.192936	0.19195	0.192443	0.193265	0.191786	0.198689
833	0.193922	0.192608	0.194251	0.1908	0.195237	0.196223
834	0.186691	0.193429	0.1908	0.196388	0.194251	0.196552
835	0.191621	0.192115	0.195566	0.196388	0.196223	0.196717
836	0.189814	0.194744	0.193922	0.197045	0.191128	0.196059
837	0.192115	0.192115	0.192443	0.193922	0.198196	0.191293
838	0.195566	0.189485	0.189978	0.193429	0.197374	0.196059
839	0.195237	0.189978	0.199018	0.194087	0.196881	0.197867
840	0.196059	0.192608	0.19458	0.19195	0.19573	0.195073
841	0.192936	0.190635	0.197045	0.195566	0.198689	0.198524
842	0.197045	0.195073	0.19836	0.195566	0.197703	0.197374
843	0.193594	0.19573	0.195402	0.196059	0.198524	0.197045
844	0.19573	0.192772	0.197867	0.193922	0.19836	0.198524
845	0.182911	0.196059	0.199182	0.197045	0.195895	0.202798
846	0.190635	0.193594	0.200661	0.19721	0.200004	0.194744
847	0.195237	0.196059	0.193265	0.196388	0.202633	0.19573
848	0.189978	0.195237	0.19836	0.191786	0.200004	0.194909
849	0.196223	0.19721	0.198031	0.195895	0.19721	0.197045
850	0.202469	0.194909	0.197374	0.195073	0.19836	0.195402
851	0.193265	0.196881	0.196552	0.196223	0.195895	0.198853
852	0.194416	0.197374	0.198853	0.196388	0.19836	0.196552
853	0.198689	0.194909	0.196223	0.198031	0.19721	0.194744
854	0.195895	0.193922	0.197045	0.19573	0.198031	0.197045
855	0.198689	0.19836	0.19458	0.1908	0.19836	0.194909
856	0.191293	0.19458	0.197045	0.194087	0.199511	0.19573
857	0.194909	0.191786	0.195566	0.193922	0.201319	0.195895
858	0.197374	0.199675	0.195566	0.196388	0.201976	0.196881
859	0.197045	0.198524	0.194416	0.194909	0.201812	0.192443
860	0.195237	0.196717	0.200661	0.195895	0.200332	0.197538
861	0.187841	0.199182	0.196388	0.19721	0.20477	0.197538
862	0.192936	0.201319	0.199182	0.199511	0.19721	0.197867
863	0.195566	0.199675	0.199018	0.197045	0.202798	0.196717
864	0.197045	0.201319	0.198853	0.199839	0.198689	0.19836
865	0.198689	0.196881	0.199839	0.200168	0.199018	0.198196
866	0.198524	0.197703	0.196223	0.197374	0.199018	0.197703
867	0.195237	0.198524	0.199346	0.197867	0.199839	0.198031
868	0.197045	0.199018	0.196059	0.196881	0.197045	0.195237
869	0.199346	0.197703	0.196717	0.201976	0.203126	0.200004
870	0.201483	0.19836	0.196223	0.200004	0.202305	0.19458
871	0.199511	0.196059	0.198031	0.19836	0.195895	0.196717
872	0.200661	0.195895	0.195073	0.196552	0.199675	0.195895
873	0.197538	0.197867	0.196388	0.199675	0.20214	0.197045
874	0.198853	0.19836	0.195895	0.198853	0.199511	0.192772
875	0.199346	0.196552	0.197703	0.198524	0.201812	0.190142
876	0.199018	0.196059	0.199018	0.196717	0.201319	0.19195
877	0.197045	0.197045	0.19458	0.197045	0.200004	0.195073
878	0.195566	0.199018	0.195402	0.198689	0.200004	0.192936
879	0.195566	0.200168	0.197374	0.201812	0.19573	0.194416
880	0.19836	0.19836	0.199182	0.198031	0.200661	0.196388
881	0.197538	0.201319	0.195237	0.20099	0.19721	0.19836
882	0.198689	0.197538	0.202633	0.196717	0.193101	0.192443
883	0.200004	0.201647	0.198031	0.199511	0.193758	0.196059
884	0.196388	0.198689	0.198689	0.201483	0.195237	0.194744
885	0.197867	0.199346	0.19721	0.196388	0.195566	0.191128
886	0.202305	0.196717	0.201154	0.200332	0.196717	0.195073
887	0.201319	0.199346	0.199182	0.199839	0.195895	0.194416
888	0.199346	0.195895	0.195566	0.195073	0.19836	0.194909
889	0.197374	0.19573	0.197045	0.201483	0.198031	0.192772
890	0.190635	0.200497	0.196059	0.199839	0.198524	0.195895
891	0.197045	0.201319	0.193922	0.196223	0.200825	0.196717
892	0.198689	0.202962	0.196552	0.199018	0.199675	0.194251
893	0.192279	0.198853	0.200168	0.196552	0.199346	0.192936
894	0.19721	0.199182	0.200332	0.199018	0.20099	0.190471
895	0.198031	0.201154	0.200004	0.198689	0.198196	0.1908
896	0.194744	0.199839	0.19836	0.199511	0.19721	0.194251
897	0.19721	0.197538	0.200497	0.201154	0.198853	0.190964
898	0.199182	0.20099	0.198031	0.198524	0.19721	0.199346
899	0.199018	0.198031	0.199839	0.200332	0.200497	0.192115
900	0.200497	0.199675	0.197374	0.20214	0.199018	0.19573
901	0.198196	0.199018	0.20214	0.202305	0.20099	0.195566
902	0.200661	0.200497	0.197867	0.19721	0.200825	0.190964
903	0.199839	0.194744	0.198689	0.199839	0.201976	0.193594
904	0.20214	0.196717	0.199839	0.197045	0.199018	0.191786
905	0.199346	0.199182	0.201976	0.197867	0.199182	0.191786
906	0.198524	0.199675	0.198689	0.195402	0.199018	0.188827
907	0.201647	0.207071	0.201976	0.194909	0.199511	0.193758
908	0.201647	0.198031	0.200332	0.198031	0.202305	0.187184
909	0.20214	0.201319	0.198853	0.200332	0.199839	0.193101
910	0.19836	0.197045	0.199839	0.19836	0.201647	0.188992
911	0.203455	0.203291	0.19836	0.201812	0.200004	0.1908
912	0.202633	0.199346	0.202305	0.202305	0.204113	0.191786
913	0.199675	0.201976	0.199346	0.200497	0.195237	0.191457
914	0.201812	0.195237	0.202798	0.200661	0.199839	0.191621
915	0.200168	0.200004	0.199018	0.201976	0.199346	0.191786
916	0.198031	0.201483	0.203948	0.200497	0.199018	0.190964
917	0.201483	0.201647	0.198196	0.200825	0.197703	0.19195
918	0.199018	0.199346	0.201319	0.202305	0.198689	0.19195
919	0.197538	0.197867	0.201154	0.197374	0.200332	0.18817
920	0.202469	0.202469	0.202633	0.202633	0.195895	0.192115
921	0.199182	0.198524	0.203126	0.196717	0.200168	0.189156
922	0.199839	0.196552	0.19721	0.203784	0.193265	0.191786
923	0.201319	0.200168	0.202633	0.19836	0.196388	0.189649
924	0.200004	0.197538	0.201647	0.198524	0.196223	0.188006
925	0.200332	0.201483	0.201647	0.19836	0.199182	0.186855
926	0.20099	0.203291	0.202798	0.199675	0.198196	0.188006
927	0.200168	0.199675	0.203455	0.196552	0.195566	0.183075
928	0.199018	0.202305	0.199018	0.197374	0.19721	0.186362
929	0.198524	0.197867	0.204934	0.200497	0.19458	0.186691
930	0.199182	0.201483	0.201812	0.200661	0.194909	0.18817
931	0.19721	0.200004	0.205921	0.199675	0.197374	0.190635
932	0.200168	0.201483	0.201483	0.201483	0.194416	0.189156
933	0.200661	0.200168	0.201647	0.201483	0.198689	0.190471
934	0.197867	0.19836	0.200004	0.201976	0.19721	0.189649
935	0.199018	0.201319	0.203784	0.201976	0.197374	0.190635
936	0.198524	0.198524	0.200497	0.196717	0.198031	0.190471
937	0.199346	0.200168	0.202962	0.19836	0.195895	0.189485
938	0.201647	0.200004	0.203291	0.198689	0.19573	0.191128
939	0.200332	0.197538	0.202305	0.199346	0.198853	0.190471
940	0.207564	0.199346	0.203455	0.198853	0.196059	0.194416
941	0.202305	0.201483	0.203784	0.20099	0.194744	0.200332
942	0.201319	0.198853	0.204113	0.195073	0.196552	0.191621
943	0.200497	0.200004	0.202962	0.200497	0.196223	0.196388
944	0.200004	0.198689	0.202469	0.20099	0.197045	0.194744
945	0.197538	0.201319	0.202305	0.197703	0.195237	0.195073
946	0.199182	0.199018	0.204277	0.199511	0.19836	0.197867
947	0.198524	0.20099	0.204441	0.202962	0.19573	0.199346
948	0.19721	0.201319	0.205592	0.19836	0.199675	0.201483
949	0.201483	0.205263	0.20362	0.20099	0.195073	0.198196
950	0.197867	0.203455	0.202305	0.203784	0.200332	0.201812
951	0.201483	0.201483	0.205756	0.202962	0.198196	0.200332
952	0.200825	0.202798	0.209208	0.201976	0.191786	0.196717
953	0.200497	0.200825	0.20477	0.20099	0.191128	0.20362
954	0.199346	0.199839	0.204934	0.206085	0.196059	0.202633
955	0.201319	0.199839	0.206742	0.198524	0.196388	0.201812
956	0.200004	0.200332	0.203948	0.198031	0.193101	0.201154
957	0.201154	0.198031	0.20855	0.200168	0.199839	0.201976
958	0.200168	0.200004	0.204113	0.199182	0.197538	0.199182
959	0.204606	0.198031	0.203948	0.195895	0.197374	0.196717
960	0.205099	0.202469	0.202962	0.197867	0.195237	0.197538
961	0.195402	0.198031	0.204441	0.198853	0.196717	0.197867
962	0.20099	0.199018	0.206085	0.200497	0.19573	0.20214
963	0.20214	0.204277	0.207071	0.201976	0.197045	0.201319
964	0.203291	0.201483	0.202469	0.199018	0.196059	0.199839
965	0.196388	0.197538	0.203291	0.201319	0.197538	0.20214
966	0.203455	0.199675	0.202305	0.201812	0.198853	0.199839
967	0.197703	0.199182	0.203291	0.200168	0.197703	0.201976
968	0.200332	0.20214	0.203126	0.19721	0.198524	0.20214
969	0.199346	0.200004	0.205427	0.202798	0.197538	0.200168
970	0.200661	0.201154	0.20362	0.199675	0.19836	0.199675
971	0.199346	0.20099	0.201812	0.20099	0.195237	0.199675
972	0.199675	0.198689	0.206414	0.200497	0.199182	0.198689
973	0.201319	0.202305	0.208715	0.202305	0.19721	0.199675
974	0.202469	0.198853	0.209043	0.199839	0.198689	0.198031
975	0.203126	0.20099	0.206578	0.201319	0.190635	0.199346
976	0.201319	0.195566	0.20477	0.196552	0.199018	0.197374
977	0.201647	0.20099	0.203291	0.200497	0.196059	0.196059
978	0.199511	0.198524	0.204441	0.201154	0.198031	0.197374
979	0.200497	0.200168	0.20099	0.198853	0.195237	0.198196
980	0.198853	0.205099	0.203948	0.200004	0.200004	0.198031
981	0.20477	0.20362	0.201976	0.19836	0.201647	0.194416
982	0.200168	0.201483	0.202633	0.201976	0.196717	0.197867
983	0.200168	0.201647	0.202633	0.198689	0.19721	0.196717
984	0.199675	0.200168	0.201647	0.201812	0.199182	0.197867
985	0.203126	0.200497	0.204277	0.204934	0.197703	0.197374
986	0.197867	0.201319	0.199839	0.202962	0.196223	0.19721
987	0.201154	0.197867	0.204113	0.199675	0.200004	0.196059
988	0.201812	0.203126	0.207071	0.20099	0.199675	0.19721
989	0.196223	0.19458	0.203291	0.200004	0.200497	0.194744
990	0.197045	0.199346	0.20362	0.201154	0.199511	0.200332
991	0.203948	0.199675	0.203126	0.200004	0.199346	0.195402
992	0.203291	0.199346	0.205921	0.199511	0.196388	0.193922
993	0.197374	0.20099	0.204606	0.199839	0.198689	0.192936
994	0.204934	0.199675	0.203455	0.199018	0.197045	0.193922
995	0.199182	0.199018	0.205921	0.200497	0.199675	0.192279
996	0.20214	0.200661	0.201812	0.200004	0.198031	0.196059
997	0.199675	0.200004	0.200661	0.199675	0.198853	0.195566
998	0.202962	0.199018	0.201154	0.197703	0.200168	0.1908
999	0.203455	0.200168	0.20362	0.203784	0.200497	0.191128
1000	0.200825	0.20099	0.20362	0.201154	0.201319	0.193101
1001	0.199839	0.198853	0.201647	0.203455	0.200004	0.19458
1002	0.201319	0.201812	0.199182	0.201976	0.198031	0.193101
1003	0.197703	0.204606	0.200825	0.200168	0.197374	0.194744
1004	0.201319	0.20214	0.201647	0.203126	0.200825	0.19458
1005	0.201154	0.203455	0.20214	0.20099	0.200825	0.195895
1006	0.200661	0.20099	0.203126	0.19836	0.200825	0.19458
1007	0.202962	0.200661	0.204606	0.200332	0.198031	0.197867
1008	0.200332	0.199018	0.204934	0.201483	0.198524	0.19573
1009	0.201647	0.199018	0.202798	0.200004	0.195237	0.187348
1010	0.198853	0.198853	0.204934	0.200661	0.200332	0.195073
1011	0.202469	0.201976	0.202469	0.200661	0.19573	0.192936
1012	0.204113	0.19721	0.202962	0.201647	0.197867	0.194909
1013	0.202962	0.199675	0.199675	0.20214	0.197538	0.192608
1014	0.200004	0.199346	0.204606	0.198031	0.199018	0.192115
1015	0.202798	0.197045	0.200825	0.200168	0.200168	0.193101
1016	0.20099	0.201483	0.201647	0.200332	0.198524	0.19458
1017	0.200497	0.199182	0.200825	0.199346	0.200168	0.194909
1018	0.201483	0.200332	0.201483	0.20362	0.201483	0.198524
1019	0.200661	0.200004	0.203948	0.197703	0.198853	0.194744
1020	0.200004	0.201812	0.205921	0.202469	0.200497	0.197045
1021	0.20099	0.200004	0.204934	0.200004	0.202633	0.197538
1022	0.201319	0.201976	0.202305	0.204113	0.199018	0.196552
1023	0.200168	0.200497	0.199675	0.197867	0.199182	0.198031
1024	0.201319	0.198196	0.199018	0.202469	0.20099	0.195402
1025	0.203291	0.20099	0.202962	0.199839	0.199839	0.199182
1026	0.199839	0.200332	0.200497	0.19721	0.20099	0.196717
1027	0.197703	0.196881	0.202798	0.20099	0.198853	0.197374
1028	0.192936	0.198031	0.200004	0.199675	0.197538	0.193594
1029	0.193594	0.199511	0.202962	0.201319	0.199675	0.197867
1030	0.195073	0.199182	0.199511	0.199346	0.195895	0.19836
1031	0.193265	0.198689	0.200168	0.201976	0.199839	0.198853
1032	0.194087	0.19573	0.200661	0.19836	0.200168	0.198031
1033	0.191293	0.198689	0.197374	0.201812	0.200825	0.20099
1034	0.19195	0.199511	0.198853	0.200825	0.201319	0.19836
1035	0.19458	0.199839	0.196059	0.197703	0.202962	0.19836
1036	0.192936	0.200168	0.202305	0.196059	0.200004	0.199346
1037	0.194416	0.200661	0.198853	0.199018	0.198524	0.199839
1038	0.194416	0.200661	0.201647	0.199182	0.204113	0.200168
1039	0.198524	0.200332	0.201976	0.200661	0.199182	0.198524
1040	0.194416	0.199346	0.20362	0.200825	0.201154	0.201976
1041	0.192936	0.200497	0.200168	0.200825	0.199018	0.197703
1042	0.193429	0.199018	0.203291	0.20099	0.201483	0.201154
1043	0.195073	0.199675	0.199511	0.199675	0.200332	0.201647
1044	0.194251	0.198196	0.205263	0.202798	0.200661	0.203291
1045	0.192772	0.197867	0.201319	0.200332	0.200004	0.199675
1046	0.193265	0.197045	0.198689	0.199018	0.200497	0.201647
1047	0.19836	0.198689	0.202962	0.200168	0.199839	0.201976
1048	0.196388	0.200004	0.19836	0.198524	0.198689	0.199839
1049	0.19836	0.200332	0.200825	0.200332	0.201647	0.200497
1050	0.196552	0.201812	0.201976	0.200661	0.199675	0.202798
1051	0.19721	0.199018	0.205921	0.19836	0.199839	0.201647
1052	0.196552	0.206907	0.20099	0.193758	0.201483	0.201483
1053	0.196223	0.197867	0.202305	0.193101	0.203291	0.203784
1054	0.19836	0.198689	0.199346	0.200004	0.199018	0.200004
1055	0.196223	0.199675	0.20099	0.199839	0.200168	0.202633
1056	0.19721	0.201154	0.199675	0.200168	0.200168	0.199839
1057	0.196717	0.199346	0.201976	0.203291	0.200497	0.200661
1058	0.195895	0.201319	0.201812	0.194744	0.201976	0.201154
1059	0.193922	0.199018	0.202633	0.204606	0.203291	0.203948
1060	0.19573	0.200661	0.201976	0.199675	0.197703	0.203455
1061	0.197703	0.20099	0.202469	0.200661	0.20099	0.205756
1062	0.199182	0.199346	0.201154	0.199511	0.199182	0.204441
1063	0.19195	0.19836	0.201976	0.200004	0.20099	0.203948
1064	0.199839	0.196881	0.200825	0.20214	0.200661	0.205099
1065	0.196059	0.199839	0.200332	0.202633	0.198524	0.204277
1066	0.196881	0.197703	0.200497	0.199839	0.207235	0.19836
1067	0.198689	0.200661	0.200004	0.199018	0.19721	0.208057
1068	0.195566	0.200497	0.200661	0.200497	0.201154	0.202798
1069	0.198853	0.197703	0.202305	0.196881	0.199675	0.202305
1070	0.195073	0.198196	0.20099	0.199018	0.204606	0.205099
1071	0.19836	0.200332	0.197703	0.197045	0.199675	0.201483
1072	0.195402	0.200825	0.199839	0.201154	0.193922	0.205756
1073	0.197045	0.201976	0.199182	0.199839	0.201154	0.205427
1074	0.197374	0.200825	0.203291	0.201976	0.203455	0.203126
1075	0.199511	0.200004	0.202305	0.200825	0.20099	0.203455
1076	0.194251	0.200825	0.204606	0.20362	0.199675	0.203948
1077	0.19573	0.199346	0.204606	0.201154	0.198853	0.203948
1078	0.193922	0.199018	0.200661	0.200497	0.197703	0.206085
1079	0.198689	0.198031	0.202962	0.201812	0.199839	0.203455
1080	0.195566	0.202469	0.201647	0.198031	0.197538	0.206085
1081	0.197538	0.200825	0.202633	0.201154	0.199346	0.20477
1082	0.196223	0.199018	0.200825	0.20099	0.19721	0.203948
1083	0.195566	0.199182	0.19836	0.198031	0.202469	0.20362
1084	0.200661	0.198524	0.199675	0.199346	0.199182	0.205592
1085	0.197045	0.200661	0.201483	0.19836	0.202305	0.202469
1086	0.196388	0.199346	0.197374	0.198196	0.202962	0.203948
1087	0.197045	0.198196	0.198031	0.200497	0.200497	0.203784
1088	0.197538	0.201319	0.197374	0.199018	0.199675	0.201483
1089	0.195237	0.198853	0.201647	0.199839	0.203126	0.203948
1090	0.199346	0.201647	0.201319	0.191786	0.199839	0.203784
1091	0.196223	0.198524	0.202633	0.199018	0.200661	0.203291
1092	0.193101	0.196881	0.202798	0.193922	0.201976	0.201154
1093	0.194909	0.202633	0.201154	0.199675	0.201154	0.203455
1094	0.195073	0.198196	0.202798	0.196223	0.201154	0.201647
1095	0.196717	0.200168	0.201812	0.201647	0.200168	0.204277
1096	0.196717	0.198031	0.202469	0.198689	0.202962	0.200497
1097	0.197703	0.199839	0.200497	0.203126	0.20099	0.202962
1098	0.195895	0.199675	0.20477	0.200661	0.202305	0.203784
1099	0.198689	0.201319	0.200332	0.199675	0.199182	0.202305
1100	0.194744	0.197538	0.201483	0.199346	0.202305	0.208715
1101	0.198196	0.205263	0.198853	0.185047	0.201319	0.20099
1102	0.199018	0.199839	0.205263	0.199018	0.201812	0.199182
1103	0.198689	0.198196	0.204441	0.196717	0.199346	0.199511
1104	0.19721	0.202798	0.204113	0.196223	0.198853	0.19836
1105	0.201154	0.202469	0.201154	0.195895	0.200497	0.197867
1106	0.196881	0.202305	0.202962	0.200497	0.200661	0.199018
1107	0.199346	0.202305	0.202305	0.197374	0.204934	0.193265
1108	0.197045	0.20099	0.200332	0.199675	0.205263	0.198524
1109	0.200168	0.201154	0.201647	0.200004	0.201976	0.197703
1110	0.204441	0.201812	0.201483	0.204441	0.20214	0.199675
1111	0.199839	0.199182	0.202633	0.199018	0.20362	0.199346
1112	0.200497	0.201812	0.203455	0.190471	0.200661	0.199182
1113	0.197703	0.199675	0.204441	0.201154	0.202305	0.197703
1114	0.201647	0.199675	0.202305	0.201154	0.200661	0.198524
1115	0.200332	0.201812	0.204113	0.205427	0.202305	0.200332
1116	0.197045	0.200661	0.201812	0.198196	0.198524	0.195073
1117	0.200497	0.199182	0.203948	0.201319	0.201647	0.197538
1118	0.202305	0.201976	0.199839	0.199018	0.201976	0.193594
1119	0.197867	0.198524	0.198689	0.199182	0.201976	0.196388
1120	0.201647	0.200004	0.195566	0.199511	0.198689	0.194744
1121	0.201319	0.200168	0.202962	0.204934	0.202305	0.196223
1122	0.201154	0.201647	0.201319	0.200661	0.203784	0.194909
1123	0.20099	0.201647	0.203126	0.196717	0.205756	0.196059
1124	0.199182	0.200661	0.201976	0.197374	0.19836	0.186033
1125	0.197703	0.200004	0.200004	0.198689	0.205427	0.195073
1126	0.199182	0.199346	0.203291	0.199675	0.20477	0.191457
1127	0.193758	0.202305	0.200661	0.202633	0.197045	0.195895
1128	0.197703	0.200332	0.200825	0.200168	0.205592	0.195402
1129	0.19836	0.199511	0.201319	0.202469	0.201976	0.191293
1130	0.197374	0.197867	0.202798	0.200497	0.20214	0.19721
1131	0.198524	0.201812	0.200004	0.20214	0.201812	0.19573
1132	0.199346	0.196059	0.204113	0.200825	0.199346	0.197538
1133	0.198031	0.197703	0.201319	0.20362	0.196717	0.195073
1134	0.200168	0.198689	0.205592	0.199675	0.201319	0.194909
1135	0.199839	0.20099	0.205921	0.195895	0.19721	0.192936
1136	0.199018	0.196881	0.202469	0.199839	0.199675	0.196552
1137	0.204113	0.200168	0.197867	0.198853	0.200004	0.194087
1138	0.197374	0.203126	0.20099	0.200168	0.200332	0.194744
1139	0.201647	0.202469	0.198031	0.197374	0.202633	0.19195
1140	0.200661	0.195073	0.200004	0.201647	0.203126	0.19721
1141	0.202305	0.201976	0.197703	0.196552	0.202633	0.197538
1142	0.20099	0.19836	0.19836	0.206085	0.201812	0.195237
1143	0.20099	0.19836	0.202305	0.203948	0.204606	0.19573
1144	0.196388	0.20099	0.201319	0.200661	0.201483	0.196059
1145	0.195237	0.196717	0.203455	0.204277	0.200004	0.195402
1146	0.197538	0.200168	0.203291	0.20099	0.191786	0.195566
1147	0.19573	0.198524	0.203455	0.200497	0.196223	0.196881
1148	0.200004	0.202305	0.203455	0.200661	0.199346	0.197045
1149	0.197374	0.203126	0.207728	0.204606	0.19458	0.200168
1150	0.199018	0.205427	0.202798	0.198689	0.197374	0.195402
1151	0.200497	0.203784	0.20362	0.198853	0.19573	0.193101
1152	0.200661	0.202469	0.201483	0.197703	0.193922	0.197867
1153	0.199839	0.202469	0.200332	0.199839	0.19836	0.200332
1154	0.204441	0.198524	0.200004	0.199675	0.197538	0.197703
1155	0.200004	0.199839	0.202305	0.198853	0.194416	0.199675
1156	0.200661	0.199018	0.204113	0.194416	0.198524	0.194909
1157	0.201483	0.201976	0.20214	0.20362	0.196552	0.197867
1158	0.203455	0.198524	0.201319	0.198031	0.19721	0.196717
1159	0.203291	0.200661	0.199675	0.201812	0.197867	0.195237
1160	0.200168	0.199675	0.201976	0.201154	0.198853	0.197538
1161	0.200004	0.201976	0.201812	0.202633	0.197045	0.197374
1162	0.204606	0.20099	0.201483	0.206085	0.200661	0.202962
1163	0.197867	0.20214	0.200004	0.200004	0.198031	0.202305
1164	0.195895	0.199675	0.202633	0.200332	0.202633	0.205263
1165	0.199675	0.200661	0.201319	0.200661	0.19836	0.2074
1166	0.196223	0.200661	0.202633	0.200825	0.197538	0.20477
1167	0.199182	0.20099	0.204113	0.198853	0.195566	0.203784
1168	0.20099	0.200332	0.203455	0.201976	0.197538	0.205592
1169	0.200004	0.199018	0.204441	0.199182	0.198031	0.202469
1170	0.199675	0.201483	0.206907	0.028744	0.199018	0.205427
1171	0.202305	0.20099	0.203291	0.034168	0.197538	0.203784
1172	0.19836	0.200825	0.200661	0.043536	0.196388	0.20362
1173	0.20099	0.19836	0.198196	0.046823	0.200661	0.204277
1174	0.202798	0.199018	0.19721	0.05652	0.199018	0.20477
1175	0.200168	0.198689	0.201319	0.061286	0.20099	0.200168
1176	0.200004	0.197703	0.19836	0.068189	0.197538	0.202633
1177	0.197538	0.200332	0.203455	0.075421	0.199839	0.205592
1178	0.197703	0.202633	0.202633	0.077886	0.19836	0.203291
1179	0.198031	0.200825	0.202469	0.085776	0.197045	0.206085
1180	0.201154	0.204113	0.202469	0.08709	0.196388	0.203784
1181	0.197374	0.203291	0.202798	0.094322	0.198524	0.203784
1182	0.203126	0.209208	0.200004	0.098102	0.196223	0.209043
1183	0.197703	0.203126	0.203126	0.105992	0.19573	0.206578
1184	0.200661	0.201647	0.201483	0.105498	0.196881	0.205592
1185	0.199182	0.200661	0.200825	0.11158	0.194909	0.209701
1186	0.199675	0.200497	0.201647	0.114045	0.200825	0.207235
1187	0.200168	0.199839	0.200332	0.118811	0.196059	0.20855
1188	0.200497	0.199839	0.203948	0.120784	0.199018	0.208386
1189	0.201647	0.200332	0.203455	0.124728	0.198031	0.204934
1190	0.201319	0.195073	0.202633	0.129495	0.198853	0.205263
1191	0.201319	0.197538	0.197374	0.129001	0.196717	0.211837
1192	0.201319	0.197703	0.206742	0.129001	0.197374	0.208057
1193	0.203291	0.198524	0.199182	0.135083	0.198031	0.205921
1194	0.200004	0.195402	0.203948	0.141164	0.199839	0.208222
1195	0.198689	0.203455	0.199511	0.138205	0.198853	0.205592
1196	0.196881	0.205263	0.202798	0.144451	0.199346	0.20855
1197	0.199511	0.198853	0.201976	0.147903	0.199346	0.207564
1198	0.197703	0.202305	0.199018	0.147081	0.200004	0.207235
1199	0.201319	0.20099	0.201812	0.151025	0.199839	0.209865
1200	0.198031	0.203455	0.204441	0.153984	0.200825	0.205756
1201	0.199018	0.196881	0.202305	0.156449	0.204441	0.200497
1202	0.199182	0.200497	0.202962	0.158421	0.198689	0.205263
1203	0.199182	0.19836	0.201319	0.156613	0.195237	0.207893
1204	0.203784	0.199839	0.20099	0.161051	0.202798	0.206742
1205	0.202798	0.199511	0.200497	0.157107	0.200332	0.207893
1206	0.202633	0.20099	0.199675	0.163023	0.19836	0.20214
1207	0.200661	0.196552	0.199839	0.162037	0.199839	0.205099
1208	0.201319	0.201154	0.202633	0.164667	0.197867	0.205592
1209	0.198689	0.197703	0.203455	0.165489	0.199839	0.202798
1210	0.198524	0.198524	0.199346	0.166146	0.19836	0.210194
1211	0.198853	0.201319	0.204606	0.16894	0.202305	0.205427
1212	0.200168	0.198689	0.201976	0.16894	0.199675	0.205592
1213	0.197538	0.199346	0.201154	0.174693	0.201647	0.204113
1214	0.200825	0.202305	0.202633	0.173214	0.198524	0.205263
1215	0.204934	0.201483	0.202469	0.175679	0.199346	0.209372
1216	0.203948	0.201812	0.202633	0.1742	0.20099	0.202798
1217	0.200004	0.204441	0.201812	0.179459	0.196717	0.206578
1218	0.197867	0.199018	0.201483	0.174364	0.198031	0.207564
1219	0.20099	0.201647	0.207235	0.181103	0.20099	0.207564
1220	0.201976	0.200661	0.206742	0.179788	0.201154	0.207071
1221	0.200168	0.201319	0.198853	0.179459	0.196717	0.212495
1222	0.200497	0.199346	0.205921	0.180774	0.196223	0.206578
1223	0.19836	0.199839	0.202798	0.183568	0.199675	0.206414
1224	0.201647	0.196388	0.205099	0.180445	0.197538	0.205921
1225	0.20099	0.200497	0.201483	0.181924	0.195237	0.203126
1226	0.201154	0.19836	0.202633	0.186198	0.197703	0.207728
1227	0.202962	0.200661	0.204441	0.184554	0.193429	0.204113
1228	0.198689	0.198196	0.200168	0.182253	0.19721	0.205921
1229	0.199839	0.196552	0.200004	0.182911	0.197703	0.205592
1230	0.200168	0.200825	0.202798	0.186526	0.20099	0.206907
1231	0.201154	0.199182	0.20099	0.186033	0.201154	0.203948
1232	0.198689	0.198524	0.199018	0.187348	0.199182	0.204606
1233	0.200661	0.201976	0.201812	0.186855	0.198196	0.205263
1234	0.199182	0.202798	0.199839	0.192772	0.195566	0.204606
1235	0.200497	0.199511	0.202962	0.187841	0.20099	0.205921
1236	0.201319	0.203784	0.200825	0.190307	0.198196	0.208715
1237	0.20099	0.200661	0.202633	0.189978	0.201812	0.207564
1238	0.203291	0.201154	0.202962	0.191621	0.202469	0.205921
1239	0.200332	0.202798	0.202633	0.192279	0.199346	0.202305
1240	0.199182	0.197538	0.201812	0.187513	0.196881	0.204441
1241	0.19836	0.195402	0.203291	0.193265	0.20362	0.206249
1242	0.197045	0.20099	0.202798	0.192608	0.197045	0.206249
1243	0.196717	0.197538	0.201976	0.18932	0.198689	0.200004
1244	0.202469	0.196552	0.201154	0.190635	0.202633	0.203948
1245	0.198524	0.197538	0.201647	0.194909	0.200168	0.205921
1246	0.200497	0.197867	0.202962	0.191128	0.202469	0.201319
1247	0.201154	0.201976	0.204277	0.193101	0.199018	0.204606
1248	0.203784	0.200661	0.203455	0.191293	0.201154	0.203291
1249	0.201154	0.20099	0.199675	0.196552	0.198853	0.203455
1250	0.201647	0.202469	0.204113	0.189978	0.199675	0.20362
1251	0.198853	0.198524	0.201154	0.192115	0.197045	0.204113
1252	0.200825	0.197703	0.207893	0.19836	0.202798	0.205263
1253	0.200825	0.206249	0.201812	0.194087	0.198196	0.20855
1254	0.199675	0.201319	0.200825	0.193594	0.200004	0.193101
1255	0.20214	0.201812	0.201647	0.195237	0.20362	0.205592
1256	0.195566	0.20099	0.202305	0.19573	0.199346	0.202469
1257	0.200825	0.199511	0.201647	0.193594	0.202305	0.200497
1258	0.198031	0.199839	0.203948	0.196059	0.201812	0.204277
1259	0.200332	0.200168	0.201976	0.195073	0.200497	0.202305
1260	0.201154	0.199839	0.201812	0.192936	0.199346	0.203291
1261	0.202469	0.205263	0.202305	0.192936	0.201647	0.201319
1262	0.199675	0.200332	0.200004	0.196881	0.197538	0.200332
1263	0.20477	0.199839	0.201976	0.195895	0.201483	0.197703
1264	0.204441	0.201647	0.201647	0.191293	0.200825	0.203126
1265	0.201483	0.19836	0.201319	0.19721	0.200168	0.194087
1266	0.199675	0.201319	0.200168	0.197045	0.203291	0.199346
1267	0.199511	0.201319	0.20099	0.193101	0.201319	0.201976
1268	0.199346	0.20362	0.205592	0.198524	0.199182	0.198853
1269	0.197703	0.202305	0.201154	0.199182	0.203455	0.203455
1270	0.203291	0.200168	0.198689	0.197538	0.198196	0.207071
1271	0.201812	0.201647	0.201483	0.198031	0.198031	0.202305
1272	0.204113	0.197867	0.199839	0.201154	0.198196	0.20362
1273	0.19836	0.200168	0.203126	0.199511	0.199675	0.205099
1274	0.200661	0.199675	0.200168	0.198196	0.200332	0.199675
1275	0.20099	0.198853	0.199182	0.199839	0.202798	0.208222
1276	0.199511	0.199182	0.199839	0.197045	0.202469	0.201976
1277	0.200332	0.200168	0.203455	0.200168	0.204441	0.202305
1278	0.201154	0.202305	0.197867	0.196388	0.198689	0.201812
1279	0.201976	0.201154	0.200004	0.19836	0.200497	0.203291
1280	0.200497	0.200661	0.201483	0.197045	0.200332	0.201319
1281	0.204934	0.202798	0.200497	0.197045	0.196059	0.201319
1282	0.201812	0.19721	0.199346	0.194251	0.199839	0.200332
1283	0.201647	0.187513	0.198524	0.200497	0.119797	0.198689
1284	0.200332	0.197867	0.201319	0.196552	0.120455	0.202962
1285	0.202305	0.200825	0.198031	0.198524	0.124728	0.201483
1286	0.201976	0.198524	0.19836	0.199182	0.131631	0.204277
1287	0.203126	0.201976	0.198689	0.200168	0.129823	0.201647
1288	0.199018	0.200661	0.201319	0.199346	0.136069	0.20214
1289	0.201319	0.20214	0.20099	0.201647	0.13574	0.200004
1290	0.197374	0.200825	0.204441	0.200004	0.137219	0.203126
1291	0.19721	0.200497	0.20099	0.195402	0.141164	0.198196
1292	0.199675	0.197867	0.20477	0.201976	0.142972	0.20477
1293	0.198031	0.200332	0.205263	0.200825	0.146423	0.200332
1294	0.201483	0.18817	0.199346	0.200661	0.147409	0.201976
1295	0.198689	0.198853	0.202962	0.199511	0.148724	0.203784
1296	0.197538	0.196388	0.197703	0.200661	0.150697	0.202305
1297	0.198853	0.196552	0.201647	0.199346	0.154477	0.198853
1298	0.202305	0.201812	0.200332	0.19836	0.155627	0.203126
1299	0.20099	0.198689	0.202305	0.199511	0.161215	0.197867
1300	0.200497	0.203948	0.197374	0.197703	0.155134	0.199675
1301	0.200661	0.201647	0.20214	0.196223	0.162695	0.20099
1302	0.201647	0.202305	0.198031	0.19721	0.161215	0.200825
1303	0.201647	0.20214	0.20362	0.199182	0.165653	0.208057
1304	0.202633	0.202305	0.203948	0.198196	0.163188	0.198524
1305	0.199346	0.190142	0.200168	0.197867	0.164338	0.200168
1306	0.200825	0.198689	0.205592	0.202469	0.167461	0.200004
1307	0.200168	0.201154	0.202305	0.198196	0.005734	0.20099
1308	0.197045	0.198196	0.203784	0.199182	0.015924	0.20099
1309	0.201154	0.200332	0.200661	0.202469	0.023977	0.203455
1310	0.202469	0.204277	0.201647	0.199511	0.027922	0.200332
1311	0.200497	0.198689	0.199675	0.206249	0.035647	0.202962
1312	0.202633	0.196223	0.206085	0.200661	0.043043	0.203291
1313	0.203126	0.201483	0.199511	0.202633	0.049124	0.200497
1314	0.201483	0.199511	0.201812	0.201319	0.057671	0.200004
1315	0.200661	0.20214	0.199018	0.202798	0.063423	0.201154
1316	0.195566	0.198689	0.199675	0.199839	0.067039	0.201483
1317	0.202305	0.199839	0.198853	0.199511	0.071641	0.203291
1318	0.200168	0.199182	0.197867	0.20214	0.080516	0.203291
1319	0.202469	0.20099	0.19573	0.198196	0.084954	0.200168
1320	0.20214	0.201154	0.19721	0.203126	0.088241	0.204113
1321	0.202305	0.201154	0.199675	0.199675	0.099089	0.200825
1322	0.196388	0.201812	0.19836	0.204113	0.096788	0.203291
1323	0.203126	0.199182	0.20214	0.197867	0.102869	0.203455
1324	0.199182	0.204606	0.202305	0.200825	0.107471	0.205592
1325	0.200168	0.201154	0.202305	0.199675	0.110922	0.208057
1326	0.198031	0.200168	0.204606	0.201976	0.112401	0.204441
1327	0.199675	0.196881	0.204277	0.200004	0.114538	0.203291
1328	0.201319	0.198524	0.200825	0.201154	0.112894	0.208222
1329	0.201976	0.199675	0.20362	0.20214	0.122592	0.203948
1330	0.20214	0.199346	0.201319	0.200497	0.119797	0.201154
1331	0.201483	0.200497	0.202469	0.199346	0.129001	0.204606
1332	0.206085	0.204113	0.201154	0.200168	0.133275	0.201976
1333	0.201154	0.196717	0.197045	0.199675	0.133768	0.203291
1334	0.20099	0.196717	0.196059	0.199511	0.13574	0.201976
1335	0.200497	0.201647	0.201812	0.200004	0.140342	0.20362
1336	0.199018	0.200497	0.196059	0.197045	0.141328	0.199511
1337	0.198031	0.199675	0.203291	0.201154	0.141164	0.205099
1338	0.199018	0.200497	0.197867	0.196552	0.149382	0.20214
1339	0.199675	0.200168	0.199675	0.19836	0.147903	0.202798
1340	0.201319	0.198689	0.202633	0.199511	0.153162	0.198196
1341	0.200497	0.199182	0.20099	0.20099	0.15234	0.200168
1342	0.197867	0.200168	0.202469	0.201647	0.155627	0.19836
1343	0.198689	0.200004	0.201647	0.199182	0.160065	0.202962
1344	0.198524	0.198689	0.200661	0.202962	0.158257	0.202633
1345	0.202798	0.201319	0.20099	0.20362	0.158914	0.201154
1346	0.196388	0.200332	0.205592	0.201154	0.161051	0.203455
1347	0.199675	0.203455	0.198689	0.199511	0.158257	0.202962
1348	0.201647	0.199839	0.202305	0.200825	0.16516	0.202469
1349	0.20099	0.205756	0.200497	0.200825	0.165489	0.199675
1350	0.199346	0.199182	0.200004	0.196552	0.167132	0.205756
1351	0.19836	0.200661	0.196881	0.198853	0.170419	0.202305
1352	0.20099	0.200004	0.199675	0.199018	0.170584	0.20099
1353	0.200004	0.200332	0.199346	0.198524	0.17272	0.205427
1354	0.201647	0.20214	0.201319	0.197538	0.173707	0.203455
1355	0.201647	0.206578	0.201483	0.196552	0.172556	0.196059
1356	0.199675	0.203126	0.20099	0.19721	0.176336	0.201154
1357	0.198689	0.201319	0.20099	0.200825	0.175843	0.200332
1358	0.200661	0.205921	0.200497	0.201483	0.176994	0.200661
1359	0.202633	0.200825	0.202469	0.200497	0.178144	0.20214
1360	0.204113	0.201812	0.200825	0.203948	0.17798	0.199018
1361	0.201154	0.203784	0.202633	0.195073	0.180116	0.206742
1362	0.203948	0.201976	0.201483	0.200332	0.18061	0.205756
1363	0.202469	0.200332	0.200168	0.204934	0.182582	0.205592
1364	0.200661	0.20099	0.199839	0.195237	0.180774	0.20214
1365	0.199675	0.201319	0.200168	0.199018	0.174035	0.206414
1366	0.20362	0.199346	0.199018	0.199675	0.179295	0.201976
1367	0.203291	0.198524	0.200825	0.199511	0.185047	0.202469
1368	0.207728	0.201812	0.199675	0.196881	0.186362	0.201812
1369	0.200004	0.201483	0.196388	0.202633	0.185376	0.201647
1370	0.199018	0.20099	0.205099	0.198524	0.191457	0.20099
1371	0.201812	0.201319	0.194744	0.201319	0.192608	0.200497
1372	0.20099	0.199511	0.203784	0.196388	0.189814	0.200497
1373	0.20099	0.202962	0.199675	0.201647	0.192115	0.204441
1374	0.204606	0.199675	0.203455	0.200332	0.190964	0.203126
1375	0.199182	0.201812	0.202633	0.201319	0.188006	0.201647
1376	0.200004	0.201483	0.205099	0.204441	0.183732	0.202962
1377	0.199839	0.204113	0.199182	0.202305	0.187019	0.200168
1378	0.201976	0.198853	0.202798	0.201812	0.193922	0.203126
1379	0.202469	0.202962	0.201976	0.201976	0.191128	0.200661
1380	0.199675	0.201647	0.203126	0.201319	0.188663	0.204441
1381	0.199839	0.200332	0.200332	0.199675	0.192772	0.20099
1382	0.200661	0.199675	0.201483	0.203291	0.192115	0.199675
1383	0.203126	0.207071	0.198689	0.195566	0.190471	0.201976
1384	0.20362	0.200825	0.199018	0.201483	0.192608	0.203126
1385	0.202469	0.198689	0.19836	0.200004	0.194251	0.202469
1386	0.200661	0.201483	0.197867	0.200661	0.196059	0.199182
1387	0.202469	0.198031	0.199182	0.196881	0.190142	0.201647
1388	0.201319	0.201812	0.199511	0.199346	0.194087	0.201154
1389	0.197374	0.200168	0.202469	0.198031	0.194416	0.19721
1390	0.204441	0.201647	0.201647	0.197703	0.19458	0.200497
1391	0.199018	0.200825	0.20362	0.198689	0.199182	0.196717
1392	0.199182	0.201483	0.205263	0.199511	0.196223	0.195073
1393	0.198689	0.200332	0.200661	0.199018	0.199346	0.198031
1394	0.201319	0.205427	0.201976	0.191293	0.197703	0.19836
1395	0.197867	0.19836	0.206578	0.201483	0.199839	0.199675
1396	0.199018	0.199675	0.202798	0.199675	0.199182	0.198853
1397	0.201483	0.200004	0.202633	0.202469	0.198524	0.200825
1398	0.201319	0.200825	0.201154	0.199018	0.196552	0.200168
1399	0.201647	0.201647	0.204113	0.201319	0.19573	0.199675
1400	0.202962	0.199511	0.202469	0.199839	0.19721	0.197045
1401	0.202962	0.199018	0.20099	0.201483	0.197374	0.198689
1402	0.204606	0.200168	0.202633	0.199018	0.197538	0.198031
1403	0.199346	0.20099	0.203126	0.19721	0.19836	0.199182
1404	0.205263	0.196717	0.19836	0.196881	0.201647	0.191293
1405	0.202469	0.202305	0.201812	0.196552	0.201647	0.196059
1406	0.19836	0.198853	0.200661	0.196881	0.202633	0.192443
1407	0.205263	0.196717	0.200004	0.199346	0.19836	0.194087
1408	0.203126	0.199182	0.201319	0.199346	0.200661	0.198689
1409	0.204277	0.200497	0.199839	0.19573	0.197867	0.198524
1410	0.201154	0.199182	0.201976	0.198196	0.19836	0.193429
1411	0.20362	0.203291	0.200497	0.199675	0.198196	0.197045
1412	0.201647	0.201976	0.202962	0.20099	0.199018	0.20214
1413	0.201483	0.203126	0.19836	0.198031	0.199511	0.194087
1414	0.197538	0.201154	0.200661	0.202798	0.198031	0.197867
1415	0.202962	0.198853	0.197374	0.20362	0.199346	0.197538
1416	0.200168	0.201154	0.199511	0.204441	0.195895	0.201483
1417	0.201812	0.199018	0.201154	0.203455	0.198689	0.198689
1418	0.202305	0.199346	0.199511	0.202633	0.198853	0.198853
1419	0.200168	0.197703	0.199511	0.200661	0.200825	0.19836
1420	0.199182	0.201812	0.199675	0.199346	0.197867	0.199018
1421	0.201812	0.201483	0.200661	0.200825	0.02973	0.196717
1422	0.203126	0.200497	0.202469	0.198196	0.03729	0.195402
1423	0.20099	0.200168	0.202305	0.198524	0.045837	0.195237
1424	0.202633	0.200497	0.200168	0.197867	0.049781	0.193758
1425	0.19573	0.200332	0.18817	0.199511	0.055534	0.19573
1426	0.202469	0.198853	0.197703	0.199675	0.060958	0.194087
1427	0.200168	0.20477	0.195237	0.201319	0.066217	0.199018
1428	0.201647	0.200825	0.199182	0.200825	0.076572	0.196717
1429	0.200661	0.200661	0.199018	0.20099	0.079037	0.197867
1430	0.201154	0.201647	0.198196	0.201154	0.082653	0.197867
1431	0.198689	0.200661	0.197538	0.201976	0.090706	0.198853
1432	0.200332	0.199346	0.20099	0.203455	0.092021	0.198196
1433	0.199018	0.201483	0.200661	0.202798	0.097116	0.198196
1434	0.19836	0.199346	0.198689	0.200661	0.102376	0.197867
1435	0.199182	0.202962	0.198524	0.197374	0.105498	0.198524
1436	0.200497	0.200661	0.190964	0.199346	0.110265	0.197703
1437	0.201976	0.200825	0.199675	0.198689	0.111251	0.197703
1438	0.201647	0.201483	0.200332	0.198853	0.11536	0.198524
1439	0.202469	0.199675	0.200168	0.202305	0.115031	0.195895
1440	0.200825	0.19836	0.201647	0.199018	0.123249	0.196881
1441	0.200825	0.199839	0.200004	0.199675	0.126043	0.200332
1442	0.201154	0.199675	0.201812	0.201319	0.128673	0.19721
1443	0.201483	0.198689	0.202305	0.200661	0.133603	0.19573
1444	0.198031	0.19573	0.196552	0.204277	0.136069	0.196223
1445	0.198031	0.201976	0.197867	0.198031	0.137219	0.195566
1446	0.198853	0.199511	0.199675	0.199511	0.143136	0.195895
1447	0.19721	0.199346	0.198031	0.200168	0.144615	0.196388
1448	0.200004	0.201647	0.19836	0.201483	0.147245	0.197045
1449	0.199675	0.200168	0.201812	0.200825	0.147574	0.197045
1450	0.199511	0.198853	0.199675	0.204441	0.151354	0.195566
1451	0.200825	0.19721	0.201812	0.20099	0.152998	0.198853
1452	0.201319	0.200332	0.200332	0.200004	0.152011	0.19836
1453	0.199675	0.199346	0.198196	0.200168	0.154477	0.197703
1454	0.200661	0.199675	0.198689	0.199018	0.15612	0.192608
1455	0.200661	0.196223	0.204113	0.197867	0.160229	0.192608
1456	0.200825	0.200661	0.199839	0.196059	0.1576	0.196552
1457	0.202305	0.203126	0.201154	0.200004	0.158586	0.193922
1458	0.204277	0.200497	0.199675	0.19836	0.160722	0.193101
1459	0.203784	0.200497	0.199511	0.198689	0.162695	0.194087
1460	0.204277	0.201483	0.199182	0.200497	0.163023	0.19836
1461	0.201976	0.202633	0.198031	0.203291	0.167954	0.19836
1462	0.20362	0.19836	0.202962	0.201319	0.168118	0.196223
1463	0.196388	0.200004	0.196717	0.201647	0.168283	0.196552
1464	0.200825	0.198524	0.201154	0.201154	0.170748	0.198196
1465	0.198196	0.200332	0.200332	0.203291	0.171406	0.199018
1466	0.198853	0.198196	0.200332	0.197538	0.17272	0.197374
1467	0.197045	0.203291	0.201319	0.200332	0.171077	0.196223
1468	0.194416	0.197538	0.202962	0.197867	0.175515	0.19836
1469	0.199839	0.20099	0.201812	0.200168	0.17798	0.19721
1470	0.201154	0.200332	0.202469	0.200661	0.178802	0.192936
1471	0.197867	0.200497	0.199346	0.198853	0.1742	0.198524
1472	0.200825	0.198853	0.20214	0.201647	0.179952	0.197045
1473	0.210687	0.199839	0.200497	0.199018	0.177815	0.194744
1474	0.199018	0.197867	0.201812	0.199182	0.179459	0.197374
1475	0.20214	0.200661	0.199675	0.198689	0.176501	0.196059
1476	0.201154	0.196223	0.196552	0.202469	0.181924	0.197374
1477	0.202469	0.196881	0.200332	0.197538	0.179952	0.193758
1478	0.200825	0.200168	0.204113	0.199346	0.179295	0.198853
1479	0.202469	0.198689	0.200332	0.200168	0.176994	0.196388
1480	0.198031	0.199675	0.200497	0.200825	0.183075	0.19721
1481	0.198853	0.199839	0.196717	0.199839	0.184225	0.192443
1482	0.201154	0.20214	0.199346	0.203291	0.178802	0.198031
1483	0.196717	0.199018	0.196223	0.201976	0.183239	0.201319
1484	0.199018	0.202633	0.200168	0.200825	0.186033	0.198524
1485	0.198524	0.200497	0.199018	0.199182	0.18554	0.200004
1486	0.198689	0.201154	0.199346	0.202962	0.188499	0.198689
1487	0.201154	0.199839	0.201319	0.20214	0.188827	0.19836
1488	0.201647	0.199511	0.200332	0.194416	0.186198	0.196388
1489	0.200661	0.199511	0.202305	0.19836	0.185212	0.198524
1490	0.204441	0.200661	0.200825	0.19721	0.186526	0.197538
1491	0.201319	0.198689	0.200332	0.198524	0.188663	0.198031
1492	0.206578	0.198031	0.198689	0.199182	0.187513	0.197703
1493	0.202469	0.20099	0.198524	0.203291	0.189485	0.20099
1494	0.202469	0.196552	0.199346	0.20362	0.192772	0.197867
1495	0.193758	0.197703	0.196552	0.204277	0.186855	0.201812
1496	0.198031	0.196881	0.199018	0.199346	0.189814	0.197703
1497	0.196223	0.198853	0.198689	0.200825	0.191621	0.200661
1498	0.198196	0.20099	0.198196	0.200497	0.197374	0.197867
1499	0.20099	0.194744	0.201647	0.200168	0.190964	0.19836
1500	0.201812	0.199511	0.200497	0.197374	0.194251	0.20099
1501	0.201647	0.201812	0.200661	0.197703	0.192115	0.199346
1502	0.199182	0.199018	0.200825	0.198689	0.194416	0.198031
1503	0.203948	0.202305	0.198524	0.197538	0.194087	0.200004
1504	0.201319	0.199839	0.200332	0.201154	0.192936	0.204934
1505	0.202798	0.19836	0.201319	0.199182	0.196059	0.200661
1506	0.193758	0.199346	0.200497	0.199018	0.196552	0.203455
1507	0.200168	0.203784	0.200168	0.201319	0.193265	0.199182
1508	0.203784	0.200332	0.200661	0.20214	0.195073	0.201319
1509	0.207071	0.199346	0.198689	0.200661	0.19721	0.195566
1510	0.203455	0.201154	0.202305	0.204441	0.192608	0.19836
1511	0.20362	0.201976	0.199182	0.199182	0.196552	0.197045
1512	0.202633	0.198031	0.199346	0.201154	0.193265	0.199839
1513	0.20099	0.198196	0.200661	0.200004	0.195402	0.198853
1514	0.200168	0.201154	0.200004	0.199182	0.194744	0.204606
1515	0.198524	0.200332	0.201647	0.196059	0.19721	0.203455
1516	0.201812	0.20099	0.19836	0.19458	0.195237	0.200332
1517	0.196388	0.198689	0.200497	0.199511	0.198196	0.203126
1518	0.198196	0.201154	0.200168	0.200497	0.197374	0.200497
1519	0.199182	0.199346	0.203455	0.200332	0.200004	0.202305
1520	0.202798	0.201483	0.200825	0.198853	0.200497	0.200497
1521	0.199182	0.200332	0.20362	0.199675	0.195237	0.20214
1522	0.201812	0.200661	0.20214	0.202798	0.195402	0.203126
1523	0.199675	0.199675	0.202469	0.201812	0.195895	0.206085
1524	0.199511	0.202633	0.203126	0.199675	0.195237	0.201154
1525	0.198853	0.20362	0.201483	0.200661	0.19721	0.20362
1526	0.199675	0.199675	0.19836	0.200332	0.198853	0.204277
1527	0.198689	0.199018	0.199018	0.200497	0.195073	0.202633
1528	0.197867	0.198853	0.201647	0.200168	0.197867	0.200661
1529	0.196552	0.200168	0.19836	0.201154	0.198524	0.201976
1530	0.195895	0.198196	0.199511	0.199839	0.196388	0.201812
1531	0.196881	0.20099	0.195566	0.199346	0.194251	0.200497
1532	0.197374	0.196552	0.198853	0.199182	0.19573	0.202962
1533	0.194416	0.199675	0.196717	0.19836	0.196552	0.201812
1534	0.195895	0.199346	0.200332	0.200168	0.198853	0.202633
1535	0.197045	0.202798	0.200004	0.195402	0.198031	0.203291
1536	0.193429	0.200168	0.199675	0.201647	0.200332	0.204606
1537	0.195566	0.20099	0.199511	0.201812	0.199346	0.203455
1538	0.195237	0.201154	0.203455	0.197867	0.198689	0.202305
1539	0.196059	0.20214	0.198524	0.200497	0.199839	0.201976
1540	0.19458	0.198196	0.203784	0.199839	0.201154	0.203948
1541	0.196388	0.19836	0.199346	0.19836	0.198196	0.200168
1542	0.199839	0.200168	0.201319	0.205263	0.200332	0.199182
1543	0.195073	0.195402	0.202962	0.197045	0.199182	0.199675
1544	0.193429	0.197538	0.198031	0.198689	0.199018	0.200332
1545	0.195073	0.198031	0.200825	0.205263	0.199182	0.199346
1546	0.195073	0.201647	0.200168	0.200004	0.195895	0.202633
1547	0.193758	0.197867	0.202798	0.198196	0.197867	0.20477
1548	0.193922	0.201154	0.198524	0.198196	0.197045	0.202305
1549	0.196552	0.193758	0.201647	0.197867	0.201647	0.202305
1550	0.195566	0.200661	0.199018	0.19721	0.197538	0.200661
1551	0.189978	0.200004	0.199018	0.198196	0.202469	0.201647
1552	0.197538	0.199675	0.201483	0.19836	0.199839	0.203455
1553	0.193758	0.202305	0.199346	0.202962	0.200168	0.202305
1554	0.197867	0.19721	0.201319	0.196388	0.201154	0.200168
1555	0.193594	0.202633	0.202798	0.198853	0.201319	0.20099
1556	0.195073	0.202633	0.201647	0.19836	0.205099	0.202305
1557	0.195237	0.200168	0.202305	0.202305	0.198524	0.208715
1558	0.197867	0.197045	0.202962	0.199182	0.201154	0.206249
1559	0.200004	0.198524	0.197538	0.204606	0.202798	0.202962
1560	0.198853	0.19721	0.203455	0.19836	0.200497	0.204113
1561	0.196388	0.200661	0.200004	0.200004	0.197374	0.200004
1562	0.196552	0.194251	0.200332	0.200004	0.200661	0.200825
1563	0.196717	0.201319	0.200004	0.196388	0.198853	0.202469
1564	0.195402	0.19836	0.199675	0.204441	0.197374	0.200332
1565	0.199839	0.200497	0.19836	0.197374	0.198196	0.200497
1566	0.195402	0.199182	0.200661	0.200168	0.200332	0.200661
1567	0.196717	0.198689	0.199346	0.201319	0.200004	0.193758
1568	0.199675	0.20214	0.198196	0.202962	0.200004	0.194744
1569	0.204113	0.200661	0.201483	0.20099	0.201483	0.200825
1570	0.196552	0.20362	0.200168	0.201154	0.202305	0.201483
1571	0.199675	0.200332	0.201483	0.198853	0.201976	0.195402
1572	0.196388	0.201976	0.201812	0.200497	0.197538	0.202798
1573	0.198031	0.199839	0.199839	0.19836	0.20099	0.200497
1574	0.197374	0.199182	0.19721	0.20362	0.197538	0.201154
1575	0.197374	0.199346	0.198524	0.206742	0.198689	0.199675
1576	0.198853	0.198689	0.200497	0.198689	0.198196	0.201483
1577	0.196059	0.201154	0.199839	0.202798	0.198196	0.200332
1578	0.196717	0.201154	0.199675	0.200004	0.196388	0.198853
1579	0.196881	0.197538	0.196552	0.199018	0.19836	0.200168
1580	0.19836	0.20099	0.195895	0.199018	0.19721	0.202962
1581	0.197867	0.200004	0.194909	0.199346	0.197374	0.199182
1582	0.203948	0.198196	0.196059	0.199018	0.198689	0.199346
1583	0.199018	0.197703	0.198031	0.200004	0.196552	0.202305
1584	0.202798	0.198524	0.192115	0.198524	0.195073	0.195402
1585	0.19836	0.201483	0.198524	0.201647	0.197045	0.200004
1586	0.196223	0.199346	0.199511	0.202798	0.20214	0.19573
1587	0.197538	0.200497	0.200004	0.201319	0.196059	0.197703
1588	0.200332	0.202633	0.202798	0.200332	0.197703	0.198196
1589	0.197867	0.201154	0.19836	0.202469	0.197045	0.19721
1590	0.197867	0.196388	0.201154	0.200004	0.198031	0.198853
1591	0.200332	0.200004	0.198524	0.201976	0.196881	0.202305
1592	0.196223	0.198196	0.202633	0.199018	0.199511	0.201483
1593	0.195566	0.198524	0.201154	0.197374	0.197538	0.196717
1594	0.195566	0.198853	0.202633	0.202633	0.200497	0.200168
1595	0.196223	0.201319	0.200332	0.201976	0.199346	0.19836
1596	0.19573	0.19836	0.201319	0.200661	0.196552	0.200332
1597	0.19836	0.20477	0.199839	0.20214	0.197374	0.201812
1598	0.195895	0.196059	0.201647	0.196552	0.196717	0.202633
1599	0.201319	0.19721	0.199839	0.202469	0.19573	0.194416
1600	0.200168	0.199182	0.201319	0.197045	0.194087	0.199018
1601	0.199839	0.198689	0.198853	0.195073	0.196717	0.193265
1602	0.201812	0.201483	0.199018	0.201154	0.196552	0.201319
1603	0.200661	0.201976	0.201483	0.195402	0.195895	0.197045
1604	0.200497	0.201319	0.202469	0.197703	0.198524	0.196388
1605	0.200332	0.200661	0.201812	0.198196	0.199839	0.195402
1606	0.199182	0.200004	0.200661	0.199511	0.199018	0.194744
1607	0.197538	0.201319	0.200825	0.201647	0.199839	0.198853
1608	0.196059	0.19836	0.200497	0.200004	0.198524	0.194087
1609	0.195402	0.195402	0.202469	0.201647	0.19836	0.192608
1610	0.198524	0.203126	0.202469	0.19836	0.197703	0.195895
1611	0.197374	0.200661	0.202469	0.198853	0.19721	0.19721
1612	0.198853	0.203126	0.201647	0.199511	0.194416	0.195237
1613	0.201812	0.201483	0.201976	0.200332	0.198524	0.200168
1614	0.199346	0.202469	0.20099	0.199346	0.195237	0.196059
1615	0.199018	0.200661	0.198031	0.199511	0.195895	0.198524
1616	0.201647	0.196059	0.198524	0.201319	0.197867	0.194909
1617	0.20099	0.199675	0.200825	0.201319	0.196388	0.197374
1618	0.199182	0.196552	0.196552	0.195566	0.197867	0.199839
1619	0.200332	0.202633	0.194909	0.19458	0.197374	0.19573
1620	0.200332	0.198524	0.201483	0.19836	0.200168	0.193758
1621	0.198524	0.202633	0.198196	0.19721	0.200497	0.19573
1622	0.200004	0.20099	0.201647	0.200332	0.199511	0.195073
1623	0.197703	0.199675	0.200168	0.201483	0.19836	0.194909
1624	0.200332	0.196059	0.197538	0.201319	0.201647	0.19836
1625	0.199018	0.20099	0.199346	0.201154	0.197867	0.198524
1626	0.19721	0.196717	0.201812	0.202798	0.199839	0.19573
1627	0.198689	0.19836	0.199839	0.200661	0.196552	0.193594
1628	0.198524	0.203784	0.201319	0.199675	0.197867	0.200497
1629	0.200168	0.200332	0.199675	0.199018	0.196717	0.196223
1630	0.198196	0.19836	0.194251	0.193101	0.199839	0.195237
1631	0.198853	0.198853	0.20362	0.198031	0.197867	0.19458
1632	0.202469	0.197703	0.20099	0.202305	0.193594	0.195402
1633	0.202305	0.198524	0.196388	0.199839	0.197867	0.19458
1634	0.200004	0.201483	0.199346	0.199018	0.196059	0.195402
1635	0.202469	0.199675	0.201976	0.197045	0.199018	0.193922
1636	0.200825	0.201154	0.197045	0.194909	0.19721	0.199675
1637	0.200004	0.199675	0.19836	0.198196	0.199675	0.194416
1638	0.19836	0.198853	0.197045	0.198853	0.201647	0.193594
1639	0.201319	0.199839	0.200661	0.200497	0.200497	0.194416
1640	0.200168	0.201154	0.199018	0.198853	0.198689	0.195402
1641	0.19836	0.200004	0.197045	0.192115	0.203126	0.197374
1642	0.194744	0.200168	0.198853	0.200168	0.199018	0.192772
1643	0.193429	0.200825	0.198031	0.199182	0.204441	0.195402
1644	0.199018	0.200004	0.199675	0.198031	0.202962	0.194909
1645	0.195073	0.200825	0.203291	0.203948	0.198853	0.196717
1646	0.198196	0.199839	0.200825	0.200004	0.201483	0.196717
1647	0.201812	0.196552	0.20099	0.201812	0.198853	0.197374
1648	0.200168	0.196717	0.199675	0.200332	0.199839	0.190964
1649	0.199018	0.198689	0.20099	0.201812	0.198853	0.198031
1650	0.204606	0.199675	0.200497	0.197374	0.198853	0.19195
1651	0.200168	0.198689	0.199182	0.200332	0.199511	0.199018
1652	0.202469	0.198689	0.201976	0.190307	0.198853	0.193594
1653	0.200497	0.201483	0.204113	0.195895	0.19836	0.191621
1654	0.199675	0.199839	0.200004	0.196388	0.199675	0.191621
1655	0.201154	0.201647	0.198031	0.197045	0.200497	0.195073
1656	0.19836	0.196552	0.201319	0.197703	0.201976	0.193758
1657	0.199182	0.202633	0.199839	0.200661	0.199018	0.19458
1658	0.199018	0.200332	0.19836	0.200004	0.20099	0.199839
1659	0.195895	0.204277	0.199346	0.199511	0.200332	0.19573
1660	0.195073	0.204934	0.201319	0.197538	0.200661	0.196717
1661	0.200168	0.20099	0.199182	0.197374	0.201319	0.196552
1662	0.194744	0.199511	0.202305	0.202633	0.199346	0.197867
1663	0.200661	0.203455	0.200168	0.188663	0.198196	0.194087
1664	0.199675	0.200825	0.201812	0.200497	0.19721	0.196059
1665	0.200825	0.201483	0.20099	0.199018	0.197538	0.196717
1666	0.199018	0.201647	0.200825	0.20099	0.19721	0.199511
1667	0.201483	0.199018	0.20099	0.199346	0.19836	0.198524
1668	0.199511	0.200168	0.199346	0.196388	0.199182	0.195895
1669	0.202469	0.200332	0.194087	0.19721	0.196881	0.197703
1670	0.198524	0.200168	0.195237	0.199511	0.19721	0.199182
1671	0.195073	0.201812	0.200004	0.199675	0.202305	0.196388
1672	0.201154	0.202962	0.197045	0.19836	0.200825	0.195895
1673	0.200332	0.200497	0.200004	0.201976	0.20099	0.199018
1674	0.19721	0.19721	0.198196	0.191621	0.20099	0.193594
1675	0.197538	0.201483	0.200661	0.197374	0.199839	0.197703
1676	0.199675	0.201812	0.199511	0.19836	0.194744	0.196223
1677	0.197538	0.201319	0.200497	0.200332	0.200168	0.197867
1678	0.198524	0.201319	0.200497	0.198524	0.200497	0.196223
1679	0.197374	0.201154	0.201483	0.201154	0.195895	0.198524
1680	0.192608	0.201812	0.202305	0.197045	0.196881	0.19573
1681	0.197045	0.200497	0.204606	0.201319	0.199675	0.198524
1682	0.20214	0.198031	0.201976	0.20099	0.195237	0.198524
1683	0.198031	0.200497	0.198853	0.200168	0.197867	0.199839
1684	0.199839	0.199182	0.200497	0.199839	0.198689	0.199511
1685	0.199675	0.202798	0.197045	0.19573	0.197045	0.19836
1686	0.199018	0.198196	0.198689	0.195402	0.200497	0.19836
1687	0.202305	0.201976	0.199182	0.198196	0.196717	0.19721
1688	0.198031	0.198196	0.200168	0.195402	0.197703	0.196388
1689	0.202962	0.199182	0.196223	0.19836	0.196717	0.196717
1690	0.19836	0.200332	0.201483	0.199182	0.201647	0.200004
1691	0.195237	0.200661	0.193101	0.196388	0.198031	0.189978
1692	0.197045	0.196881	0.198524	0.199018	0.199511	0.200332
1693	0.198689	0.199182	0.198689	0.198689	0.199346	0.195895
1694	0.198524	0.198524	0.197538	0.200661	0.201154	0.195402
1695	0.198853	0.199018	0.199839	0.201647	0.200825	0.200497
1696	0.196717	0.199511	0.199675	0.199839	0.200497	0.196552
1697	0.19721	0.200004	0.202962	0.198196	0.200004	0.197867
1698	0.198853	0.205592	0.202305	0.20099	0.197374	0.200661
1699	0.200168	0.202798	0.198689	0.201319	0.200661	0.193758
1700	0.200332	0.201154	0.201319	0.199182	0.196388	0.197538
1701	0.201483	0.20099	0.200825	0.200661	0.203126	0.19721
1702	0.202633	0.202469	0.19836	0.197374	0.197374	0.193594
1703	0.200004	0.197374	0.199018	0.196717	0.200825	0.197703
1704	0.201976	0.199346	0.197703	0.198031	0.200168	0.189978
1705	0.197703	0.199675	0.198853	0.199182	0.197703	0.197703
1706	0.200168	0.195402	0.196881	0.19836	0.198853	0.198689
1707	0.200497	0.201812	0.199511	0.194087	0.199511	0.193922
1708	0.202798	0.202305	0.199182	0.198196	0.200497	0.193429
1709	0.203126	0.204277	0.198524	0.20099	0.199675	0.199511
1710	0.19836	0.202962	0.196717	0.196223	0.197374	0.194251
1711	0.196717	0.201647	0.201319	0.197703	0.199182	0.19573
1712	0.201812	0.199839	0.202633	0.198853	0.200497	0.19458
1713	0.199675	0.20362	0.198031	0.196388	0.197867	0.195237
1714	0.198524	0.19721	0.200332	0.198853	0.200168	0.19573
1715	0.201647	0.202469	0.199182	0.201976	0.19721	0.199018
1716	0.197538	0.200661	0.201154	0.200332	0.200332	0.196059
1717	0.202633	0.199839	0.197538	0.200332	0.199346	0.201483
1718	0.199839	0.199675	0.200497	0.202469	0.201812	0.197867
1719	0.201812	0.20099	0.197867	0.198524	0.196223	0.196223
1720	0.200497	0.199675	0.195402	0.203291	0.195566	0.195073
1721	0.201483	0.200497	0.199182	0.200497	0.194744	0.194416
1722	0.204277	0.204277	0.200497	0.201319	0.19836	0.197703
1723	0.205756	0.203126	0.199346	0.198524	0.19836	0.194087
1724	0.19836	0.201154	0.199346	0.198524	0.199675	0.193758
1725	0.20362	0.200332	0.199839	0.198196	0.198853	0.196059
1726	0.200661	0.200332	0.198853	0.201647	0.196388	0.194909
1727	0.200004	0.202633	0.200661	0.198689	0.188006	0.194251
1728	0.200004	0.200004	0.198689	0.19836	0.170913	0.197045
1729	0.200497	0.199839	0.199675	0.200661	0.155956	0.195073
1730	0.197538	0.200661	0.199182	0.200004	0.130809	0.195073
1731	0.196717	0.200661	0.202469	0.199182	0.129166	0.195073
1732	0.200661	0.204277	0.19836	0.200825	0.134754	0.197703
1733	0.198031	0.205592	0.197374	0.203291	0.133768	0.197045
1734	0.202305	0.202469	0.199675	0.202305	0.135083	0.196881
1735	0.196717	0.201647	0.197374	0.201483	0.133932	0.196552
1736	0.196552	0.201154	0.19721	0.19836	0.136069	0.197703
1737	0.19573	0.200004	0.199018	0.201976	0.131631	0.196388
1738	0.195237	0.201154	0.200332	0.198524	0.133932	0.195073
1739	0.196059	0.198689	0.20099	0.199839	0.129823	0.190635
1740	0.19573	0.196388	0.200168	0.199018	0.132617	0.19458
1741	0.196881	0.200332	0.200168	0.198524	0.134261	0.194744
1742	0.201154	0.198031	0.196717	0.19836	0.136069	0.196059
1743	0.194251	0.199511	0.199511	0.200168	0.135247	0.194909
1744	0.193758	0.198031	0.20099	0.202962	0.136562	0.19458
1745	0.198853	0.201319	0.197703	0.200825	0.140506	0.195402
1746	0.195073	0.200332	0.199018	0.200661	0.142479	0.19721
1747	0.193265	0.20099	0.200004	0.200332	0.145273	0.19195
1748	0.195402	0.200661	0.199018	0.201647	0.149217	0.198689
1749	0.199182	0.205592	0.196717	0.201319	0.149875	0.194416
1750	0.196059	0.202633	0.200004	0.198031	0.153326	0.186526
1751	0.199346	0.202962	0.199511	0.198524	0.150532	0.19573
1752	0.196717	0.203291	0.201812	0.200332	0.153162	0.195895
1753	0.196223	0.199675	0.197045	0.196552	0.153162	0.195073
1754	0.196881	0.19836	0.200825	0.200168	0.153655	0.197703
1755	0.19721	0.200332	0.203948	0.199182	0.156613	0.199018
1756	0.198031	0.200497	0.198853	0.199839	0.15875	0.196552
1757	0.199675	0.199675	0.199182	0.200004	0.158421	0.192115
1758	0.196881	0.199675	0.201319	0.199182	0.161873	0.198031
1759	0.202962	0.199018	0.200004	0.20214	0.162037	0.194909
1760	0.206414	0.200661	0.199511	0.20099	0.163023	0.196223
1761	0.196881	0.19458	0.200332	0.198524	0.164503	0.182089
1762	0.201483	0.199839	0.200332	0.201812	0.163023	0.193101
1763	0.200497	0.199018	0.201812	0.195895	0.167132	0.194744
1764	0.19721	0.201154	0.198524	0.197374	0.164667	0.19721
1765	0.199675	0.200497	0.199346	0.20214	0.169762	0.199346
1766	0.199018	0.201812	0.198853	0.200168	0.169105	0.191621
1767	0.198031	0.199346	0.197374	0.200168	0.168283	0.194909
1768	0.198524	0.205263	0.19836	0.20362	0.170091	0.193429
1769	0.197867	0.200168	0.20362	0.201154	0.170584	0.197045
1770	0.196717	0.194416	0.20362	0.205921	0.169762	0.195237
1771	0.200661	0.200332	0.201812	0.202633	0.172392	0.199346
1772	0.201976	0.203126	0.201812	0.200497	0.169105	0.193265
1773	0.200168	0.19836	0.200168	0.200661	0.173707	0.196552
1774	0.199675	0.200332	0.201647	0.198853	0.174693	0.197045
1775	0.200825	0.198689	0.200497	0.199675	0.171734	0.19721
1776	0.198853	0.198524	0.200497	0.199018	0.177487	0.195073
1777	0.198853	0.202633	0.199182	0.199182	0.175843	0.197703
1778	0.201483	0.198524	0.200497	0.19836	0.174857	0.199018
1779	0.203784	0.201483	0.197867	0.200661	0.177158	0.195073
1780	0.199675	0.197703	0.198689	0.199511	0.178473	0.199675
1781	0.198524	0.202962	0.196717	0.200332	0.180445	0.196881
1782	0.19836	0.200004	0.199346	0.201319	0.179623	0.201154
1783	0.19721	0.202633	0.195073	0.200004	0.179952	0.196552
1784	0.195895	0.200332	0.197045	0.203784	0.187019	0.198689
1785	0.197867	0.201319	0.201812	0.199675	0.186198	0.199346
1786	0.194744	0.200332	0.200825	0.200661	0.184554	0.199839
1787	0.195402	0.197867	0.200661	0.199018	0.183897	0.19721
1788	0.195566	0.204277	0.201976	0.198196	0.186691	0.200332
1789	0.199511	0.198853	0.205263	0.200661	0.18554	0.20099
1790	0.198196	0.198689	0.202305	0.200661	0.187841	0.19836
1791	0.199018	0.196059	0.201154	0.19836	0.190471	0.200168
1792	0.195895	0.198689	0.201154	0.201154	0.183732	0.200168
1793	0.196059	0.196881	0.198689	0.200825	0.188334	0.201319
1794	0.199511	0.199839	0.200825	0.202633	0.185705	0.198689
1795	0.194087	0.198196	0.199839	0.199182	0.190635	0.201154
1796	0.19836	0.197538	0.200497	0.198031	0.187677	0.204934
1797	0.198524	0.200168	0.200332	0.201647	0.189814	0.203455
1798	0.200004	0.201976	0.196223	0.199675	0.190142	0.201483
1799	0.194909	0.197538	0.196881	0.201154	0.19195	0.205099
1800	0.19836	0.203126	0.199839	0.195895	0.189485	0.203291
1801	0.194416	0.202633	0.195237	0.196388	0.195073	0.204934
1802	0.197045	0.199839	0.201154	0.197045	0.194087	0.200332
1803	0.198031	0.203291	0.203291	0.200004	0.190964	0.202962
1804	0.197374	0.20099	0.201812	0.197374	0.193429	0.198853
1805	0.197538	0.200825	0.202305	0.200004	0.194744	0.201812
1806	0.198196	0.199839	0.202305	0.199346	0.196388	0.199511
1807	0.199839	0.201483	0.202798	0.201319	0.191621	0.200825
1808	0.197867	0.199182	0.201976	0.200168	0.197867	0.20099
1809	0.197538	0.20099	0.199182	0.200661	0.189814	0.19836
1810	0.195402	0.198853	0.201483	0.204606	0.195237	0.201812
1811	0.200004	0.198689	0.199675	0.20099	0.192279	0.201483
1812	0.199346	0.195402	0.203455	0.201647	0.196223	0.202633
1813	0.200004	0.20099	0.194909	0.198524	0.192608	0.204113
1814	0.201976	0.199018	0.199018	0.200661	0.196388	0.201319
1815	0.198196	0.199346	0.198196	0.199511	0.194744	0.200332
1816	0.19721	0.201154	0.198031	0.204113	0.196059	0.201976
1817	0.197867	0.199675	0.200168	0.199346	0.201976	0.203784
1818	0.195402	0.197867	0.200497	0.201976	0.197374	0.203126
1819	0.197867	0.199346	0.199346	0.200004	0.198689	0.198524
1820	0.197703	0.200497	0.197538	0.201976	0.195566	0.208386
1821	0.197538	0.197867	0.203455	0.195895	0.201319	0.206414
1822	0.20362	0.200497	0.203784	0.204441	0.198524	0.203291
1823	0.201976	0.199839	0.202305	0.200168	0.19721	0.204934
1824	0.200661	0.19836	0.198689	0.19836	0.196388	0.203291
1825	0.19836	0.200825	0.201976	0.202305	0.19721	0.202962
1826	0.201154	0.202633	0.201483	0.198524	0.192443	0.203784
1827	0.199346	0.195237	0.200168	0.202633	0.19573	0.204441
1828	0.202633	0.201483	0.201319	0.199839	0.197703	0.201483
1829	0.199839	0.200497	0.200004	0.20214	0.193758	0.202305
1830	0.202469	0.196059	0.198031	0.199182	0.194251	0.201319
1831	0.200004	0.20214	0.19573	0.201812	0.194087	0.203784
1832	0.201976	0.199018	0.196223	0.197374	0.19721	0.201483
1833	0.200168	0.197703	0.196881	0.197538	0.200661	0.204934
1834	0.198524	0.202305	0.192279	0.199182	0.203948	0.203126
1835	0.198031	0.198524	0.198689	0.198524	0.20099	0.202798
1836	0.19721	0.199182	0.198689	0.199182	0.202798	0.203455
1837	0.201976	0.199839	0.198524	0.201483	0.197374	0.203784
1838	0.200825	0.200497	0.201812	0.201319	0.20099	0.20362
1839	0.20099	0.200825	0.205263	0.200497	0.200004	0.201154
1840	0.196717	0.199182	0.203126	0.202798	0.198196	0.203291
1841	0.19836	0.199511	0.200168	0.201319	0.201976	0.202633
1842	0.198524	0.203455	0.203784	0.202798	0.200497	0.204606
1843	0.200661	0.199839	0.199675	0.199018	0.197703	0.20362
1844	0.199346	0.197703	0.202962	0.202469	0.197374	0.203784
1845	0.201647	0.203291	0.19836	0.19836	0.198689	0.199675
1846	0.198524	0.196223	0.198524	0.196717	0.196388	0.203784
1847	0.201647	0.199182	0.198196	0.201812	0.197867	0.203291
1848	0.197867	0.199018	0.199018	0.202305	0.198853	0.201812
1849	0.19836	0.198031	0.197538	0.200497	0.201319	0.199182
1850	0.201154	0.196059	0.200825	0.201976	0.200825	0.202469
1851	0.199839	0.196059	0.202633	0.19721	0.200332	0.203455
1852	0.197374	0.196059	0.201976	0.197538	0.197867	0.20099
1853	0.19721	0.190635	0.200004	0.200004	0.202305	0.205427
1854	0.201812	0.190471	0.198689	0.200661	0.205263	0.197538
1855	0.200661	0.187513	0.199346	0.201319	0.202633	0.200825
1856	0.202305	0.191621	0.197374	0.197045	0.198524	0.202305
1857	0.199675	0.179459	0.198853	0.202305	0.200004	0.201976
1858	0.201319	0.179295	0.199018	0.204277	0.199675	0.201976
1859	0.204277	0.174693	0.200825	0.205099	0.200004	0.204113
1860	0.203291	0.172556	0.199675	0.202798	0.198524	0.201647
1861	0.197538	0.170091	0.199182	0.206085	0.200825	0.200332
1862	0.202962	0.16894	0.199839	0.204441	0.194744	0.199346
1863	0.008528	0.170419	0.199018	0.203126	0.197703	0.202633
1864	0.014773	0.166475	0.199346	0.202633	0.197538	0.200825
1865	0.024799	0.168118	0.199346	0.204113	0.19721	0.20214
1866	0.034661	0.165817	0.200168	0.200332	0.20099	0.201812
1867	0.039427	0.174693	0.197374	0.203126	0.199839	0.201647
1868	0.045179	0.165817	0.202305	0.199182	0.197374	0.200497
1869	0.052575	0.169926	0.198853	0.201976	0.200004	0.202469
1870	0.058821	0.165324	0.196552	0.20362	0.202962	0.200661
1871	0.065724	0.168776	0.196717	0.198853	0.198031	0.192443
1872	0.07312	0.169433	0.198524	0.201483	0.203126	0.197538
1873	0.073613	0.173214	0.196717	0.204606	0.194251	0.19573
1874	0.076079	0.170748	0.199675	0.202305	0.202962	0.19836
1875	0.085283	0.173542	0.199675	0.202962	0.199839	0.195237
1876	0.089227	0.176336	0.201647	0.204934	0.196388	0.201647
1877	0.097774	0.174857	0.200004	0.201483	0.196223	0.195566
1878	0.099253	0.180774	0.199346	0.20362	0.197374	0.200004
1879	0.10632	0.174528	0.199182	0.205099	0.197867	0.198689
1880	0.106813	0.176008	0.197867	0.207728	0.196881	0.200332
1881	0.113059	0.176994	0.199346	0.201154	0.199018	0.199839
1882	0.116839	0.179952	0.200825	0.205099	0.198524	0.197703
1883	0.118318	0.178637	0.19836	0.198853	0.200168	0.19721
1884	0.122592	0.182089	0.193265	0.204934	0.198853	0.19836
1885	0.096294	0.180445	0.201812	0.200332	0.203126	0.198689
1886	0.007049	0.187513	0.195895	0.201812	0.197374	0.196059
1887	0.00146	0.182253	0.199182	0.203291	0.198853	0.197045
1888	0.005405	0.183897	0.19458	0.199182	0.198689	0.196223
1889	0.010171	0.187184	0.196223	0.203291	0.199839	0.199839
1890	0.021676	0.185705	0.199018	0.201154	0.197703	0.197703
1891	0.017403	0.182582	0.199839	0.204113	0.203455	0.198853
1892	0.01428	0.186526	0.200497	0.203291	0.20099	0.19721
1893	0.019868	0.190142	0.200332	0.205099	0.198196	0.199839
1894	0.018389	0.184554	0.198689	0.197867	0.203126	0.199346
1895	0.015102	0.186691	0.196881	0.206578	0.194416	0.199511
1896	0.00787	0.186198	0.199511	0.202633	0.199346	0.197045
1897	0.018061	0.187348	0.200004	0.206085	0.20214	0.198524
1898	0.0105	0.187019	0.200497	0.202633	0.197045	0.19836
1899	0.003433	0.192443	0.157271	0.199839	0.197538	0.193429
1900	0.011815	0.190471	0.128344	0.199346	0.202633	0.196223
1901	0.003597	0.1908	0.121441	0.198689	0.198196	0.199018
1902	0.012308	0.188992	0.126865	0.201154	0.200332	0.193922
1903	0.022991	0.192772	0.129659	0.201319	0.197045	0.195073
1904	-0.00232	0.191128	0.136562	0.201319	0.197538	0.19721
1905	0.004748	0.193101	0.134425	0.203291	0.196388	0.195402
1906	0.013459	0.192443	0.136891	0.204934	0.199182	0.19721
1907	0.022334	0.193922	0.143301	0.200661	0.19836	0.197538
1908	0.026278	0.193265	0.143958	0.201647	0.201319	0.200004
1909	0.037783	0.197703	0.146423	0.199018	0.200004	0.199511
1910	0.039756	0.193265	0.150368	0.200004	0.19836	0.200004
1911	0.052575	0.188334	0.149053	0.201976	0.200004	0.195402
1912	0.055534	0.193922	0.152176	0.20362	0.197374	0.20362
1913	0.060465	0.197374	0.155792	0.201976	0.201812	0.200004
1914	0.060465	0.19573	0.155627	0.203291	0.198031	0.201483
1915	0.064738	0.193429	0.158914	0.199511	0.201154	0.203291
1916	0.069833	0.197045	0.159408	0.200497	0.198524	0.203126
1917	0.074435	0.19195	0.161051	0.20099	0.199182	0.199018
1918	0.082982	0.197045	0.163352	0.199018	0.195237	0.199018
1919	0.081831	0.199675	0.164996	0.196388	0.199018	0.199018
1920	0.092186	0.197045	0.16401	0.198689	0.19836	0.199346
1921	0.094487	0.19573	0.172885	0.194251	0.19836	0.202633
1922	0.099089	0.187184	0.166804	0.195566	0.201647	0.202305
1923	0.102211	0.194909	0.170748	0.201976	0.19721	0.205099
1924	0.107799	0.195895	0.173707	0.198853	0.199675	0.20099
1925	0.110265	0.19836	0.168447	0.199018	0.199839	0.205592
1926	0.11273	0.195895	0.171077	0.197867	0.200332	0.202633
1927	0.115524	0.197703	0.173214	0.199511	0.198524	0.205592
1928	0.117332	0.195402	0.170419	0.197867	0.197867	0.200004
1929	0.121934	0.195073	0.174035	0.199839	0.200497	0.203291
1930	0.123906	0.196717	0.175515	0.199839	0.199511	0.204277
1931	0.128673	0.200004	0.174528	0.200004	0.196059	0.202633
1932	0.127358	0.201154	0.176665	0.19573	0.199346	0.208057
1933	0.133768	0.186198	0.173707	0.196552	0.196552	0.202469
1934	0.140178	0.194909	0.179295	0.198031	0.201319	0.204441
1935	0.141493	0.198031	0.184061	0.19573	0.198524	0.204277
1936	0.142972	0.195566	0.181924	0.194416	0.195895	0.204934
1937	0.145437	0.196388	0.180938	0.196388	0.196059	0.201976
1938	0.146916	0.197538	0.182746	0.195895	0.197374	0.205263
1939	0.151683	0.197538	0.17913	0.192443	0.195402	0.201812
1940	0.150368	0.192443	0.185705	0.196552	0.199182	0.204113
1941	0.150204	0.199182	0.182746	0.193594	0.20099	0.202469
1942	0.152505	0.196717	0.184554	0.194744	0.198524	0.203455
1943	0.152833	0.195895	0.18439	0.195073	0.200825	0.202962
1944	0.152998	0.18932	0.185705	0.199018	0.198853	0.203291
1945	0.157928	0.194087	0.183897	0.198853	0.202305	0.209536
1946	0.155956	0.20214	0.186198	0.198031	0.200332	0.205427
1947	0.157435	0.19458	0.192115	0.197703	0.201154	0.205427
1948	0.157435	0.201319	0.187677	0.196717	0.200332	0.209043
1949	0.160229	0.196881	0.190964	0.195073	0.202305	0.206742
1950	0.166146	0.197374	0.188827	0.192936	0.197703	0.199675
1951	0.16779	0.199839	0.193922	0.192936	0.197867	0.205099
1952	0.169433	0.200825	0.189978	0.1908	0.200661	0.201647
1953	0.165324	0.19836	0.191128	0.194087	0.19721	0.199346
1954	0.170091	0.196388	0.191293	0.193101	0.200168	0.203291
1955	0.17272	0.189978	0.189814	0.194744	0.199182	0.202633
1956	0.174035	0.197045	0.188334	0.191786	0.202305	0.200332
1957	0.175186	0.201319	0.188663	0.19721	0.20099	0.203455
1958	0.175186	0.197538	0.189814	0.195073	0.200004	0.201812
1959	0.172885	0.197867	0.185705	0.19836	0.198853	0.203455
1960	0.176336	0.198689	0.194087	0.195402	0.204934	0.205099
1961	0.175843	0.200332	0.190635	0.194251	0.199675	0.202798
1962	0.176665	0.197045	0.193101	0.194744	0.200661	0.20477
1963	0.18061	0.202798	0.193429	0.19195	0.199839	0.203455
1964	0.182253	0.198196	0.19573	0.195566	0.201154	0.206742
1965	0.182417	0.197703	0.194909	0.19458	0.200168	0.198853
1966	0.179952	0.193101	0.193922	0.198853	0.20214	0.20477
1967	0.187348	0.197703	0.196223	0.197867	0.198031	0.202305
1968	0.182746	0.198689	0.191621	0.199182	0.20099	0.203126
1969	0.186033	0.201483	0.195566	0.196059	0.199839	0.201319
1970	0.00031	0.198196	0.1908	0.197703	0.199675	0.204441
1971	0.013459	0.199018	0.190471	0.195402	0.207564	0.209372
1972	0.018718	0.198853	0.194416	0.198031	0.202633	0.204113
1973	0.027593	0.198689	0.192443	0.197867	0.198689	0.200497
1974	0.035975	0.199182	0.193265	0.197703	0.196388	0.201976
1975	0.038769	0.198524	0.195402	0.197703	0.201154	0.20214
1976	0.044522	0.198689	0.195895	0.196717	0.200168	0.201319
1977	0.052411	0.195073	0.195402	0.199511	0.204113	0.20214
1978	0.057671	0.199018	0.193265	0.198196	0.199511	0.202633
1979	0.062766	0.197867	0.197045	0.200661	0.202798	0.203126
1980	0.069997	0.201483	0.193101	0.200004	0.199839	0.205263
1981	0.073778	0.19836	0.199346	0.199839	0.203291	0.205099
1982	0.084625	0.19836	0.195402	0.198689	0.207728	0.204606
1983	0.086926	0.198524	0.196552	0.197703	0.197867	0.204441
1984	0.091528	0.197703	0.19458	0.196717	0.198853	0.203784
1985	0.097281	0.198689	0.195895	0.196388	0.195237	0.202469
1986	0.108621	0.198031	0.191786	0.194744	0.201154	0.203948
1987	0.108457	0.199018	0.195566	0.199182	0.203291	0.20362
1988	0.115195	0.196388	0.194744	0.19836	0.203455	0.204441
1989	0.11273	0.198524	0.192608	0.201319	0.199018	0.202633
1990	0.119469	0.193429	0.196552	0.196223	0.204606	0.200825
1991	0.119797	0.196388	0.194744	0.198196	0.200004	0.200497
1992	0.121277	0.198031	0.198689	0.198853	0.199675	0.201319
1993	0.125386	0.198524	0.194909	0.200332	0.208222	0.202962
1994	0.125221	0.197703	0.198196	0.195566	0.201154	0.19836
1995	0.129495	0.200004	0.195895	0.197045	0.200661	0.200825
1996	0.132124	0.200825	0.196059	0.198689	0.20362	0.203126
1997	0.139849	0.200497	0.195895	0.19836	0.200825	0.201976
1998	0.140671	0.200168	0.199346	0.197045	0.201976	0.201319
1999	0.146259	0.199839	0.196223	0.196717	0.200661	0.202798
2000	0.146259	0.197374	0.196388	0.200168	0.199675	0.204277
2001	0.149217	0.193265	0.198031	0.198524	0.198196	0.201483
2002	0.152011	0.201319	0.200332	0.199511	0.199675	0.205099
2003	0.15234	0.195402	0.199346	0.194087	0.201976	0.201976
2004	0.153819	0.198689	0.19721	0.197045	0.204113	0.202798
2005	0.158093	0.199675	0.19836	0.199675	0.19836	0.202798
2006	0.157928	0.198689	0.197538	0.198524	0.199511	0.199675
2007	0.161709	0.198524	0.197867	0.197867	0.198689	0.19836
2008	0.163023	0.200497	0.199346	0.198524	0.19721	0.201319
2009	0.158421	0.197374	0.202469	0.19836	0.201812	0.200168
2010	0.167132	0.201154	0.196881	0.198689	0.199018	0.197538
2011	0.164338	0.199346	0.200661	0.205756	0.198853	0.200168
2012	0.166475	0.200661	0.19836	0.200332	0.19573	0.203291
2013	0.168447	0.198524	0.196059	0.199675	0.202469	0.20477
2014	0.170419	0.199018	0.201483	0.19836	0.200332	0.200661
2015	0.166639	0.194087	0.200332	0.19836	0.198031	0.203455
2016	0.165817	0.196717	0.196552	0.199018	0.198524	0.194087
2017	0.17157	0.195237	0.201812	0.200004	0.195402	0.201812
2018	0.172392	0.200332	0.197374	0.192608	0.196059	0.201483
2019	0.172392	0.201154	0.200825	0.201812	0.196552	0.203126
2020	0.17535	0.198689	0.203126	0.198689	0.196881	0.200825
2021	0.179952	0.203291	0.19721	0.19836	0.195402	0.198196
2022	0.177322	0.198524	0.199675	0.204113	0.196881	0.201154
2023	0.177815	0.197703	0.196059	0.203948	0.195073	0.195073
2024	0.182582	0.196717	0.202962	0.203784	0.198524	0.202633
2025	0.179295	0.198689	0.197703	0.199182	0.193758	0.198853
2026	0.17798	0.196059	0.196059	0.199018	0.1908	0.202305
2027	0.181103	0.198524	0.195237	0.197703	0.195895	0.199346
2028	0.178637	0.19721	0.199675	0.196717	0.19573	0.202962
2029	0.005569	0.198853	0.196223	0.196881	0.194416	0.197374
2030	0.014116	0.198196	0.196552	0.201976	0.197045	0.201812
2031	0.02069	0.199675	0.203126	0.199346	0.196059	0.201812
2032	0.029566	0.200004	0.19721	0.199511	0.196388	0.19836
2033	0.038112	0.200332	0.197867	0.198524	0.197703	0.201647
2034	0.04255	0.199839	0.198689	0.204113	0.193922	0.201976
2035	0.049288	0.19836	0.198853	0.198031	0.198524	0.202305
2036	0.051425	0.199839	0.200497	0.200825	0.196552	0.200168
2037	0.0603	0.200004	0.199182	0.199182	0.18554	0.202798
2038	0.06408	0.199346	0.196388	0.198524	0.195402	0.200661
2039	0.072134	0.19721	0.201319	0.200168	0.197045	0.203455
2040	0.07838	0.198031	0.200497	0.201154	0.194416	0.199018
2041	0.079366	0.199018	0.199839	0.19836	0.198524	0.199839
2042	0.086762	0.197045	0.205756	0.198196	0.195895	0.200168
2043	0.08857	0.198031	0.197867	0.195566	0.196223	0.198853
2044	0.101225	0.197374	0.197045	0.196388	0.195402	0.206414
2045	0.09613	0.194416	0.201319	0.201976	0.196717	0.200332
2046	0.105498	0.198524	0.199346	0.193101	0.197374	0.197374
2047	0.108128	0.199182	0.195895	0.199675	0.199675	0.200497
2048	0.1101	0.200825	0.19195	0.197703	0.186691	0.201319
2049	0.114867	0.199018	0.19573	0.199182	0.197538	0.200332
2050	0.119633	0.199346	0.199018	0.195566	0.198524	0.203455
2051	0.122263	0.201154	0.198196	0.20099	0.196059	0.198689
2052	0.126043	0.198853	0.20099	0.197703	0.198524	0.194909
2053	0.129823	0.202962	0.199182	0.197538	0.196388	0.199511
2054	0.022498	0.195402	0.1908	0.197538	0.19721	0.197538
2055	0.033017	0.199511	0.196717	0.199346	0.195237	0.200332
2056	0.039591	0.203948	0.201647	0.207235	0.198196	0.200661
2057	0.046166	0.200332	0.197374	0.198031	0.196388	0.199346
2058	0.05011	0.195566	0.200497	0.200168	0.199346	0.202305
2059	0.058657	0.203784	0.196388	0.200168	0.189649	0.198524
2060	0.062766	0.198031	0.19836	0.198689	0.196223	0.201319
2061	0.07049	0.196388	0.197374	0.196388	0.199346	0.199182
2062	0.077229	0.200332	0.19836	0.202305	0.199018	0.198689
2063	0.082817	0.200332	0.197538	0.196881	0.199346	0.196552
2064	0.085776	0.201483	0.188334	0.200332	0.198031	0.197703
2065	0.091857	0.198853	0.196881	0.199182	0.19573	0.194909
2066	0.094487	0.198689	0.19573	0.200168	0.195895	0.197045
2067	0.099582	0.199675	0.198853	0.198031	0.199839	0.199018
2068	0.104019	0.200168	0.195073	0.201647	0.197703	0.197867
2069	0.105005	0.201319	0.195237	0.198853	0.200497	0.199675
2070	0.108786	0.200661	0.198196	0.201319	0.194744	0.199675
2071	0.112566	0.199018	0.196552	0.201647	0.196881	0.197867
2072	0.116346	0.197538	0.200661	0.20099	0.19721	0.196552
2073	0.120784	0.200661	0.199839	0.200004	0.199182	0.199675
2074	0.122592	0.199839	0.198524	0.199018	0.196552	0.199018
2075	0.126043	0.195073	0.192608	0.198524	0.197374	0.20362
2076	0.129988	0.19573	0.195237	0.193922	0.193922	0.197045
2077	0.131302	0.197703	0.194909	0.201483	0.192115	0.202798
2078	0.138699	0.195895	0.201154	0.195895	0.198196	0.196717
2079	0.138041	0.196059	0.196388	0.19458	0.197045	0.19721
2080	0.138205	0.198524	0.19458	0.199511	0.194744	0.19836
2081	0.143794	0.200825	0.194087	0.199511	0.193758	0.198196
2082	0.146095	0.199511	0.197538	0.196388	0.195237	0.196059
2083	0.147738	0.197867	0.198196	0.197045	0.199182	0.198689
2084	0.14856	0.200332	0.196059	0.197374	0.198689	0.195237
2085	0.152833	0.203126	0.194909	0.19721	0.197538	0.198524
2086	0.15234	0.197703	0.189156	0.19721	0.201812	0.196552
2087	0.160887	0.199675	0.195073	0.200168	0.197045	0.198524
2088	0.158586	0.200661	0.200168	0.201976	0.198031	0.200332
2089	0.159079	0.200497	0.197703	0.195073	0.200661	0.196717
2090	0.160887	0.198524	0.20099	0.199675	0.200168	0.199018
2091	0.160229	0.198196	0.197374	0.179295	0.197538	0.195237
2092	0.16138	0.196223	0.199839	0.067039	0.199346	0.201483
2093	0.16516	0.19836	0.199346	0.069997	0.196223	0.198689
2094	0.16779	0.19458	0.200332	0.07197	0.196717	0.196717
2095	0.166968	0.197538	0.195073	0.001132	0.197538	0.19721
2096	0.165653	0.198196	0.193429	0.006884	0.198524	0.199018
2097	0.16894	0.19458	0.192772	0.014609	0.192772	0.194909
2098	0.171241	0.201812	0.197867	0.01954	0.190471	0.199346
2099	0.170748	0.199839	0.201976	0.023484	0.19573	0.206249
2100	0.175843	0.200497	0.197867	0.031373	0.197867	0.200004
2101	0.174693	0.198853	0.198524	0.039591	0.197538	0.195566
2102	0.171734	0.200004	0.19721	0.04633	0.199182	0.197045
2103	0.175021	0.198524	0.197045	0.047152	0.197374	0.198196
2104	0.178802	0.200004	0.198689	0.042221	0.196388	0.195237
2105	0.174857	0.199675	0.200825	0.025457	0.200004	0.196059
2106	0.176336	0.198689	0.197867	0.011322	0.198689	0.196059
2107	0.177487	0.199675	0.199675	0.011979	0.197538	0.198031
2108	0.179623	0.199511	0.19836	0.003433	0.198853	0.19836
2109	0.181103	0.196059	0.200168	0.002282	0.198196	0.200661
2110	0.184225	0.200661	0.201812	-1.9e-05	0.19836	0.198031
2111	0.181924	0.195073	0.20362	0.000639	0.199346	0.198196
2112	0.186526	0.198196	0.196881	-0.000841	0.197867	0.197867
2113	0.181267	0.197867	0.194416	-1.9e-05	0.195237	0.197538
2114	0.18554	0.197867	0.198031	-0.001334	0.199346	0.19458
2115	0.188663	0.197374	0.196717	0.000474	0.195402	0.194251
2116	0.188663	0.197374	0.198853	-0.000676	0.196717	0.195566
2117	0.185705	0.201154	0.19458	-0.000347	0.196717	0.196881
2118	0.184225	0.19836	0.197374	-0.000183	0.205099	0.196223
2119	0.187513	0.199018	0.196388	0.000146	0.193265	0.19573
2120	0.186855	0.200004	0.200661	0.000474	0.201647	0.200497
2121	0.188663	0.202305	0.196059	0.000803	0.199182	0.196388
2122	0.186691	0.195895	0.200661	-1.9e-05	0.20099	0.197538
2123	0.189649	0.201483	0.198689	-0.000676	0.200168	0.199346
2124	0.184225	0.197867	0.199511	-0.000676	0.200168	0.20362
2125	0.189156	0.194416	0.202633	-0.001334	0.200497	0.195073
2126	0.1908	0.19836	0.202469	0.000146	0.200332	0.195895
2127	0.193101	0.197045	0.208222	0.000967	0.196388	0.194744
2128	0.188992	0.19573	0.198031	0.004255	0.196388	0.195895
2129	0.192443	0.195566	0.200332	0.010993	0.195237	0.196223
2130	0.192608	0.200825	0.199675	0.022663	0.193101	0.197374
2131	0.194416	0.196388	0.196552	0.027429	0.197045	0.197045
2132	0.196881	0.201154	0.197867	0.032195	0.193758	0.19836
2133	0.193101	0.201319	0.198853	0.000474	0.200825	0.197867
2134	0.195073	0.194416	0.19721	-0.000183	0.199182	0.195895
2135	0.195402	0.198196	0.194251	0.001132	0.20099	0.195895
2136	0.196059	0.199018	0.197703	0.002118	0.201319	0.192772
2137	0.191128	0.197703	0.196717	0.005076	0.202633	0.196717
2138	0.19195	0.198689	0.196881	-0.000841	0.196717	0.194744
2139	0.191786	0.200661	0.198031	0.000474	0.202633	0.194087
2140	0.194251	0.199839	0.199839	0.006391	0.200168	0.19721
2141	0.190471	0.198689	0.199182	0.017239	0.198689	0.194744
2142	0.197703	0.19573	0.199675	0.022169	0.202798	0.194909
2143	0.194251	0.200661	0.201812	0.029566	0.197045	0.198853
2144	0.193594	0.197045	0.196388	0.035482	0.199018	0.196223
2145	0.201976	0.196881	0.200661	0.045179	0.197703	0.196881
2146	0.194251	0.196717	0.203126	0.047809	0.198196	0.198196
2147	0.195895	0.197374	0.19836	0.057013	0.198031	0.197538
2148	0.19573	0.196552	0.199839	0.060465	0.205592	0.194416
2149	0.199839	0.199346	0.193594	0.060958	0.199839	0.194416
2150	0.195073	0.198524	0.197045	0.069997	0.200332	0.200168
2151	0.199182	0.199182	0.195895	0.073449	0.198853	0.196717
2152	0.196552	0.19836	0.199182	0.081995	0.199346	0.195073
2153	0.196552	0.198524	0.197045	0.083639	0.200661	0.198196
2154	0.196388	0.197867	0.196223	0.091364	0.20099	0.198196
2155	0.197045	0.201319	0.198689	0.091528	0.201319	0.196881
2156	0.20099	0.20099	0.198689	0.096294	0.20214	0.19836
2157	0.192115	0.198031	0.200661	0.103033	0.202633	0.195566
2158	0.19836	0.198031	0.20099	0.107799	0.201154	0.197703
2159	0.196717	0.19836	0.198689	0.114374	0.202962	0.19573
2160	0.196223	0.199346	0.198853	0.115195	0.197538	0.198853
2161	0.19721	0.199182	0.199839	0.119797	0.19836	0.197374
2162	0.200004	0.20099	0.196881	0.124399	0.199839	0.197374
2163	0.200497	0.198524	0.19721	0.123742	0.198031	0.199018
2164	0.200168	0.199018	0.197703	0.128015	0.198524	0.199018
2165	0.197703	0.196552	0.198524	0.130481	0.199346	0.19836
2166	0.200004	0.199675	0.198689	0.130481	0.198853	0.19836
2167	0.207564	0.197045	0.197045	0.138205	0.198853	0.201483
2168	0.19836	0.196388	0.194744	0.136726	0.200004	0.199182
2169	0.196388	0.198031	0.201319	0.141493	0.20214	0.201154
2170	0.198689	0.197045	0.195402	0.141	0.203455	0.19836
2171	0.196881	0.202305	0.198196	0.146095	0.203291	0.199346
2172	0.196717	0.199839	0.196717	0.145108	0.201483	0.198196
2173	0.195237	0.201154	0.199675	0.148889	0.200497	0.199182
2174	0.199182	0.199839	0.198689	0.150039	0.205099	0.197703
2175	0.196717	0.200825	0.199675	0.152833	0.197045	0.196881
2176	0.196388	0.20362	0.192772	0.156449	0.198689	0.20099
2177	0.196388	0.199675	0.195073	0.158421	0.198853	0.201483
2178	0.194251	0.202305	0.201976	0.164667	0.201812	0.200661
2179	0.196059	0.201319	0.19573	0.161544	0.202469	0.201319
2180	0.196552	0.200168	0.199182	0.164831	0.20099	0.200168
2181	0.197045	0.201483	0.194251	0.163188	0.201154	0.200168
2182	0.196223	0.199346	0.199018	0.165817	0.198031	0.199511
2183	0.20099	0.199675	0.196059	0.164831	0.198524	0.19836
2184	0.197538	0.19721	0.199018	0.172556	0.200332	0.199182
2185	0.194251	0.199839	0.196881	0.166311	0.201976	0.201812
2186	0.194087	0.196881	0.199511	0.169269	0.202305	0.20099
2187	0.171077	0.199839	0.197867	0.169433	0.200332	0.20362
2188	0.086104	0.199182	0.196881	0.167461	0.203948	0.20099
2189	0.074928	0.195073	0.200825	0.169105	0.203291	0.197703
2190	0.089227	0.195402	0.197703	0.173707	0.203291	0.20214
2191	0.095473	0.200661	0.202305	0.1742	0.203126	0.200004
2192	0.097774	0.19721	0.197867	0.180116	0.205592	0.20099
2193	0.101554	0.200497	0.201154	0.176336	0.200497	0.200332
2194	0.110429	0.202305	0.199018	0.176829	0.197045	0.20099
2195	0.107306	0.200004	0.20362	0.180774	0.203126	0.201647
2196	0.115689	0.199839	0.196552	0.181267	0.203784	0.199511
2197	0.122427	0.200497	0.19836	0.182746	0.206085	0.202962
2198	0.123249	0.199675	0.196717	0.182253	0.199346	0.201483
2199	0.12555	0.197374	0.204113	0.18176	0.200497	0.203948
2200	0.120126	0.197867	0.20099	0.181596	0.198853	0.202962
2201	0.128508	0.197703	0.199182	0.186362	0.203784	0.202305
2202	0.13459	0.19836	0.200168	0.182746	0.201812	0.199839
2203	0.136562	0.199511	0.19836	0.192772	0.20477	0.199018
2204	0.138534	0.200661	0.198524	0.180116	0.203126	0.200332
2205	0.142314	0.202962	0.198853	0.185376	0.201154	0.197867
2206	0.144287	0.200497	0.199018	0.184554	0.203455	0.197045
2207	0.147245	0.204606	0.198689	0.184554	0.201483	0.196223
2208	0.146588	0.201154	0.201647	0.187513	0.203784	0.200332
2209	0.150204	0.203455	0.196717	0.189649	0.197538	0.199182
2210	0.151683	0.198524	0.199018	0.18817	0.204441	0.203455
2211	0.152505	0.201812	0.19836	0.191786	0.20214	0.202633
2212	0.149382	0.19836	0.200332	0.191786	0.201976	0.202305
2213	0.159079	0.201154	0.19721	0.192443	0.200332	0.20099
2214	0.158586	0.197703	0.198524	0.193429	0.20362	0.199839
2215	0.16138	0.200004	0.19836	0.190964	0.199346	0.198524
2216	0.1576	0.199675	0.199839	0.197045	0.200497	0.203291
2217	0.16138	0.19836	0.199675	0.197374	0.201483	0.201483
2218	0.163188	0.199182	0.198031	0.195895	0.198196	0.201319
2219	0.168283	0.197867	0.200004	0.195073	0.202633	0.20477
2220	0.16779	0.197374	0.200332	0.194909	0.198031	0.200168
2221	0.170748	0.199511	0.197867	0.18817	0.203455	0.201154
2222	0.171406	0.19836	0.197867	0.194909	0.201976	0.201483
2223	0.170584	0.19836	0.198689	0.192772	0.200497	0.200825
2224	0.172556	0.198853	0.197045	0.192936	0.199675	0.201812
2225	0.173049	0.198031	0.201483	0.183897	0.201647	0.200332
2226	0.1742	0.200825	0.202962	0.192772	0.200004	0.202305
2227	0.175021	0.199675	0.198689	0.195237	0.198196	0.202469
2228	0.175843	0.197538	0.198524	0.196388	0.197374	0.200661
2229	0.176172	0.19721	0.192443	0.195073	0.199018	0.20099
2230	0.181431	0.19836	0.200661	0.194744	0.195566	0.202469
2231	0.178144	0.201154	0.195895	0.19836	0.194744	0.203455
2232	0.180116	0.195895	0.200661	0.194087	0.199839	0.201154
2233	0.179623	0.198853	0.19573	0.199018	0.198196	0.201483
2234	0.176665	0.197538	0.19836	0.196881	0.199346	0.200825
2235	0.177815	0.19836	0.19721	0.19836	0.197045	0.203126
2236	0.184554	0.199839	0.199346	0.189978	0.197045	0.201483
2237	0.181267	0.202633	0.200825	0.198031	0.195895	0.200332
2238	0.181924	0.199018	0.199839	0.199346	0.198853	0.198853
2239	0.181924	0.199675	0.198689	0.198031	0.195237	0.194909
2240	0.184554	0.197045	0.200168	0.199182	0.195237	0.200825
2241	0.18176	0.196881	0.200661	0.196717	0.195895	0.200497
2242	0.184883	0.199675	0.200004	0.200004	0.19458	0.199346
2243	0.185705	0.197538	0.19836	0.194744	0.196388	0.19836
2244	0.185047	0.196552	0.196552	0.200168	0.197867	0.202305
2245	0.18554	0.199839	0.191786	0.200168	0.196881	0.199182
2246	0.185376	0.200004	0.197045	0.199675	0.19573	0.199346
2247	0.189485	0.198853	0.195895	0.201319	0.194251	0.199346
2248	0.186691	0.200825	0.200661	0.198689	0.190142	0.200825
2249	0.190142	0.202305	0.200332	0.198853	0.198853	0.200497
2250	0.187348	0.199018	0.198031	0.199018	0.191621	0.203784
2251	0.189814	0.198853	0.200332	0.198524	0.195402	0.201319
2252	0.192772	0.198689	0.199839	0.199839	0.193429	0.201647
2253	0.190964	0.197045	0.197703	0.199182	0.192608	0.199018
2254	0.19195	0.197374	0.195895	0.196717	0.196223	0.196552
2255	0.192115	0.19573	0.20099	0.199675	0.194251	0.198524
2256	0.191621	0.198689	0.196552	0.20362	0.192279	0.196223
2257	0.192115	0.189978	0.199675	0.200825	0.19458	0.195895
2258	0.192608	0.197703	0.196552	0.198031	0.193922	0.196059
2259	0.190142	0.201154	0.201154	0.200168	0.195073	0.197374
2260	0.192443	0.200497	0.198031	0.198524	0.192608	0.199018
2261	0.193101	0.200497	0.197538	0.201976	0.19573	0.201154
2262	0.194416	0.202962	0.198031	0.200497	0.19458	0.197374
2263	0.190635	0.199346	0.19721	0.201319	0.194087	0.198689
2264	0.193758	0.198196	0.198853	0.202633	0.193101	0.195073
2265	0.190635	0.202798	0.196388	0.203126	0.195073	0.196881
2266	0.190142	0.197374	0.19836	0.201154	0.195073	0.197703
2267	0.193265	0.20099	0.199018	0.205099	0.194416	0.200497
2268	0.191786	0.197538	0.199346	0.201483	0.195895	0.200825
2269	0.195566	0.199018	0.19721	0.202798	0.195402	0.200004
2270	0.192115	0.202633	0.200497	0.201976	0.195237	0.202469
2271	0.19573	0.201812	0.19721	0.199675	0.193265	0.196059
2272	0.194744	0.197045	0.201812	0.203126	0.194909	0.196717
2273	0.195895	0.200004	0.197538	0.200332	0.193101	0.198853
2274	0.196223	0.195566	0.194909	0.201647	0.195402	0.197867
2275	0.197703	0.195566	0.197374	0.201483	0.188992	0.196223
2276	0.195073	0.199182	0.200004	0.200004	0.194251	0.200825
2277	0.196223	0.197867	0.196388	0.201976	0.193594	0.199675
2278	0.197374	0.196223	0.199182	0.203126	0.193922	0.199346
2279	0.197045	0.201812	0.197045	0.200168	0.190307	0.199182
2280	0.19458	0.200168	0.198031	0.201812	0.194087	0.199346
2281	0.194251	0.202962	0.197045	0.200004	0.190635	0.197374
2282	0.193429	0.202962	0.200661	0.201647	0.195402	0.199511
2283	0.194251	0.19721	0.203291	0.200661	0.199182	0.19721
2284	0.193594	0.200332	0.197867	0.202633	0.196881	0.19836
2285	0.198853	0.198689	0.196388	0.198031	0.193265	0.199018
2286	0.197374	0.201319	0.196059	0.200332	0.198689	0.193758
2287	0.197374	0.195237	0.202469	0.19458	0.197538	0.199511
2288	0.19836	0.202962	0.197538	0.194909	0.193758	0.197045
2289	0.202798	0.195895	0.199839	0.197703	0.198524	0.195073
2290	0.198196	0.199018	0.200332	0.198196	0.195073	0.195895
2291	0.199018	0.194744	0.200004	0.198031	0.198031	0.198524
2292	0.198196	0.198689	0.195895	0.198196	0.194909	0.198196
2293	0.194251	0.200168	0.201483	0.196881	0.195895	0.199346
2294	0.196223	0.194744	0.195566	0.199018	0.197538	0.195402
2295	0.19573	0.199018	0.198853	0.201976	0.193922	0.197374
2296	0.19836	0.199675	0.200497	0.197374	0.195237	0.197867
2297	0.192443	0.199839	0.19721	0.198689	0.198853	0.194744
2298	0.199675	0.198524	0.201812	0.194744	0.199018	0.198524
2299	0.196223	0.199346	0.19573	0.19721	0.194251	0.201976
2300	0.19836	0.198524	0.197374	0.198031	0.197374	0.202633
2301	0.196059	0.200004	0.199182	0.195566	0.195237	0.196059
2302	0.196388	0.19573	0.200825	0.19721	0.200497	0.195895
2303	0.197538	0.202798	0.198689	0.201647	0.194909	0.197703
2304	0.199346	0.201976	0.201647	0.198031	0.196223	0.197045
2305	0.196223	0.202305	0.199346	0.196881	0.19836	0.196881
2306	0.19573	0.199675	0.200497	0.199182	0.197538	0.198689
2307	0.200661	0.201483	0.201812	0.197374	0.19573	0.198031
2308	0.19721	0.196059	0.199182	0.197867	0.197045	0.197374
2309	0.202469	0.19836	0.197374	0.19721	0.199182	0.198689
2310	0.198524	0.197045	0.19836	0.198524	0.195895	0.199675
2311	0.201319	0.196881	0.19721	0.194744	0.199346	0.196717
2312	0.199675	0.198689	0.197538	0.194087	0.19721	0.199182
2313	0.198031	0.198031	0.197045	0.197538	0.198853	0.19721
2314	0.194744	0.200825	0.19836	0.200004	0.197374	0.196059
2315	0.197867	0.201483	0.200332	0.19458	0.199346	0.197703
2316	0.199675	0.200497	0.196388	0.193429	0.19721	0.192936
2317	0.198524	0.200168	0.199839	0.196223	0.198689	0.197538
2318	0.197374	0.20214	0.197538	0.197867	0.19836	0.198196
2319	0.197374	0.198853	0.199511	0.19721	0.200332	0.196223
2320	0.199018	0.198524	0.198524	0.197374	0.198196	0.199182
2321	0.19721	0.201154	0.200004	0.199346	0.198524	0.199511
2322	0.20099	0.199346	0.199675	0.195402	0.196388	0.198853
2323	0.195895	0.196552	0.203455	0.19721	0.199346	0.200004
2324	0.197703	0.199839	0.200825	0.19573	0.19721	0.19836
2325	0.200497	0.203784	0.196388	0.199839	0.196717	0.199182
2326	0.197538	0.199511	0.199182	0.195402	0.197703	0.201483
2327	0.199511	0.199346	0.200004	0.197867	0.19573	0.200168
2328	0.195237	0.200004	0.198524	0.194416	0.19836	0.193594
2329	0.197045	0.196059	0.200497	0.198031	0.199182	0.197867
2330	0.196552	0.197374	0.200661	0.194087	0.198524	0.196552
2331	0.19573	0.197703	0.197703	0.194909	0.197374	0.197374
2332	0.197045	0.197538	0.197703	0.195237	0.198853	0.200497
2333	0.198196	0.200004	0.199511	0.194251	0.196388	0.20099
2334	0.200168	0.198196	0.193922	0.196881	0.201812	0.19573
2335	0.198853	0.199346	0.194744	0.197045	0.196223	0.197538
2336	0.194087	0.199839	0.198689	0.200497	0.20099	0.198031
2337	0.199839	0.200332	0.198853	0.191621	0.195895	0.198031
2338	0.197538	0.200168	0.204113	0.198689	0.19836	0.20099
2339	0.195237	0.196552	0.200004	0.197703	0.19721	0.195895
2340	0.194087	0.196717	0.202633	0.19573	0.198689	0.199018
2341	0.196717	0.196717	0.194909	0.196552	0.202798	0.197703
2342	0.198196	0.19458	0.200004	0.199346	0.198689	0.201319
2343	0.197867	0.196059	0.198689	0.195237	0.199675	0.199346
2344	0.196388	0.195237	0.20099	0.197374	0.194909	0.200661
2345	0.197538	0.199511	0.202305	0.197045	0.199675	0.199511
2346	0.195402	0.200004	0.194416	0.197703	0.202469	0.199675
2347	0.192936	0.196552	0.205099	0.195237	0.19836	0.197867
2348	0.19836	0.200825	0.197703	0.192115	0.197703	0.195566
2349	0.196223	0.199675	0.201647	0.193922	0.20099	0.201812
2350	0.193922	0.201812	0.200661	0.19836	0.199182	0.200004
2351	0.193758	0.199018	0.20099	0.19195	0.203291	0.199511
2352	0.199346	0.198853	0.197703	0.196717	0.201483	0.195073
2353	0.192936	0.196717	0.200004	0.19573	0.200825	0.199511
2354	0.201154	0.197703	0.196717	0.19836	0.198031	0.196717
2355	0.195073	0.199182	0.201812	0.197538	0.197045	0.197867
2356	0.196717	0.195895	0.199675	0.197703	0.198031	0.199018
2357	0.196552	0.199839	0.198031	0.200168	0.198031	0.197538
2358	0.200661	0.201976	0.201319	0.199346	0.196552	0.200168
2359	0.196552	0.198524	0.19836	0.201647	0.19573	0.199346
2360	0.199018	0.195402	0.200497	0.197045	0.195566	0.200004
2361	0.196552	0.203455	0.198524	0.199018	0.195237	0.199346
2362	0.199511	0.195402	0.198031	0.199182	0.198031	0.199018
2363	0.196388	0.201647	0.19721	0.195895	0.199511	0.19836
2364	0.197045	0.196717	0.197703	0.195895	0.200004	0.200825
2365	0.197538	0.198031	0.196552	0.197538	0.195402	0.194416
2366	0.198031	0.196552	0.19721	0.192936	0.196223	0.195402
2367	0.202305	0.199018	0.19458	0.195073	0.195895	0.195237
2368	0.200004	0.19836	0.195402	0.202962	0.197045	0.197703
2369	0.199675	0.199675	0.199346	0.196717	0.196881	0.193758
2370	0.198196	0.19721	0.199346	0.196717	0.196552	0.19721
2371	0.200497	0.201483	0.198524	0.198853	0.197538	0.198196
2372	0.196223	0.199346	0.19721	0.199511	0.196881	0.19836
2373	0.198524	0.197867	0.198196	0.19573	0.195895	0.198524
2374	0.197538	0.201319	0.197703	0.199675	0.200825	0.200332
2375	0.199675	0.194251	0.199511	0.196223	0.199346	0.201154
2376	0.196388	0.193922	0.198524	0.197538	0.197703	0.203784
2377	0.19721	0.197374	0.19721	0.199182	0.19573	0.198031
2378	0.198196	0.197538	0.194416	0.197703	0.192608	0.199511
2379	0.198196	0.192115	0.195237	0.19458	0.201483	0.192936
2380	0.198196	0.202305	0.19836	0.196059	0.19721	0.19573
2381	0.195237	0.196552	0.199018	0.194087	0.19573	0.199182
2382	0.202633	0.198853	0.19573	0.193922	0.19721	0.194909
2383	0.197703	0.200825	0.199839	0.195566	0.197867	0.19721
2384	0.20099	0.196717	0.196881	0.192608	0.197045	0.195237
2385	0.197867	0.198524	0.19573	0.194416	0.200497	0.195566
2386	0.199346	0.198524	0.19573	0.188499	0.199675	0.199018
2387	0.196717	0.199182	0.197867	0.195073	0.19836	0.197703
2388	0.197867	0.201154	0.199675	0.192936	0.199839	0.198853
2389	0.196717	0.200004	0.197867	0.194087	0.199839	0.199675
2390	0.19573	0.197045	0.197703	0.194251	0.198689	0.199018
2391	0.200168	0.198853	0.199675	0.19836	0.196388	0.198196
2392	0.196059	0.193429	0.201647	0.194087	0.199511	0.198524
2393	0.197538	0.19721	0.20362	0.196388	0.196717	0.199675
2394	0.196717	0.197703	0.202633	0.196388	0.199018	0.200004
2395	0.197045	0.19721	0.19721	0.194251	0.199511	0.197538
2396	0.197045	0.197374	0.199675	0.195566	0.202305	0.199018
2397	0.201154	0.197538	0.198031	0.196388	0.195566	0.198689
2398	0.195895	0.196552	0.198689	0.192115	0.20099	0.19721
2399	0.200168	0.197538	0.192772	0.193265	0.197374	0.199182
2400	0.198031	0.199839	0.197703	0.194251	0.197045	0.192115
2401	0.199018	0.19836	0.194744	0.192936	0.19721	0.192443
2402	0.196717	0.206578	0.196881	0.197867	0.193758	0.19573
2403	0.200497	0.199018	0.198031	0.191621	0.196223	0.193101
2404	0.197703	0.201154	0.196717	0.189978	0.197538	0.19573
2405	0.199182	0.201976	0.198689	0.195402	0.199346	0.196717
2406	0.196881	0.200004	0.198689	0.19836	0.197374	0.196717
2407	0.198853	0.200661	0.199018	0.197867	0.202633	0.197538
2408	0.200661	0.199018	0.198524	0.19721	0.198853	0.196881
2409	0.195073	0.19721	0.200332	0.197867	0.199675	0.200497
2410	0.203784	0.200332	0.197374	0.197867	0.197867	0.20099
2411	0.198689	0.201976	0.201976	0.19836	0.198689	0.187513
2412	0.200004	0.197867	0.200004	0.19573	0.198196	0.197538
2413	0.203948	0.198689	0.201154	0.201647	0.197703	0.201812
2414	0.198689	0.198031	0.199182	0.198196	0.197374	0.196717
2415	0.200497	0.199182	0.198853	0.198524	0.197045	0.202469
2416	0.199839	0.197703	0.196552	0.194744	0.197538	0.200004
2417	0.199675	0.198524	0.200661	0.196388	0.197045	0.198524
2418	0.204934	0.203948	0.19836	0.192772	0.198853	0.194744
2419	0.201319	0.198524	0.195566	0.196717	0.20214	0.199018
2420	0.199675	0.198853	0.197538	0.196552	0.200825	0.196388
2421	0.200661	0.204113	0.198031	0.196059	0.198031	0.197703
2422	0.199346	0.19573	0.199346	0.197374	0.19836	0.193594
2423	0.197703	0.200168	0.19836	0.197538	0.194744	0.196388
2424	0.197045	0.19458	0.199675	0.201154	0.199018	0.198853
2425	0.196388	0.19573	0.199346	0.194251	0.195402	0.199839
2426	0.195566	0.19721	0.200497	0.198689	0.197045	0.198689
2427	0.198196	0.197374	0.198689	0.197374	0.196059	0.198031
2428	0.197374	0.19573	0.199018	0.197538	0.195895	0.19836
2429	0.199346	0.201483	0.194909	0.197703	0.195402	0.199675
2430	0.199511	0.196717	0.196388	0.196717	0.20214	0.201647
2431	0.200004	0.197374	0.197374	0.197703	0.198689	0.197374
2432	0.198196	0.196388	0.19836	0.199346	0.197374	0.20099
2433	0.203455	0.199346	0.197538	0.197703	0.199182	0.195073
2434	0.194909	0.19721	0.19836	0.195566	0.199346	0.196552
2435	0.199346	0.197045	0.200497	0.19836	0.197703	0.198196
2436	0.199675	0.200661	0.193429	0.199346	0.198853	0.200332
2437	0.199511	0.199182	0.198524	0.196059	0.199511	0.192936
2438	0.193758	0.199346	0.197538	0.193594	0.197703	0.200004
2439	0.199182	0.199182	0.200004	0.199839	0.200004	0.197538
2440	0.204277	0.187677	0.196552	0.201483	0.199182	0.19573
2441	0.197538	0.194744	0.19573	0.199511	0.201319	0.198031
2442	0.196223	0.199839	0.19836	0.200332	0.198524	0.200332
2443	0.194744	0.196223	0.200332	0.198689	0.200497	0.200004
2444	0.197045	0.195895	0.199675	0.197045	0.201812	0.197045
2445	0.194744	0.197374	0.201319	0.199675	0.199018	0.200004
2446	0.196881	0.199839	0.197045	0.199346	0.196388	0.196881
2447	0.199018	0.195895	0.199675	0.200168	0.193101	0.197867
2448	0.200332	0.200004	0.200168	0.195895	0.195073	0.199675
2449	0.19721	0.198524	0.195402	0.197538	0.195895	0.196881
2450	0.202305	0.19836	0.197538	0.198689	0.196388	0.194087
2451	0.199346	0.185376	0.196388	0.198524	0.199675	0.197374
2452	0.200332	0.193922	0.202633	0.193265	0.19721	0.196223
2453	0.200168	0.20099	0.198196	0.197374	0.201154	0.196388
2454	0.200661	0.19573	0.198853	0.196223	0.200004	0.194416
2455	0.200004	0.199018	0.19836	0.192115	0.199182	0.196881
2456	0.197867	0.199182	0.20214	0.194416	0.201812	0.19836
2457	0.196388	0.200332	0.199346	0.199839	0.198196	0.196552
2458	0.197867	0.191457	0.200497	0.197703	0.20099	0.199839
2459	0.196223	0.199675	0.198524	0.200497	0.198524	0.197538
2460	0.197538	0.201812	0.200497	0.19836	0.198689	0.200004
2461	0.201976	0.198524	0.199511	0.196388	0.199182	0.199839
2462	0.19836	0.197374	0.20099	0.198853	0.199675	0.199839
2463	0.200661	0.198689	0.19836	0.195237	0.194087	0.201483
2464	0.199018	0.196881	0.19836	0.201647	0.197374	0.200825
2465	0.200825	0.197867	0.200332	0.195895	0.196552	0.198689
2466	0.197374	0.199018	0.197374	0.199675	0.19836	0.20362
2467	0.199346	0.197045	0.199182	0.19721	0.198524	0.206249
2468	0.202305	0.198031	0.20099	0.200332	0.197374	0.199675
2469	0.201812	0.200004	0.198689	0.194087	0.200825	0.198031
2470	0.198196	0.19836	0.199018	0.196552	0.196388	0.200825
2471	0.198853	0.196388	0.198524	0.195402	0.198853	0.199182
2472	0.203455	0.198853	0.200497	0.196881	0.199839	0.198853
2473	0.19573	0.195402	0.198031	0.197867	0.202962	0.200168
2474	0.198853	0.195073	0.197538	0.195073	0.198031	0.197867
2475	0.19721	0.197703	0.199511	0.199675	0.201812	0.202633
2476	0.199346	0.198853	0.197538	0.196717	0.198031	0.200168
2477	0.195566	0.199675	0.200332	0.202305	0.194744	0.200497
2478	0.198196	0.200661	0.199346	0.197045	0.208386	0.199675
2479	0.196552	0.197045	0.200332	0.200661	0.190471	0.202633
2480	0.197045	0.194087	0.197703	0.198196	0.197703	0.202962
2481	0.197538	0.198196	0.197703	0.201319	0.197374	0.202305
2482	0.198196	0.197703	0.199346	0.195237	0.195566	0.200661
2483	0.198031	0.19836	0.200497	0.199675	0.197045	0.200825
2484	0.197374	0.200168	0.197045	0.200661	0.199675	0.200004
2485	0.197867	0.198031	0.197045	0.200825	0.195895	0.19836
2486	0.199018	0.19458	0.19573	0.200825	0.200661	0.198196
2487	0.199675	0.196223	0.198031	0.199182	0.197045	0.20099
2488	0.196881	0.198031	0.199018	0.199182	0.199018	0.199346
2489	0.199346	0.201976	0.197867	0.200497	0.205921	0.198689
2490	0.195566	0.195402	0.203291	0.201976	0.197703	0.200004
2491	0.195237	0.194744	0.200497	0.193429	0.200004	0.20099
2492	0.193429	0.19836	0.196881	0.197867	0.199839	0.200168
2493	0.193429	0.200168	0.199346	0.19458	0.199675	0.199675
2494	0.197045	0.19836	0.198031	0.197867	0.202798	0.197703
2495	0.196881	0.198031	0.19721	0.199675	0.197867	0.198853
2496	0.194744	0.19836	0.198524	0.199346	0.191128	0.200168
2497	0.197703	0.19836	0.20214	0.197867	0.199346	0.20099
2498	0.197867	0.200168	0.197867	0.202469	0.197045	0.201976
2499	0.199018	0.197867	0.201812	0.197703	0.197374	0.199018
