Ladekurvenmessung

Zeit: 2018_05_04 09.53.45

Info: FVA3, v = 0.14, T = 23, F = 20, h = 43

Ladewiderstand[Ohm]: 1012700

Störkapazität[pF]: 0.000000

Entladezeit[ms]: 200

Abtastrate[Hz]: 250000

Anzahl der Messwerte: 2500.000000

Verzögerung[ms]: 3

Ladespannung[V]: 0.200000


	Kurve_1	Kurve_2	Kurve_3	Kurve_4	Kurve_5
0	0.000146	-0.001334	-0.001827	0.00031	0.000474
1	0.000146	0.002118	0.000639	0.00031	-0.000841
2	0.000146	0.00031	0.001625	0.001132	-0.000347
3	0.00031	0.002775	0.007706	0.00031	-0.000676
4	0.00031	0.00146	0.001789	0.000146	-0.000183
5	-0.000347	0.002447	0.002611	-1.9e-05	-1.9e-05
6	-0.000347	0.003433	0.001132	0.000146	0.000146
7	-0.000183	0.003268	-0.003142	-0.000347	0.00031
8	-0.000347	0.000967	0.003104	-0.000347	0.00146
9	-0.000347	0.000967	0.002447	-1.9e-05	0.00294
10	0.000146	0.00294	0.000803	-1.9e-05	0.000474
11	-1.9e-05	0.000146	-0.001334	0.000146	0.000639
12	0.000146	0.00146	0.000803	-0.000183	-1.9e-05
13	0.00031	-0.001498	0.000474	0.000474	0.001132
14	0.000474	0.00146	0.002611	0.00031	-0.001005
15	0.000146	0.000474	-0.000183	-1.9e-05	0.001625
16	-0.000347	0.001132	0.000639	-0.000676	0.001296
17	-0.000183	-0.002484	-0.000676	-0.000512	0.001789
18	-0.000347	0.001789	-0.001827	-0.000347	0.000967
19	-0.000512	-0.001498	0.002611	-0.000347	-0.000183
20	-0.000183	-0.000347	0.00146	-0.000183	0.001296
21	0.000146	0.000967	0.002775	0.000146	0.000967
22	0.000146	-0.000676	0.000967	-1.9e-05	-0.000512
23	0.00031	-0.001662	0.000146	0.000474	-0.002155
24	0.000146	0.00146	0.000146	0.000474	-1.9e-05
25	0.000474	0.000474	0.003597	0.000474	-0.003142
26	0.000146	-0.001827	-0.003635	-0.000512	0.002611
27	-1.9e-05	0.000474	0.002775	-0.000183	-0.001662
28	-0.000347	-0.003306	-0.000841	-0.000347	0.001296
29	-0.000347	0.001954	0.001132	-0.000512	0.001625
30	-0.000841	-0.001827	0.00294	-0.000183	0.00409
31	-0.000183	0.00031	0.003433	-0.000183	0.003761
32	-1.9e-05	-0.000183	0.001789	-1.9e-05	0.003104
33	0.000146	-0.001662	0.000146	0.00031	-0.000512
34	0.00031	0.000146	-0.00347	0.000146	0.000146
35	0.00031	0.001132	-0.001498	0.000146	-0.001005
36	0.000474	-0.00232	0.003268	-1.9e-05	-0.000512
37	0.000146	-0.003306	0.000474	-0.000347	-0.001991
38	-0.000183	0.001625	-1.9e-05	-1.9e-05	0.000146
39	-0.000183	0.000474	-0.000183	-0.000676	0.000146
40	-0.000512	0.000146	0.000967	-0.000183	0.00031
41	-0.000512	0.002447	0.002282	-0.000512	0.00031
42	-1.9e-05	-1.9e-05	0.000803	0.000474	0.000474
43	-1.9e-05	-1.9e-05	-0.000841	-1.9e-05	-0.000512
44	0.000474	0.00294	0.00146	0.000639	0.000146
45	0.00031	0.000474	0.000146	0.00031	-0.000347
46	0.000474	0.003268	0.000474	0.00031	-0.000512
47	0.00031	-0.000676	0.002282	0.000474	0.000146
48	0.00031	0.000639	-0.001662	0.000146	-0.001005
49	-0.000183	0.000146	-0.000512	-0.000676	0.000639
50	-0.000512	-0.000841	0.002447	-0.000512	0.00031
51	-0.000347	-0.001169	-0.00232	-0.000183	0.000639
52	-0.000347	0.000803	0.000803	-0.000676	0.000146
53	-0.000347	-1.9e-05	-0.001662	-0.000183	0.000146
54	-1.9e-05	-0.001005	-0.002813	0.00031	0.000146
55	0.00031	-0.001169	-0.004785	0.000146	-1.9e-05
56	0.00031	0.000474	-0.004292	0.00031	-0.000512
57	0.00031	0.001789	0.002447	0.000803	-0.000183
58	0.000146	0.005898	0.00031	0.00031	-0.000512
59	0.000146	0.001132	0.000803	-1.9e-05	-0.000183
60	-1.9e-05	0.000146	-0.000676	-0.000347	-1.9e-05
61	-0.000347	0.001954	0.001132	-0.000183	-1.9e-05
62	-0.000676	-0.000512	0.000146	-0.000512	0.00031
63	-0.000347	0.002118	0.000803	-0.000347	0.00031
64	-0.000183	-0.000676	0.000146	-1.9e-05	0.000474
65	0.000146	0.000474	-0.000512	0.000146	0.000146
66	-1.9e-05	-0.000347	-0.000512	0.00031	-0.000183
67	0.00031	-0.000512	-0.000347	0.000146	-1.9e-05
68	0.00031	-0.000512	-0.000676	0.000146	-0.000347
69	0.000146	0.00031	-0.000347	0.000146	-0.000512
70	0.00031	0.00146	-1.9e-05	-1.9e-05	-0.000347
71	-1.9e-05	-0.00232	0.000146	-0.000347	0.000146
72	-0.000347	-0.003142	0.00031	-0.000512	0.00031
73	-0.000512	-0.00347	0.00031	-0.000347	0.00031
74	-0.000676	-0.000183	0.000639	-0.000676	0.000639
75	-0.000347	0.001296	0.000146	-1.9e-05	0.00031
76	-1.9e-05	0.00146	-0.000347	0.00031	-0.000183
77	0.000146	-0.002648	-0.000512	0.000146	-0.000183
78	-1.9e-05	0.002447	-0.000347	0.00031	-0.000347
79	0.000146	-0.001662	-0.000347	0.000474	-0.000183
80	0.000474	0.00031	-0.000183	0.000474	-0.000512
81	0.00031	-0.000841	-1.9e-05	-0.000183	-0.000183
82	-0.000183	0.001789	0.000146	-0.000512	0.00031
83	-0.000512	-0.001827	0.00031	-0.000347	0.000474
84	-0.000347	-0.000512	0.000474	-0.000676	0.000146
85	-0.000347	0.000803	0.000474	-0.001005	0.00031
86	-0.000347	-0.001662	0.00031	0.000146	0.00031
87	0.000146	-0.001991	-0.000183	0.000146	-0.000183
88	0.000146	-0.001169	-0.000347	0.000146	-0.000183
89	0.000474	0.007049	-0.000183	0.000146	-0.000347
90	0.000474	-0.000676	-0.000512	0.000146	-0.000676
91	0.00031	0.000639	-0.000347	0.000474	-0.000676
92	0.000146	0.00146	-1.9e-05	-1.9e-05	-0.000183
93	0.000146	-0.000676	-1.9e-05	-0.000841	-0.000183
94	-0.000183	0.000803	0.00031	-0.000347	0.000474
95	-0.000347	-0.001169	0.000474	-0.000347	0.000146
96	-0.000512	0.001789	0.00031	-0.000676	0.00031
97	-0.000512	0.001132	0.00031	-0.000183	0.00031
98	-1.9e-05	-0.001005	-0.000347	0.00031	0.000146
99	0.000146	0.002282	-0.000347	0.000146	-0.000183
100	0.00031	0.001954	-0.000183	0.000639	-0.000512
101	0.000474	-0.000512	-0.000512	0.000474	-0.000347
102	0.00031	-1.9e-05	-0.000512	0.000474	-0.000512
103	0.00031	-0.000183	-1.9e-05	-0.000512	-0.000347
104	-0.000183	-0.000841	0.000474	-0.000347	0.000146
105	-0.000347	-0.001662	0.00031	-0.000347	0.00031
106	-0.000347	-0.000183	0.00031	-0.000512	-1.9e-05
107	-0.000347	-0.001169	0.000474	-0.001334	-0.000183
108	-0.000512	0.000803	0.00031	0.00031	0.005241
109	-0.000183	0.000639	-0.000347	0.000146	0.008528
110	0.000146	0.000639	-0.000183	0.00031	0.001625
111	-1.9e-05	0.001296	-0.000676	0.000803	0.003433
112	0.000146	0.00146	-0.000512	0.000474	0.002447
113	0.000146	0.000639	-0.000183	0.000474	0.007542
114	0.000146	0.000803	-1.9e-05	-0.000347	0.007213
115	-0.000183	-1.9e-05	0.000146	-0.000183	0.002447
116	-0.000512	0.000146	0.00031	-0.000183	0.003104
117	-0.000347	-0.000347	0.000474	-0.000841	0.001625
118	-0.000512	-0.000512	0.000639	-0.001662	0.006556
119	-0.000347	-0.000183	0.000146	0.000146	0.00672
120	0.000146	-0.000676	-0.000347	-1.9e-05	0.008363
121	0.000146	-0.000347	-0.000512	0.00031	0.004419
122	0.00031	-0.001005	-0.000512	0.000146	-0.001005
123	0.00031	-1.9e-05	-0.000347	-1.9e-05	-0.001827
124	0.00031	-1.9e-05	-0.000183	0.000639	0.000474
125	0.000146	0.000803	-0.000183	0.000474	0.001789
126	-0.000183	-0.001662	0.00031	-0.000183	0.000146
127	-0.000347	-0.001005	0.00031	-0.000183	-1.9e-05
128	-0.000347	0.000474	0.00031	-0.000183	0.00146
129	-0.000512	-0.002813	0.000474	-0.001005	0.001625
130	-0.000347	-1.9e-05	-1.9e-05	0.000146	0.005405
131	-1.9e-05	0.00146	-0.000183	0.000146	0.005898
132	0.000146	0.000474	-0.000183	0.00031	0.003268
133	0.00031	0.000474	-0.000347	0.00031	0.005734
134	0.00031	0.000146	-0.000512	0.00031	0.003761
135	0.000474	-0.001827	-0.000347	0.000146	0.006062
136	0.00031	0.000474	-1.9e-05	-1.9e-05	0.006391
137	-1.9e-05	-0.001827	0.000474	-0.000347	0.005898
138	-0.000183	-0.001662	0.00031	-0.000676	0.004255
139	-0.000347	-0.000347	0.00031	0.000146	0.008692
140	-0.000347	-0.002813	0.000474	-0.001169	0.005569
141	-0.000347	-0.001662	0.000474	-0.000347	0.011486
142	-1.9e-05	0.000639	-1.9e-05	0.000146	0.009843
143	0.000146	0.000146	-0.000183	0.000639	0.005898
144	0.00031	0.000146	-0.000347	0.000146	0.00787
145	0.00031	-0.001169	-0.000512	0.000474	0.008692
146	0.000474	0.001789	-0.000347	0.00031	0.008363
147	0.000146	-0.000512	0.000146	-1.9e-05	0.010336
148	-1.9e-05	-0.001005	0.00031	-0.000347	0.011979
149	-0.000347	-1.9e-05	0.000639	-0.000183	0.008528
150	-0.000347	-0.000512	0.00031	-0.000676	0.0105
151	-0.000512	-1.9e-05	0.000474	0.000474	0.010007
152	-0.000183	-0.000841	0.000146	-1.9e-05	0.012308
153	0.000146	0.000639	-0.000183	-1.9e-05	0.012637
154	0.000146	0.000474	-0.000183	0.000146	0.012637
155	0.000474	0.001296	-0.000347	0.000146	0.011815
156	0.00031	-0.000347	-0.000676	0.00031	0.012801
157	0.00031	0.001132	-0.000183	0.000146	0.007049
158	0.000146	-0.001334	-1.9e-05	-0.000183	0.010829
159	-0.000183	-0.001498	0.00031	-1.9e-05	0.014938
160	-1.9e-05	-0.002155	0.000474	0.000474	0.012965
161	-0.000347	-0.000676	0.000474	-0.000512	0.009843
162	-0.000512	-0.001169	0.000474	0.001789	0.010336
163	-1.9e-05	-1.9e-05	0.00031	-0.000183	0.013623
164	-1.9e-05	0.001296	-0.000183	0.000146	0.012637
165	-1.9e-05	-1.9e-05	-0.000347	0.000639	0.011815
166	0.00031	0.000146	-0.000347	0.00031	0.004419
167	0.000474	0.000474	-0.000347	0.00031	0.012637
168	0.000146	0.001132	-0.000183	0.000639	0.012144
169	0.00031	-0.000676	-1.9e-05	-0.000183	0.012637
170	-0.000841	0.000146	0.00031	-0.000183	0.009678
171	0.000146	-0.000512	0.00031	-0.000347	0.003597
172	-0.000183	0.00031	0.00031	0.000146	-1.9e-05
173	-0.000183	-0.001334	0.000639	0.003104	0.000639
174	-0.000676	0.002282	0.00031	-0.000183	0.000967
175	0.000474	0.000474	-0.000183	0.00031	0.004255
176	0.000146	0.002775	-0.000347	0.00031	0.004912
177	0.00409	-0.000347	-0.000183	0.000146	0.000803
178	0.000803	0.000146	-0.000512	-1.9e-05	0.006391
179	0.001625	0.000474	-0.000183	0.000474	0.006391
180	0.002118	-0.000183	-1.9e-05	-0.000512	0.00935
181	0.001625	-1.9e-05	0.00031	-0.000512	0.006884
182	0.00146	0.000146	0.00031	-0.000676	0.008363
183	0.000803	-0.001827	0.000474	0.000146	0.004912
184	0.001954	0.00146	0.000474	0.004419	0.006884
185	-1.9e-05	-0.002484	0.000146	-0.000183	0.006556
186	0.00031	0.000967	-1.9e-05	0.000146	0.009185
187	-0.001169	-0.000347	-0.000183	0.000146	0.009185
188	0.003104	-0.000183	-0.000512	0.000803	0.009514
189	0.000474	0.00146	-0.000512	-0.000347	0.011322
190	0.001625	0.00031	-0.000512	-1.9e-05	0.011158
191	0.002447	0.000803	0.000146	-0.000512	0.014938
192	0.004748	-0.000676	0.00031	-0.000512	0.009678
193	0.00409	-0.001005	0.00031	-0.000841	0.0105
194	0.004419	-0.001005	0.000474	-0.000183	0.010336
195	0.00294	-0.00232	0.000146	0.003597	0.011979
196	0.003433	0.000474	0.000146	-0.000183	0.012472
197	0.002611	-0.001169	-0.000183	0.000474	0.013952
198	0.001789	0.000639	-0.000347	-1.9e-05	0.011979
199	0.001954	0.001132	-0.000347	0.00031	0.012801
200	0.003104	0.000146	-0.000512	-1.9e-05	0.011651
201	0.003433	-0.001005	-0.000183	0.00031	0.012965
202	-0.001005	0.000967	0.00031	-0.001005	0.012801
203	0.004583	0.000146	0.000146	0.001296	0.011486
204	-0.000841	0.00031	0.00031	-0.001005	0.011322
205	-0.005114	-0.000676	0.00031	0.00031	0.013459
206	0.002611	0.000967	0.000474	0.001132	0.013952
207	0.00146	-1.9e-05	0.00031	0.000146	0.013459
208	-0.000347	-1.9e-05	-0.000183	-0.000676	0.012637
209	0.000474	-0.000183	-0.000183	0.000967	0.017074
210	0.00031	0.000146	-0.000347	-0.000676	0.017074
211	0.000474	0.00031	-0.000512	0.000967	0.012965
212	0.00031	-0.000676	-0.000347	-0.001169	0.015102
213	0.000146	-0.001005	-1.9e-05	-0.001498	0.014938
214	-0.000183	-0.000676	0.00031	0.002118	0.013952
215	-0.000347	0.003104	0.000146	-0.002484	0.010007
216	-0.000512	-0.001169	0.00031	-0.002813	0.012308
217	-0.001005	0.000474	0.00031	-0.010209	0.015266
218	-0.001498	-0.001827	0.000146	-0.002977	0.013294
219	-0.000183	0.002447	-0.000183	-0.00232	0.012637
220	0.000146	0.00146	-0.000183	-0.00232	0.012637
221	0.00031	0.001132	-0.000512	-0.003963	0.009843
222	0.000474	0.000146	-0.000347	-0.001662	0.009514
223	0.000474	0.000639	-0.000347	-0.000512	0.015102
224	0.00031	0.003268	0.000146	0.004255	0.01576
225	-1.9e-05	0.001132	0.00031	-0.001662	0.013459
226	-0.000347	0.002118	0.00031	-0.000841	0.012308
227	-0.000183	-0.001169	0.000474	0.000803	0.016581
228	-0.000512	0.000146	0.000474	-0.010373	0.014938
229	-0.000512	-0.000183	0.000146	-0.001498	0.016253
230	-1.9e-05	0.00031	-0.000183	-0.001334	0.016253
231	-1.9e-05	-1.9e-05	-0.000183	-0.000183	0.016088
232	0.00031	0.001296	-0.000347	-0.002484	0.015924
233	0.000474	-0.004949	-0.000347	-0.000676	0.012144
234	0.000639	-0.001005	-0.000347	-0.000841	0.012144
235	0.00031	-0.001005	-1.9e-05	0.000146	0.014116
236	-0.000347	0.003926	0.00031	0.000146	0.010993
237	-0.000183	-0.001498	0.00031	0.001296	0.013623
238	-0.000347	-0.000183	0.00031	0.000474	0.012801
239	-0.000183	0.000146	0.000474	-0.012181	0.011815
240	-0.000512	0.000803	0.000474	-0.001827	0.013952
241	0.000146	0.000803	-0.000183	0.000803	0.010664
242	-1.9e-05	-0.000512	-0.000347	-0.001005	0.010829
243	0.000474	-0.000183	-0.000347	-0.000841	0.011158
244	0.000474	0.000146	-0.000512	0.000146	0.01428
245	0.00031	0.000474	-0.000183	-0.003635	0.010336
246	0.000474	0.000639	0.000146	0.00031	0.015102
247	-0.000183	-0.001827	0.00031	-0.000841	0.011979
248	-0.000347	-0.001005	0.000474	-0.001005	0.012144
249	-0.000512	-0.000347	0.000474	-0.000841	0.001789
250	-0.000347	-0.001991	0.000474	-0.00988	0.002447
251	-0.000512	-0.000676	0.000146	-0.007744	0.000474
252	0.000146	-0.00232	-0.000347	-0.003306	0.002447
253	0.00031	-1.9e-05	-0.000183	-0.001662	0.00031
254	0.00031	0.000146	-0.000512	-0.000676	-0.001334
255	0.000474	-0.000676	-0.000512	-0.001005	0.000474
256	0.000474	-0.001169	-0.000183	-0.001498	-0.001991
257	0.00031	0.000967	0.000146	0.000639	0.000474
258	-0.000183	-0.001334	0.00031	-0.003142	-1.9e-05
259	-0.000512	-0.001991	0.00031	0.002775	0.00031
260	-0.000347	0.00146	0.000146	-0.001827	0.000474
261	-0.000512	-0.002484	0.000474	-0.006757	0.001132
262	-0.000347	-1.9e-05	0.000146	-0.004456	0.000146
263	-1.9e-05	0.000474	-0.000183	-0.001991	0.003761
264	0.000146	0.00031	-0.000347	-0.001498	-0.001827
265	-1.9e-05	-0.000347	-0.000347	-1.9e-05	-0.000183
266	-0.001334	0.000803	-0.000512	0.000474	0.001132
267	0.001132	-0.000347	-0.000347	-0.003799	0.00031
268	-0.001498	0.00031	-1.9e-05	-0.001169	0.001954
269	-0.000183	0.000639	0.00031	-0.004292	0.000803
270	-0.001334	-0.001005	0.00031	-0.003142	0.000146
271	-0.001498	0.00031	0.000474	-0.001498	0.00031
272	-0.002484	-0.000676	0.000474	-0.009551	-0.000347
273	0.000967	-0.000347	0.000146	-0.004785	0.000474
274	-0.000183	0.001132	-0.000183	-0.00347	0.00031
275	-0.001991	0.000639	-0.000347	-0.005114	-0.000183
276	-0.002977	0.000474	-0.000347	0.000474	0.00031
277	-0.002813	0.000639	-0.000512	0.000474	-0.003635
278	-0.000512	-0.000512	-0.000512	0.000146	0.000803
279	-0.00232	0.000146	0.000146	-0.000347	0.000474
280	0.002611	-0.000841	0.000474	-0.000841	0.00031
281	0.000474	-0.000347	0.000474	-0.001498	0.003433
282	0.00031	-0.001169	0.000474	0.000803	0.004583
283	-1.9e-05	-0.000841	0.000146	-0.005114	0.004583
284	0.000639	0.000146	0.00031	-0.001827	0.002118
285	-0.003635	-0.001334	-1.9e-05	-0.002813	0.006062
286	-0.001827	-0.002155	-0.000183	-0.002484	0.002447
287	0.00031	0.00031	-0.000347	-0.000183	0.005569
288	-0.000512	0.002447	-0.000676	-0.003963	0.005405
289	-0.002484	-0.000183	-0.000347	-0.003306	-0.001169
290	-0.000841	-0.000183	-1.9e-05	-0.002484	-0.000512
291	0.000474	-0.000183	0.00031	-0.001662	0.000146
292	-0.000512	0.000146	0.000146	-0.001662	0.000474
293	0.001132	-0.002977	0.000474	-0.002977	0.000803
294	-0.001169	0.001132	0.000474	-0.004621	0.000639
295	-0.001498	-0.000347	0.000146	-0.00232	0.001789
296	-0.001169	0.000474	-0.000183	0.00031	0.000803
297	-0.001334	-0.000512	-0.000183	0.000146	-0.000347
298	0.000474	0.000639	-0.000347	-1.9e-05	0.00146
299	0.000146	0.000146	-0.000512	-0.001169	0.001132
300	0.000146	0.000146	-0.000183	-0.004292	0.002611
301	0.001625	-0.000183	-1.9e-05	-0.001005	0.001954
302	0.00294	-0.000841	0.00031	-0.002813	0.000639
303	0.002447	-0.000676	0.000146	-0.00232	0.00031
304	0.002282	-0.000512	0.000474	-0.001498	0.00031
305	0.001789	-0.000347	0.00031	-0.002484	0.000474
306	-0.000512	0.000146	0.000474	-0.001169	-0.000841
307	-0.001005	0.000474	-0.000183	-0.003635	-0.001005
308	-1.9e-05	0.000474	-0.000347	-0.001498	0.001625
309	-0.001334	0.000474	-0.000512	-0.001498	-0.006429
310	0.001789	0.00031	-0.000512	0.000803	0.001625
311	-0.002648	0.001296	-0.000347	-0.001334	0.001625
312	-0.004456	-0.000347	-1.9e-05	-0.000183	0.002282
313	-0.003635	-0.000347	0.00031	-0.001827	0.001789
314	-0.001334	-0.000512	0.000146	-0.000512	0.001625
315	-0.000676	-0.000512	0.00031	-0.001498	-1.9e-05
316	-0.001169	-0.000512	0.000146	-0.002648	0.000803
317	0.00031	0.000146	0.00031	-0.003142	0.004912
318	-0.001169	0.000146	-0.000347	-0.003799	0.001625
319	0.001954	0.000146	-0.000183	-0.003142	-1.9e-05
320	0.000639	0.00031	-0.000347	-0.001334	0.000967
321	-0.000347	0.000474	-0.000512	-0.000676	0.002611
322	-0.00232	0.00031	-0.000676	-0.001334	0.000967
323	-1.9e-05	-0.000183	-1.9e-05	0.000639	0.002282
324	0.000474	-1.9e-05	0.00031	-0.001991	-0.001005
325	-0.001334	-0.000512	0.000474	-0.002813	-0.000512
326	-0.002484	-0.000512	0.000474	-0.000841	-1.9e-05
327	-0.001991	-0.000512	0.000474	-0.000183	-0.001334
328	-0.001991	-0.000183	0.00031	-0.002484	-0.001498
329	-0.000183	0.000146	-0.000183	-1.9e-05	-0.001005
330	-0.001498	0.000639	-0.000347	-0.000676	-0.001169
331	-0.000512	0.00031	-0.000512	0.00031	-0.001498
332	-0.001498	0.000639	-0.000512	-0.001169	0.002282
333	0.000803	-1.9e-05	-0.000347	-0.001498	0.001954
334	-0.001498	-1.9e-05	-1.9e-05	0.001132	0.005241
335	0.000474	-0.000347	0.000146	-0.000347	0.001625
336	-1.9e-05	-0.000347	0.000146	-0.001169	0.001132
337	0.001625	-0.000512	0.000474	-0.003635	0.00031
338	0.001296	-0.000347	0.000474	-0.005771	0.00031
339	-0.002977	0.000146	-1.9e-05	-0.004292	0.00031
340	0.001625	0.00031	-0.000183	0.000803	0.00031
341	-0.001498	-1.9e-05	-0.000512	-0.004128	-0.000347
342	0.000803	0.00031	-0.000183	-0.001662	-1.9e-05
343	-0.001498	0.001132	-0.000512	-0.001498	-0.001169
344	0.000803	0.00031	-0.000347	0.001296	-0.001334
345	-0.00232	-0.000183	-1.9e-05	0.00672	0.00146
346	0.001132	-0.000512	0.000146	0.00294	-0.000841
347	-0.001169	-1.9e-05	0.000474	0.000803	0.001132
348	-0.000512	-0.001827	0.00031	0.000474	0.001132
349	-0.000841	0.00031	0.000474	0.000146	0.003104
350	-0.001334	0.001296	0.000146	-0.004128	0.001296
351	-0.000512	-0.000347	-0.000183	0.001789	0.002447
352	0.000639	-1.9e-05	-0.000347	-0.000841	-0.000347
353	0.001296	0.000146	-0.000347	-0.000841	0.000967
354	-0.000183	0.00031	-0.000512	-0.003799	0.00031
355	0.001954	-0.000183	-0.000512	-0.001334	0.00146
356	-0.001005	-1.9e-05	0.000146	-0.000841	0.003433
357	0.001296	-0.000841	0.00031	0.000474	-0.001169
358	-0.000512	-0.000512	0.000146	-0.001827	0.00031
359	0.000474	-0.000183	0.000474	-0.001169	-0.001169
360	-0.001169	-0.000347	0.000474	-0.001005	-0.000512
361	-0.000183	-1.9e-05	0.00031	-0.001498	-0.003142
362	-0.005607	0.000474	-1.9e-05	-0.000676	-0.000676
363	-0.004621	0.000474	-0.000347	-1.9e-05	-0.000183
364	-0.003142	0.000146	-0.000183	-0.002977	0.003268
365	-0.002484	0.000474	-0.000676	-0.008401	0.003268
366	-0.002484	0.000146	-0.000183	-0.001662	0.004255
367	-0.00232	-0.000183	-1.9e-05	-0.001662	0.004419
368	0.001625	-0.000183	0.000146	-0.001991	0.005898
369	-0.00873	-0.000512	0.000146	-0.002813	0.003926
370	-0.004128	-0.000841	0.000474	-0.002813	0.009021
371	0.000146	-0.000183	0.000474	0.001625	0.008363
372	0.000967	-1.9e-05	0.00031	0.000474	0.008363
373	-0.001169	0.00031	-0.000347	-0.002484	0.004748
374	0.005569	0.000146	-0.000183	0.00031	0.00409
375	-0.002155	0.000474	-0.000347	-0.000676	0.008199
376	0.000639	0.00031	-0.000347	-0.001498	0.004255
377	-0.000183	0.000474	-0.000183	0.000146	0.001625
378	-0.001662	-0.000512	-1.9e-05	-0.000841	0.00409
379	-0.000676	-0.000183	0.00031	0.000967	0.004583
380	-0.000183	-0.000512	0.000146	-1.9e-05	0.002282
381	-0.001005	-0.000512	0.000146	-0.000347	0.005241
382	-0.00232	-0.001334	0.000474	-0.001169	0.00409
383	0.002447	-1.9e-05	-1.9e-05	0.000474	0.006227
384	-0.000676	-0.001169	-0.000183	-0.001169	0.00409
385	0.000803	-0.001662	-0.000347	0.000803	0.010664
386	0.001625	-0.000676	-0.000347	-0.00232	0.005734
387	-0.000512	-0.003142	-0.000512	-0.002977	-0.000512
388	0.000967	0.00031	-0.000347	-0.001991	-0.003306
389	-0.000183	0.00031	-0.000183	0.002447	-0.002155
390	-0.001498	-0.000347	0.000146	-0.001662	-1.9e-05
391	0.000967	-0.000512	0.00031	0.000146	-0.001498
392	-0.001827	-0.000347	0.00031	-0.001662	0.002775
393	0.003104	-0.001498	0.00031	-0.001827	-0.000183
394	0.000474	0.001132	0.000146	0.000474	0.001132
395	-0.004292	0.000803	-0.000183	0.000146	-1.9e-05
396	-0.00347	0.00031	-0.000183	-0.006922	0.002775
397	-0.001334	0.00146	-0.000183	-0.002813	-0.001334
398	0.000146	0.004583	-0.000512	0.00031	0.002611
399	-0.001662	0.00146	-0.000183	-0.002484	0.001625
400	-1.9e-05	-0.001005	-1.9e-05	0.000146	0.001296
401	-0.001827	0.002447	0.000146	0.000474	0.003761
402	-0.005443	-0.001169	0.00031	0.000639	0.002775
403	-0.002155	-0.000512	0.00031	-0.001334	0.004748
404	-0.001827	0.002611	0.000474	-1.9e-05	0.004419
405	-1.9e-05	-0.001169	0.00031	-0.001662	0.002282
406	-0.000347	-0.000512	-0.000183	-0.001991	0.001789
407	-0.001662	-0.001662	-0.000512	-0.001498	0.003761
408	-0.000183	-0.000841	-0.000512	-0.003142	0.004419
409	0.000803	-0.000676	-0.000512	-0.001991	0.005241
410	0.000474	0.00031	-0.000183	0.000967	0.001132
411	-1.9e-05	-0.001005	-1.9e-05	-0.000841	0.000967
412	-0.001498	-0.003142	0.00031	-0.001334	-0.000512
413	0.000474	-0.001169	0.00031	0.00146	0.003268
414	0.000474	0.000146	0.000474	0.00031	0.000146
415	0.002611	-0.00232	0.000474	-0.001498	0.002118
416	-0.000512	-0.001662	0.00031	-0.003142	0.001789
417	-0.001991	-0.001169	-0.000183	-0.001169	0.000146
418	-0.002648	0.000639	-0.000512	-0.003963	0.003104
419	-0.000347	-0.000183	-0.000347	-0.002155	0.003761
420	-0.002813	0.003597	-0.000347	-0.00347	0.005898
421	-0.003142	0.001625	-0.000512	0.002447	0.002447
422	-0.00232	-0.002484	-0.000183	0.00294	0.002447
423	-0.000183	-0.001169	0.000146	0.001296	-0.000512
424	0.003433	-1.9e-05	0.00031	-0.001498	-0.001169
425	0.000474	-1.9e-05	0.00031	0.000803	-0.002155
426	0.001789	-1.9e-05	0.000474	-0.001005	0.000474
427	-0.000183	0.000474	0.00031	-0.002484	-0.000676
428	0.001132	-0.005443	-1.9e-05	-0.001827	-0.001498
429	-0.003963	0.000803	-0.000347	-0.001827	0.004748
430	0.000639	0.00031	-0.000347	-1.9e-05	0.003433
431	-1.9e-05	0.000146	-0.000512	-1.9e-05	-0.001498
432	-1.9e-05	-0.001662	-0.000183	-0.002484	-0.000183
433	-0.000676	-0.001662	-0.000183	0.000639	0.000639
434	0.002447	-0.001005	0.000146	0.000967	-0.002484
435	0.000146	0.001132	0.00031	-0.001827	0.001625
436	-0.000841	-0.000512	0.00031	0.000803	0.001132
437	-0.000347	0.00409	0.000474	0.000967	0.00031
438	-0.000347	0.00031	0.00031	0.00146	0.000967
439	-0.003963	-0.000512	-0.000183	0.00146	-0.001005
440	-0.00232	0.00146	-0.000183	-0.001827	0.001296
441	0.000803	0.002118	-0.000347	-1.9e-05	0.002611
442	-0.001169	-0.001498	-0.000183	-0.001334	0.003926
443	-0.001169	0.000803	-0.000512	-1.9e-05	-1.9e-05
444	-0.000676	-0.000512	0.000146	0.000967	-1.9e-05
445	0.001296	-0.00232	0.000146	-0.001169	0.000146
446	-0.001662	-1.9e-05	0.000146	-0.002484	-0.003306
447	0.001625	-0.001169	0.000474	0.002118	0.002447
448	0.001296	0.000639	0.000474	-0.001334	-0.002484
449	0.000474	-0.000512	0.000146	0.000803	-0.000347
450	-0.001498	0.001296	-1.9e-05	-0.002813	-0.001827
451	-0.002813	0.000967	-0.000183	-0.001005	0.000803
452	-0.003963	0.003104	-0.000512	-0.001334	-1.9e-05
453	-0.005443	0.002118	-0.000512	0.003268	-0.000512
454	-0.002977	0.001789	-0.000512	-0.001334	0.000146
455	-0.004785	-0.000183	-1.9e-05	-0.001498	0.000967
456	-0.004621	0.000146	0.000146	0.002118	0.000803
457	-0.001169	0.001625	0.000146	-0.001498	-0.002977
458	0.000639	-0.002648	0.00031	0.000639	0.000639
459	-0.001827	0.00294	0.000474	-1.9e-05	0.00031
460	-0.000512	-0.004621	0.00031	0.000639	0.001132
461	-0.002155	0.001625	-1.9e-05	-0.002813	-0.001991
462	0.000474	0.001789	-0.000183	0.000639	0.001954
463	0.002447	0.002118	-0.000183	-0.003635	0.000639
464	0.00294	-1.9e-05	-0.000512	0.001296	-0.00232
465	-0.000841	0.001296	-0.000512	0.002118	-0.001169
466	0.00031	0.000146	0.000146	-0.000183	0.000803
467	-0.002155	-0.001662	0.000146	-0.000676	-0.001662
468	-0.002648	0.001954	0.000146	-0.001991	-0.001169
469	-0.001827	0.000146	0.00031	-0.001169	-0.001498
470	-0.003142	0.00031	0.00031	-0.001169	-0.002648
471	-0.004292	-0.001827	0.00031	0.001132	-0.000347
472	-0.009223	-1.9e-05	-0.000183	0.000474	-0.00725
473	-0.004128	-0.001827	-0.000347	0.002775	-0.00347
474	-0.00347	0.000803	-0.000512	0.000803	-0.002484
475	-0.001005	-0.000841	-0.000512	0.002775	-0.002977
476	-0.002977	-0.001991	-0.000347	-0.004785	-0.006757
477	-0.002484	0.003104	-1.9e-05	0.002447	0.001789
478	-0.000841	-0.002155	0.00031	-0.000676	0.000967
479	0.002611	-0.001991	0.00031	0.000146	0.002118
480	0.000474	-1.9e-05	0.000474	-0.001005	0.000967
481	-0.001498	-0.004128	0.000474	-1.9e-05	0.000474
482	0.000967	-0.002484	0.000146	0.000803	0.00031
483	-0.001334	0.00031	-1.9e-05	-0.001169	-0.000676
484	-1.9e-05	0.003433	-0.000347	-0.001498	-0.001005
485	-0.001662	-0.002155	-0.000183	0.000146	-0.002484
486	-0.002484	0.000146	-0.000347	-0.000183	-0.000676
487	-0.001662	-1.9e-05	-0.000347	0.001789	-0.001334
488	-0.005771	-0.002155	-1.9e-05	0.004912	0.00294
489	-0.002977	0.000639	0.00031	0.002447	-0.003799
490	-0.001827	-0.001827	0.000146	0.001296	-0.000183
491	-0.001991	0.000474	0.00031	0.000803	-0.001498
492	0.000967	-0.004128	0.000474	0.001132	-0.002648
493	0.000474	0.00031	0.00031	-0.003142	-0.002977
494	-0.001991	-0.001169	-1.9e-05	-0.000676	0.001789
495	-0.001991	-0.000512	-0.000183	-0.002155	-0.001169
496	0.000803	-0.00232	-0.000183	0.001625	-0.001005
497	-0.001005	-0.001662	-0.000512	0.002611	-1.9e-05
498	0.000803	-0.000183	-0.000512	0.000474	-1.9e-05
499	-0.002813	-0.001005	-1.9e-05	0.000474	0.000639
500	-1.9e-05	0.00146	0.000146	-0.000347	-0.001498
501	0.002611	-0.001498	0.00031	-0.000183	-0.000841
502	-1.9e-05	-1.9e-05	0.000146	-0.000347	-0.004949
503	-0.001169	-0.001334	0.000474	-0.00347	0.001789
504	0.000803	-0.001827	0.000146	-0.000347	-0.001169
505	-0.002648	-0.000676	-1.9e-05	-0.001498	-0.001662
506	-0.003142	0.001132	-0.000183	-0.001334	-0.005443
507	-0.001827	-0.001498	-0.000183	0.000639	-0.001991
508	-0.002977	-0.001498	-0.000347	-0.003963	-0.002648
509	0.00146	-0.000512	-0.000183	0.002775	-0.001169
510	-0.003799	-0.001662	-1.9e-05	0.003433	0.000146
511	-0.002155	-0.004621	0.00031	-0.001334	0.000146
512	-0.001169	0.00146	0.000146	-0.001827	-0.003306
513	-0.001827	-0.001169	0.000474	-0.002648	0.00031
514	-0.001169	-0.002813	0.000474	0.000474	-0.001498
515	0.005569	-0.00347	0.00031	0.000803	-0.001334
516	-0.003142	0.002447	-1.9e-05	-0.006429	-0.001827
517	-0.002648	-0.000512	-0.000183	-0.001662	-0.002155
518	-0.005278	-0.002484	-0.000347	-0.00347	-0.000512
519	-0.004621	-0.000183	-0.000347	-0.004292	-0.001169
520	-0.001991	-0.003635	-0.000512	0.001296	-0.000183
521	-0.002484	-0.000676	-0.000183	-0.001005	-0.009223
522	-0.003963	-0.002648	-1.9e-05	-0.000676	-0.006757
523	-0.002813	0.000639	0.000474	0.000639	-0.003635
524	-0.000512	-0.002484	0.000474	0.002118	-0.002813
525	-0.003635	0.000803	0.000474	-0.001498	-0.002155
526	0.005734	-0.00232	0.000146	0.002775	-0.005278
527	-0.003635	-0.001498	-0.000183	0.000639	-0.004621
528	-0.000841	-0.000676	-0.000347	-1.9e-05	-0.003142
529	-0.001991	-0.002155	-0.000347	-0.000183	-1.9e-05
530	-0.000841	-0.001827	-0.000512	0.000803	0.00031
531	-0.001169	0.000967	-0.000347	-0.000183	0.000639
532	-0.001334	0.00146	-1.9e-05	0.001789	-0.000841
533	-0.000841	-0.002155	-1.9e-05	-0.000183	-0.000183
534	-0.005278	-0.003142	0.000474	-0.001334	-0.002648
535	-0.001991	-0.003306	0.000474	-0.000183	-0.000676
536	-0.002484	-0.002977	0.000474	-0.000183	-0.001169
537	0.001954	-0.008072	0.000474	0.00146	-0.003635
538	-0.003963	-0.003963	-0.000183	0.004255	-0.004621
539	0.000967	-0.003306	-0.000512	0.001789	-0.001005
540	-0.002813	-1.9e-05	-0.000512	-0.00232	-0.002977
541	-0.002813	0.003433	-0.000512	0.001296	-0.004785
542	-0.002813	-0.001662	-0.000183	0.000639	-0.003306
543	-0.002155	0.001132	-1.9e-05	0.002447	-0.000347
544	-0.00232	-0.000512	0.000146	-0.001334	-0.002813
545	-0.001498	-0.000347	0.00031	0.001625	-0.000512
546	-0.001169	-0.000841	0.000474	0.003433	0.00146
547	-0.001498	-0.000841	0.000639	-0.002813	-0.002155
548	0.002611	-0.004785	0.00031	-0.002813	0.000146
549	-0.004456	-0.000512	-0.000183	-0.002155	-0.003635
550	-0.002648	-0.001662	-0.000347	-0.002813	0.002447
551	-0.004621	-0.001991	-0.000512	-0.002484	-0.001005
552	-0.001005	-0.003635	-0.000512	0.00031	-0.001005
553	0.000967	-0.001169	-0.000676	0.00031	-0.002648
554	-0.000347	-0.001662	-1.9e-05	-0.000183	-0.001005
555	-0.001169	-0.002484	0.000146	-0.002648	-0.002813
556	0.000146	-0.000841	0.000146	-1.9e-05	-0.001827
557	-0.001498	-0.000841	0.000474	-0.001498	-0.00347
558	-0.001169	-0.000183	0.00031	-0.000347	-0.001334
559	-0.001991	-0.001827	0.000474	0.001296	-0.002977
560	-0.002648	0.001132	-0.000183	-1.9e-05	-0.007579
561	-0.002813	0.001625	-0.000183	-0.000676	-0.002648
562	-0.003799	-1.9e-05	-0.000183	-0.000347	0.00031
563	0.00031	-0.001334	-0.000676	-0.000347	-0.000183
564	-0.00347	-0.000512	-0.000347	0.001132	-0.000347
565	-0.00232	-0.002813	-1.9e-05	-0.000512	0.00146
566	-0.005936	-0.006757	0.000146	-0.001498	-0.001334
567	-0.001334	-0.000676	0.00031	-0.003142	-1.9e-05
568	-0.005936	-0.000183	0.000146	-0.004785	-0.002155
569	-0.005114	-0.001827	0.000474	-0.001005	-0.001334
570	-0.005936	-0.002648	0.00031	-0.002648	-0.001169
571	0.000803	-0.002155	-0.000183	-0.000841	-0.001005
572	-0.003635	-0.001498	-0.000183	-0.000676	-0.000183
573	-0.002484	-0.00232	-0.000183	0.000803	-0.001991
574	-0.000347	-0.000347	-0.000183	-0.000676	0.001296
575	-0.001662	-0.000512	-0.000512	0.002118	-0.000512
576	-0.00232	0.000803	-1.9e-05	0.002611	-0.000347
577	-0.000512	-0.001662	-1.9e-05	0.001954	-0.007086
578	-0.001662	-0.000183	0.00031	-0.000676	-0.001991
579	-0.001991	0.001789	0.000474	0.000803	-0.005443
580	-0.002155	-0.000512	-1.9e-05	0.000803	-0.002155
581	-0.010045	-0.002813	0.000146	0.003761	-0.000841
582	-0.003306	-0.002977	-0.000183	-0.001662	-0.001334
583	-0.00232	-0.004785	-0.000347	-0.000841	0.00031
584	-0.003142	-0.005443	-0.000347	-0.000676	0.000967
585	-0.00232	-0.004292	-0.000512	-0.000841	-0.001169
586	0.000146	-0.00347	-0.000512	-0.002484	-1.9e-05
587	-0.005771	0.001789	-1.9e-05	0.000639	0.00146
588	0.003268	-0.001005	0.000146	0.004419	-0.001005
589	-0.001498	0.001954	0.00031	-0.001005	0.00031
590	-0.001169	-0.001991	0.000146	-0.000183	-0.001991
591	-1.9e-05	0.003433	0.000474	-0.001169	-0.001662
592	-0.00988	0.000803	0.00031	0.000967	-0.001169
593	-0.002813	-0.000512	-0.000183	-0.002484	0.000474
594	-0.002648	0.000146	-0.000183	0.001296	-0.000676
595	-0.001169	-0.001662	-0.000512	0.000803	0.001789
596	-0.004785	0.002775	-0.000512	-0.001662	-0.002155
597	0.001132	-0.000512	-0.000512	-0.000512	-0.000676
598	-0.005771	0.001954	-0.000183	-0.001827	0.001132
599	-0.001334	-0.001005	0.000146	0.001132	0.000967
600	-0.004456	0.00146	0.000146	-0.001334	-0.002977
601	-0.001662	-0.004128	0.000146	0.00031	-0.001169
602	-0.005278	0.000803	0.000146	-0.001827	-0.001334
603	-0.013167	-0.004785	0.00031	0.000146	-0.000676
604	-0.003799	-0.000512	-1.9e-05	-0.003635	-0.000347
605	-0.001827	-0.002155	-0.000183	-0.001169	-0.000347
606	-0.000512	-0.002484	-0.000512	-0.001827	-0.001662
607	-0.001169	0.000639	-0.000512	-0.001334	-0.001169
608	-1.9e-05	-0.002648	-0.000676	-0.001498	-0.001827
609	-0.001991	0.000474	-1.9e-05	0.000639	0.000474
610	-0.002484	-1.9e-05	0.00031	0.00146	0.00146
611	-0.002648	0.002611	0.000146	0.003104	-0.00347
612	-0.000347	0.000967	0.00031	0.002118	-0.000676
613	-0.000676	0.00294	0.000474	0.000146	-0.002155
614	-0.000512	0.000639	0.000474	0.003926	-0.001991
615	-0.000183	-0.000512	-0.000183	-0.001498	0.000639
616	-1.9e-05	-0.003799	-0.000183	0.00031	0.001132
617	0.000474	-0.003142	-0.000347	-0.00232	-0.000841
618	0.000474	-0.002155	-0.000347	-0.001334	0.000474
619	0.00031	-0.002813	-0.000512	-1.9e-05	-0.001334
620	0.000474	-0.003963	-1.9e-05	-0.000676	-0.000841
621	-1.9e-05	-1.9e-05	0.000146	-0.002813	-0.00232
622	-0.000512	-0.001662	0.00031	0.002118	-0.003635
623	-0.000183	-0.000841	0.000146	0.002611	0.000967
624	-0.000512	0.000967	0.000474	-0.001827	-0.001005
625	-0.001498	-0.002155	0.000146	-0.00347	-0.001662
626	-0.003142	0.000474	-0.000183	0.000803	-0.000183
627	-0.001169	-0.001334	-0.000347	0.000967	-0.001169
628	-0.004621	0.00031	-0.000512	-0.001169	-0.002484
629	-0.003142	0.000474	-0.000347	0.001296	-1.9e-05
630	-0.004621	0.000803	-0.000347	-0.00232	-0.001991
631	-0.004785	-0.004128	-1.9e-05	0.003104	-0.001334
632	-0.004949	-0.006757	0.000146	-1.9e-05	-0.002977
633	-0.001827	-0.001991	0.00031	0.002447	-0.00232
634	-0.001334	-0.002648	0.000474	-0.001827	-0.001169
635	-0.001498	-0.001169	0.00031	-0.000512	-0.000676
636	-0.006757	-0.001827	0.000146	-0.001662	0.000639
637	-0.006757	-0.001991	-1.9e-05	0.001789	-0.00232
638	-0.001334	-0.000512	-0.000183	0.001132	0.00146
639	0.000639	-0.002648	-0.000183	0.002282	-0.000183
640	-0.001334	-0.001827	-0.000347	-0.001334	0.001954
641	-0.001169	-0.001991	-0.000512	0.00031	0.000639
642	-0.003142	-0.001334	-1.9e-05	-0.000183	-1.9e-05
643	-0.000841	0.001954	0.000146	-0.000183	-0.001498
644	-0.001005	-0.001005	0.00031	0.001954	-0.001334
645	-0.001498	-1.9e-05	0.00031	0.001625	-0.00232
646	0.001132	-0.001662	0.00031	0.000967	0.000146
647	-0.006593	0.000474	0.00031	0.002611	-0.003142
648	-0.002155	0.002611	-0.000183	-0.000183	-0.000841
649	-0.00347	-0.000347	-0.000183	0.003104	-0.00347
650	-0.00347	-0.001498	-0.000183	0.002775	0.002447
651	-0.002484	0.000146	-0.000347	-0.001169	0.002447
652	-0.003142	-0.001169	-0.000512	0.001954	-1.9e-05
653	-0.001662	-0.003306	-1.9e-05	0.001954	-0.000347
654	-0.002977	0.000474	0.000146	-1.9e-05	-1.9e-05
655	-0.001498	-0.001334	0.00031	-0.002813	0.000146
656	-0.001005	-0.000512	0.00031	-1.9e-05	-0.004785
657	-0.001827	-0.002648	0.000639	-0.001662	0.000474
658	-0.001991	0.00031	0.000146	-0.001662	-0.00232
659	-0.001827	0.00031	-1.9e-05	-0.001005	-0.001991
660	-0.002648	0.00031	-1.9e-05	-0.004292	-0.002648
661	-0.000841	0.000639	-0.000512	0.001954	-1.9e-05
662	-0.00232	0.000474	-0.000512	-0.001005	-0.001662
663	-0.001334	0.000146	-0.000512	-0.000183	0.00031
664	-0.002813	-0.000183	-1.9e-05	0.000146	-0.002648
665	-0.000183	-0.000183	0.000146	0.001296	-0.001005
666	-0.003963	-0.000676	0.000146	-0.000676	-0.003635
667	-0.00232	-0.000512	0.00031	-0.000347	-0.002484
668	-0.002484	-0.000841	0.000639	-0.000512	-0.000841
669	-0.002813	-1.9e-05	0.00031	0.000639	-0.000841
670	-0.005607	0.00031	-1.9e-05	-1.9e-05	-0.003635
671	-0.002648	0.00031	-0.000183	0.00409	-0.002648
672	-0.000183	0.000146	-0.000512	0.000474	-0.00232
673	-0.002155	0.00031	-0.000183	-0.001991	-0.001662
674	-0.000183	0.00031	-0.000512	-0.000676	0.000967
675	-0.001662	-1.9e-05	-1.9e-05	0.000474	-0.001005
676	0.001132	-0.000183	-1.9e-05	0.00031	-0.00232
677	-0.001169	-0.000512	0.00031	-0.002484	-0.000841
678	0.002282	-0.000512	0.000474	0.001132	-0.000347
679	-0.003142	-0.000841	0.00031	-0.002484	-0.001991
680	0.001625	-0.000183	0.00031	-0.000347	-0.001498
681	-0.002813	0.000474	-0.000183	-0.000347	-0.003799
682	-0.000183	0.00031	-0.000347	-0.000183	-0.001991
683	-0.003306	0.000474	-1.9e-05	-0.001991	-0.001827
684	-0.004785	-1.9e-05	-0.000512	0.003104	-0.000512
685	-0.001662	0.000967	-0.000183	-0.001827	0.000146
686	-0.001827	0.002447	-1.9e-05	-0.002484	-0.001169
687	-0.001005	0.000639	0.000146	-0.000183	-0.001827
688	-0.001827	-1.9e-05	0.000146	-0.003635	-0.003142
689	0.00031	-0.002813	0.00031	0.002447	0.000474
690	-0.001827	0.004255	0.000474	-0.000347	-0.002155
691	-0.000512	-0.001334	0.000474	0.000146	0.002775
692	-0.001334	0.000146	0.000146	0.002282	-0.001169
693	-0.001662	-1.9e-05	-0.000183	-0.001169	0.00146
694	0.000803	0.000474	-0.000347	-0.002648	0.000474
695	-0.000841	-0.001991	-0.000512	0.000803	-0.000183
696	-0.000841	-0.000347	-0.000512	-0.001005	-0.002155
697	-0.001334	0.00031	-1.9e-05	-0.000676	-0.000841
698	-0.001334	-0.000183	0.000146	-0.002648	-0.001169
699	-0.00232	-0.000347	0.00031	0.005076	-0.003306
700	-0.003306	-0.000512	0.000146	-0.000512	0.000146
701	-0.001169	0.006062	0.00031	0.001625	-0.002813
702	-0.003142	0.00031	0.00031	0.00031	0.000146
703	-0.001827	0.000967	-0.000183	-0.001827	-0.001498
704	-0.002977	0.000146	-0.000183	0.000803	-0.000841
705	-0.003142	-0.001991	-0.000512	-0.004292	-0.000841
706	0.00294	0.001132	-0.000512	0.003104	0.00146
707	0.000474	-0.000347	-0.000676	-0.001334	-0.00347
708	-0.00232	-0.000676	0.000146	0.000146	0.002611
709	-0.00347	-0.000841	0.000146	-0.001169	-0.001334
710	-0.001169	-0.000512	0.000146	-0.003142	-0.001991
711	-0.002977	-0.001498	0.000474	-0.000183	0.00031
712	-0.001169	0.003104	0.00031	-0.000512	-0.004456
713	-0.001334	0.000639	0.00031	-0.001005	-0.000512
714	-0.001991	0.000803	-0.000183	-0.002155	-0.005771
715	-0.001169	-0.002155	-1.9e-05	-0.001991	-0.00347
716	-0.002648	0.003433	-0.000512	-0.004949	0.000803
717	-0.003799	0.00031	-0.000347	-0.00232	-1.9e-05
718	-0.002813	-0.000676	-0.000512	-0.001662	-0.001991
719	-0.002648	0.000803	-0.000183	-0.004128	0.001296
720	-0.002813	-0.000347	0.000146	-0.001005	-0.003142
721	-0.002813	-0.000841	0.000146	0.000639	-0.001991
722	-0.002977	-1.9e-05	0.00031	-0.003306	-0.003799
723	-0.000347	0.005898	0.00031	0.001132	0.000146
724	-0.003306	-0.000512	0.000474	-0.000676	-0.000841
725	-0.003306	-0.00232	-0.000183	-0.000347	-0.001827
726	-0.004456	0.00031	-0.000183	0.000146	-0.00347
727	0.00409	-0.001991	-0.000183	0.000146	0.000146
728	-0.001005	0.00146	-0.000512	-0.001498	0.00146
729	-0.005278	-0.001662	-0.000676	0.001625	-0.002648
730	-0.004949	-0.000676	-1.9e-05	-0.002813	-0.002155
731	-0.001169	-0.000183	0.000146	0.000803	-0.00232
732	-0.001169	0.002282	0.00031	-0.001005	0.000967
733	0.000967	0.001132	0.00031	-0.000347	-0.00347
734	-0.00232	0.006556	0.000639	0.000474	0.000146
735	-0.003635	0.002118	0.000146	-0.000841	-0.00232
736	-0.000183	-0.001005	-1.9e-05	-0.001005	0.00031
737	-0.001498	0.00146	-0.000183	-0.001662	-0.001498
738	-0.001991	-0.000183	-0.000512	-0.002484	-0.000183
739	-0.004949	0.002775	-0.000512	-0.002648	-0.000512
740	0.000146	0.001296	-0.000512	0.000967	0.000803
741	-0.001662	-0.000841	-0.000183	-0.00725	-0.001005
742	-0.002484	-0.001334	-1.9e-05	0.003268	-0.000512
743	-0.000347	-0.000512	0.00031	-0.000512	0.001296
744	-0.001334	-0.002155	0.00031	0.001132	0.002775
745	-0.000676	0.005076	0.000146	0.00031	-0.001991
746	0.000967	-0.001498	0.000474	-1.9e-05	-0.002813
747	-0.00347	0.000146	-1.9e-05	-0.006757	-0.000183
748	0.001789	-0.000183	-0.000183	-0.002648	-0.000347
749	-0.003142	0.000146	-0.000347	0.002118	-0.000347
750	-0.004456	0.000967	-0.000512	-0.003963	-0.001169
751	0.005734	0.000474	-0.000183	0.001789	0.003104
752	0.008857	0.000967	-0.000183	0.00672	0.010007
753	0.020526	-1.9e-05	0.000146	0.017567	0.019211
754	0.024142	0.00146	0.000146	0.02595	0.025128
755	0.027922	-0.000676	0.000146	0.032688	0.030552
756	0.027758	0.003597	0.00031	0.028908	0.038112
757	0.032524	0.000474	0.000146	0.021183	0.044193
758	0.04107	0.002775	-0.000183	0.009678	0.050603
759	0.049288	0.001296	-0.000347	0.012637	0.057671
760	0.055698	0.000639	-0.000183	0.017403	0.062601
761	0.059643	-0.000183	-0.000347	0.027265	0.068847
762	0.066381	0.002447	-0.000183	0.031702	0.071641
763	0.072627	-0.001334	-0.000183	0.035811	0.078708
764	0.076407	0.000474	0.000146	0.046001	0.08331
765	0.078544	-0.000512	0.000474	0.050439	0.084954
766	0.084789	0.001296	0.00031	0.056356	0.090378
767	0.087912	-0.001005	0.000474	0.057013	0.09498
768	0.094651	-0.001498	0.000474	0.066217	0.097445
769	0.094815	0.001954	-1.9e-05	0.068025	0.10139
770	0.102376	-0.000512	-0.000512	0.072627	0.109279
771	0.105992	0.001132	-0.000512	0.077065	0.111744
772	0.108128	-1.9e-05	-0.000841	0.081831	0.110922
773	0.111415	0.00294	-0.000183	0.087912	0.116675
774	0.117332	-1.9e-05	-0.000347	0.093993	0.121934
775	0.120455	0.000639	0.00031	0.099253	0.119797
776	0.121605	0.000803	0.00031	0.104184	0.124399
777	0.12292	-0.000347	0.000474	0.107306	0.127687
778	0.1267	-0.005278	0.00031	0.106813	0.131467
779	0.13837	0.000146	0.00031	0.112894	0.136069
780	0.134425	-0.000841	-1.9e-05	0.114702	0.135576
781	0.137055	0.001132	-0.000183	0.116182	0.141328
782	0.139849	0.002611	-0.000347	0.118811	0.140835
783	0.14215	0.001625	-0.000347	0.123578	0.144451
784	0.141657	0.001789	-1.9e-05	0.125386	0.142479
785	0.14856	0.000639	-1.9e-05	0.127687	0.147738
786	0.146588	0.001132	0.000146	0.133932	0.149382
787	0.14971	0.000146	0.00031	0.134754	0.14856
788	0.153162	-1.9e-05	0.00031	0.136562	0.15119
789	0.150532	-0.0061	0.00031	0.139192	0.157435
790	0.153491	-0.00232	0.00031	0.138699	0.155463
791	0.154312	0.001954	-1.9e-05	0.144287	0.1576
792	0.152505	0.000803	-1.9e-05	0.144615	0.161051
793	0.160229	0.00146	-0.000347	0.148231	0.159243
794	0.162037	0.000474	-0.000512	0.14971	0.162859
795	0.160065	-0.000512	-1.9e-05	0.15119	0.16401
796	0.167297	0.000803	-0.000183	0.15119	0.166639
797	0.166146	0.000146	0.000146	0.153326	0.165653
798	0.166475	0.001625	0.00031	0.152998	0.169926
799	0.163023	0.001132	0.00031	0.155299	0.171077
800	0.170748	-0.010045	0.000146	0.157435	0.170255
801	0.167297	0.001296	0.000474	0.154641	0.170748
802	0.173214	-1.9e-05	-0.000183	0.161215	0.170584
803	0.170419	0.002118	-0.000183	0.157764	0.172885
804	0.169433	0.001296	-0.000347	0.160722	0.1742
805	0.1742	0.001625	-0.000347	0.162037	0.175021
806	0.176008	-0.000841	-1.9e-05	0.165653	0.175186
807	0.176501	0.000967	-1.9e-05	0.167954	0.176994
808	0.175186	0.000967	0.00031	0.169105	0.176501
809	0.171241	0.001789	0.000146	0.159572	0.178309
810	0.175843	-0.000183	0.00031	0.099582	0.181267
811	0.169762	-0.005936	0.000474	0.002282	0.178637
812	0.140178	-0.000676	0.00031	-0.000183	0.179459
813	0.14478	0.000967	-1.9e-05	-1.9e-05	0.180938
814	0.143958	0.001954	-0.000183	0.000146	0.178473
815	0.147081	-0.000347	-0.000347	0.00031	0.183404
816	0.149546	0.002611	-0.000512	0.000474	0.183404
817	0.15119	-0.000347	-0.000183	0.00672	0.180445
818	0.153162	0.001789	-0.000183	0.010829	0.189649
819	0.15612	-0.000512	0.00031	0.024799	0.181596
820	0.155134	0.00031	0.00031	0.024635	0.185047
821	0.157107	0.000474	0.000146	0.035975	0.185212
822	0.158914	-0.004128	0.000639	0.045508	0.185705
823	0.160394	0.00031	0.00031	0.05011	0.185212
824	0.163516	0.003268	-0.000183	0.055863	0.181924
825	0.163023	-0.000841	-0.000347	0.060793	0.184061
826	0.16516	0.001954	-0.000512	0.066546	0.18817
827	0.167297	0.002611	-0.000512	0.070983	0.184883
828	0.170913	0.001296	-0.000347	0.076407	0.188499
829	0.167954	0.000474	-1.9e-05	0.078051	0.188992
830	0.170584	-1.9e-05	-1.9e-05	0.086597	0.190307
831	0.171077	-0.000183	0.00031	0.087912	0.189978
832	0.17157	0.002282	0.000146	0.094815	0.191457
833	0.174364	-0.000183	0.000474	0.097609	0.18932
834	0.176501	-0.001662	0.00031	0.10254	0.192936
835	0.178309	0.003268	-1.9e-05	0.102869	0.196223
836	0.177322	0.00031	-0.000183	0.110429	0.191786
837	0.176501	0.000474	-0.000347	0.111415	0.195402
838	0.17798	0.00146	-0.000347	0.114702	0.193429
839	0.180281	-0.000183	-0.000676	0.124071	0.192443
840	0.178966	-0.000183	-1.9e-05	0.119797	0.193101
841	0.183897	-1.9e-05	0.000146	0.122427	0.192608
842	0.180116	-1.9e-05	0.00031	0.119797	0.190142
843	0.179952	-0.000512	0.000474	0.098924	0.193101
844	0.181103	-0.000512	0.000474	0.00031	0.189814
845	0.184554	-0.000183	0.000474	0.003104	0.19195
846	0.182911	-1.9e-05	-1.9e-05	0.008857	0.168447
847	0.183732	0.000967	-1.9e-05	0.016581	0.168612
848	0.185376	0.000474	-0.000347	0.00146	0.13459
849	0.184061	0.00031	-0.000512	0.001954	0.136069
850	0.184554	-1.9e-05	-0.000512	0.008035	0.13311
851	0.187513	-0.000676	-0.000183	0.013459	0.138205
852	0.18554	0.000146	0.000146	0.018225	0.11914
853	0.190142	-0.001005	0.000474	0.022334	0.085283
854	0.187184	-0.000183	0.000474	0.027429	0.045837
855	0.189156	-0.000841	0.000474	0.038605	0.029237
856	0.187019	-0.000183	0.000474	0.038934	0.007542
857	0.187019	-0.000183	-1.9e-05	0.052411	-0.000347
858	0.193429	0.000639	-0.000183	0.055205	0.00409
859	0.190307	0.000639	-0.000347	0.057342	0.00294
860	0.18932	0.000803	-0.000347	0.065395	0.00294
861	0.188499	-0.000183	-0.000841	0.068682	0.000803
862	0.192608	-1.9e-05	-1.9e-05	0.073613	0.002447
863	0.18932	0.000146	-1.9e-05	0.079366	0.003926
864	0.192608	-0.000347	0.00031	0.085118	0.004255
865	0.189814	-1.9e-05	0.000474	0.087584	0.005405
866	0.189156	-0.000676	0.000474	0.0935	0.007542
867	0.189978	-0.000512	0.000474	0.096459	0.006391
868	0.191293	-0.000676	0.000146	0.095473	0.002447
869	0.191293	0.000639	-0.000347	0.103855	0.00672
870	0.190471	0.000146	0.000146	0.000146	0.001789
871	0.191128	0.00031	-0.000183	0.000474	0.004419
872	0.193101	-1.9e-05	-0.000183	0.000639	0.001789
873	0.195895	0.000146	-0.000183	0.000474	0.000803
874	0.194087	-0.000183	0.000474	0.000146	0.003104
875	0.194909	-0.000512	0.000803	-0.000512	0.002611
876	0.195895	-0.000512	0.001132	-0.000183	0.002447
877	0.193101	-0.000512	0.000474	0.00146	0.003597
878	0.191293	-0.000183	-0.000347	0.008199	0.001789
879	0.194416	-0.000183	-0.001827	0.012801	0.001625
880	0.196552	0.000803	0.00031	0.012965	0.003926
881	0.194087	0.000639	-1.9e-05	0.019211	0.001132
882	0.192772	0.000639	-0.000841	0.022498	0.004419
883	0.194087	-1.9e-05	-0.000676	0.032524	0.003268
884	0.194744	0.00031	-0.000347	0.036469	0.00672
885	0.194087	-0.000183	-1.9e-05	0.008363	0.000639
886	0.195402	-0.000676	0.00031	-0.000512	0.003926
887	0.193594	-0.000512	0.000474	-0.000347	-0.00232
888	0.193922	-0.000512	0.00031	-0.000512	0.009678
889	0.194087	-0.000347	0.000146	0.003433	0.015102
890	0.198689	0.00031	-1.9e-05	0.013623	0.023977
891	0.19458	0.000146	-0.000183	0.01954	0.031538
892	0.196552	0.000639	-0.000512	0.026936	0.039427
893	0.194251	0.000474	-0.000347	0.03236	0.044029
894	0.196059	0.000474	-0.000347	0.040577	0.050439
895	0.197374	0.000146	-0.000183	0.008857	0.057013
896	0.199018	-0.000347	0.000146	0.000146	0.0603
897	0.193101	-0.000512	0.000146	-0.000512	0.067203
898	0.196717	-0.000512	0.000146	-0.000841	0.072463
899	0.118976	-0.000512	0.00031	-0.000183	0.081667
900	0.090706	-0.000183	0.00031	-0.000512	0.083803
901	0.093007	0.00031	0.00031	0.000146	0.088077
902	0.090542	0.000146	-0.000347	0.000639	0.090378
903	0.09613	0.000639	-0.000512	0.00031	0.09991
904	0.102704	0.000474	-0.000512	0.000474	0.099253
905	0.105992	0.00031	-0.000676	0.00031	0.10254
906	0.112237	-1.9e-05	-1.9e-05	-1.9e-05	0.108128
907	0.116346	-0.000183	0.000146	0.000639	0.109772
908	0.115524	-0.000512	0.000146	-1.9e-05	0.113388
909	0.122098	-0.000347	0.000146	-0.000347	0.116346
910	0.124728	-0.000512	0.000474	-0.000347	0.119633
911	0.130645	-1.9e-05	0.00031	-0.000183	0.121605
912	0.129166	0.00031	-1.9e-05	0.000146	0.120948
913	0.132124	0.000146	-0.000347	0.001296	0.127029
914	0.134918	0.00031	-0.000347	0.000639	0.130809
915	0.132453	0.00031	-0.000347	0.006556	0.133932
916	0.134425	0.00031	-0.000512	0.011322	0.137877
917	0.138863	-1.9e-05	-1.9e-05	0.018389	0.143136
918	0.14593	-0.000183	-1.9e-05	0.028744	0.143465
919	0.140178	-0.000512	0.000474	0.031373	0.143465
920	0.146752	-0.000676	0.00031	0.037619	0.147081
921	0.149217	-0.000676	0.00031	0.045344	0.145108
922	0.150861	-0.000183	0.00031	0.048795	0.150368
923	0.154477	0.00031	0.000146	0.05652	0.148231
924	0.155299	0.000474	-0.000347	0.06556	0.152505
925	0.155792	0.00031	-0.000512	0.066381	0.15497
926	0.158914	0.000474	-0.000183	0.073778	0.155792
927	0.158586	0.00031	-0.000347	0.073942	0.156942
928	0.164831	-1.9e-05	-0.000512	0.079859	0.163516
929	0.165817	-1.9e-05	0.000146	0.087584	0.161215
930	0.162202	-0.000347	0.000474	0.08331	0.160229
931	0.164174	-0.000183	0.000146	0.065067	0.164996
932	0.164996	-0.000676	0.000639	0.067203	0.164338
933	0.166475	-0.000183	0.00031	0.072134	0.168283
934	0.169433	-1.9e-05	-1.9e-05	0.078215	0.164338
935	0.169762	0.000474	-0.000183	0.076079	0.169433
936	0.169105	0.00031	-0.000347	0.050439	0.172392
937	0.169598	0.000146	-0.000183	0.001132	0.17157
938	0.171899	0.00031	-0.000512	0.001132	0.171899
939	0.170584	-0.000183	-1.9e-05	0.001296	0.178802
940	0.162366	-0.000183	0.000146	-0.001169	0.174857
941	0.161544	-0.000512	0.00031	0.006884	0.176994
942	0.161051	-1.9e-05	0.00031	0.009185	0.176336
943	0.159736	-0.000347	0.000146	0.016746	0.176336
944	0.160229	-0.000347	0.00031	0.024142	0.177815
945	0.16401	0.000474	-1.9e-05	0.029566	0.176665
946	0.162202	0.000639	-0.000183	0.038276	0.180774
947	0.161051	0.000639	-0.000347	0.043371	0.180938
948	0.164338	0.000639	-0.000512	0.051754	0.182089
949	0.163516	0.00031	-0.000347	0.05652	0.179459
950	0.165653	-1.9e-05	-0.000183	0.060465	0.186198
951	0.16779	-0.000347	-1.9e-05	0.067203	0.181431
952	0.168447	-0.000347	0.000474	0.073449	0.183239
953	0.16894	-0.000347	0.000146	0.079366	0.183239
954	0.168776	-0.000512	0.000474	0.083146	0.185047
955	0.168283	-0.000183	0.00031	0.086269	0.183404
956	0.17535	0.000146	-0.000183	0.088898	0.18554
957	0.170091	0.00031	-0.000183	0.092514	0.185705
958	0.17798	0.000146	-0.000183	0.095637	0.187019
959	0.174035	0.000639	-0.000347	0.099253	0.187184
960	0.178473	0.000146	-0.000512	0.104348	0.187019
961	0.178802	0.000146	-0.000183	0.106156	0.197374
962	0.179623	-0.000347	-1.9e-05	0.110922	0.185705
963	0.18176	-0.000183	0.00031	0.114867	0.188006
964	0.177322	-0.000347	0.000474	-0.000347	0.187677
965	0.180116	-0.000512	0.000474	-0.000347	0.190635
966	0.17798	-0.000183	0.000474	-0.000183	0.185705
967	0.182582	0.000146	-0.000183	-1.9e-05	0.187841
968	0.178966	0.00031	-1.9e-05	0.000146	0.188827
969	0.184554	0.00031	-0.000183	0.000146	0.188006
970	0.181103	0.000639	-0.000183	0.000639	0.190635
971	0.183404	0.00031	-0.000512	0.000146	0.189814
972	0.186526	0.000146	-0.000183	-0.000676	0.194416
973	0.184554	-0.000183	-1.9e-05	0.005898	0.190471
974	0.185705	-0.000347	0.000474	0.009843	0.189814
975	0.186362	-0.000512	0.000474	0.010336	0.191128
976	0.19195	-0.000512	0.00031	0.017074	0.192279
977	0.191786	-0.000676	0.00031	0.021512	0.191293
978	0.192279	0.000146	0.000146	0.018225	0.194744
979	0.188006	0.00031	-0.000183	0.020362	0.193594
980	0.191786	0.000639	-0.000347	0.028579	0.197374
981	0.193758	0.000474	-0.000183	0.030223	0.192772
982	0.190471	0.000474	-0.000512	0.031702	0.194087
983	0.189978	-0.000183	-0.000183	0.021841	0.20362
984	0.192608	-0.000347	0.00031	0.023484	0.193594
985	0.189814	-0.000347	0.00031	0.028744	0.194087
986	0.190635	-0.000347	0.000474	0.028744	0.193101
987	0.188827	-0.000512	0.00031	0.036304	0.195895
988	0.190964	-0.000841	0.000474	0.040577	0.195895
989	0.184225	-0.000183	-1.9e-05	0.04107	0.189978
990	0.15234	0.000474	-0.000183	0.05011	0.194416
991	0.127851	0.000474	-0.000512	0.054383	0.194909
992	0.109607	0.000146	-0.000347	0.057671	0.193265
993	0.112894	0.00031	-0.000512	0.063423	0.197374
994	0.118483	-0.000183	-0.000183	0.065231	0.199511
995	0.122427	-0.000347	0.000146	0.067039	0.197374
996	0.123085	-0.000183	0.00031	0.069833	0.194416
997	0.126372	-0.000347	0.000146	0.065231	0.19573
998	0.12818	-0.000347	0.000474	0.058328	0.19458
999	0.133768	-0.000183	0.00031	0.022991	0.198689
1000	0.135411	0.00031	-1.9e-05	0.003104	0.192936
1001	0.137548	0.000146	-0.000183	0.011979	0.19721
1002	0.138534	0.000639	-0.000347	0.018225	0.194909
1003	0.141328	0.000146	-1.9e-05	0.02595	0.195566
1004	0.142972	0.000474	-0.000512	0.007377	0.195237
1005	0.145437	0.000146	-0.000512	0.011651	0.198524
1006	0.14593	0.000146	0.000146	0.02069	0.194416
1007	0.148889	-0.000512	0.00031	0.026771	0.195566
1008	0.151518	-0.000512	0.000146	0.033017	0.19573
1009	0.152505	-0.000512	0.00031	0.039098	0.196059
1010	0.153819	-0.000512	0.00031	0.04633	0.193922
1011	0.157271	-1.9e-05	-0.000183	0.045837	0.190471
1012	0.153655	-1.9e-05	-0.000183	0.055205	0.196059
1013	0.159572	0.000474	-0.000347	0.05915	0.195073
1014	0.159408	0.00031	-0.000183	0.061779	0.194909
1015	0.160558	0.000474	-0.000676	0.061779	0.194416
1016	0.164667	0.000146	-0.000183	0.063916	0.192772
1017	0.162366	-0.000183	-1.9e-05	0.062437	0.185212
1018	0.167132	-0.000183	0.00031	0.065395	0.194087
1019	0.167625	-0.000183	0.000474	0.063259	0.188992
1020	0.170255	-0.000676	0.00031	0.067696	0.190635
1021	0.170748	-0.000183	0.00031	0.069669	0.193265
1022	0.171734	0.000146	-0.000183	0.077393	0.190471
1023	0.171899	0.00031	-0.000183	0.076572	0.195073
1024	0.172392	0.00031	-0.000183	0.077558	0.194416
1025	0.173871	0.00031	-0.000512	0.077229	0.196059
1026	0.176829	0.00031	-0.000512	0.070326	0.195402
1027	0.179952	0.000146	-0.000183	0.064574	0.192279
1028	0.172063	-0.000347	-1.9e-05	0.05537	0.194744
1029	0.180774	-0.000512	0.000146	0.049453	0.197703
1030	0.178309	-0.000512	0.00031	0.024964	0.19573
1031	0.177815	-0.000347	0.00031	0.00294	0.196717
1032	0.177158	-0.000183	0.000474	-0.000512	0.197867
1033	0.180938	0.000146	0.000146	0.008035	0.196223
1034	0.179623	0.000474	-0.000183	0.01428	0.199018
1035	0.182582	0.000474	-0.000347	0.017896	0.197867
1036	0.183568	0.000639	-0.000512	0.025621	0.195073
1037	0.181431	0.00031	-0.000512	0.031702	0.195402
1038	0.186526	0.00031	-0.000183	0.039591	0.189814
1039	0.183568	-0.000183	0.000146	0.045179	0.190471
1040	0.182911	-0.000183	0.000146	0.053069	0.196059
1041	0.185212	-0.000512	0.000474	0.057342	0.195402
1042	0.185705	-0.000347	0.00031	0.061286	0.196717
1043	0.185047	-0.000183	0.000474	0.062766	0.197867
1044	0.186526	0.00031	0.000146	0.029566	0.196881
1045	0.184554	-0.000512	-0.000347	0.007049	0.197703
1046	0.186526	0.000474	-0.000347	0.015595	0.199675
1047	0.186033	0.000474	-0.000183	0.022663	0.198853
1048	0.187677	0.000146	-0.000347	0.027758	0.199018
1049	0.187841	0.000146	-0.000347	-0.001005	0.186362
1050	0.189156	-0.000183	-1.9e-05	0.008692	0.19573
1051	0.190307	-0.000183	0.000146	0.015102	0.196717
1052	0.189814	-0.000183	0.000474	0.021841	0.196552
1053	0.1908	-0.000347	0.000474	0.028579	0.196717
1054	0.191293	-0.000347	0.00031	0.036633	0.194909
1055	0.192608	0.000474	-1.9e-05	0.042057	0.193429
1056	0.191128	0.00031	-0.000183	0.047973	0.197703
1057	0.192115	0.000474	-0.000512	0.053397	0.199182
1058	0.19195	0.000146	-0.000183	0.059643	0.197703
1059	0.192279	0.000639	-0.000347	0.067039	0.197867
1060	0.187677	-0.000183	-0.000183	0.059314	0.186526
1061	0.190635	-0.000347	-0.000183	0.048795	0.196388
1062	0.188992	-0.000841	0.00031	0.048302	0.19573
1063	0.191128	-0.000347	0.000146	0.05537	0.199511
1064	0.191621	-0.000512	0.000474	0.055205	0.198031
1065	0.192936	-0.000512	0.00031	0.045508	0.198031
1066	0.194909	0.00031	-1.9e-05	0.049781	0.195566
1067	0.189978	0.000146	-0.000183	0.037783	0.197703
1068	0.191621	0.00031	-0.000183	0.026607	0.19573
1069	0.193101	0.00031	-0.000347	0.030223	0.196881
1070	0.194087	0.000639	-0.000512	0.034003	0.197045
1071	0.191128	0.000146	-0.000183	0.030552	0.188006
1072	0.191293	-1.9e-05	0.000146	0.030552	0.195073
1073	0.193101	-1.9e-05	0.00031	0.031373	0.193758
1074	0.19458	-0.000512	0.000474	0.039098	0.197867
1075	0.195073	-0.000512	0.00031	0.043536	0.193265
1076	0.195566	-0.000347	0.000639	0.045015	0.197703
1077	0.190471	0.000146	0.000146	0.047316	0.195566
1078	0.192115	0.00031	-0.000183	0.046166	0.201647
1079	0.192115	0.000474	-0.000512	0.049781	0.196059
1080	0.192279	0.000639	-0.000512	0.056849	0.201319
1081	0.191621	0.00031	-0.000347	0.061122	0.19721
1082	0.191786	-0.000183	-0.000183	0.061779	0.193922
1083	0.196223	-0.000183	0.000146	0.069504	0.200661
1084	0.197538	-0.000512	0.00031	0.068847	0.201647
1085	0.202305	-0.000512	0.000474	0.020197	0.199346
1086	0.191457	-0.000347	0.000474	0.029237	0.196881
1087	0.186855	-0.000183	0.000474	0.040906	0.199675
1088	0.178966	0.000146	0.000146	0.03992	0.195073
1089	0.170255	0.000474	-0.000183	0.048302	0.20099
1090	0.166639	0.000639	-0.000183	0.051754	0.204277
1091	0.168776	0.00031	-0.000512	0.061286	0.200661
1092	0.168776	0.00031	-0.000512	0.063752	0.19836
1093	0.169598	-0.000183	-0.000183	0.073613	0.190964
1094	0.170091	-0.000183	0.000146	0.077229	0.198853
1095	0.163352	-0.000512	0.00031	0.07575	0.199182
1096	0.120619	-0.000183	0.000146	0.082324	0.200168
1097	0.076079	-0.000347	0.000474	0.084954	0.199182
1098	0.061286	-0.000347	0.00031	0.089556	0.199675
1099	0.063916	-1.9e-05	-1.9e-05	0.091035	0.197045
1100	0.067532	0.000146	-0.000347	0.091528	0.20099
1101	0.073284	0.000803	-0.000512	0.098431	0.197867
1102	0.078544	0.000146	-0.000512	0.10139	0.201154
1103	0.080516	0.000146	-0.000512	0.103362	0.195402
1104	0.087419	0.000146	-0.000183	0.107799	0.196881
1105	0.090871	-0.000347	-1.9e-05	0.110265	0.196881
1106	0.102376	-0.000512	0.00031	0.114867	0.199675
1107	0.101883	-0.000347	0.000474	0.113223	0.197045
1108	0.104677	-0.000512	0.000474	0.112237	0.199346
1109	0.109772	-0.000347	0.000474	0.084296	0.197374
1110	0.113223	0.000146	-0.000183	0.068189	0.200004
1111	0.112237	0.00031	-0.000183	0.0603	0.200661
1112	0.11651	0.00031	-0.000347	0.064902	0.198853
1113	0.119633	0.00031	-0.000347	0.063423	0.199839
1114	0.121934	0.000474	-0.000347	0.067861	0.197045
1115	0.125057	-1.9e-05	-0.000183	0.071148	0.198853
1116	0.126043	-0.001005	0.00031	0.065067	0.199675
1117	0.134261	0.00031	-1.9e-05	0.02973	0.200661
1118	0.133603	-0.000512	0.000474	0.010664	0.196717
1119	0.136726	-0.000841	0.000474	0.001296	0.199182
1120	0.13837	-0.000183	0.000146	0.004419	0.196717
1121	0.141164	0.000146	-0.000183	0.00787	0.19836
1122	0.145273	0.000474	-1.9e-05	0.007049	0.199511
1123	0.147738	0.00031	-0.000347	0.011158	0.198196
1124	0.146095	0.000146	-0.000183	0.01576	0.196717
1125	0.150861	0.000967	-0.000183	0.021348	0.199182
1126	0.150697	0.000146	-0.000347	0.0271	0.198689
1127	0.149053	-0.000183	0.000146	0.035318	0.197538
1128	0.154312	-0.000183	0.000146	0.043207	0.19836
1129	0.155299	-0.000347	0.000474	0.049453	0.196717
1130	0.1576	-0.000676	0.00031	0.054383	0.199839
1131	0.159572	-0.000347	0.00031	0.054383	0.199018
1132	0.163188	-1.9e-05	0.000146	0.056684	0.199346
1133	0.16516	0.000146	-0.000347	0.050274	0.201154
1134	0.165324	0.000146	-0.000183	0.050603	0.201812
1135	0.166311	0.00031	-0.000347	0.000639	0.197374
1136	0.166968	0.00031	-0.000512	0.010829	0.199346
1137	0.16894	0.000639	-0.000183	0.018389	0.200004
1138	0.170913	-0.000183	-1.9e-05	0.021348	0.197867
1139	0.170748	-0.000347	0.00031	0.017896	0.197703
1140	0.173707	-0.000183	0.000474	0.016581	0.000146
1141	0.172063	-0.000347	0.000146	0.009514	-0.001991
1142	0.172392	-0.000347	0.00031	0.010829	0.002447
1143	0.177651	0.000146	-1.9e-05	0.00935	0.000146
1144	0.173871	0.000474	-0.000183	0.022005	0.008528
1145	0.175843	0.00031	-0.000347	0.022005	0.014445
1146	0.17535	0.000639	-0.000512	0.000474	0.022991
1147	0.177651	0.000474	-0.000347	0.00031	0.031373
1148	0.176665	0.000146	-0.000183	0.001296	0.038605
1149	0.17913	-0.000183	-1.9e-05	-0.000183	0.042714
1150	0.178473	-0.000512	0.00031	0.000803	0.049124
1151	0.180938	-0.000347	0.000474	-0.000512	0.057177
1152	0.179623	-0.000676	0.00031	0.002118	0.060136
1153	0.182417	-0.000347	0.00031	0.004255	0.069176
1154	0.179788	-1.9e-05	-0.000183	0.003433	0.07197
1155	0.182253	0.000146	-0.000183	0.003268	0.077886
1156	0.182746	0.000639	-0.000676	0.005076	0.083968
1157	0.183897	0.000474	-0.000347	0.010336	0.086762
1158	0.18439	0.00031	-0.000512	0.018225	0.0935
1159	0.186691	0.00031	-0.000347	0.02595	0.091692
1160	0.187184	-0.000183	-1.9e-05	0.030552	0.098924
1161	0.186198	-0.000347	0.000146	0.036469	0.102704
1162	0.186691	-0.000347	0.00031	0.039098	0.104348
1163	0.165982	-0.000512	0.000474	0.001132	0.108786
1164	0.163845	-0.000183	0.00031	-0.002155	0.114374
1165	0.160065	0.000146	0.000146	0.001954	0.117332
1166	0.163023	0.00031	-0.000183	0.003104	0.12292
1167	0.162037	0.00031	-0.000347	-0.002648	0.127029
1168	0.167625	0.000639	-0.000347	0.003926	0.124071
1169	0.167625	0.000474	-0.000512	0.00146	0.118647
1170	0.16894	0.000146	-0.000512	0.003104	0.100896
1171	0.168118	-1.9e-05	0.000146	0.007213	0.082817
1172	0.172063	-0.000183	0.00031	0.003268	0.087584
1173	0.173542	-0.000347	0.000146	0.004748	0.092021
1174	0.173871	-0.000676	0.000474	0.00409	0.092514
1175	0.174528	-0.000347	0.000146	0.004912	0.098102
1176	0.171406	-1.9e-05	-1.9e-05	0.003104	0.104512
1177	0.177487	0.00031	-0.000183	-0.000183	0.10632
1178	0.175843	0.000474	-0.000347	-1.9e-05	0.110429
1179	0.177158	0.000146	-0.000347	0.00672	0.114045
1180	0.177651	0.000474	-0.000347	0.002775	0.117332
1181	0.180938	0.000146	-0.000183	0.002611	0.122098
1182	0.181103	-0.000183	-1.9e-05	0.00672	0.122427
1183	0.181103	-0.000347	0.000146	0.001132	0.127851
1184	0.177158	-0.000347	0.00031	-0.000347	0.127029
1185	0.181103	-0.000676	0.000474	-0.000347	0.131302
1186	0.096623	-0.000183	0.000474	-0.001169	0.134918
1187	0.014445	-1.9e-05	0.000146	-1.9e-05	0.139356
1188	0.011651	-1.9e-05	-0.000347	0.000146	0.142479
1189	0.015431	0.000474	-0.000347	0.000474	0.141821
1190	0.020197	0.000474	-0.000347	-0.000183	0.144287
1191	0.025457	0.000474	-0.000512	0.001132	0.142807
1192	0.030223	0.000146	-0.000183	-1.9e-05	0.149053
1193	0.036304	-1.9e-05	0.000146	-0.001334	0.148231
1194	0.045837	-0.000183	0.000146	0.000803	0.155792
1195	0.052082	-0.000347	0.00031	0.002118	0.151847
1196	0.058492	-0.000512	0.000474	0.000639	0.153819
1197	0.0603	-0.000183	0.000639	0.001625	0.15497
1198	0.069176	-1.9e-05	0.00031	0.00146	0.160887
1199	0.074435	0.000146	-0.000183	0.002282	0.160229
1200	0.076243	0.000474	-0.000512	0.006556	0.160887
1201	0.078215	0.000474	-0.000512	0.008363	0.162859
1202	0.087748	0.00031	-0.000183	0.002775	0.166968
1203	0.091199	0.00031	-0.000183	0.00031	0.163681
1204	0.092514	-0.000183	0.000146	0.010993	0.168447
1205	0.102211	-0.000347	0.000146	0.000639	0.165324
1206	0.101883	-0.000512	0.00031	0.000146	0.17272
1207	0.106813	-0.000512	0.000146	-0.001005	0.17157
1208	0.109114	-0.000183	0.00031	0.00146	0.17157
1209	0.112566	0.000146	-1.9e-05	-1.9e-05	0.173214
1210	0.119469	0.000146	-0.000347	-1.9e-05	0.171899
1211	0.121934	0.00031	-0.000347	0.00031	0.173542
1212	0.122756	0.00031	-0.000183	0.000474	0.1742
1213	0.126372	0.000474	-0.000512	0.000639	0.175679
1214	0.126372	0.000146	-0.000347	0.000146	0.17535
1215	0.128344	-1.9e-05	-1.9e-05	-1.9e-05	0.179788
1216	0.13196	-0.000183	0.000146	-1.9e-05	0.176336
1217	0.12933	-0.000512	0.00031	-0.000347	0.181431
1218	0.126043	-0.000512	0.000146	-0.000512	0.180938
1219	0.126207	-0.000347	0.00031	-0.000512	0.180116
1220	0.126536	-1.9e-05	0.000146	0.000146	0.185047
1221	0.126043	0.000146	-0.000183	0.00031	0.183075
1222	0.125221	0.00031	-0.000347	0.002775	0.183239
1223	0.123249	0.00031	-0.000512	0.006391	0.185212
1224	0.110429	0.000474	-0.000512	0.003926	0.183239
1225	0.102869	0.000146	-0.000347	0.000639	0.185705
1226	0.095966	-0.000347	0.000146	-0.000183	0.187019
1227	0.083968	-0.000347	0.000146	-0.000183	0.184554
1228	0.0769	-0.000347	0.000474	-0.000183	0.187019
1229	0.068189	-0.000347	0.00031	-0.000347	0.187348
1230	0.054383	-0.000347	0.000474	-0.000676	0.188827
1231	0.049946	-0.000183	-1.9e-05	0.000146	0.187184
1232	0.04255	0.000474	-0.000183	0.000146	0.192443
1233	0.033181	0.00031	-0.000347	0.00031	0.187513
1234	0.021676	0.000474	-0.000347	0.00031	0.185705
1235	0.019704	0.00031	-0.000347	0.000474	0.189485
1236	0.020033	0.00031	-0.000512	0.00031	0.188006
1237	0.008528	-1.9e-05	-1.9e-05	-1.9e-05	0.190964
1238	0.009843	-0.000512	0.00031	0.000146	0.190142
1239	0.002611	-0.000512	0.000474	0.000803	0.19195
1240	0.00031	-0.000676	0.00031	-0.001005	0.192279
1241	0.006062	-1.9e-05	0.000146	0.000474	0.193101
1242	0.001296	0.000146	0.00031	0.000146	0.19573
1243	0.001789	0.000474	-0.000347	-1.9e-05	0.195566
1244	-0.000347	0.00031	-0.000347	0.00031	0.191786
1245	0.002611	0.00031	-0.000183	0.000474	0.19573
1246	0.002282	0.000146	-0.000512	0.000474	0.189156
1247	0.001625	0.000146	-0.000183	0.002118	0.19458
1248	-1.9e-05	-0.000347	-1.9e-05	0.000474	0.191293
1249	0.000474	-0.000676	0.00031	0.001296	0.192936
1250	-0.000183	-0.000183	0.000146	-0.000676	0.195402
1251	-0.000347	-0.000347	0.000474	0.000639	0.193101
1252	-1.9e-05	-1.9e-05	0.00031	-0.000183	0.193429
1253	0.000146	0.00031	-1.9e-05	0.00031	0.194744
1254	-0.000183	0.000474	-0.000183	0.000146	0.195402
1255	0.000474	0.000474	-0.000347	-1.9e-05	0.194251
1256	0.000474	0.000639	-0.000183	0.00031	0.195073
1257	0.002282	0.00031	-0.000183	-1.9e-05	0.193429
1258	0.000803	0.000146	-0.000347	0.00031	0.199018
1259	0.000474	-0.000183	-1.9e-05	-1.9e-05	0.195402
1260	0.000146	-0.000676	0.00031	-0.000347	0.197045
1261	0.000146	-0.000183	0.000474	-0.000512	0.19721
1262	-1.9e-05	-0.000676	0.000146	-0.000183	0.192936
1263	-0.000676	-0.000347	0.000639	-0.000512	0.196223
1264	0.00031	-0.000183	0.00031	0.000967	0.196388
1265	0.000146	-0.000183	-0.000183	0.00031	0.196552
1266	0.00031	0.000474	-0.000512	0.000474	0.194909
1267	0.000146	0.001296	-0.000512	0.00031	0.196552
1268	0.000146	0.00031	-0.000512	0.00031	0.197538
1269	0.000146	0.002447	-0.000347	0.00031	0.19573
1270	0.00031	0.000146	0.000146	-1.9e-05	0.196881
1271	-1.9e-05	0.000146	0.000146	-0.000183	0.195237
1272	-0.000512	0.00031	0.00031	-0.000512	0.19573
1273	-0.000183	0.000803	0.000474	-0.000512	0.194087
1274	-0.000512	0.002447	0.000474	-0.000347	0.194416
1275	-0.000183	-0.001005	0.000474	0.000146	0.198689
1276	0.00031	0.000146	-1.9e-05	0.000146	0.197703
1277	0.000639	0.000146	-0.000347	0.000146	0.199182
1278	0.000474	0.001132	-0.000512	0.00031	0.198524
1279	0.000803	-0.000676	-0.000512	0.000474	0.197045
1280	0.00031	0.000474	-0.000347	0.00031	0.197045
1281	0.000474	0.000146	0.000146	-1.9e-05	0.200168
1282	-1.9e-05	0.00031	0.000146	-0.000347	0.196388
1283	-0.000183	-0.001498	0.000146	-0.000347	0.193594
1284	-0.000183	0.001296	0.00031	-0.000347	0.193101
1285	-0.000512	0.000146	0.000639	-0.000183	0.195073
1286	-0.000347	0.000474	0.000146	-0.000183	0.197867
1287	-0.000183	0.001625	-0.000183	-1.9e-05	0.196717
1288	0.00031	-0.000676	-0.000347	0.000146	0.199511
1289	0.00031	0.000803	-0.000512	0.000639	0.19458
1290	0.000639	0.000146	-0.000676	0.00031	0.196717
1291	0.000474	0.000146	-0.000183	0.00031	0.197538
1292	0.00031	-0.000347	0.000146	-1.9e-05	0.19836
1293	0.000146	-0.000347	0.000146	-0.000183	0.192115
1294	-0.000183	-0.000676	0.00031	-0.000347	0.196881
1295	-0.000347	-0.000347	0.000474	-0.000512	0.197374
1296	-0.000183	-0.000183	0.000474	-0.000512	0.195566
1297	-0.000512	-1.9e-05	0.000146	-0.000183	0.198524
1298	0.000474	0.00031	-0.000183	0.00031	0.198196
1299	0.000146	0.00031	-0.000347	0.000146	0.198196
1300	0.00031	0.000474	-0.000512	0.000474	0.199839
1301	0.00031	0.000474	-0.000676	0.00031	0.196717
1302	0.000474	0.00031	-0.000183	0.000474	0.198196
1303	-1.9e-05	0.000474	-1.9e-05	0.000146	0.197703
1304	-1.9e-05	-0.000183	0.000146	0.000146	0.198196
1305	-0.000347	0.000146	0.000474	-0.000183	0.197045
1306	-0.000512	-0.000512	0.00031	-0.000347	0.194744
1307	-0.000512	-1.9e-05	0.000474	-0.000183	0.193265
1308	-0.000512	0.000146	-1.9e-05	-1.9e-05	0.196881
1309	-1.9e-05	0.000639	-0.000183	0.00031	0.20099
1310	0.000146	0.000474	-0.000347	0.00031	0.195402
1311	0.000146	0.000639	-0.000512	0.000474	0.199511
1312	0.000146	0.000803	-0.000512	0.000474	0.200825
1313	0.00031	-0.001169	-1.9e-05	0.000474	0.199511
1314	0.000146	0.000146	-1.9e-05	-0.000183	0.199675
1315	0.000146	-0.000512	0.00031	-0.000183	0.198196
1316	-0.000347	-1.9e-05	0.000474	-0.000347	0.197703
1317	-0.000183	-1.9e-05	0.00031	-0.000676	0.19836
1318	-0.000347	-0.001005	0.00031	-0.000676	0.202305
1319	-0.000512	0.000146	0.000146	-0.000183	0.199346
1320	-1.9e-05	0.001296	-1.9e-05	-1.9e-05	0.201812
1321	0.00031	0.000803	-0.000347	0.00031	0.196059
1322	0.00031	0.000967	-0.000347	0.000146	0.196388
1323	0.00031	0.001132	-0.000676	0.00031	0.195237
1324	0.000474	0.005898	-0.000347	0.00031	0.196881
1325	0.000146	0.018389	-1.9e-05	-0.000183	0.196552
1326	-0.000183	0.023484	0.000146	0.000146	0.194744
1327	-0.000183	0.030387	0.00031	-0.000347	0.197703
1328	-0.000347	0.036797	0.00031	-0.000512	0.197045
1329	-0.000512	0.041564	0.000474	-0.000512	0.19573
1330	-0.000347	0.0437	0.00031	-0.000183	0.199675
1331	-1.9e-05	0.052411	-0.000183	0.000146	0.193758
1332	-1.9e-05	0.056684	-0.000347	0.00031	0.188663
1333	0.000474	0.0603	-0.000841	0.00031	0.189814
1334	0.000146	0.066381	-0.000512	0.000146	0.187513
1335	0.000146	0.066381	-0.000183	0.000474	0.189814
1336	0.000146	0.077393	0.000146	-1.9e-05	0.190307
1337	-0.000347	0.078708	0.00031	-1.9e-05	0.191786
1338	-0.000512	0.080187	0.00031	-0.000512	0.188827
1339	-0.000347	0.086762	0.000146	-0.000512	0.190471
1340	-0.000512	0.094815	0.000474	-0.000841	0.188663
1341	-0.000512	0.095144	0.000146	-1.9e-05	0.192443
1342	-1.9e-05	0.101061	-1.9e-05	0.000146	0.190964
1343	0.000146	0.100568	-0.000347	0.00031	0.189814
1344	0.000146	0.107635	-0.000183	0.00031	0.19458
1345	0.00031	0.105005	-0.000347	0.000474	0.194251
1346	0.000474	0.112566	-0.000347	0.000146	0.193101
1347	0.000146	0.11273	-1.9e-05	-1.9e-05	0.195073
1348	-1.9e-05	0.11536	0.00031	-0.000183	0.196223
1349	-0.000347	0.115031	0.000474	-0.000347	0.192443
1350	-0.000347	0.114045	0.00031	-0.000512	0.195895
1351	-0.000347	0.115689	0.00031	-0.000676	0.193922
1352	-0.000183	0.111744	-1.9e-05	-0.000183	0.197045
1353	-1.9e-05	0.117825	-0.000183	0.000146	0.195073
1354	0.00031	0.11536	-0.000183	0.000146	0.189156
1355	0.00031	0.117496	-0.000512	0.00031	0.164831
1356	0.000474	0.119304	-0.000512	0.000639	0.166968
1357	0.00031	0.120126	-0.000347	0.000474	0.161215
1358	0.000146	0.120948	0.000146	-1.9e-05	0.167625
1359	-1.9e-05	0.128344	0.00031	-0.000183	0.169926
1360	-0.000512	0.121112	0.000146	-0.000183	0.165324
1361	-0.000347	0.121112	0.00031	-0.000512	0.170584
1362	-0.000841	0.016253	0.000474	-0.000676	0.173214
1363	-0.000347	0.019704	-1.9e-05	-1.9e-05	0.178144
1364	0.000146	0.028415	-0.000183	0.00031	0.176994
1365	0.00031	0.034003	-0.000512	0.00031	0.175186
1366	0.000146	0.039591	-0.000347	0.000474	0.172556
1367	0.00031	0.044851	-0.000512	0.000474	0.183568
1368	0.000474	0.037783	-0.000183	0.00031	0.176994
1369	0.000146	0.00031	0.000146	-1.9e-05	0.177651
1370	-0.000347	0.008692	-1.9e-05	-0.000347	0.176665
1371	-0.000183	0.003761	0.00031	-0.000183	0.175186
1372	-0.000347	0.010336	0.000474	-0.000512	0.145602
1373	-0.000676	0.016581	0.00031	-0.000347	0.149875
1374	-0.000183	0.02447	0.00031	-1.9e-05	0.152669
1375	-0.000183	0.032524	-1.9e-05	0.00031	0.154641
1376	0.000146	0.037455	-0.000347	0.000474	0.156778
1377	0.00031	0.044193	-0.000347	0.000474	0.157435
1378	0.00031	0.048631	-0.000347	0.000474	0.161709
1379	0.00031	0.051096	-0.000183	0.000146	0.160065
1380	0.00031	0.053726	0.000146	-1.9e-05	0.166311
1381	-1.9e-05	0.063587	0.000146	-0.000183	0.165817
1382	-0.000347	0.064902	0.000146	-0.000512	0.169433
1383	-0.000347	0.067039	0.000146	-0.000512	0.16516
1384	-0.000512	0.075257	0.00031	-0.000512	0.168447
1385	-0.000347	0.075257	0.000146	-0.000183	0.168776
1386	0.000146	0.0769	-0.000183	0.000146	0.171899
1387	-1.9e-05	0.082817	-0.000347	0.00031	0.170584
1388	0.00031	0.086597	-0.000347	0.000474	0.174857
1389	0.00031	0.089556	-0.000676	0.00031	0.173049
1390	0.00031	0.086104	-0.000512	0.000146	0.17272
1391	0.00031	0.093993	-0.000183	-0.000183	0.176336
1392	-1.9e-05	0.097445	0.000146	-0.000183	0.175186
1393	-0.000183	0.097938	0.000146	-0.000347	0.177487
1394	-0.000512	0.100239	0.00031	-0.000512	0.181596
1395	-0.000347	0.102704	0.000639	-0.000183	0.181596
1396	-0.000183	0.104184	0.000146	0.000146	0.179952
1397	-1.9e-05	0.103362	-0.000183	0.000146	0.183568
1398	0.000146	0.108293	-1.9e-05	0.000474	0.181267
1399	0.00031	0.111251	-0.000512	0.00031	0.183404
1400	0.00031	0.114209	-0.000512	0.00031	0.184554
1401	0.00031	0.11651	-0.000347	0.000474	0.183239
1402	0.00031	0.118976	-1.9e-05	-0.000183	0.184225
1403	-1.9e-05	0.120126	0.000146	-0.000347	0.185047
1404	-0.000183	0.128015	0.000474	-0.000512	0.18439
1405	-0.000183	0.123249	0.000474	-0.000183	0.184718
1406	-0.000512	0.128837	0.000474	-1.9e-05	0.187677
1407	-0.000183	0.131467	-1.9e-05	-0.000183	0.184883
1408	-1.9e-05	0.130974	-1.9e-05	0.00031	0.186526
1409	0.000146	0.132289	-0.000512	0.000146	0.186033
1410	0.000146	0.135411	-0.000183	0.000146	0.189814
1411	0.00031	0.139192	-0.000183	0.00031	0.188827
1412	0.000474	0.138534	-0.000347	0.000474	0.191293
1413	0.000474	0.143465	-1.9e-05	-1.9e-05	0.1908
1414	-0.000183	0.143794	0.000146	-0.000183	0.18817
1415	-0.000347	0.143301	0.000474	-0.000347	0.189649
1416	-0.000183	0.144451	0.00031	-0.000512	0.192115
1417	-0.000183	0.147409	0.00031	-0.000183	0.189649
1418	-0.000347	0.146423	0.000146	-0.000183	0.192115
1419	-1.9e-05	0.147574	-0.000183	0.000146	0.189485
1420	0.00031	0.147409	-0.000347	0.000474	0.191457
1421	0.000146	0.149382	-0.000512	0.000474	0.187677
1422	0.000474	0.15119	-0.000183	0.00031	0.189485
1423	0.00031	0.150039	0.000803	0.00031	0.194744
1424	0.000474	0.153326	0.00031	-1.9e-05	0.190307
1425	-1.9e-05	0.153984	0.000474	-0.000183	0.193101
1426	-0.000347	0.156613	0.000474	-0.000347	0.191621
1427	-0.000512	0.154806	-0.001169	-0.000512	0.192936
1428	-0.000512	0.156613	0.001789	-0.000183	0.192443
1429	-0.000183	0.155463	0.000146	-1.9e-05	0.195566
1430	-1.9e-05	0.155299	0.00031	0.000146	0.192936
1431	0.000474	0.154641	-0.000183	0.000474	0.194251
1432	0.000474	0.158257	-0.000183	0.000474	0.195402
1433	0.000474	0.158257	-0.000347	0.000474	0.19458
1434	0.000474	0.157928	0.000146	0.00031	0.192443
1435	0.00031	0.160887	0.000474	0.000146	0.195895
1436	-0.000183	0.161215	0.000146	-0.000183	0.193594
1437	-0.000183	0.159736	0.000146	-0.000512	0.195402
1438	-0.000347	0.159243	0.000474	-0.000512	0.195895
1439	-0.000512	0.16516	0.001296	-0.000183	0.193265
1440	-0.000512	0.162859	0.00031	-1.9e-05	0.194909
1441	-0.000183	0.162366	0.001789	0.000146	0.193594
1442	0.000146	0.161873	0.000967	0.000474	0.196717
1443	0.000474	0.165653	-1.9e-05	0.000474	0.193758
1444	0.00031	0.163023	-0.001498	0.00031	0.198196
1445	0.000474	0.16253	0.002118	0.000474	0.192115
1446	0.000146	0.165489	0.000967	-0.000183	0.196552
1447	-0.000183	0.164174	0.000474	-0.000183	0.193429
1448	-0.000512	0.163188	0.003926	-0.000347	0.195237
1449	-0.000183	0.169433	0.001296	-0.000676	0.194744
1450	-0.000512	0.165489	0.000474	-0.000512	0.193101
1451	-0.000512	0.166968	0.000474	-1.9e-05	0.196717
1452	-1.9e-05	0.166804	-0.000347	0.000146	0.196223
1453	0.00031	0.167297	0.000639	0.000474	0.196223
1454	0.00031	0.170091	-0.000183	0.000474	0.19573
1455	0.000474	0.166968	-0.000841	0.00031	0.199018
1456	0.00031	0.168283	0.000639	0.00031	0.196881
1457	0.000146	0.167625	0.000146	-1.9e-05	0.198031
1458	-0.000183	0.168776	0.000474	-0.000183	0.194416
1459	-0.000347	0.169598	0.000146	-0.000512	0.196059
1460	-0.000347	0.168776	0.000474	-0.000512	0.196223
1461	-0.000347	0.166475	0.00031	-0.000512	0.195566
1462	-0.000512	0.17157	0.000803	-0.000183	0.195566
1463	0.000146	0.167461	-0.000347	0.000146	0.197374
1464	-1.9e-05	0.170748	0.000146	0.000146	0.196223
1465	0.000474	0.171077	-0.000183	0.000474	0.193922
1466	0.00031	0.170255	-0.000347	0.000474	0.193922
1467	0.00031	0.171406	-0.000183	0.00031	0.194909
1468	0.000146	0.172556	-1.9e-05	0.000146	0.194251
1469	-0.000183	0.173542	0.000146	-0.000347	0.194087
1470	-1.9e-05	0.171077	0.000474	-0.000347	0.193594
1471	-0.000347	0.1742	0.000474	-0.000183	0.194744
1472	-0.000676	0.169598	0.000474	-0.000841	0.19573
1473	-0.000347	0.170584	0.00031	-0.000183	0.193758
1474	-1.9e-05	0.171077	-1.9e-05	0.000146	0.198689
1475	-1.9e-05	0.172556	-0.000183	0.000474	0.198031
1476	-1.9e-05	0.171077	-0.000676	0.00031	0.201319
1477	0.00031	0.173378	-0.000347	0.00031	0.196388
1478	0.000474	0.169598	-0.000183	0.00031	0.197538
1479	0.000474	0.171077	-1.9e-05	0.000146	0.194087
1480	-0.000183	0.168776	0.000146	-1.9e-05	0.19836
1481	-0.000347	0.169926	0.00031	-0.000347	0.19573
1482	-0.000512	0.173707	0.00031	-0.000347	0.194744
1483	-0.000512	0.171734	0.000639	-0.000676	0.199018
1484	-0.000347	0.169926	0.000146	-0.000183	0.19573
1485	-0.000183	0.172885	-0.000183	-1.9e-05	0.197703
1486	0.000146	0.175843	-0.000183	0.000146	0.197045
1487	0.00031	0.176008	-0.000512	0.00031	0.197538
1488	0.00031	0.177651	-0.000676	0.00031	0.197538
1489	0.000474	0.172885	-0.000347	0.000474	0.198689
1490	0.000474	0.173378	0.000146	-1.9e-05	0.198524
1491	-1.9e-05	0.178144	-1.9e-05	-0.000183	0.199839
1492	-0.000347	0.1742	0.000474	-0.000512	0.197374
1493	-0.000183	0.171899	0.00031	-0.000347	0.200497
1494	-0.000512	0.176665	0.00031	-0.000841	0.199346
1495	-0.000512	0.170091	0.000146	-0.000183	0.19573
1496	-1.9e-05	0.173049	-1.9e-05	0.000146	0.193758
1497	0.000146	0.173049	-0.000183	0.00031	0.197867
1498	0.00031	0.173049	-0.000347	0.000474	0.191621
1499	0.00031	0.174528	-0.000183	0.00031	0.194744
1500	0.000474	0.174364	-0.000676	0.00031	0.19836
1501	0.000146	0.175515	-1.9e-05	-1.9e-05	0.196717
1502	-0.000183	0.174528	0.00031	-0.000183	0.197045
1503	-0.000183	0.177322	0.000474	-0.000347	0.194909
1504	-0.000347	0.173378	0.00031	-0.000512	0.196552
1505	-0.000183	0.178144	0.000474	-0.000676	0.199511
1506	-0.000183	0.173871	0.00031	-0.000183	0.20099
1507	-1.9e-05	0.176336	-1.9e-05	-1.9e-05	0.193594
1508	0.000146	0.17798	-0.000347	0.000146	0.20099
1509	0.000146	0.176336	-0.000183	0.00031	0.197867
1510	0.00031	0.175679	-0.000512	0.00031	0.199346
1511	0.00031	0.176501	-0.000347	0.000146	0.199675
1512	0.000474	0.175021	-1.9e-05	0.00031	0.197703
1513	-0.000183	0.1742	0.00031	-0.000183	0.197045
1514	-0.000183	0.17535	0.000474	-0.000183	0.19458
1515	-0.000347	0.172392	0.000474	-0.000676	0.197867
1516	-0.000347	0.175186	0.000639	-0.000512	0.196881
1517	-0.000347	0.175021	0.00031	-0.000347	0.194416
1518	-1.9e-05	0.1742	0.000146	0.000146	0.193265
1519	0.000146	0.175679	-0.000347	0.00031	0.196881
1520	0.000146	0.175186	-0.000676	0.000474	0.195237
1521	0.00031	0.175021	-0.000347	0.000474	0.197374
1522	0.00031	0.176665	-0.000512	0.00031	0.196059
1523	0.00031	0.175679	0.000146	0.000146	0.198196
1524	-0.000183	0.176665	0.000146	-0.000183	0.196059
1525	-0.000183	0.1742	0.00031	-0.000676	0.199511
1526	-0.000347	0.174528	0.000474	-0.000676	0.197374
1527	-0.000347	0.174857	0.000146	-0.000347	0.198524
1528	-0.000183	0.172556	0.00031	-0.000183	0.19721
1529	-0.000183	0.173049	-0.000183	0.000146	0.1908
1530	0.000146	0.170091	-0.000183	0.000146	0.195895
1531	0.000474	0.172227	-0.000183	0.000146	0.185376
1532	0.00031	0.16894	-0.000183	0.00031	0.183568
1533	0.000474	0.17272	-0.000347	0.000639	0.186691
1534	0.000146	0.172885	0.000146	0.000146	0.18932
1535	-0.000183	0.173707	0.00031	-1.9e-05	0.183897
1536	-0.000183	0.173871	0.00031	-0.000183	0.185376
1537	-0.000347	0.171077	0.000474	-0.000512	0.186362
1538	-0.000347	0.175679	0.000474	-0.000347	0.188499
1539	-0.000347	0.175843	0.000146	-0.000183	0.184225
1540	-1.9e-05	0.171406	-0.000183	0.000146	0.186033
1541	0.000146	0.169926	-0.000347	0.000146	0.190307
1542	0.00031	0.173707	-0.000347	0.000474	0.188334
1543	0.000146	0.17157	-0.000183	0.000474	0.190142
1544	0.000474	0.164503	-0.000183	0.00031	0.184061
1545	0.000146	0.162202	-1.9e-05	-1.9e-05	0.149217
1546	-1.9e-05	0.1576	0.000146	-0.000183	0.141493
1547	-1.9e-05	0.151847	0.00031	-0.000512	0.147903
1548	-0.000347	0.148724	0.000474	-0.000183	0.149546
1549	-0.000183	0.146095	0.000474	-0.000347	0.150697
1550	-0.000347	0.117825	0.00031	-0.000512	0.152669
1551	0.000146	0.065395	-0.000183	0.000146	0.152669
1552	0.00031	0.000474	-0.000183	0.000474	0.152998
1553	0.00031	0.000639	-0.000512	0.000146	0.156942
1554	0.00031	0.000474	-0.000183	0.00031	0.15234
1555	0.00031	0.00031	-0.000183	0.00031	0.156778
1556	-1.9e-05	-1.9e-05	-1.9e-05	-0.000183	0.154312
1557	-0.000183	-0.000183	0.00031	-1.9e-05	0.152998
1558	-0.000183	-0.000512	0.00031	-0.000183	0.156285
1559	-0.000347	-0.000512	0.00031	-0.000347	0.158914
1560	-0.000512	-0.000347	0.000474	-0.000512	0.159736
1561	-0.000183	-1.9e-05	0.000146	-0.000347	0.158586
1562	-1.9e-05	0.00031	-0.000512	-1.9e-05	0.161051
1563	0.000146	0.000146	0.00031	0.000146	0.162859
1564	0.00031	0.000474	-0.00232	0.000146	0.161873
1565	0.00031	0.00031	0.005734	0.000146	0.162859
1566	0.00031	0.000146	0.007542	0.000474	0.162859
1567	0.00031	-0.000183	0.011815	-1.9e-05	0.164338
1568	-1.9e-05	-0.000347	0.01954	-0.000183	0.165489
1569	-1.9e-05	-0.000512	0.022663	-0.000183	0.163023
1570	-0.000347	-0.000347	0.031373	-0.000347	0.167625
1571	-0.000512	-0.000183	0.036469	-0.000512	0.16253
1572	-0.000676	0.000146	0.038605	-0.000183	0.159408
1573	-0.000183	0.00031	0.043207	0.000146	0.160558
1574	0.00031	0.00031	0.045672	-1.9e-05	0.163023
1575	0.00031	0.000474	0.046659	0.000474	0.163188
1576	0.000474	0.000474	0.050603	0.000146	0.165489
1577	0.000474	0.000146	0.052411	0.00031	0.167954
1578	0.000146	-1.9e-05	0.053397	-1.9e-05	0.168118
1579	0.000146	-0.000347	0.055041	-0.000347	0.169762
1580	-0.000183	-0.000512	0.051261	-1.9e-05	0.170419
1581	-0.000512	-0.000512	0.048302	-0.000512	0.170913
1582	-0.000512	-0.000347	0.050603	-0.000347	0.170913
1583	-0.000512	0.000146	0.048631	-0.000183	0.175186
1584	0.000146	0.000146	0.047973	0.000146	0.166146
1585	0.000146	0.000474	0.012637	0.000803	0.173707
1586	0.000146	0.00031	0.001296	-0.000183	0.172556
1587	0.00031	0.000474	-0.000183	0.001789	0.173542
1588	0.000146	0.00031	-0.000347	0.00031	0.174364
1589	0.000146	-0.000183	-0.000183	0.000474	0.17535
1590	0.000146	-0.000347	0.000474	-0.000183	0.173214
1591	-0.000183	-0.000347	0.000639	0.000639	0.177322
1592	-0.000512	-0.000512	0.00031	-0.000183	0.178144
1593	-0.000347	-0.000183	0.000474	-0.000183	0.177815
1594	-0.000512	-0.000183	0.001132	-0.001169	0.176829
1595	-1.9e-05	-1.9e-05	0.000146	0.000146	0.179295
1596	0.000146	0.00031	-0.000347	0.000474	0.182253
1597	0.000146	0.000146	-0.000347	-0.000512	0.184554
1598	0.000474	0.000474	-0.000512	0.000146	0.184718
1599	0.000474	0.000146	-0.000676	0.00031	0.183568
1600	0.00031	-0.000183	0.005405	-1.9e-05	0.185212
1601	-0.000347	0.000146	0.000474	-1.9e-05	0.182911
1602	-0.000183	-0.000347	0.00031	-0.000183	0.182746
1603	-0.000512	-0.000347	0.000639	-0.000347	0.185376
1604	-0.000512	-0.000183	0.000146	-0.000347	0.182582
1605	-0.000512	0.001132	0.001625	-0.000841	0.183075
1606	-1.9e-05	-0.000512	0.003761	0.00031	0.183239
1607	0.00031	0.001296	0.00294	0.000474	0.185869
1608	0.000146	0.002118	0.010336	0.00031	0.185376
1609	0.00031	0.003104	0.008035	0.000803	0.186198
1610	0.000474	0.002282	0.008035	0.000474	0.184554
1611	0.00031	0.001954	0.001625	-1.9e-05	0.180774
1612	-1.9e-05	0.000803	-0.000347	-0.000512	0.18061
1613	-0.000183	0.001132	0.00031	0.000146	0.183732
1614	-0.000347	0.002118	0.000474	0.000474	0.181103
1615	-0.000512	0.000639	0.00031	-0.000512	0.185047
1616	-0.000676	0.00294	0.000639	-0.000347	0.189814
1617	-1.9e-05	0.000639	-0.000347	0.000146	0.185212
1618	0.000146	0.002282	-1.9e-05	0.000803	0.186362
1619	0.00031	0.005734	-0.000183	0.00031	0.184718
1620	0.00031	0.001789	-0.000512	0.00031	0.183897
1621	0.000474	0.00031	-0.000512	0.000474	0.18439
1622	0.000146	0.002447	0.000146	-1.9e-05	0.186362
1623	-1.9e-05	0.003761	0.000967	-1.9e-05	0.185869
1624	-0.000347	0.011486	0.001954	-0.000347	0.191621
1625	-0.000347	0.007706	0.00146	-0.000512	0.186855
1626	-0.000347	0.007377	0.000474	-0.000183	0.187841
1627	-0.000512	0.008363	0.000474	-0.000347	0.18932
1628	-1.9e-05	0.010829	-1.9e-05	-1.9e-05	0.188334
1629	0.000146	0.021512	-0.000183	0.00031	0.189814
1630	0.000474	0.024799	-0.000512	0.00031	0.19195
1631	0.000474	0.031702	-0.000347	0.00031	0.191621
1632	0.000474	0.035975	-0.000347	0.000146	0.191786
1633	0.00031	0.037126	-1.9e-05	-1.9e-05	0.19458
1634	-1.9e-05	0.044193	0.000146	-0.000347	0.190471
1635	-0.000512	0.04633	0.00031	-0.000512	0.190307
1636	-0.000512	0.05011	0.000474	-0.000512	0.190635
1637	-0.000676	0.052904	0.00031	-0.000512	0.191293
1638	-0.000183	0.05274	-1.9e-05	-0.000347	0.192279
1639	-1.9e-05	0.053233	-0.000183	0.00031	0.189485
1640	0.00031	0.058328	-0.000183	0.000146	0.191621
1641	0.000146	0.059314	-0.000347	0.00031	0.192936
1642	0.000474	0.061451	-0.000512	0.000474	0.191128
1643	0.000474	0.060629	-0.000347	0.000474	0.195895
1644	0.00031	0.067368	0.000146	-1.9e-05	0.192115
1645	-1.9e-05	0.061286	0.00031	-0.000183	0.193594
1646	-0.000347	0.067696	0.000474	-0.000183	0.192443
1647	-0.000512	0.067039	0.00031	-0.000512	0.197538
1648	-0.000347	0.072463	0.000639	-0.000347	0.195402
1649	-0.000347	0.067039	0.00031	-0.000347	0.197374
1650	0.000146	0.071312	-0.000183	-1.9e-05	0.195073
1651	0.000146	0.070819	-0.000347	0.000146	0.197045
1652	0.000146	0.074435	-0.000347	0.00031	0.200661
1653	0.000474	0.069504	-0.000347	0.000474	0.195073
1654	0.000474	0.072298	-0.000512	0.00031	0.196881
1655	0.000146	0.076079	0.000146	-1.9e-05	0.195895
1656	-1.9e-05	0.077065	0.000146	-0.000347	0.195402
1657	-0.000183	0.050439	0.000474	-0.000347	0.192936
1658	-0.000347	0.039263	0.000474	-0.000512	0.194909
1659	-0.000512	0.045344	0.00031	-0.000512	0.193594
1660	-0.000347	0.0437	0.000146	-0.000183	0.195073
1661	-1.9e-05	0.047152	-1.9e-05	0.00031	0.190964
1662	-1.9e-05	0.049617	-0.000183	0.000146	0.191128
1663	0.00031	0.050439	-0.000347	0.000474	0.182089
1664	0.000474	0.049124	-0.000347	0.00031	0.17798
1665	0.00031	0.050439	-0.000347	0.000146	0.177815
1666	0.000146	0.049288	-1.9e-05	-1.9e-05	0.180281
1667	-1.9e-05	0.035647	0.00031	-0.000512	0.174693
1668	-0.000512	0.018882	0.000146	-0.000347	0.170748
1669	-0.000347	0.017896	0.000474	-0.000347	0.16894
1670	-0.000676	0.022498	0.000474	-0.000347	0.00031
1671	-0.000512	0.020526	0.000146	-0.000347	-0.000183
1672	0.000146	0.025621	0.000146	0.000146	0.000639
1673	0.000146	0.016417	-0.000183	0.000146	-0.000183
1674	0.00031	0.013787	-0.000183	0.00031	-0.000347
1675	0.00031	0.000146	-0.000512	0.00031	-0.000183
1676	0.00031	0.001296	-0.000347	0.000474	-0.000676
1677	0.000146	0.000803	-1.9e-05	0.000146	-0.000183
1678	-1.9e-05	0.000146	0.000146	-0.000183	-1.9e-05
1679	-0.000183	-0.001005	0.000474	-0.000512	0.001132
1680	-0.000347	0.00031	0.00031	-0.000347	0.002118
1681	-0.000512	0.000146	0.000474	-0.000347	0.002282
1682	-0.000347	0.00031	0.00031	-0.000183	0.000639
1683	-1.9e-05	0.00031	-0.000183	0.000146	0.00294
1684	-1.9e-05	0.000474	-0.000347	0.00031	0.015595
1685	0.000474	-0.000676	-0.000676	0.00031	0.024142
1686	0.000474	-0.000183	-0.001005	0.00031	0.029401
1687	0.000474	-1.9e-05	0.001296	0.000639	0.031867
1688	0.000146	0.000146	0.000146	-1.9e-05	0.042057
1689	-1.9e-05	-0.001498	0.002118	-0.000183	0.042221
1690	-0.000183	-0.000183	0.000146	-0.000347	0.051096
1691	-0.000512	0.000474	0.002282	-0.000676	0.056684
1692	-0.000347	-0.000347	0.002118	-0.000676	0.062437
1693	-0.000183	0.002447	0.003926	-0.000183	0.065888
1694	-0.000183	0.000803	0.001954	-1.9e-05	0.070983
1695	0.000146	0.001296	0.000474	-1.9e-05	0.078051
1696	0.000146	0.000146	0.000146	0.00031	0.081667
1697	0.00031	0.001296	-0.000512	0.000146	0.088241
1698	0.000474	0.000967	0.000474	0.000474	0.092021
1699	0.000146	-0.000841	-1.9e-05	0.000146	0.094651
1700	-0.000183	-1.9e-05	0.00031	-1.9e-05	0.099089
1701	-0.000347	0.002282	0.000146	-0.000347	0.104841
1702	-0.000347	0.000146	0.000474	-0.000512	0.10895
1703	-0.000347	-0.001005	0.001954	-0.000512	0.114045
1704	-0.000676	0.00146	0.001625	-0.000347	0.115524
1705	-1.9e-05	-0.000676	0.002775	0.00031	0.11799
1706	0.000146	0.002611	0.001954	0.00031	0.120948
1707	0.000146	0.007213	-0.000676	0.00031	0.124564
1708	0.00031	0.005569	-0.000512	0.000474	0.126536
1709	0.000639	0.003926	0.000146	0.00031	0.132782
1710	0.00031	0.002118	0.000967	-0.000347	0.132289
1711	-0.000183	0.003104	0.001789	0.00031	0.134425
1712	-0.000512	0.002282	0.001954	-0.000183	0.134261
1713	-0.000347	0.000967	0.000967	-0.000676	0.139192
1714	-0.000512	0.000639	0.000639	-0.000347	0.143136
1715	-0.000512	0.002282	0.000967	-0.000183	0.142314
1716	-1.9e-05	0.00409	-0.000347	0.000146	0.146095
1717	0.00031	0.004912	-0.000347	0.000146	0.150368
1718	0.00031	0.004255	-0.000183	0.00031	0.150368
1719	0.00031	0.004583	-0.000512	-1.9e-05	0.15234
1720	0.000474	0.000639	-0.000183	0.000474	0.156778
1721	0.000146	0.00146	0.000146	0.000146	0.152669
1722	-0.000183	-0.000841	0.000146	-0.000347	0.155956
1723	-1.9e-05	0.000639	0.000474	-0.000183	0.159079
1724	-0.000347	-0.000183	0.00031	-0.000512	0.162366
1725	-0.000512	0.000639	0.000146	-0.000512	0.163023
1726	-0.000512	-1.9e-05	0.00031	-0.000183	0.16401
1727	-0.000183	-0.001169	-0.000183	0.000146	0.163845
1728	0.000146	0.002118	-0.000347	0.000146	0.16894
1729	0.00031	0.002118	-0.000347	0.00031	0.167625
1730	0.00031	0.003104	-0.000183	0.000474	0.168118
1731	0.00031	0.003104	-0.000347	0.00031	0.172063
1732	0.000474	0.001789	-1.9e-05	0.000146	0.170419
1733	-1.9e-05	0.003268	0.000146	-0.000183	0.173378
1734	-0.000183	0.005076	0.000146	-0.000183	0.169926
1735	-0.000347	0.001954	0.000474	-0.000512	0.172556
1736	-0.000347	0.001625	0.000146	-0.000347	0.176829
1737	-0.000512	0.003926	0.000146	-1.9e-05	0.176172
1738	-1.9e-05	0.004255	-1.9e-05	-1.9e-05	0.173049
1739	-1.9e-05	0.002282	-0.000347	0.00031	0.180774
1740	0.000474	0.002282	-0.000347	0.00031	0.17913
1741	0.00031	0.001296	-0.000347	0.000474	0.179952
1742	0.000474	0.001296	-0.000183	0.000474	0.181596
1743	0.000474	0.000639	-1.9e-05	0.000146	0.18061
1744	-1.9e-05	0.001132	-1.9e-05	-0.000183	0.182089
1745	-0.000183	0.002447	0.000474	-0.000347	0.181596
1746	-0.000676	-0.001662	0.00031	-0.000512	0.183568
1747	-0.000512	0.001625	0.000474	-0.000512	0.182253
1748	-0.000676	0.002611	0.000146	-0.000183	0.185869
1749	-0.000347	0.002775	-0.000183	-1.9e-05	0.178144
1750	0.00031	0.002447	-0.000183	0.00031	0.181596
1751	0.000146	0.004912	-0.000183	0.00031	0.183239
1752	0.00031	0.000639	-0.000183	0.00031	0.183732
1753	0.000474	0.000967	-0.000347	0.000146	0.183732
1754	0.00031	0.001132	-1.9e-05	-1.9e-05	0.186198
1755	-1.9e-05	0.001132	0.000146	-0.000347	0.187184
1756	-0.000183	0.002611	0.000146	-0.000512	0.187019
1757	-0.000347	-0.000183	0.00031	-0.000183	0.188499
1758	-0.000347	-0.000676	0.00031	-0.000512	0.189814
1759	-0.000512	0.000474	0.000146	-0.000183	0.187348
1760	-0.000183	-1.9e-05	-0.000183	0.00031	0.185705
1761	0.000146	0.000146	-0.000183	-1.9e-05	0.188334
1762	0.000146	0.00031	-0.000183	0.000146	0.186362
1763	0.000474	0.000474	-0.000347	0.00031	0.192443
1764	0.000474	0.000474	-0.000347	0.00031	0.189485
1765	0.00031	-1.9e-05	-1.9e-05	-1.9e-05	0.19195
1766	-0.000347	0.001132	0.00031	-0.000183	0.193429
1767	-0.000183	-0.000183	0.00031	-0.000347	0.190471
1768	-0.000347	0.000639	0.00031	-0.000183	0.188992
1769	-0.000347	-0.000676	0.000474	-0.000347	0.187513
1770	-0.000347	0.002282	0.000146	-0.000347	0.190635
1771	-0.000183	0.000639	-0.000183	0.000146	0.191128
1772	0.000146	0.000474	-0.000347	0.000146	0.190142
1773	0.00031	0.00146	-0.000183	0.00031	0.190635
1774	0.000146	0.001789	-0.000512	0.000474	0.193101
1775	0.000474	-0.000183	-0.000347	0.000474	0.191457
1776	0.00031	0.00031	-1.9e-05	0.000146	0.194416
1777	0.000146	-0.000512	0.000146	-0.000183	0.192279
1778	-0.000347	-0.001662	0.000474	-0.000183	0.196388
1779	-0.000676	0.001789	0.000474	-0.000347	0.192936
1780	-0.000347	0.000639	0.000639	-0.000347	0.195073
1781	-0.000183	0.001132	0.000146	-0.000347	0.194744
1782	-0.000183	-1.9e-05	-0.000183	0.00031	0.194251
1783	-1.9e-05	-1.9e-05	-0.000183	0.00031	0.19458
1784	0.000146	0.002775	-0.000512	0.000146	0.194744
1785	0.000474	0.001625	-0.000347	0.00031	0.192608
1786	0.000146	0.000474	-0.000512	0.000474	0.194251
1787	0.00031	0.000803	-1.9e-05	0.000146	0.194744
1788	-1.9e-05	0.00031	0.000474	-0.000183	0.195073
1789	-0.000512	0.000803	0.000474	-0.000512	0.195402
1790	-0.000512	0.000639	0.00031	-0.000512	0.194744
1791	-0.000676	0.000639	0.00031	-0.000347	0.198853
1792	-0.000183	0.002775	0.000474	-0.000347	0.198196
1793	-1.9e-05	0.000967	-1.9e-05	0.000146	0.199675
1794	0.000146	-0.000347	-0.000347	-1.9e-05	0.196223
1795	0.00031	0.001132	-0.000347	0.000474	0.198524
1796	0.00031	0.000474	-0.000347	0.000146	0.196059
1797	0.00031	0.00031	-0.000347	0.000474	0.198031
1798	0.000474	0.002118	0.000146	-1.9e-05	0.199018
1799	-1.9e-05	-0.001169	0.000146	-0.000183	0.195073
1800	-0.000512	-1.9e-05	0.000474	0.000803	0.193758
1801	-0.000512	-0.000512	0.000474	0.000474	0.195237
1802	-0.000512	-0.000347	0.000474	0.00031	0.192608
1803	-1.9e-05	-0.000183	0.000146	0.003268	0.194416
1804	-0.000347	0.000146	-0.000347	0.001296	0.195566
1805	-1.9e-05	0.000474	-0.000183	0.003104	0.193758
1806	0.000474	0.000474	-0.000183	0.003597	0.19721
1807	0.000474	-0.000512	-0.000512	0.002775	0.196059
1808	0.000474	0.000639	-0.000512	0.000803	0.199018
1809	0.00031	0.000639	-0.000183	0.006884	0.194744
1810	-1.9e-05	-0.000676	0.00031	0.005898	0.199182
1811	-1.9e-05	-0.000183	0.000146	-0.000347	0.198524
1812	-0.000512	-0.003142	0.000146	0.000967	0.196059
1813	-0.000512	0.000803	0.00031	0.006062	0.195073
1814	0.000474	0.00031	0.00031	0.00672	0.197374
1815	-1.9e-05	-0.000512	-0.000183	0.000146	0.195237
1816	0.000146	0.001132	-0.000347	0.007377	0.198196
1817	0.00031	0.001296	-0.000183	0.00294	0.194744
1818	0.000146	-0.000183	-0.000676	0.009843	0.196223
1819	0.000474	0.001789	-0.000347	0.016746	0.193429
1820	0.000639	0.000474	-1.9e-05	0.019211	0.194909
1821	-0.000512	0.00146	0.000146	0.023484	0.193594
1822	-0.000347	0.000639	0.00031	0.019211	0.192936
1823	-0.000347	0.001296	0.00031	0.021348	0.199839
1824	-0.000512	0.001789	0.000474	0.023977	0.19721
1825	-0.000512	-0.000183	0.00031	0.000146	0.194744
1826	-1.9e-05	0.000474	-1.9e-05	0.010829	0.198031
1827	0.000474	0.000639	-0.000183	0.011486	0.20099
1828	0.000474	0.000639	-0.000347	0.013787	0.196059
1829	0.000474	0.001132	-0.000347	0.021183	0.199182
1830	0.000474	0.00294	-0.000512	0.032031	0.197703
1831	0.000474	-0.000347	-1.9e-05	0.035154	0.198853
1832	-0.000183	-0.000347	0.000146	0.039591	0.197045
1833	-1.9e-05	-0.002484	0.00031	0.043043	0.19458
1834	0.000146	0.000474	0.00031	0.044522	0.195895
1835	-0.000347	-0.002648	0.000474	0.040906	0.19573
1836	-0.001662	0.000146	0.000146	0.046987	0.195895
1837	0.00031	0.001625	-1.9e-05	0.029401	0.19458
1838	-0.000183	0.001954	-0.000183	0.000639	0.199675
1839	0.000146	0.000639	-0.000183	0.007377	0.196717
1840	0.00031	0.002118	-0.000347	0.015102	0.195895
1841	-1.9e-05	0.000967	-0.000347	0.022498	0.197703
1842	0.000474	0.003104	-1.9e-05	0.007213	0.196223
1843	-0.000841	0.003433	0.000146	0.007706	0.195895
1844	0.000146	0.000146	0.000146	0.002447	0.197374
1845	-0.000347	0.002282	0.00031	-0.000512	0.197374
1846	-0.000183	0.00031	0.000474	0.000803	0.200661
1847	-0.003963	0.000474	0.000474	-0.001334	0.19573
1848	0.000146	-0.000347	-1.9e-05	0.004583	0.200661
1849	0.000967	-1.9e-05	-0.000347	0.002775	0.197867
1850	0.001296	-1.9e-05	-0.000183	0.00146	0.198689
1851	0.000803	0.000146	-0.000512	0.002282	0.196388
1852	0.000146	0.000967	-0.000347	0.005241	0.195073
1853	-0.001005	0.001132	-0.000183	0.000803	0.197045
1854	-0.001169	-0.000512	0.000146	0.000967	0.19458
1855	-0.000347	-1.9e-05	0.000146	-1.9e-05	0.19836
1856	-0.001005	-1.9e-05	0.000474	0.000967	0.195402
1857	0.000146	-0.001005	-1.9e-05	-0.000183	0.197703
1858	-0.005114	0.000146	0.00031	-0.000183	0.195566
1859	-0.000512	-1.9e-05	-0.000183	0.000639	0.198524
1860	0.000639	0.000967	-0.000347	0.000146	0.198853
1861	0.000803	-0.001498	-0.000347	0.000146	0.20099
1862	-0.001005	0.001954	-0.000183	0.00031	0.200825
1863	-0.000512	0.001132	-0.000512	0.000639	0.202469
1864	0.001789	-0.000512	-0.000183	0.00031	0.199346
1865	0.002118	-0.001498	0.000146	0.00031	0.195895
1866	0.005076	-0.000183	0.000146	-0.000512	0.197374
1867	0.005898	-0.000512	0.000146	-0.000183	0.193758
1868	0.011322	-0.001498	0.000474	-0.000676	0.197045
1869	0.016417	-0.000347	0.00031	-1.9e-05	0.194416
1870	0.025457	0.001132	-0.000183	0.001625	0.195237
1871	0.031373	0.000146	-0.000347	-1.9e-05	0.197045
1872	0.042878	0.00146	-0.000512	0.001296	0.198031
1873	0.043207	0.001789	-0.000512	0.000474	0.195895
1874	0.051754	0.001296	-0.000512	0.000474	0.199675
1875	0.058985	0.00031	-1.9e-05	0.00031	0.196552
1876	0.063094	-0.000676	0.000146	-0.000183	0.196223
1877	0.069011	0.000803	0.000146	-0.000347	0.197867
1878	0.072463	-0.000676	0.000474	-0.000347	0.198853
1879	0.078051	0.001789	0.000639	-0.000347	0.198689
1880	0.081009	-0.000676	0.000146	-0.000183	0.198031
1881	0.085447	0.000639	-0.000183	-1.9e-05	0.199346
1882	0.089227	0.00031	-0.000347	0.000474	0.197374
1883	0.093829	-1.9e-05	-0.000347	0.000146	0.198031
1884	0.096294	0.00031	-0.000512	0.000146	0.196717
1885	0.101225	0.000146	-0.000347	0.000474	0.198853
1886	0.10517	-0.000183	-1.9e-05	0.000146	0.199018
1887	0.11273	-1.9e-05	0.000146	-1.9e-05	0.197374
1888	0.116675	0.000474	0.00031	-0.000183	0.196059
1889	0.117496	0.00031	0.000474	-0.000183	0.194909
1890	0.124564	0.001789	0.00031	-0.000512	0.196552
1891	0.125714	0.000474	0.000146	0.000146	0.198524
1892	0.124893	0.003104	-1.9e-05	-1.9e-05	0.194744
1893	0.129001	0.000474	-0.000183	0.001296	0.197867
1894	0.131302	0.00146	-0.000347	0.000146	0.196059
1895	0.134261	-0.001334	-0.000347	0.00031	0.198196
1896	0.135576	0.001296	-0.000183	0.000146	0.199675
1897	0.136398	0.000146	-1.9e-05	-1.9e-05	0.199675
1898	0.143465	0.001132	-1.9e-05	-1.9e-05	0.196388
1899	0.142807	-0.000347	0.00031	-0.000183	0.197045
1900	0.146095	-1.9e-05	0.000474	-0.000676	0.201647
1901	0.148724	0.002611	0.00031	-0.000347	0.19573
1902	0.147738	-0.000347	0.00031	-0.000676	0.19721
1903	0.149875	0.000474	-1.9e-05	0.000146	0.197045
1904	0.158257	0.000803	-1.9e-05	0.00031	0.198031
1905	0.157928	0.001625	-0.000347	0.00031	0.197374
1906	0.160722	0.001954	-0.000347	0.000474	0.201154
1907	0.161051	-0.000676	-0.000347	0.000474	0.196717
1908	0.160722	-0.000183	-0.000183	0.00031	0.200497
1909	0.163845	0.001625	0.00031	-0.000347	0.19573
1910	0.163352	-0.000512	0.000146	0.000803	0.193594
1911	0.16516	0.000474	0.000474	-0.001169	0.196059
1912	0.16253	0.010664	0.00031	0.001789	0.193429
1913	0.16516	0.000474	0.00031	-1.9e-05	0.194087
1914	0.166475	0.000146	-0.000183	-0.000841	0.19573
1915	0.169433	0.00031	-0.000183	0.000474	0.19836
1916	0.168118	0.000967	-0.000512	0.000474	0.197538
1917	0.169598	0.002447	-0.000183	0.000639	0.195566
1918	0.169762	0.00031	-0.000512	0.000474	0.197538
1919	0.175679	0.000146	-1.9e-05	0.000146	0.199182
1920	0.175843	0.000639	0.00031	-0.000183	0.193101
1921	0.177651	-0.000347	0.00031	-0.000183	0.196059
1922	0.176994	-0.000183	0.00031	0.001789	0.195237
1923	0.178637	0.002611	0.000474	0.001954	0.198524
1924	0.17913	-1.9e-05	0.000146	-0.000183	0.197045
1925	0.177651	-0.001662	-1.9e-05	0.003761	0.197703
1926	0.180938	0.003104	-0.000183	0.010007	0.197538
1927	0.177322	0.000146	-0.000347	0.001132	0.197538
1928	0.178144	0.000639	-0.000676	0.00031	0.198524
1929	0.182253	0.000803	-0.000512	0.008692	0.196059
1930	0.178309	0.000639	-0.000183	0.005898	0.198196
1931	0.18554	0.00294	-1.9e-05	0.005898	0.195237
1932	0.185376	-0.000512	0.00031	0.013787	0.19721
1933	0.18554	-0.000512	0.00031	0.018554	0.197538
1934	0.190142	0.002447	0.000474	0.026114	0.199675
1935	0.185376	-1.9e-05	0.00031	0.025292	0.196717
1936	0.185212	-1.9e-05	-1.9e-05	0.023649	0.199182
1937	0.186526	0.00031	-0.000183	0.029072	0.197867
1938	0.185705	0.000146	-0.000512	0.031045	0.197867
1939	0.188006	0.000474	-0.000347	0.037619	0.202305
1940	0.189485	0.000146	-0.000512	0.045015	0.199018
1941	0.189485	0.00146	-1.9e-05	0.048795	0.200825
1942	0.189649	-0.000183	0.000146	0.053726	0.198196
1943	0.189485	-0.000183	0.000146	0.057671	0.197045
1944	0.189156	0.001789	0.00031	0.063259	0.196223
1945	0.191621	0.00672	0.00031	0.046001	0.196223
1946	0.192443	0.001625	0.000146	0.046494	0.194087
1947	0.187513	0.00031	-0.000183	0.003104	0.19721
1948	0.18932	0.002775	-0.000183	0.01691	0.194251
1949	0.191786	0.001625	-0.000512	0.021183	0.19573
1950	0.189814	0.000146	-0.000347	0.025128	0.194416
1951	0.191457	0.00031	-0.000676	0.037455	0.196552
1952	0.19458	-0.000183	-1.9e-05	0.03992	0.194744
1953	0.194744	0.00031	0.000146	0.046823	0.19836
1954	0.192443	-0.000347	0.00031	0.053397	0.192608
1955	0.18817	-0.000512	0.000474	0.057999	0.197538
1956	0.193101	-1.9e-05	0.000146	0.061779	0.197538
1957	0.191786	-0.000183	-1.9e-05	0.070819	0.194416
1958	0.19195	-0.000183	-1.9e-05	0.071312	0.195402
1959	0.19458	0.00031	-0.000347	0.077393	0.195402
1960	0.191621	0.000967	-0.000183	0.082324	0.198853
1961	0.190964	0.000474	-0.000183	0.08972	0.193758
1962	0.194909	0.004583	-0.000347	0.093007	0.200825
1963	0.192115	0.000639	-0.000183	0.09613	0.19721
1964	0.194416	-0.000347	0.00031	0.104348	0.197045
1965	0.193265	-0.000512	0.00031	0.103033	0.194087
1966	0.196388	0.001625	0.000146	0.108293	0.196717
1967	0.193594	0.00146	0.000474	0.110429	0.194909
1968	0.19458	0.00031	0.00031	0.114045	0.193758
1969	0.191786	0.00031	-1.9e-05	0.114538	0.194416
1970	0.194416	0.002775	-0.000183	0.119469	0.197374
1971	0.195073	0.000474	-0.000347	0.121441	0.195566
1972	0.193101	0.001296	-0.000347	0.123906	0.198689
1973	0.196059	0.000639	-0.000183	0.12555	0.196223
1974	0.194744	0.00031	-1.9e-05	0.127851	0.195895
1975	0.196059	-0.000183	0.000146	0.132946	0.198196
1976	0.195895	-0.000183	0.000146	0.133275	0.195073
1977	0.198689	-0.000512	0.000146	0.137219	0.195237
1978	0.196059	-0.004949	0.000474	0.135083	0.195402
1979	0.197538	0.000474	0.000474	0.139192	0.19721
1980	0.193265	-0.000183	-0.000183	0.140342	0.194251
1981	0.199182	0.001132	-0.000183	0.143629	0.197538
1982	0.195073	0.005734	-0.000347	0.143794	0.194087
1983	0.196717	0.001625	-0.000676	0.150204	0.19721
1984	0.199346	0.001296	-0.000183	0.150861	0.19721
1985	0.197867	-0.000183	-0.000183	0.152833	0.197703
1986	0.19573	0.000146	0.000146	0.154312	0.197045
1987	0.19836	-0.000676	0.000474	0.157764	0.196881
1988	0.197867	-0.000347	0.000474	0.157435	0.19573
1989	0.194416	-0.004128	0.00031	0.158914	0.197045
1990	0.197703	0.000474	0.000474	0.159901	0.197045
1991	0.194909	0.003597	0.000146	0.160229	0.193922
1992	0.197538	0.001789	-0.000183	0.164338	0.198524
1993	0.195566	-0.000183	-0.000183	0.161873	0.195895
1994	0.19836	0.001296	-0.000347	0.164174	0.194416
1995	0.197045	0.000639	-0.000183	0.165489	0.199675
1996	0.199675	-1.9e-05	-1.9e-05	0.170419	0.195895
1997	0.199018	-0.000347	0.000146	0.167132	0.195566
1998	0.198853	0.000803	0.000146	0.167461	0.198031
1999	0.199511	-0.000347	0.00031	0.052247	0.196059
2000	0.197045	-0.000841	0.00031	0.022827	0.195895
2001	0.200661	-1.9e-05	0.00031	0.028744	0.198196
2002	0.200661	0.000146	0.000146	0.037783	0.196223
2003	0.197374	0.001132	-0.000347	0.042385	0.196881
2004	0.190964	0.001789	-0.000183	0.038769	0.199182
2005	0.202305	0.000803	-0.000512	0.004419	0.197867
2006	0.199018	0.00031	-0.000183	0.000639	0.198196
2007	0.197374	0.002775	-1.9e-05	0.00031	0.200004
2008	0.199839	0.000967	0.000146	-0.000512	0.198524
2009	0.199018	-0.000347	0.000146	-0.000183	0.201976
2010	0.193922	-0.000676	0.00031	-0.000347	0.196059
2011	0.195566	-0.004456	-1.9e-05	0.005734	0.196223
2012	0.197867	-1.9e-05	0.000474	0.010007	0.197538
2013	0.198196	0.000474	-0.000183	0.020033	0.19573
2014	0.196881	0.000639	-0.000183	0.022334	0.194087
2015	0.197045	0.000146	-0.000347	0.034661	0.196388
2016	0.199675	0.001625	-0.000347	0.03992	0.193758
2017	0.19836	0.000803	-1.9e-05	0.044522	0.193922
2018	0.200497	-0.001169	-0.000183	0.046987	0.200332
2019	0.201154	0.000146	-1.9e-05	0.05011	0.195566
2020	0.196388	-0.000512	0.00031	0.050768	0.197867
2021	0.19836	-0.000512	0.00031	0.059314	0.198689
2022	0.197867	-0.002977	0.000474	0.06408	0.196881
2023	0.196059	-0.001005	0.000474	0.065888	0.197867
2024	0.197703	0.00031	-1.9e-05	0.07312	0.199839
2025	0.195566	-1.9e-05	-0.000347	0.077393	0.196552
2026	0.198196	0.00031	-0.000183	0.080352	0.199675
2027	0.197703	0.000474	-0.000347	0.083146	0.197538
2028	0.199182	-0.000347	-0.000183	0.083803	0.198689
2029	0.199675	0.000474	-1.9e-05	0.085611	0.197703
2030	0.200497	0.000639	0.000146	0.097609	0.195895
2031	0.200004	0.000146	0.00031	0.094651	0.196552
2032	0.202305	0.00031	0.000146	0.100239	0.19836
2033	0.198031	-0.000676	0.00031	0.105992	0.196388
2034	0.196881	-0.001005	0.00031	0.108128	0.197374
2035	0.199839	0.001296	0.000146	0.103362	0.198031
2036	0.19573	0.000474	-0.000347	0.105334	0.199182
2037	0.197867	0.00146	-0.000347	0.090706	0.200825
2038	0.197374	0.00146	-0.000512	0.080681	0.198853
2039	0.199346	-0.000841	-0.000347	0.086104	0.197703
2040	0.196717	0.000146	-0.000183	0.087419	0.20214
2041	0.199346	-0.000183	0.000146	0.09613	0.196717
2042	0.198524	-0.000841	0.00031	0.096788	0.192772
2043	0.199018	-0.000676	0.00031	0.10139	0.197867
2044	0.198031	-0.001334	0.000474	0.105005	0.196059
2045	0.199346	-0.001334	0.000474	0.109279	0.199182
2046	0.201647	0.000803	-1.9e-05	0.106813	0.197867
2047	0.197867	0.000639	-0.000183	0.004419	0.198524
2048	0.197867	0.000146	-0.000347	0.00031	0.19836
2049	0.199182	0.000967	-0.000347	0.00031	0.197538
2050	0.199018	-0.000183	-0.000512	0.000474	0.195073
2051	0.198689	0.001625	-1.9e-05	0.000803	0.200661
2052	0.197374	0.000639	0.000146	0.005076	0.194416
2053	0.19573	0.00031	0.00031	0.007377	0.195237
2054	0.198689	0.000803	0.000146	0.00031	0.197703
2055	0.195895	0.000146	0.00031	0.002775	0.197374
2056	0.193429	0.000474	0.00031	0.012472	0.196552
2057	0.198031	0.000474	-0.000183	0.017403	0.19573
2058	0.198853	0.000474	-0.000183	0.024964	0.200004
2059	0.194087	0.00031	-0.000183	0.031045	0.194251
2060	0.198031	0.00031	-0.000347	0.039098	0.197867
2061	0.19573	-1.9e-05	-0.000512	0.040577	0.19721
2062	0.19836	0.000146	-0.000183	0.046166	0.199018
2063	0.202469	0.000474	0.000146	0.05537	0.195237
2064	0.196223	-0.000347	0.000474	0.0603	0.198196
2065	0.198853	-0.000347	0.000474	0.062766	0.202305
2066	0.198196	-0.000347	0.000639	0.069669	0.199346
2067	0.198196	0.000803	0.000474	0.077722	0.196223
2068	0.196717	-1.9e-05	-0.000183	0.07838	0.196059
2069	0.199182	0.000474	-0.000347	0.087912	0.195402
2070	0.197538	0.000474	-0.000183	0.090049	0.193922
2071	0.198853	0.001625	-0.000183	0.092514	0.199018
2072	0.198853	-0.000183	-0.000676	0.097774	0.194909
2073	0.199346	-1.9e-05	-1.9e-05	0.100403	0.196881
2074	0.198689	0.000803	0.000146	0.100403	0.197374
2075	0.199182	0.000146	0.000474	0.107306	0.196552
2076	0.198689	0.001132	0.000474	0.102704	0.198689
2077	0.198196	-0.001005	0.000146	0.103362	0.199018
2078	0.198853	-0.000347	0.000474	0.098431	0.198031
2079	0.200004	-0.000183	-1.9e-05	0.096952	0.198689
2080	0.197867	0.00031	-0.000183	0.09498	0.199182
2081	0.196881	0.000474	-0.000512	0.100403	0.198689
2082	0.198031	0.002118	-0.000347	0.10254	0.198524
2083	0.199182	0.001296	-0.000512	0.105663	0.200825
2084	0.202469	0.002118	-0.000183	0.110265	0.198031
2085	0.195895	0.000474	0.000146	0.113223	0.196881
2086	0.198853	-0.000183	0.00031	0.119304	0.195237
2087	0.197703	0.000474	0.00031	0.120948	0.196223
2088	0.19836	-0.000347	0.00031	0.123906	0.200825
2089	0.200332	0.001296	0.000639	0.125386	0.195895
2090	0.199675	0.000803	-1.9e-05	0.126207	0.196717
2091	0.196223	0.000146	-0.000183	0.127522	0.200497
2092	0.201154	-0.000183	-0.000512	0.130316	0.200168
2093	0.198853	0.00294	-0.000347	0.128344	0.198689
2094	0.196059	-0.000676	-0.000676	0.131796	0.199839
2095	0.198853	0.001625	0.000146	0.130316	0.200332
2096	0.198524	-0.000512	-1.9e-05	0.13574	0.197703
2097	0.200661	-0.000347	0.00031	0.138699	0.200497
2098	0.197867	-0.000676	0.00031	0.070162	0.198524
2099	0.200497	-0.000676	0.00031	0.000967	0.19836
2100	0.196223	-0.000512	0.000146	0.005076	0.196552
2101	0.200168	0.003268	0.000146	0.016746	0.197045
2102	0.194416	0.010829	-0.000183	0.019375	0.196881
2103	0.198524	0.011815	-0.000183	0.026771	0.19836
2104	0.198524	0.018554	-0.000512	0.022498	0.196059
2105	0.198853	0.022663	-0.000512	0.028579	0.195566
2106	0.199511	0.026443	-1.9e-05	0.020362	0.196388
2107	0.202962	0.02447	0.00031	0.015266	0.195895
2108	0.201319	0.030223	0.000146	0.001625	0.194744
2109	0.199675	0.032688	0.000474	0.003597	0.193594
2110	0.199018	0.037126	0.00031	0.003104	0.199675
2111	0.196552	0.043207	0.00031	0.007213	0.19721
2112	0.197867	0.045837	-1.9e-05	0.007377	0.195895
2113	0.195566	0.050439	-0.000512	0.00672	0.20099
2114	0.200168	0.053562	-0.000183	0.008528	0.199346
2115	0.195566	0.057177	-0.000512	0.016417	0.194909
2116	0.193758	0.061286	-0.000347	0.025292	0.197374
2117	0.199182	0.066546	-0.000183	0.027593	0.193922
2118	0.199511	0.065395	-1.9e-05	0.038276	0.19573
2119	0.197045	0.073613	0.00031	0.034003	0.19721
2120	0.202469	0.073449	0.00031	0.044686	0.19458
2121	0.197703	0.078708	0.000474	0.048795	0.189649
2122	0.200497	0.079366	0.00031	0.009843	0.194744
2123	0.202305	0.084954	-1.9e-05	0.006884	0.194087
2124	0.198031	0.07049	-0.000512	0.013952	0.191786
2125	0.200168	0.071641	-0.000183	0.019704	0.19195
2126	0.199018	0.075257	-0.000347	0.028908	0.184225
2127	0.199018	0.079366	-0.000512	0.034003	0.158257
2128	0.200004	0.087912	-0.000183	0.039427	0.146259
2129	0.203126	0.081009	0.00031	0.046659	0.144451
2130	0.201483	0.080516	0.000474	0.052411	0.146752
2131	0.20099	0.074928	0.00031	0.057999	0.14478
2132	0.197045	0.072627	0.000146	0.063094	0.142479
2133	0.199182	0.073449	0.00031	0.068847	0.146588
2134	0.201647	0.080352	-1.9e-05	0.072463	0.144122
2135	0.198689	0.079366	-0.000183	0.077558	0.145766
2136	0.199675	0.085447	-0.000347	0.080187	0.10139
2137	0.200661	0.087419	-0.000512	0.087584	0.021019
2138	0.200004	0.091692	-0.000512	0.087419	0.018061
2139	0.20099	0.040249	-0.000183	0.091528	0.005076
2140	0.202962	0.000803	0.000146	0.09235	-0.001991
2141	0.198853	0.004748	0.000146	0.097609	0.002447
2142	0.201154	0.015595	0.000474	0.103855	0.000474
2143	0.198031	0.021348	0.00031	0.106813	0.000146
2144	0.200661	0.024799	0.000146	0.108621	0.000474
2145	0.200168	0.030059	-1.9e-05	0.0935	0.002118
2146	0.197045	0.036469	-0.000347	0.042385	0.001132
2147	0.19573	0.043371	-0.000347	0.001296	-0.000841
2148	0.199346	0.048631	-0.000512	0.009843	0.009514
2149	0.194909	0.05389	-0.000512	0.008363	0.010993
2150	0.196552	0.060629	-0.000183	0.006062	0.016746
2151	0.202305	0.059314	0.00031	-0.001169	0.014609
2152	0.199839	0.062437	0.000146	0.008363	0.021019
2153	0.201812	0.065067	0.00031	0.014116	0.019375
2154	0.200661	0.063752	0.000146	0.022498	0.021348
2155	0.201483	0.066546	0.000639	0.009514	0.024306
2156	0.202798	0.069997	-1.9e-05	0.015924	0.03088
2157	0.202305	0.067203	-0.000183	0.020526	0.032195
2158	0.196388	0.068189	-0.000183	0.021348	0.040577
2159	0.200168	0.058985	-0.000347	0.028908	0.042385
2160	0.194251	0.062601	-0.000512	0.033346	0.039263
2161	0.200497	0.067203	-1.9e-05	0.037948	0.043371
2162	0.199839	0.072956	0.000146	0.04633	0.031045
2163	0.197703	0.075585	0.000146	0.051754	0.039098
2164	0.195566	0.080516	0.000146	0.054876	0.023484
2165	0.197538	0.078051	0.000474	0.062108	0.010007
2166	0.198524	0.078873	0.000474	0.064574	0.012965
2167	0.197538	0.076572	-1.9e-05	0.070819	0.017896
2168	0.197538	0.080352	-0.000183	0.074271	0.026443
2169	0.198853	0.063752	-0.000183	0.080352	0.031702
2170	0.199675	0.03729	-0.000512	0.078873	0.031702
2171	0.19836	0.010829	-0.000347	0.088898	0.033674
2172	0.202962	0.003761	-0.000183	0.088241	0.046166
2173	0.199675	0.006884	0.000146	0.092021	0.046823
2174	0.201483	0.009678	0.00031	0.098431	0.051754
2175	0.19836	0.01576	0.000639	0.097116	0.058328
2176	0.20099	0.015266	0.000474	0.061944	0.067861
2177	0.200168	0.015431	0.000474	0.000474	0.068354
2178	0.200497	0.017896	-1.9e-05	0.006884	0.076407
2179	0.196388	0.022169	-1.9e-05	0.009514	0.082324
2180	0.196717	0.020362	-0.000183	0.01313	0.086104
2181	0.197538	0.026114	-0.000183	0.013952	0.089227
2182	0.197538	0.021348	-0.000512	0.013459	0.094158
2183	0.198689	0.026114	-0.000183	0.008199	0.103691
2184	0.199839	0.030552	0.000146	0.006227	0.102376
2185	0.20099	0.021841	0.00031	-0.000347	0.103362
2186	0.19836	0.013623	0.000474	-0.000676	0.11158
2187	0.200825	0.014116	0.000474	-0.000512	0.112073
2188	0.199018	0.012308	0.000146	-0.000676	0.117168
2189	0.200168	0.018882	-1.9e-05	-1.9e-05	0.117825
2190	0.199839	0.002118	-0.000347	0.00031	0.122263
2191	0.200661	0.010829	-0.000347	-0.000183	0.124071
2192	0.200661	0.009678	-0.000512	0.00031	0.124071
2193	0.199839	0.002447	-0.000183	0.000639	0.13196
2194	0.201319	0.004912	-0.000183	0.00031	0.135247
2195	0.201647	0.000639	0.000146	0.000146	0.133932
2196	0.199675	0.00672	0.00031	0.00146	0.137712
2197	0.197703	0.010993	0.000474	0.00146	0.140342
2198	0.197703	0.016417	0.000474	0.00146	0.141986
2199	0.198196	0.003268	0.00031	0.004912	0.143629
2200	0.200332	0.004583	-1.9e-05	0.001954	0.145108
2201	0.201812	-0.000183	-0.000183	0.00031	0.140506
2202	0.200168	0.000474	-0.000183	-0.000347	0.03992
2203	0.197374	0.000474	-0.000347	0.001789	0.029566
2204	0.200497	0.000146	-0.000183	0.000146	0.032688
2205	0.196881	0.00672	-0.000347	0.003597	0.038934
2206	0.201812	0.004748	-1.9e-05	-0.001827	0.044522
2207	0.19573	0.018718	0.000474	0.003761	0.051261
2208	0.199018	0.015431	0.000146	0.008363	0.059972
2209	0.198524	0.022663	0.000474	0.013623	0.064245
2210	0.200004	0.020526	0.000474	0.020855	0.067861
2211	0.200004	0.024306	0.000146	0.023813	0.071641
2212	0.197867	0.030387	-0.000347	0.032524	0.07953
2213	0.198031	0.036304	-0.000347	0.037783	0.081995
2214	0.195895	0.033017	-0.000512	0.044193	0.088077
2215	0.197374	0.039427	-0.000347	0.049288	0.093007
2216	0.199839	0.027429	-0.000183	0.055698	0.094158
2217	0.19836	0.006884	0.000146	0.059643	0.097281
2218	0.198196	0.003268	0.000146	0.061451	0.102376
2219	0.197374	0.004255	0.00031	0.061944	0.104841
2220	0.196223	0.00935	0.000474	0.040413	0.111415
2221	0.200004	0.01576	0.000474	0.021348	0.115524
2222	0.201319	0.017732	0.000146	0.000967	0.114538
2223	0.198196	0.019375	-0.000183	0.006884	0.123249
2224	0.199018	0.024964	-0.000347	0.008692	0.122592
2225	0.199839	0.026771	-0.000183	0.018389	0.12555
2226	0.199839	0.027265	-0.000347	0.023484	0.127358
2227	0.201976	0.027265	-0.000347	0.032031	0.128344
2228	0.20099	0.027429	0.000146	0.030059	0.129988
2229	0.202798	0.010336	0.00031	-0.000183	0.094487
2230	0.199346	0.003433	0.00031	-0.000512	0.068847
2231	0.198524	-0.001991	0.000474	-0.000347	0.07197
2232	0.199346	0.001954	0.000474	-0.000183	0.07575
2233	0.196059	0.00294	-0.000183	-1.9e-05	0.078544
2234	0.200332	0.002775	-0.000183	-0.000183	0.086762
2235	0.194909	0.004583	-0.000347	0.00409	0.085447
2236	0.200497	0.003926	-0.000347	0.003926	0.09235
2237	0.198689	0.006556	-0.000347	0.006391	0.097609
2238	0.200332	0.008199	-0.000183	0.007706	0.093336
2239	0.197374	0.012144	0.000146	0.008857	0.103362
2240	0.199675	0.01954	0.00031	0.010007	0.110593
2241	0.19836	-0.000512	0.00031	0.011815	0.112401
2242	0.200332	-0.00232	0.00031	0.011651	0.116182
2243	0.198853	0.010664	0.00031	0.007377	0.117332
2244	0.200004	0.013787	0.000146	0.013787	0.12177
2245	0.19721	0.021676	-0.000347	0.015595	0.124235
2246	0.198031	0.021676	-0.000512	0.004912	0.131138
2247	0.198853	0.005569	-0.000512	0.005734	0.131302
2248	0.197703	0.01313	-0.000512	0.007213	0.133768
2249	0.199839	0.023649	-0.000183	0.005569	0.123249
2250	0.197703	0.027922	0.000146	0.009514	0.137384
2251	0.202469	0.032853	0.00031	0.009021	0.141493
2252	0.196223	0.010829	0.00031	0.008035	0.142643
2253	0.198689	0.0105	0.000639	0.008692	0.146588
2254	0.197374	0.020197	0.000474	0.010336	0.147574
2255	0.197045	0.020855	0.00031	0.010993	0.150861
2256	0.199018	0.026771	-0.000347	0.012637	0.151518
2257	0.197538	0.025292	-0.000183	0.00294	0.158586
2258	0.199839	0.039756	-0.000512	0.000146	0.15875
2259	0.201483	0.038769	-0.000512	0.000146	0.1576
2260	0.200825	0.046659	-0.000183	0.000146	0.147738
2261	0.197703	0.04896	0.000146	0.003926	0.15875
2262	0.198031	0.054876	0.00031	0.000474	0.159243
2263	0.199182	0.057999	0.000474	0.000639	0.163681
2264	0.199675	0.067532	0.00031	-0.000183	0.163188
2265	0.194909	0.064409	0.000474	0.003104	0.159736
2266	0.199182	0.06293	-1.9e-05	0.00031	0.162202
2267	0.19721	0.065067	-0.000183	0.001954	0.164667
2268	0.199182	0.05274	-0.000347	0.002775	0.16779
2269	0.199839	0.023977	-0.000183	0.000803	0.167461
2270	0.198524	0.012965	-0.000512	0.002282	0.171241
2271	0.198031	0.023977	-0.000347	0.00409	0.166475
2272	0.19836	0.026936	0.000146	0.002447	0.173049
2273	0.199182	0.032524	-1.9e-05	-0.000512	0.17272
2274	0.19836	0.040084	0.000474	-0.000183	0.177815
2275	0.199675	0.044522	0.000474	-0.000347	0.176008
2276	0.197374	0.047152	0.000474	0.000146	0.179952
2277	0.197867	0.057671	-1.9e-05	0.00031	0.176665
2278	0.199182	0.059807	-0.000347	0.000639	0.180281
2279	0.199346	0.063916	-0.000347	0.00031	0.18061
2280	0.199182	0.067861	-0.000512	0.00146	0.181431
2281	0.200825	0.075257	-0.000347	0.002447	0.180445
2282	0.19836	0.082324	-0.000183	0.001789	0.176008
2283	0.199018	0.084789	-1.9e-05	0.00031	0.183568
2284	0.198853	0.086597	0.000146	0.001132	0.18176
2285	0.195895	0.090049	0.000146	-0.000183	0.185869
2286	0.19836	0.096623	0.000146	-1.9e-05	0.185376
2287	0.198689	0.097445	0.000474	0.001954	0.183897
2288	0.198196	0.101061	0.000146	-1.9e-05	0.183732
2289	0.200332	0.102704	-1.9e-05	0.00031	0.188827
2290	0.19836	0.102211	-0.000183	-1.9e-05	0.186526
2291	0.199346	0.102376	-0.000347	0.000474	0.189814
2292	0.198524	0.108786	-0.000512	0.00031	0.187184
2293	0.19721	0.110593	-0.000183	-1.9e-05	0.183404
2294	0.198524	0.114045	-1.9e-05	-0.000183	0.187348
2295	0.198524	0.114045	0.00031	-0.000347	0.187841
2296	0.198853	0.117003	0.000146	-0.000347	0.187513
2297	0.19573	0.121112	0.000474	-0.000512	0.186198
2298	0.198689	0.122592	0.000474	-0.000347	0.190142
2299	0.198689	0.125057	-1.9e-05	-0.000183	0.186526
2300	0.197045	0.126372	-0.000347	0.000146	0.188334
2301	0.197703	0.129659	-0.000512	0.00031	0.189485
2302	0.196717	0.131138	-0.000347	0.000146	0.189978
2303	0.197374	0.136069	-0.000183	0.000474	0.190471
2304	0.198031	0.137055	-0.000183	0.000146	0.186691
2305	0.196717	0.139192	-1.9e-05	-1.9e-05	0.189978
2306	0.200004	0.140671	0.00031	-0.000347	0.192115
2307	0.199675	0.140013	0.000474	-0.000676	0.192772
2308	0.195073	0.142479	0.000474	-0.000347	0.196223
2309	0.198524	0.14856	0.000639	-0.000183	0.189814
2310	0.195402	0.142479	-1.9e-05	-1.9e-05	0.191786
2311	0.196552	0.14593	-0.000347	0.000146	0.194251
2312	0.196388	0.147409	-0.000183	0.00031	0.193265
2313	0.196717	0.147903	-0.000676	0.000474	0.190471
2314	0.197045	0.151518	-0.000347	0.000474	0.192936
2315	0.196881	0.151025	-0.000183	0.000146	0.191786
2316	0.19458	0.155299	0.000146	-1.9e-05	0.188499
2317	0.200497	0.153984	0.000146	-0.000183	0.194744
2318	0.197703	0.153491	0.00031	-0.000347	0.191786
2319	0.19836	0.156285	0.000474	-0.000512	0.191621
2320	0.199346	0.164831	0.000146	-0.000512	0.191786
2321	0.199839	0.158914	-1.9e-05	-0.000183	0.196717
2322	0.199675	0.159572	-1.9e-05	-1.9e-05	0.191786
2323	0.195402	0.161051	-0.000347	0.000474	0.194087
2324	0.199675	0.16401	-0.000183	0.00031	0.194416
2325	0.197867	0.166311	-0.000347	0.000474	0.196881
2326	0.199018	0.164667	-0.000183	0.00031	0.19573
2327	0.193429	0.164338	-1.9e-05	-0.000183	0.192115
2328	0.197374	0.16516	0.000146	-0.000512	0.18061
2329	0.19836	0.164667	0.00031	-0.000512	0.145273
2330	0.198853	0.167297	0.000474	-0.000512	0.115853
2331	0.200332	0.170255	0.00031	-0.000183	0.060958
2332	0.199675	0.167461	-1.9e-05	-0.000183	0.040413
2333	0.201319	0.171241	-1.9e-05	0.000146	0.041399
2334	0.20099	0.172392	-0.000347	0.000146	0.031538
2335	0.199346	0.173049	-0.000347	0.00031	0.017403
2336	0.198031	0.175843	-0.000347	0.00031	0.014609
2337	0.199511	0.177487	-0.000347	0.000146	0.020033
2338	0.199182	0.176994	0.00031	-0.000183	0.024799
2339	0.200168	0.17798	0.000146	-0.000183	0.033017
2340	0.197703	0.174857	0.00031	-0.000183	0.0437
2341	0.200332	0.127194	0.000474	-0.000512	0.046001
2342	0.200332	0.001954	0.000474	-0.000183	0.054383
2343	0.200004	0.000474	0.000146	-1.9e-05	0.056027
2344	0.19721	0.005569	-0.000183	0.000146	0.063587
2345	0.202962	0.000967	-0.000183	0.00031	0.069504
2346	0.19721	0.00031	-0.000347	0.00031	0.071312
2347	0.197045	0.002611	-0.000512	0.000146	0.078215
2348	0.196388	0.010829	-0.000347	0.000474	0.081667
2349	0.200661	0.017567	0.000146	-1.9e-05	0.08594
2350	0.199182	0.025621	0.00031	-0.000183	0.090542
2351	0.198689	0.032195	0.00031	-0.000183	0.097445
2352	0.199839	0.039756	0.000474	-0.000347	0.098595
2353	0.198853	0.046659	0.00031	-0.000347	0.103362
2354	0.203455	0.052904	0.00031	-0.000183	0.106978
2355	0.198031	0.056849	-0.000183	0.00031	0.112566
2356	0.199511	0.065231	-0.000183	0.00031	0.114867
2357	0.198524	0.070819	-0.000512	0.00031	0.119633
2358	0.200004	0.0769	-0.000676	0.000639	0.127194
2359	0.196059	0.077229	-0.000183	0.000474	0.122098
2360	0.19573	0.079366	-1.9e-05	-0.000347	0.126372
2361	0.197045	0.086926	0.00031	-0.000347	0.129823
2362	0.199346	0.089063	0.000474	-0.000347	0.132617
2363	0.196388	0.095473	0.000474	-0.000512	0.135411
2364	0.198196	0.100896	0.000146	-0.000347	0.138534
2365	0.200168	0.103197	-1.9e-05	-1.9e-05	0.139192
2366	0.198196	0.104841	-0.000347	0.000146	0.144122
2367	0.199839	0.112237	-0.000347	0.000146	0.147081
2368	0.201154	0.112073	-0.000676	0.00031	0.150368
2369	0.20099	0.118976	-0.000512	0.000474	0.146423
2370	0.198524	0.120948	-0.000347	0.000474	0.151683
2371	0.199511	0.126372	-1.9e-05	-0.000183	0.149546
2372	0.199839	0.127687	0.00031	-0.000183	0.15234
2373	0.199675	0.126207	0.000146	-0.000347	0.157107
2374	0.199346	0.131138	0.00031	-0.000347	0.157435
2375	0.200168	0.138205	0.000474	-0.000347	0.160065
2376	0.201483	0.136233	-1.9e-05	0.000146	0.163188
2377	0.199018	0.13837	-1.9e-05	0.000146	0.16401
2378	0.19721	0.143465	-0.000347	0.000146	0.164667
2379	0.200661	0.13952	-0.000512	0.00031	0.165653
2380	0.19836	0.146588	-0.000512	0.000474	0.165817
2381	0.198524	0.147738	-0.000347	0.00031	0.169926
2382	0.19836	0.151025	0.00031	-0.000183	0.167625
2383	0.200497	0.147245	0.000146	-0.000347	0.169105
2384	0.203784	0.144944	0.00031	-0.000676	0.166968
2385	0.200497	0.140506	0.00031	-0.000347	0.172556
2386	0.200168	0.148231	0.000474	-0.000347	0.172227
2387	0.199675	0.148067	0.000146	-1.9e-05	0.1742
2388	0.19836	0.150697	-0.000183	0.000146	0.178144
2389	0.197703	0.152669	-0.000512	0.000146	0.175679
2390	0.200825	0.153162	-0.000512	0.000474	0.177158
2391	0.19836	0.127194	-0.000183	0.000639	0.176994
2392	0.199346	0.078051	-0.000347	0.000474	0.180445
2393	0.201319	0.017074	-1.9e-05	-0.000183	0.176336
2394	0.199839	0.003268	0.000146	-0.000347	0.032031
2395	0.197867	0.003926	0.00031	-0.000512	0.000639
2396	0.198196	0.001296	0.000474	-0.000347	0.010336
2397	0.199018	0.002775	0.000474	-0.000512	0.016253
2398	0.200661	0.002118	0.000146	-0.000183	0.025785
2399	0.201483	0.002611	-0.000183	-1.9e-05	0.031867
2400	0.198524	0.004419	-0.000183	0.00031	0.039427
2401	0.196059	0.004912	-0.000183	0.000474	0.044358
2402	0.200004	0.003433	-0.000512	0.000146	0.04896
2403	0.196059	0.006391	-0.000183	0.00031	0.05652
2404	0.19836	0.008199	0.000146	-1.9e-05	0.061122
2405	0.199018	0.009021	0.000146	-0.000183	0.06671
2406	0.19836	0.014116	0.00031	-0.000183	0.072956
2407	0.201319	0.009021	0.000474	-0.000512	0.081009
2408	0.198853	0.015595	0.000146	-0.000347	0.084625
2409	0.201647	0.00031	0.000146	-1.9e-05	0.084625
2410	0.199511	0.00031	-0.000183	0.00031	0.092514
2411	0.201154	0.001625	-0.000183	0.000146	0.095144
2412	0.200497	0.000146	-0.000347	0.000474	0.098924
2413	0.197867	0.00031	-0.000512	0.00031	0.103855
2414	0.19721	0.000146	-0.000347	0.000146	0.106978
2415	0.195402	-0.000512	0.000146	-0.000183	0.109772
2416	0.200004	-0.000347	0.000474	-0.000183	0.113716
2417	0.200332	-0.000512	0.00031	-0.000347	0.117825
2418	0.201319	-0.000347	0.00031	-0.000512	0.122098
2419	0.200168	-0.000183	0.000146	-0.000512	0.121277
2420	0.199839	-0.000183	0.000146	-1.9e-05	0.126865
2421	0.197045	0.00031	-0.000183	0.00031	0.131302
2422	0.199018	0.000474	-0.000512	0.00031	0.132782
2423	0.199182	0.000474	-0.000183	0.00031	0.136891
2424	0.201812	0.000639	-0.000347	0.00031	0.139192
2425	0.200497	0.000474	-0.000347	0.000146	0.138041
2426	0.198031	-0.000183	0.000146	-1.9e-05	0.143794
2427	0.203948	-0.000183	0.00031	-0.000347	0.142479
2428	0.201647	-0.000347	0.00031	-0.000347	0.146095
2429	0.201154	-0.000512	0.00031	-0.000676	0.148067
2430	0.200497	-0.000183	0.000474	-0.000183	0.142643
2431	0.201483	0.00031	-1.9e-05	0.000146	0.103197
2432	0.19836	0.00031	-1.9e-05	0.00031	0.107142
2433	0.199675	0.00031	-0.000347	0.000146	0.105827
2434	0.198689	0.00031	-0.000347	0.000639	0.108786
2435	0.19836	0.000639	-0.000512	0.00031	0.114374
2436	0.195895	-0.000183	-0.000347	0.000474	0.116346
2437	0.197045	-1.9e-05	0.000146	-0.000183	0.120784
2438	0.197867	-0.000183	0.000146	-0.000183	0.122592
2439	0.200004	-0.000512	0.000474	-0.000347	0.126372
2440	0.199839	-0.000676	0.00031	-0.000512	0.116346
2441	0.201483	-0.000347	0.000474	-0.000347	0.117003
2442	0.200825	-1.9e-05	-1.9e-05	-1.9e-05	0.11914
2443	0.20099	0.000146	-1.9e-05	-1.9e-05	0.124399
2444	0.201812	0.00031	-0.000183	0.000146	0.123578
2445	0.199675	0.000474	-0.000183	0.00031	0.129823
2446	0.199839	0.000639	-0.000347	0.000474	0.130481
2447	0.201154	0.00031	-0.000347	0.000146	0.126865
2448	0.199018	-1.9e-05	0.000146	-0.000183	0.108786
2449	0.200825	-0.000347	0.000146	-0.000183	0.105334
2450	0.202469	-0.000347	0.000474	-0.000347	0.092843
2451	0.196717	-0.000512	0.000474	-0.000183	0.074435
2452	0.19836	-0.000183	0.00031	-0.000676	0.070983
2453	0.196881	-1.9e-05	0.000146	0.000146	0.066875
2454	0.198524	0.00031	-0.000512	-1.9e-05	0.077393
2455	0.200168	0.000474	-0.000347	0.000146	0.078873
2456	0.199675	0.000474	-0.000183	0.000474	0.084625
2457	0.198524	0.000639	-0.000512	0.000474	0.06408
2458	0.202469	0.00031	-0.000183	0.00031	-0.000347
2459	0.196388	-0.000183	-1.9e-05	-1.9e-05	0.004255
2460	0.200825	-0.000183	0.00031	-1.9e-05	0.009514
2461	0.200661	-0.000183	0.00031	-0.000347	0.012801
2462	0.200332	-0.000512	0.000474	-0.000183	0.016581
2463	0.19836	-0.000183	0.00031	-0.001334	0.025785
2464	0.196881	0.000146	0.00031	0.000474	0.031702
2465	0.197703	0.000146	-0.000183	-1.9e-05	0.033346
2466	0.199018	0.00031	-0.000347	-1.9e-05	0.030552
2467	0.200168	0.000474	-0.000512	0.00031	0.000967
2468	0.19721	0.000474	-0.000183	0.00031	0.002282
2469	0.201154	0.000474	-0.000347	0.00031	-0.000183
2470	0.195895	-0.000347	0.000146	-0.000183	-0.000347
2471	0.197867	-0.000347	0.00031	-0.000512	-1.9e-05
2472	0.201319	-0.000512	0.00031	-0.000183	0.000967
2473	0.200004	-0.000512	0.000474	-0.000676	0.001132
2474	0.200332	-0.000347	0.000474	-0.000347	0.001132
2475	0.19721	0.000146	0.00031	-1.9e-05	0.002611
2476	0.198031	0.000146	-0.000347	0.00031	-0.000676
2477	0.199511	0.00031	-0.000183	0.00031	-0.000347
2478	0.200825	0.00031	-0.000512	0.000146	-0.000183
2479	0.197374	0.000474	-0.000347	0.000474	-0.000183
2480	0.202798	0.00031	-0.000183	0.000146	-0.000347
2481	0.199839	-0.000183	-1.9e-05	0.000146	-0.000347
2482	0.199182	-0.000347	0.000146	-0.000512	-1.9e-05
2483	0.198031	-0.000512	0.00031	-0.000183	0.00031
2484	0.203455	-0.000512	0.000474	-0.000347	0.00031
2485	0.196881	-0.000347	0.000639	-0.000512	0.000146
2486	0.198196	0.000146	0.000146	0.000146	0.000803
2487	0.196223	0.00031	-0.000183	-1.9e-05	-1.9e-05
2488	0.197703	0.00031	-1.9e-05	0.00031	-0.000183
2489	0.199018	0.000474	-0.000183	0.00031	-0.000347
2490	0.199018	0.000474	-0.000347	0.000474	-0.000347
2491	0.20099	0.000146	-0.000183	0.000146	-0.000512
2492	0.199511	-1.9e-05	0.00031	-1.9e-05	-1.9e-05
2493	0.199675	-0.000841	0.00031	-1.9e-05	0.000146
2494	0.198524	0.001132	0.00031	-0.000347	0.000474
2495	0.200661	-0.000676	0.000474	-0.000347	0.00031
2496	0.199018	0.001132	0.00031	-0.000347	0.001132
2497	0.201647	0.00146	0.000146	-1.9e-05	-1.9e-05
2498	0.198689	0.00294	-0.000347	-1.9e-05	0.000146
2499	0.202469	0.001132	-0.000512	0.000146	-0.000347
