Ladekurvenmessung

Zeit: 2018_05_04 08.56.43

Info: FVA3, v = 0.14, T = 23, F = 20, h = 60.4

Ladewiderstand[Ohm]: 1012700

Störkapazität[pF]: 0.000000

Entladezeit[ms]: 200

Abtastrate[Hz]: 250000

Anzahl der Messwerte: 2500.000000

Verzögerung[ms]: 3

Ladespannung[V]: 0.200000


	Kurve_1	Kurve_2	Kurve_3	Kurve_4	Kurve_5
0	-0.005936	0.001954	0.002611	-0.002977	0.00031
1	-1.9e-05	0.000639	0.001296	0.000639	0.000146
2	0.001789	0.003104	0.001296	-0.001334	-0.000347
3	0.000967	-0.000183	0.001296	0.001789	-0.000183
4	0.001625	0.000803	0.001132	-0.000512	-0.000347
5	-0.000347	0.002118	-0.000183	0.001789	-0.000512
6	0.003761	-0.000347	-0.001169	0.002775	-0.000347
7	-1.9e-05	0.000803	-0.000512	0.00146	-0.000183
8	0.001132	-1.9e-05	-0.001498	-0.001991	0.000146
9	0.004912	-0.000512	-0.000183	0.001954	0.000474
10	0.000803	-0.000183	-0.000512	0.001625	0.000146
11	-0.001498	0.003926	-0.001662	-0.002155	0.00031
12	-0.000841	0.000146	-0.000512	-0.001662	0.000146
13	-0.000347	0.000967	-0.001334	-0.001662	0.000146
14	-0.000676	-0.001991	-0.001662	0.00031	-0.000183
15	-0.001169	0.002118	-0.000347	0.001296	-0.000347
16	0.00409	-0.001498	-0.002813	-0.000841	-0.000183
17	-0.000183	0.000967	-0.00232	0.000474	-0.000512
18	0.00031	-0.004456	-0.003306	0.000803	-0.000183
19	0.000803	-0.002155	-0.000183	-0.000676	-1.9e-05
20	0.002118	-0.004128	-0.001827	0.000967	0.00031
21	0.001296	-0.003799	-0.000676	-0.001662	-1.9e-05
22	-0.001498	0.000474	-0.002977	-0.003963	0.000474
23	-0.001991	-0.001991	-0.001498	-0.003142	0.000146
24	-0.000512	-0.002155	-0.001662	-0.001662	-0.000183
25	-0.000512	-0.002813	0.001132	-0.003799	-1.9e-05
26	-0.001498	-0.000676	-1.9e-05	0.000474	-0.000347
27	-0.001005	-0.002155	-0.00347	-0.002484	-0.000183
28	-0.003306	0.000803	-0.013989	-0.001005	-0.000512
29	-0.002648	-0.002648	-0.005771	0.000146	-1.9e-05
30	-0.004949	0.00146	-0.003799	-1.9e-05	-1.9e-05
31	-0.002977	0.00031	-0.0061	0.000146	0.000146
32	-0.001169	0.002282	-0.004785	0.003104	0.00031
33	-0.000512	0.000146	-0.004292	-0.001334	0.000474
34	-0.001169	-0.001334	-0.002648	-0.000841	0.000146
35	0.00146	-0.002813	-0.001498	-1.9e-05	-0.000183
36	0.00146	-0.003142	-0.001827	-0.001169	-0.000183
37	-0.002977	-0.004456	-0.004128	0.003268	-0.000183
38	0.001296	-0.00347	0.000474	-0.001498	-0.000347
39	0.000639	-0.004621	-0.009223	0.000639	-0.000183
40	-0.001005	-0.005114	-0.00232	0.000146	-1.9e-05
41	-0.000183	-0.001334	-0.001498	0.001296	-1.9e-05
42	-0.000512	-0.002155	0.001132	-0.001498	0.000146
43	-0.002813	-0.001827	-0.004621	0.001132	0.000146
44	-0.000676	-0.00232	-0.005278	-0.002813	0.000146
45	-0.002484	0.002118	-0.00347	-0.001827	0.000146
46	-0.003963	-0.001991	-0.00347	0.001625	-1.9e-05
47	-0.003963	-1.9e-05	-0.003306	-0.005114	-0.000347
48	-0.002155	-0.003635	-0.002977	-0.002813	-0.000183
49	-0.001662	-0.000347	-0.000347	-0.004621	-0.000347
50	0.00146	0.002611	0.001296	-1.9e-05	-0.000347
51	-0.00232	-0.001827	-0.004292	-0.003306	0.000146
52	-0.002155	-0.000841	-0.005443	-0.001334	-0.000183
53	0.001789	-0.001169	-0.001662	-0.000676	0.000146
54	-0.003306	-0.001827	-0.003963	0.001132	0.000146
55	-0.000347	-0.004128	-0.000512	-0.002155	0.000146
56	-0.002813	-0.001005	-0.004621	-0.000512	0.00031
57	0.00031	-0.004456	0.001789	-0.000676	-0.000183
58	-0.001005	-0.001498	-0.001005	-0.000841	-0.000183
59	-0.001662	-0.001169	0.001132	-0.001334	-0.000347
60	0.000474	-0.000676	-0.000841	-0.001334	-0.000347
61	0.001625	-0.000841	0.00294	0.003433	-0.000183
62	-0.001334	-0.003142	-0.002484	-0.003963	-1.9e-05
63	-0.001005	-0.003799	-0.002813	0.001296	0.000146
64	-0.000183	-0.002977	-0.004456	-0.001334	0.000146
65	-0.002484	0.001132	-0.00347	0.00146	0.000146
66	-0.000841	-1.9e-05	-0.003142	-0.004456	0.000146
67	-0.002155	0.002775	-0.004456	-0.001169	0.000146
68	-0.000676	-0.002155	0.001625	-0.000183	-0.000347
69	-0.001334	-0.001005	-0.001334	-0.001662	-0.000183
70	0.000146	-0.003142	-0.001169	-0.006264	-0.000347
71	-0.00232	-0.002977	-0.00232	-0.000183	-0.000512
72	-0.000512	-0.001662	0.003104	-0.001991	-0.000183
73	-0.001005	-0.003142	-0.002155	-0.000512	-1.9e-05
74	-0.000183	-0.004785	-0.001827	-0.001169	-1.9e-05
75	-0.001662	-0.002813	-0.001169	-1.9e-05	0.000146
76	-0.003799	-0.004292	-0.000347	-0.000347	0.000474
77	-0.004128	-0.001991	0.000474	-0.00232	0.000474
78	-0.004949	-0.001991	-0.005771	-0.002648	-1.9e-05
79	-0.001662	-0.001827	-0.004128	-0.002813	-1.9e-05
80	-0.001169	-0.000841	-0.003142	-0.004128	-0.000347
81	-0.000676	-0.003142	-0.003635	-0.004292	-0.000183
82	0.00146	-0.004128	-0.003799	-0.000347	-0.000512
83	-0.000512	-0.001498	-0.001334	-0.000676	-0.000347
84	-0.001169	-0.001005	-0.004456	-0.001991	-1.9e-05
85	-0.000841	-0.002813	-0.000512	-0.001827	-1.9e-05
86	-0.001169	-0.001991	-0.005278	-0.000841	0.00031
87	-0.000347	-0.003142	-0.001827	-0.002648	0.00031
88	-0.001334	-0.003142	-0.001827	-0.001169	0.000146
89	-1.9e-05	-0.00347	-0.003635	-0.002813	0.000146
90	-0.001498	-0.005936	0.000474	-0.000841	-0.000183
91	0.000639	-0.004456	-0.001005	-0.000841	-0.000183
92	-0.001498	-0.003142	-0.001169	-0.001498	-0.000347
93	-0.000512	-0.005114	-0.001334	-0.003142	-0.000183
94	-0.002155	-0.005114	-0.001498	-0.001662	-0.000183
95	-0.002484	-0.005278	-0.003799	-0.001662	0.000146
96	-0.002155	0.000967	-0.001991	-0.001991	0.000146
97	-0.003306	-0.00232	-0.004128	-0.000841	0.000146
98	-0.003635	-0.001169	-0.001827	-0.005278	0.000146
99	-0.00347	-0.005771	-0.002155	-0.004292	0.000146
100	0.00031	-0.002813	-0.003306	-0.002813	0.00031
101	-0.001334	-0.001334	-0.007579	-0.002813	0.000146
102	-0.000676	-0.003306	-0.002813	-0.005278	-0.000347
103	-0.000183	0.000474	-0.00232	-0.003635	-0.000183
104	0.001132	-0.0061	-0.00347	-0.002155	-0.000347
105	-0.000676	-0.003963	-0.000512	0.000474	-0.000512
106	-1.9e-05	-0.00347	-0.002648	-0.001169	0.000146
107	-0.001005	-0.00232	-0.001498	-0.000841	0.000146
108	0.001954	-0.004621	-0.001498	0.000639	0.000146
109	-0.00232	-0.001991	-0.000183	0.000639	-1.9e-05
110	-0.002977	-0.004456	-0.000512	-0.001169	0.002611
111	-0.000347	-0.002977	-0.00232	0.001296	0.00031
112	-0.002977	-0.005771	-0.001991	0.00146	0.000146
113	-0.001662	-0.004949	-0.000512	0.000146	-0.000183
114	0.00146	-0.004785	-0.002155	-0.000183	-0.001005
115	-0.002648	-0.002977	-0.001662	-0.003142	-0.000676
116	-0.002155	-0.004292	-0.000841	0.00031	-0.000183
117	-0.001169	0.000803	-0.006429	-0.001827	-0.000183
118	-0.00232	-0.002155	-0.00347	-0.00347	0.000146
119	-0.000347	-0.003142	0.00031	-0.002484	0.000146
120	-0.002484	-0.002155	-0.004456	-0.000512	0.00031
121	-0.001169	-0.003963	-0.001827	-0.001662	0.00031
122	-0.002155	-0.001169	-0.002484	-0.001662	0.000474
123	-0.001498	-0.001827	0.000474	-0.002648	-1.9e-05
124	-0.000841	-0.003142	-0.000183	0.00146	-0.000183
125	-1.9e-05	-0.005114	-0.000347	-0.003142	-1.9e-05
126	-0.001169	-0.002484	-0.002813	-0.001005	-0.000347
127	-0.000676	-0.004621	0.002611	0.001954	-0.000347
128	-0.000347	-0.005114	-0.003142	-0.001991	-0.000183
129	-0.002813	-0.005936	-0.004949	-0.000676	0.00031
130	-0.000183	-0.004949	-0.002155	-0.000512	0.000146
131	-0.000347	-0.001334	-0.003306	0.007377	0.000146
132	-0.010045	-0.002484	-0.002977	-0.001991	0.000146
133	-0.004621	-0.001169	-0.003963	0.000474	0.00031
134	0.00031	-0.001827	-0.001334	-0.003635	-0.000183
135	-0.003142	-0.001169	-0.002648	-0.003799	-0.000183
136	-0.001991	-0.00347	-0.000841	-0.00347	-0.000347
137	-0.002484	-0.003635	-0.002155	-0.005114	-0.000183
138	-0.002484	-0.007744	-0.002155	-0.001334	-0.000347
139	-0.002155	-0.004785	-0.003306	0.000474	-1.9e-05
140	-0.001662	-0.004128	-0.00232	-0.001498	-0.000512
141	-0.000676	-0.004292	0.000639	-0.001169	0.000474
142	-0.002813	-0.004785	0.001625	-0.000183	0.000967
143	-0.001991	-0.003799	-0.002484	-0.002813	0.000639
144	-0.003635	-0.001662	-0.00347	-0.001334	0.000146
145	-0.004292	-0.002813	-1.9e-05	-0.002813	-0.000183
146	-0.002155	-0.002977	-0.003799	-0.001169	-0.000183
147	-0.005278	-0.001991	-0.000841	-0.00347	-0.000512
148	-0.001991	-0.005443	-0.000347	-0.003142	0.000146
149	-0.002484	-0.002648	0.00031	-0.002484	-0.000841
150	-0.003142	0.001625	-0.003635	-0.002977	-1.9e-05
151	-0.000676	-0.003799	-0.001334	-0.003306	-0.000676
152	-0.001334	-0.002155	-1.9e-05	-0.00347	-0.000512
153	-0.003963	-0.001991	-0.000512	-0.001991	-0.000183
154	-0.004128	-0.004621	-0.002813	-0.004128	0.000474
155	-0.001169	-0.000183	-0.002648	-0.004128	0.000474
156	-0.000676	-0.001005	-0.000841	-0.003142	-0.000512
157	-0.000841	-0.002484	-0.003142	-0.003142	-0.000183
158	0.002118	-0.001827	-0.004292	0.000803	-0.000676
159	-0.003799	-0.009058	0.000146	-0.001498	-0.000183
160	-0.00347	-0.00347	-0.000347	-0.002813	-0.000512
161	-0.002484	-0.004785	-0.00347	-0.003799	-1.9e-05
162	-0.000676	-0.003306	-0.001005	-0.005607	0.000146
163	-0.002155	-0.004128	-0.004292	-0.000841	0.000474
164	-0.00232	-0.001991	-0.001662	-0.001662	0.000146
165	-0.000676	0.003104	-0.00232	-0.002155	0.00031
166	-0.000676	-0.002484	-0.00347	-0.002813	0.000639
167	-0.004785	-0.00232	-0.001827	-0.001334	-1.9e-05
168	-0.002155	-0.003142	-0.003142	-0.003306	-0.001169
169	-0.003799	-0.002484	-0.003142	-0.001991	0.000146
170	0.000639	-0.008237	-0.002155	-0.002484	-0.000183
171	-0.003635	-0.002155	-0.002484	-0.00232	-0.001827
172	-0.002155	-0.00347	-0.005114	0.000639	-0.001827
173	-1.9e-05	-0.002648	-0.004128	-0.004128	-0.001169
174	-0.001005	0.002282	-0.004621	-1.9e-05	0.000639
175	-0.001991	-0.001662	-0.000841	-0.000512	0.000639
176	0.000146	-0.007744	-0.004456	-0.001498	0.002118
177	0.00294	-0.002648	-0.004621	-0.000676	-1.9e-05
178	-0.001334	-0.001334	-0.004128	-0.000841	0.00031
179	-1.9e-05	-0.00347	-0.004128	-0.000676	0.000474
180	-0.000841	-0.002813	-0.004128	-0.001005	-1.9e-05
181	-0.001662	-0.001005	-0.000512	-0.00873	-0.000347
182	0.000803	-0.003142	-0.005278	-0.005771	0.000639
183	0.000474	-0.003635	-0.001662	-0.005607	0.001625
184	-0.001991	-0.003306	-0.002813	-0.005114	-0.002813
185	-0.001169	-0.004456	-0.002484	-0.001991	0.000146
186	-0.003306	-0.005278	-0.002155	-0.001662	-0.001498
187	-0.004456	-0.004949	-0.002484	-0.004621	-1.9e-05
188	-0.001662	-0.003306	-0.00232	-0.003635	-0.001991
189	-0.001827	-0.003963	-0.002484	-0.000512	-0.002155
190	-0.001991	-0.002648	-0.001991	-0.002813	-0.002484
191	-0.000512	-0.001498	-0.004128	-0.001991	-0.002648
192	-0.001991	0.002118	0.001625	-0.005936	0.000474
193	-0.001498	-0.001991	-0.001169	-0.000347	-0.00232
194	-0.000841	-0.003306	-0.002977	-0.001169	-0.004292
195	-0.004621	-0.001005	-0.001662	-0.001334	-0.000676
196	-0.002813	-0.001991	-0.001498	-0.003799	0.000146
197	-0.003635	-0.00232	-0.003799	-0.00232	-1.9e-05
198	-0.002155	-0.003799	-0.001827	-0.003799	0.005734
199	-0.004456	-0.001334	-0.001334	-0.00347	0.000146
200	-0.002155	-0.005771	-0.001498	-0.004949	0.004419
201	-0.001334	-0.001991	-0.001827	-0.005771	0.00031
202	-0.001334	-0.003306	0.000146	-0.004292	0.001296
203	-0.003306	0.000803	0.001132	-0.003142	0.000474
204	-0.003799	-0.005771	-0.001662	-0.002155	0.00031
205	-0.001991	-0.00232	-0.002484	-0.003306	-0.000841
206	-0.002155	-0.001827	-0.003142	-1.9e-05	-0.000512
207	-0.001991	-0.003799	-0.003963	-0.003306	-0.001498
208	-0.001827	-0.001005	-0.004128	-0.002813	-0.00725
209	-0.001005	-0.003306	-0.000347	-0.001827	0.00146
210	-0.000183	-0.000347	-0.005278	-0.000512	-0.002977
211	-0.001169	-0.003635	-0.001498	-0.001827	-0.001827
212	-0.001991	-0.001827	-0.004128	-0.001827	-0.000676
213	0.000967	-0.001827	-0.003635	-0.00347	-0.001005
214	-0.002484	-0.001662	-0.00347	-0.003142	-0.001005
215	0.000967	-0.005936	-0.000841	-0.001498	0.000474
216	-0.000347	-0.001334	-0.001662	-0.001827	-0.001334
217	-0.002484	-0.002977	-0.000841	-0.002648	0.003104
218	-0.00232	-0.002813	-0.000347	-0.001169	-0.001498
219	-0.000841	-0.00232	-0.004785	-0.001662	0.000803
220	-0.001827	-0.004621	-0.000841	-0.002977	-0.001169
221	-0.001991	-0.002484	-0.004621	-0.000841	-0.000183
222	-0.000841	-0.002648	-0.000183	-0.004292	-0.001334
223	-0.000512	-0.002155	-0.002155	-0.001169	-0.000841
224	-0.001334	-0.002484	-0.001498	-0.004621	-0.001169
225	0.003433	-0.007086	-0.004456	-0.00347	-0.002813
226	0.000474	-0.003306	-0.002648	-0.002484	0.000639
227	-1.9e-05	-0.001827	-0.009551	0.001954	-0.002813
228	-0.003142	-0.001498	-0.00347	-0.003142	0.001296
229	-0.002155	-0.00232	-0.001991	-0.004621	-0.002813
230	-0.000512	-0.001827	-0.006429	-0.002813	-0.001334
231	-0.001827	-0.002977	-0.004949	-0.00347	-0.000183
232	-0.000512	-0.001005	-0.002648	0.000146	-0.000347
233	0.003268	-0.002484	-0.001169	0.000639	0.000803
234	-0.00232	-0.003799	-0.001498	-0.002648	0.000639
235	-0.000841	-0.005443	0.000146	-0.002155	-0.000347
236	-0.001498	-0.004292	-0.001827	-0.000347	0.000146
237	-0.001169	-0.004456	-1.9e-05	-0.003635	-0.000183
238	-0.002648	-0.003142	-0.002648	-0.000347	-0.004292
239	-0.005114	-0.003635	-0.001827	-0.002813	-0.001662
240	-0.003635	-0.001334	-0.002813	0.000146	-0.00347
241	-0.000841	-0.003306	-0.000347	-0.003963	-0.003635
242	-0.00347	-0.001005	-0.004456	-0.004785	-0.001991
243	-0.001334	-0.002155	0.001625	-0.003799	-0.002155
244	0.000967	0.000474	-0.00232	-0.00232	-0.000512
245	-0.006264	-0.001005	-0.001991	-0.001662	0.001132
246	-0.003635	-0.000512	-0.000841	-0.001827	-0.001334
247	-0.000183	-0.001334	-0.000676	-0.004949	0.001132
248	-0.001498	-0.002155	-0.001662	-0.002155	-0.000183
249	-0.002484	-0.00347	-0.002155	-0.001662	0.002775
250	-0.011524	-0.001991	-0.001005	-0.003799	0.002775
251	-0.002648	-0.002648	-0.001498	-0.001169	-0.000347
252	0.000474	-0.00232	0.001625	-0.004949	0.00146
253	0.00146	-0.002484	-0.000347	-0.001827	0.002282
254	-0.000676	0.001625	-0.001662	-0.002977	0.001132
255	-0.002155	-0.001662	-0.002977	-0.001169	-0.000676
256	-0.001827	-0.001827	0.000967	-0.002484	0.00031
257	-0.001662	-0.001169	-0.000841	-0.003142	-0.002977
258	0.000146	-0.001498	-0.001498	-0.005278	0.001625
259	0.000967	-0.001005	0.000146	-0.005278	0.000146
260	0.00031	-0.002813	-0.000512	-0.002648	0.001296
261	-0.005443	-0.000512	-0.001991	0.00146	-0.001662
262	-0.001827	-0.002484	-0.002484	-0.000347	0.003433
263	-0.000676	-0.000347	0.000474	0.000803	-0.002813
264	-0.001334	-0.003963	-0.004949	-0.001169	0.000474
265	-0.002813	-0.000512	0.00146	-0.001498	0.000474
266	0.000474	-0.004456	0.00031	0.00031	-0.001498
267	-0.001662	-0.001991	-0.000183	-0.003963	0.001954
268	-0.001169	-0.002648	-0.000841	0.000146	0.000146
269	0.000639	-0.003306	0.001296	-0.001498	-1.9e-05
270	-0.001334	-0.002484	0.000639	-1.9e-05	0.000803
271	-0.000512	-0.005114	-0.000183	-0.000347	0.000474
272	0.003104	-0.004456	-0.001827	-0.001498	0.00031
273	-0.002648	-0.004949	-0.001827	-0.002648	0.00146
274	-0.002484	-0.001334	-0.001498	-0.000183	-0.001827
275	0.001625	0.000146	-0.000841	-0.003306	-0.000183
276	0.000146	0.002447	-0.00725	-0.001991	-0.000676
277	-0.000347	-0.002813	-0.002813	-0.002813	-0.000512
278	-0.005771	-1.9e-05	-0.002813	-0.002155	-0.001498
279	-0.002648	-0.001662	-0.004128	-0.001169	-0.000347
280	-0.000512	-0.001827	-0.002813	-0.003142	-0.000183
281	-1.9e-05	-0.002484	-0.004456	0.000639	0.00031
282	-0.001662	-0.002648	-0.002484	-0.001662	-0.000512
283	0.001789	-0.002977	-0.002977	-0.000512	0.001954
284	-0.005771	-0.002484	-0.000183	-0.004621	0.000146
285	-0.00347	-0.002484	0.001954	-0.003306	0.000474
286	-1.9e-05	-0.006593	-0.001169	-0.002648	0.002282
287	-0.00232	-0.002155	-0.003142	-0.001334	0.000146
288	0.000639	-0.004292	0.002118	-0.001169	-0.000347
289	-0.001498	-0.003142	-0.001169	0.000146	0.000146
290	-0.001827	-0.002977	0.00146	-0.002813	0.001132
291	-0.001498	-0.004128	0.000474	-0.000183	0.000146
292	-0.001662	-0.002813	-0.001005	-0.002813	0.00294
293	-0.002484	-0.000512	0.000146	-0.002648	0.00031
294	-0.002977	-0.002648	-1.9e-05	0.00031	0.001132
295	-0.003963	0.000146	0.001789	-0.00232	-0.000512
296	-0.004456	-0.003635	-0.001005	0.000146	0.000474
297	-0.003142	-0.000347	0.001789	-0.003963	0.00146
298	-0.002155	-0.000183	-0.002648	0.000474	-0.001005
299	-0.000512	-0.002648	0.001132	-0.004785	-0.000676
300	-0.002155	-0.000183	-0.000676	-0.001991	0.002447
301	0.003433	-0.002484	-0.000676	-0.004621	-0.000676
302	-0.003306	-0.001991	-0.000841	-0.003799	0.000967
303	0.000803	-0.004621	-0.000676	-0.001662	0.000474
304	0.00031	-0.001827	-0.002813	0.001296	0.000639
305	0.00146	-0.004621	-0.001005	-0.000841	0.002118
306	-1.9e-05	0.000639	-0.001827	-0.000841	-0.001827
307	-0.001334	-0.002648	0.00031	0.001625	0.000803
308	-0.002648	-0.001169	0.000803	0.000146	0.00294
309	-0.000347	-0.002155	-0.001662	-0.002484	0.002611
310	0.001296	-0.003142	-0.001005	-0.00347	0.000474
311	-0.00232	-0.001169	0.000967	-0.00232	-0.000512
312	-0.000183	-0.001334	-0.001334	0.000474	0.000146
313	-0.001334	-1.9e-05	-0.001169	0.003761	-0.001005
314	-0.000676	-0.001827	-0.001991	-1.9e-05	-0.001169
315	-0.003142	-0.000676	-0.002484	-0.000512	-0.001169
316	0.001954	-0.002977	-0.000841	-1.9e-05	-0.001827
317	-0.00232	0.000474	-0.004949	0.001789	0.000967
318	0.000474	-0.00232	0.000474	0.000803	0.002447
319	-0.000841	-0.000512	-0.002648	0.001296	-0.000347
320	0.000967	-0.002813	-0.001827	-1.9e-05	0.002447
321	-0.001005	-0.001498	-0.001169	-0.000676	-0.000347
322	0.00146	-0.004949	0.001625	-1.9e-05	0.000639
323	0.000474	0.001625	-0.001827	0.000967	-0.001662
324	-0.000676	-0.001005	-0.001005	-1.9e-05	0.001789
325	0.00146	-0.000841	-0.001334	-0.000841	-0.000512
326	0.00146	-0.005278	-0.000676	-0.000841	-0.001334
327	-0.000841	0.000146	0.001296	-0.001991	-0.001991
328	-0.003799	-0.000183	-0.003142	-0.000183	-0.001662
329	-0.003306	-0.003142	-0.004621	-0.000347	-0.001827
330	-0.002484	-1.9e-05	-0.003799	0.003761	-0.000676
331	-0.001662	-0.000347	-0.004785	-0.00232	-0.000676
332	0.00031	-0.000183	-0.004621	-0.001334	-0.001005
333	-0.005114	-0.001005	-0.001498	-0.000841	-0.000183
334	-0.000512	0.00031	-0.002648	-0.000512	-0.003306
335	0.001789	-0.001169	-0.001991	0.000967	-0.001005
336	0.00031	-0.001169	-0.001827	0.003597	-1.9e-05
337	-0.000512	-0.001991	-0.001827	-1.9e-05	-0.000676
338	0.005076	-0.001334	-0.002648	0.00031	-0.003635
339	-0.003306	-0.003799	-0.001334	0.000803	-0.001334
340	-0.000512	-0.003799	-0.000347	-0.001169	-0.002813
341	-0.001498	-0.005278	0.00146	-0.002484	-0.000347
342	-0.001005	-0.004292	-0.002155	-0.001662	-0.001169
343	-0.002813	-0.002484	-0.005114	-0.001169	0.000639
344	-0.003142	-0.00347	-0.001662	-0.002155	-0.001662
345	-0.001334	0.001954	-0.000841	-1.9e-05	-0.001334
346	-0.002977	0.002282	-0.000183	-0.001991	-0.001169
347	-0.00347	0.00146	-0.000676	-0.000676	-0.000183
348	-0.001169	0.003761	-0.000841	-0.00347	-0.002648
349	-0.002155	0.001625	-0.003963	-0.004128	-0.002155
350	-0.002813	-0.000183	-0.000676	-0.002155	-0.000183
351	-0.001334	0.002118	-0.004949	0.000803	-0.001169
352	-0.004621	0.002611	-0.004128	-0.004621	0.000474
353	-0.002648	0.003926	-0.001991	-0.002484	-0.002813
354	0.002118	-0.000676	-0.002977	-0.001334	-0.000512
355	-0.002155	-0.000676	-0.00347	-0.000183	-0.001334
356	0.000803	-0.004292	0.000146	0.003597	-0.001498
357	-0.001662	0.00146	-0.002155	-0.0061	-0.001662
358	-0.000183	-0.002648	-1.9e-05	-1.9e-05	-0.001005
359	0.001954	-0.001334	-0.001005	-0.003142	-0.00347
360	0.001132	-0.000841	-0.003635	-0.001827	0.00031
361	-0.001005	-0.001334	-0.001334	-0.000841	-0.001334
362	-0.002155	0.001132	-0.002648	-0.001991	-0.002813
363	0.000474	-0.000347	-0.001827	-0.002155	-0.001991
364	-0.003799	-0.001498	-0.003799	-0.000512	-0.001169
365	-0.000841	0.002611	-0.002484	-0.003799	-0.000841
366	-0.003799	0.00031	-0.003799	-0.00232	-0.001827
367	-0.000512	-0.000347	-0.004456	-1.9e-05	0.001789
368	0.00031	0.00146	-0.003963	-0.000347	-0.003306
369	-0.000183	0.002282	-0.001334	-1.9e-05	-0.000183
370	0.000146	0.000803	-0.002484	-0.000347	-0.004456
371	0.000639	-1.9e-05	-0.002977	-0.000512	-0.00347
372	-0.001498	0.001296	-0.002484	-0.001005	-0.002484
373	-0.000512	-0.001498	-0.001991	0.001132	0.001132
374	0.000474	-0.004785	-0.001498	-0.00232	-0.000183
375	0.000639	-0.000841	0.003104	0.000803	-0.000512
376	0.002611	-0.000676	0.000639	-0.000841	-0.001498
377	-0.002648	-0.000676	-0.002155	-0.001334	-0.001169
378	-0.001005	-0.002648	-0.001169	0.000474	-0.000841
379	-0.002155	-0.000347	-0.003799	0.002611	-0.002648
380	-0.000183	-0.001334	-0.00232	-0.004128	-0.00232
381	-0.003306	-0.000347	-0.003635	-0.001498	-0.001334
382	0.000803	-1.9e-05	-0.004621	-0.003799	-0.001005
383	-0.002977	0.001132	-0.005114	-0.001498	-0.00347
384	-1.9e-05	-0.002648	-0.00347	-0.001334	-0.003963
385	0.000474	-0.001005	-0.004456	-0.004456	-0.003635
386	-0.002484	-0.001662	-0.000347	-0.002648	-0.001005
387	0.00031	0.002118	-0.001169	-0.001005	-0.00232
388	-1.9e-05	-0.001169	-0.005278	-0.000512	-0.002484
389	-0.000512	-0.000676	-0.000183	-0.000676	-0.003963
390	-0.001498	0.001625	-0.002648	0.003597	-0.002484
391	0.001296	-0.000183	-0.000347	-0.002648	-0.001662
392	-0.000676	-0.000512	-0.000841	-0.000183	-0.00232
393	0.001625	0.000146	-0.003142	-0.000512	-0.003799
394	-0.006757	0.00031	-0.003635	-0.000841	-0.002648
395	-0.000676	-1.9e-05	-0.001498	-0.002813	0.000639
396	-0.002155	0.000146	-0.000512	-0.001991	-0.001827
397	-0.002484	-0.000183	0.002118	-0.001827	0.000803
398	-0.00347	-0.000183	-0.001662	-0.000676	-0.001662
399	-0.004292	-0.000347	-0.001498	-0.006264	-0.003142
400	0.000474	-0.000183	-0.001498	-0.003306	-0.000841
401	0.000967	-0.000183	-0.002155	-0.000676	-0.001334
402	-0.001005	0.000146	-0.000841	-0.003963	-0.005443
403	-0.001169	0.000146	-0.000347	-0.003142	-0.001005
404	0.000474	-1.9e-05	-0.000347	-0.002813	-0.003142
405	-0.001498	0.000146	0.000474	-0.000841	-0.002813
406	-0.000512	-1.9e-05	0.003761	-0.002977	-0.003142
407	0.000803	-1.9e-05	0.000146	-0.000183	-0.003963
408	-0.001827	-1.9e-05	0.000967	-0.002648	0.000803
409	-0.000676	-0.000512	0.000639	-0.001005	-0.002155
410	0.003926	-0.000347	0.000146	-0.003142	-0.001334
411	-0.000841	-0.000347	-0.001498	-0.001169	-0.006264
412	0.000146	-0.000347	0.002282	-0.001334	-0.005443
413	-0.000183	0.00031	0.002118	-0.00232	-0.004456
414	-0.00347	-1.9e-05	-0.002977	-0.003142	-0.001498
415	-1.9e-05	0.000639	-0.001662	-0.001334	0.000803
416	-0.001169	0.001625	-0.003142	-0.002155	-0.002813
417	-0.003799	0.000803	-0.002648	-0.003306	-0.001662
418	-0.00232	0.000146	-0.000347	-0.000183	-0.002484
419	-0.001169	0.000146	-0.001498	-0.003306	-0.00232
420	-0.002484	-0.000512	-0.001169	-0.000512	-0.002155
421	-0.001662	-0.000347	-0.001005	-0.002484	-0.002813
422	-0.001662	-0.000183	-0.002484	-0.003142	-0.002648
423	-1.9e-05	-0.000347	-0.000347	-0.000183	-0.009387
424	-0.000676	-1.9e-05	-0.001169	0.00031	-0.004128
425	0.002611	-1.9e-05	-0.001334	-0.001827	-0.001169
426	0.001789	-0.000183	-0.003306	0.00146	-0.00232
427	-0.000183	-0.000512	-0.004128	-0.001827	-0.001334
428	-0.002813	0.001789	-0.002648	0.000639	-0.000512
429	-1.9e-05	-0.000183	0.000146	-0.003306	-0.001498
430	-0.001498	0.000967	-0.002813	-0.005443	-0.001662
431	-0.001991	-0.002648	-0.001662	-0.001827	0.000639
432	-0.002977	0.000474	-0.000841	-0.003306	-0.003635
433	0.000803	-0.000347	-0.001005	-0.00347	-0.001991
434	-0.003306	0.000146	-0.000676	-0.003799	-0.007579
435	-0.002155	0.000146	-0.003963	-0.004621	-0.001169
436	-0.004621	0.00146	-0.000841	-0.001827	-0.006429
437	-0.003635	0.000146	-0.00347	-0.000347	-0.002977
438	-0.001827	-0.000676	-0.001005	-0.003635	-0.002977
439	-0.002484	0.002447	0.001132	-0.002484	-0.002484
440	-0.001005	0.00031	-0.000676	-0.002155	-0.004292
441	-0.001991	-0.001991	-0.002813	-0.000347	-0.004785
442	-0.001334	0.000146	-0.001169	-0.001169	-0.000512
443	-0.001662	0.000639	0.001132	0.000803	-0.002484
444	0.000639	-0.001334	-1.9e-05	-0.000183	-0.001169
445	-0.003799	0.000146	0.00146	-0.000512	0.001954
446	-0.003142	-1.9e-05	-0.001991	-0.004128	-0.001498
447	-0.001169	0.00031	-0.001991	-0.002813	-0.002155
448	-0.003306	-0.001169	-0.001498	-0.001169	0.000474
449	-0.002977	-0.000512	-0.000183	-0.008072	-0.001991
450	-0.00347	-0.000347	-0.001662	-0.003142	-0.005771
451	-0.001169	0.002611	-0.000512	-0.003799	-0.002484
452	-0.003142	0.00146	0.000146	-0.002813	-0.001169
453	0.001789	0.000803	0.000639	-0.001334	-0.00232
454	-0.00347	0.000639	-0.004128	-0.000347	-0.001334
455	0.000146	-0.000512	-1.9e-05	-0.004785	-0.001991
456	-1.9e-05	0.002447	-0.000676	0.002118	0.001789
457	-0.001005	-0.000676	-0.003963	0.000146	-0.002813
458	-0.000183	-1.9e-05	-0.004128	-0.000512	0.000803
459	0.00146	-0.000347	-0.002155	-1.9e-05	-0.001334
460	0.000146	0.000474	-0.003635	-0.005771	-0.00347
461	0.001132	0.00031	-0.001991	-0.001498	-0.002813
462	-0.002155	-0.000183	0.000474	-0.001005	-0.003799
463	0.001296	-0.000512	0.000639	0.000474	0.001296
464	0.000146	-0.000841	-0.001827	-0.004621	-0.000676
465	-0.00347	-0.001005	-0.000841	-0.001005	0.003761
466	0.002611	0.000146	-0.000676	-0.003306	-0.001005
467	-0.002484	-0.000183	-0.002813	-0.001169	0.000146
468	-0.001991	-1.9e-05	-0.001334	-0.000512	-0.001662
469	-0.001169	0.000146	-0.002977	-0.003142	-0.002155
470	0.000639	0.00031	-0.001005	-0.001334	-0.001169
471	-0.004949	0.000146	-0.002813	-0.00347	-0.004621
472	0.001132	0.000146	-0.001991	-0.005278	-0.00347
473	-0.003635	0.000146	-0.002977	-0.001005	-0.004621
474	-0.001334	-0.000183	-0.000512	-0.003142	-0.001498
475	0.000639	-0.000512	-0.005936	-0.001662	-0.003635
476	0.000146	-0.000183	-0.00347	-0.000347	-0.002155
477	-0.001005	-0.000347	-0.00347	-0.00232	-0.002813
478	-0.000347	-0.000347	-0.005278	-0.001169	-0.001169
479	0.000146	0.000146	-0.004128	-0.000512	-0.001334
480	0.000146	0.000146	-0.004128	-0.001005	-0.001991
481	-1.9e-05	0.000474	-0.002813	-0.001991	-0.001498
482	-0.002813	0.000146	-0.003306	0.001625	-0.000676
483	-0.001005	0.000146	-0.000347	-0.003799	-0.004292
484	-0.003142	-1.9e-05	-0.002977	-0.001827	0.000146
485	-0.001827	-0.000183	0.001296	-0.002813	0.000474
486	-0.004785	-0.000347	-0.001827	0.002447	-0.003142
487	-0.001498	-0.000183	-0.000512	-0.001827	-0.002155
488	-0.001991	-0.000347	-0.001498	-0.001827	-0.004785
489	-0.000512	-0.000347	-0.006429	-0.00347	-0.001498
490	-0.002484	-1.9e-05	-0.004621	-0.002155	-0.003142
491	-0.000841	0.000474	-0.000183	-0.000676	-0.002484
492	-0.001827	0.000474	-0.004292	-0.001991	-0.004621
493	-0.002648	0.00031	-0.002648	0.004583	-0.001991
494	-0.001169	0.00031	-0.000841	-0.002484	-0.002155
495	-0.00232	-1.9e-05	-0.003142	-0.001169	-0.002813
496	0.001789	-0.000183	0.000967	-0.00232	-0.001498
497	-0.002155	-0.000512	-0.002484	-0.002648	-0.000841
498	-0.003306	-0.000347	-0.000676	-0.002484	-0.001334
499	-0.006429	-0.000347	-0.002648	-0.001334	-0.001005
500	-0.003306	-0.000183	-0.007908	-0.002155	0.002282
501	-0.004621	0.000146	-0.005278	-0.004292	-0.004949
502	-0.004128	0.000146	-0.000676	-0.004128	-0.000183
503	-0.003142	0.000474	-1.9e-05	-0.001991	-0.002813
504	-0.002155	0.000474	-0.003306	0.001296	-0.000841
505	-0.003142	0.00031	-0.005114	-0.002813	-0.001662
506	-0.001662	-0.000183	-0.001498	-0.00725	-0.003306
507	-0.004785	-0.000183	-0.001334	-0.002484	-0.000676
508	-0.000183	-0.000183	-0.005278	-0.001334	-0.001991
509	-0.002648	-0.000183	-0.000841	0.000474	-0.001498
510	-0.001498	-0.000347	-0.005607	-0.003635	-1.9e-05
511	-1.9e-05	-0.000183	-0.007744	0.000967	0.000803
512	0.00031	-1.9e-05	-0.001334	0.000474	-0.000841
513	-0.001005	0.00031	-0.001827	0.000967	-0.000841
514	-0.00232	-0.000347	-0.004128	-1.9e-05	-0.001662
515	-0.000676	0.00031	-0.001498	-0.001498	0.001132
516	-0.001169	-1.9e-05	-0.003142	-0.000676	-0.00347
517	-1.9e-05	-0.000676	-0.003142	-0.00232	-0.001827
518	-0.000512	0.000146	-0.001991	-0.000676	-0.000512
519	-0.001334	-1.9e-05	-0.000347	-0.002484	-0.000183
520	-0.00347	-0.000183	-0.001827	-0.000512	-1.9e-05
521	-0.001005	-0.000347	-0.001662	-0.00347	-0.001169
522	-0.002484	-0.000183	0.000474	-0.001005	-0.003142
523	-0.003306	0.000146	-0.003142	-0.001991	-0.001827
524	-0.001991	0.00031	-0.003306	-0.002648	-0.002155
525	-1.9e-05	-1.9e-05	-0.000841	-0.001334	-0.00347
526	-0.000183	0.000474	-0.001169	-0.001662	-0.003799
527	-0.001169	0.00031	-0.003142	-0.002648	-0.000676
528	0.002118	-0.000347	-0.005607	0.002611	-0.002484
529	-0.001334	-1.9e-05	-0.005114	-0.005607	-0.000841
530	0.000146	-1.9e-05	-0.001169	-1.9e-05	-0.00232
531	-0.001334	-0.000347	-0.002977	-0.000183	-0.00347
532	0.000474	-0.000347	-0.005278	-0.002813	-0.000841
533	-0.000841	0.000146	-0.000183	0.000474	0.000803
534	0.001132	-1.9e-05	-0.003306	-0.001498	-0.001005
535	-0.000841	0.000146	-0.002813	0.000639	-0.002484
536	0.003104	0.00031	-0.00232	-0.002813	-0.000676
537	0.00031	0.000474	-0.002977	-0.002813	-0.002155
538	0.000474	0.00031	-0.001991	-0.001498	-0.003306
539	-0.001662	-0.000183	-0.004621	-0.003306	-0.001827
540	-0.000347	-0.000183	-0.002155	-0.003799	-0.001498
541	-0.001498	-0.000183	-0.00232	-0.001498	-0.002155
542	-0.00232	-0.000347	-0.003306	-1.9e-05	-0.003799
543	-0.001005	-0.000183	-0.006264	-0.003306	-0.002648
544	-0.000841	-0.000183	-0.003799	0.000639	-0.001334
545	-0.000841	0.000146	-0.004128	-0.001005	-0.001498
546	-0.00232	0.000146	-0.004949	-0.000676	-0.003306
547	-0.001005	0.00031	-0.004949	-0.001498	-0.00232
548	-0.001827	-1.9e-05	-0.00232	-1.9e-05	-0.00347
549	-0.001662	0.00031	-0.001827	-0.004456	-0.001005
550	-0.001991	-0.000183	-0.005114	-0.000841	0.000146
551	-0.002813	-0.000183	-0.003142	-0.002155	-0.001005
552	-0.00232	-0.000512	-0.001498	-0.004621	-0.001498
553	-0.002155	-0.000347	-0.001498	-0.002648	0.000639
554	-1.9e-05	-0.000512	-0.002977	-0.000841	-0.002813
555	-0.000512	-0.000347	-0.001334	-1.9e-05	0.000967
556	-0.000512	0.000639	-0.002648	-0.002813	-0.001498
557	-0.002155	-0.000183	-0.003963	-0.002484	-0.001169
558	0.000967	0.000803	-0.004456	-0.002155	-0.001005
559	-0.000512	0.000146	-0.001005	-1.9e-05	-0.002648
560	-0.00232	0.000639	-0.004785	-0.007579	-0.002648
561	-0.003635	-1.9e-05	-0.003799	-0.001498	-0.000676
562	-0.001169	-0.000183	-0.000676	-0.001498	-0.001991
563	-0.003142	-1.9e-05	-1.9e-05	-0.001169	-0.001498
564	-0.001498	-0.000676	-0.000676	-0.001827	-0.003963
565	-0.00232	-0.000347	0.000639	-0.00232	-0.003963
566	0.002447	-0.000841	-0.000183	-0.002484	0.00031
567	-0.00347	-0.000183	-1.9e-05	0.000639	-0.003142
568	-0.000512	-0.001169	0.000639	-0.001827	-0.002155
569	0.000474	-0.001662	0.001954	-0.001498	-0.002484
570	-0.003306	-0.000512	0.000967	-0.000347	0.002282
571	-0.001662	0.000146	0.00031	-0.003142	-0.000347
572	-0.003635	0.001789	0.000639	-0.001169	-0.00347
573	-0.001334	-0.001991	-1.9e-05	-0.002813	0.001132
574	-0.002484	-0.003306	-0.000512	-0.003142	0.000146
575	-0.00347	0.000967	-0.000676	-0.004292	-0.001169
576	0.00031	-0.001498	-0.000676	-0.001005	-0.001498
577	-0.000347	0.001132	0.000803	-0.004128	-0.003142
578	-0.001169	-0.001005	-0.000512	0.00031	-0.000676
579	-0.000183	0.002118	0.000146	-0.001169	-0.001662
580	-0.002155	0.00146	-0.000183	-0.001334	-0.00347
581	-0.001498	-0.000512	0.000474	-0.002484	-0.001991
582	-0.003799	0.000967	0.001132	-0.001498	-0.000676
583	-0.002155	-0.000183	-0.000676	-0.002813	-1.9e-05
584	-0.002155	0.00146	-0.000347	-0.003963	-0.003635
585	-0.000676	0.000639	0.000639	-0.002155	-0.001169
586	-0.001005	-0.001827	-0.000512	-0.001334	-0.00232
587	-0.001005	-0.002813	0.001132	-0.004456	-0.001498
588	0.001954	-0.002484	-1.9e-05	-0.001498	-0.000512
589	-0.004949	-0.004292	-0.000347	-0.000183	-0.004128
590	-0.002155	-0.003799	0.000146	-0.001991	-0.002155
591	-0.001334	-0.003635	0.000146	-0.001334	-0.003142
592	-0.001662	-0.003142	0.00031	-0.001334	-0.002155
593	-0.003142	0.000146	0.000639	-0.003635	-0.003142
594	0.000146	-0.001169	-0.000512	-0.002648	-0.003142
595	-0.003142	-0.000512	-0.000347	-0.001662	-0.001991
596	0.000803	-0.001169	-0.000512	-0.0061	-0.001334
597	-0.001169	0.001625	-0.000347	-0.003635	-0.002813
598	0.000639	-0.001169	-0.000676	-0.002484	-0.001662
599	-0.001991	-0.000347	-0.002484	-0.002648	-0.005771
600	-0.001662	-0.000841	0.001296	-0.002813	-0.000841
601	-0.001005	-0.000841	-0.000347	-0.001662	-0.000183
602	-0.000676	-0.001498	-1.9e-05	-0.002155	-0.001827
603	-0.002155	-0.000676	-0.000841	-1.9e-05	-0.003142
604	-0.001662	-0.002155	0.003433	0.000639	-0.001827
605	-0.001005	0.000639	-0.001662	0.000803	-0.004292
606	-0.000512	-0.001334	-0.000347	0.001954	-0.002648
607	0.001625	-0.002155	0.000474	-0.001662	-0.000512
608	0.000639	0.000146	-0.001827	-0.000676	-0.002648
609	-0.000183	-0.004785	0.00146	-0.001662	-0.001991
610	-0.002484	-0.001498	0.005569	0.00031	-0.000841
611	-0.001991	-0.002155	0.00031	0.000474	-0.004292
612	-0.001662	-0.000841	-0.001662	-0.000512	-0.002977
613	0.000146	-0.000676	-0.000841	-0.000183	-0.004128
614	-0.002484	0.000146	-0.002977	0.001296	-0.008237
615	-0.000841	-0.000841	-0.003142	-0.001334	-0.002813
616	-0.001498	0.003104	0.000803	-0.000183	-0.003963
617	-0.00232	-0.000183	-0.003799	-0.001005	-0.003306
618	-1.9e-05	0.000803	-0.001991	-0.001005	-0.003635
619	0.00031	-0.000676	-0.002977	-0.000183	-0.003963
620	-0.000183	-0.006593	-0.002813	-0.001827	-0.000841
621	-0.000512	-0.002813	-0.005278	-0.000183	-0.00232
622	0.000146	-0.002484	-0.004621	-0.001991	-0.003635
623	-0.003142	-0.002977	-0.000347	0.001789	-0.001827
624	0.005241	-0.000183	-0.003142	-0.001005	-0.001827
625	-0.002648	-1.9e-05	-0.001498	-1.9e-05	-0.002155
626	-0.002155	-0.002813	0.000146	-0.001498	-0.001991
627	-0.000347	0.002282	-0.005607	-0.000512	-0.004785
628	-0.001498	-0.000841	-0.000183	-0.001662	-0.001005
629	-0.001991	-0.001334	-0.001498	0.003104	-0.002813
630	-0.000512	0.00146	-0.001991	-0.001169	-0.003306
631	-0.003306	-0.011524	-0.001498	-0.003799	-0.001991
632	-0.001334	-0.001827	-0.000512	-0.001498	-0.002155
633	-0.002155	-0.002484	-0.000512	-0.001169	-0.005607
634	-0.002813	-0.001827	-0.000841	-0.000347	-0.002813
635	-0.000512	-0.002648	-0.000183	-0.001991	-0.004128
636	-0.003963	-0.000512	-0.002155	-0.000512	-0.005443
637	-0.001827	-0.00232	-0.000183	0.000146	-0.003142
638	-0.003963	-0.001334	-0.001498	0.001954	-0.005443
639	-0.004621	0.000803	0.000146	-0.001662	-0.00232
640	-0.002813	0.00031	-0.000183	-0.000347	-0.000183
641	0.00146	0.000474	0.000639	-0.001662	-0.002484
642	-0.002648	-0.002484	-1.9e-05	-0.002977	-0.000183
643	-0.001498	-0.001991	0.003268	-0.001005	-0.001005
644	0.000474	0.00031	-0.000676	-0.001991	-0.001991
645	0.000639	-0.001662	0.000474	-0.002648	-1.9e-05
646	-0.003963	0.000803	-0.000183	-0.001991	-0.001498
647	-0.004128	0.000639	-0.000512	-0.001827	0.000146
648	-0.002648	-0.001662	0.000474	-0.004621	-0.001169
649	-0.002813	-0.002155	0.004583	-0.002813	-0.001827
650	-0.003799	0.000474	0.001789	-0.006593	-0.003142
651	-0.003635	-0.001991	-0.001005	-0.001991	-0.003306
652	-0.000676	-1.9e-05	0.000967	-0.004456	-0.002977
653	-0.00347	0.005734	-0.001169	-0.005443	-0.001005
654	-0.002648	-0.001827	0.000474	-0.004292	-0.000841
655	-0.00347	-1.9e-05	-0.001334	-0.001005	-0.002484
656	0.002447	0.002447	-0.000841	-0.000676	0.00031
657	-0.002813	0.000639	-0.000676	0.00031	0.000146
658	0.000146	-0.000183	0.001132	-1.9e-05	-0.001169
659	-0.002484	-0.001662	0.000803	-0.002155	-0.001334
660	-0.002155	-0.001662	0.002282	-0.002484	-0.001169
661	0.00031	0.001296	-0.000512	-0.002484	-0.002155
662	-0.001169	-0.001662	0.002118	-0.00232	0.001132
663	-1.9e-05	-0.001169	0.000146	-0.000347	-0.001169
664	-0.000676	0.00294	-0.001334	-1.9e-05	-0.001005
665	-0.001169	-0.000183	-0.000347	-0.002648	-0.002648
666	-0.000512	0.000803	-0.001005	0.00031	-0.001169
667	-0.001662	0.001132	-0.000676	-0.002813	-0.004785
668	-0.002813	0.001625	-0.000347	-0.001169	-0.001169
669	-1.9e-05	-0.001169	0.002282	-0.001991	-0.003799
670	-0.001991	0.00031	0.00146	-0.001827	-0.002813
671	-0.000841	0.001296	0.000803	-0.000183	-0.00347
672	-0.000183	0.000803	-0.000676	-0.000512	-0.003142
673	0.000639	0.00031	0.001132	-0.001334	-0.000841
674	0.000146	0.002282	-0.001005	0.001789	-0.00347
675	0.000474	0.002118	0.000639	-0.001334	-0.002813
676	-0.000841	0.001132	0.002118	0.00031	-0.002977
677	-0.004621	0.000474	-0.001169	-0.001991	-0.001498
678	-0.000512	0.001132	-0.00347	-0.000183	-0.004128
679	0.000146	0.000639	0.000146	0.00409	-0.002155
680	0.001296	-0.00232	0.000474	-0.003306	-0.001662
681	-0.000183	-0.001498	-0.001662	-0.001498	-0.00232
682	-0.003799	0.001954	0.000803	-0.001662	-0.003635
683	-0.002484	0.002775	0.002447	-0.001991	-0.001662
684	-0.004292	0.002775	0.00294	-0.00347	-0.002484
685	-0.001991	0.000474	0.002282	0.000803	-0.002977
686	0.001625	0.003104	0.002447	-0.004292	-0.003142
687	-0.004292	0.002611	0.000967	0.00146	-0.004456
688	-0.000676	0.000474	0.000967	-0.00232	-0.005771
689	-0.004949	0.001296	-0.000676	-0.000841	-0.003142
690	-0.001334	0.001625	0.001625	-0.001498	-0.001991
691	-0.000512	0.00146	0.001132	0.002282	-0.006593
692	-0.00347	0.002611	0.000639	-0.002155	-0.002977
693	0.000967	0.003268	0.002118	-0.001334	-0.003799
694	-0.001498	0.001132	0.002447	0.000146	0.002447
695	0.001296	0.005076	0.004419	-0.001005	-0.003963
696	-0.003635	0.001132	0.001954	-0.000676	-0.000512
697	-0.004621	0.003761	0.003597	-0.004292	-0.001827
698	-0.005936	0.003926	0.00409	-0.001334	-0.000347
699	-0.001827	0.003433	-0.000676	-0.00347	-0.000841
700	-0.007744	0.003597	-0.002648	-0.002484	-0.001827
701	-0.004949	0.003104	0.003433	-0.002648	0.00146
702	-0.005607	0.004912	0.001789	-0.002484	-0.003142
703	-0.001498	0.001954	0.00146	-0.001991	-0.00232
704	-0.003635	0.00409	-0.000841	-0.001498	-0.003306
705	-0.001498	0.003433	0.002447	-0.002155	-0.000676
706	-0.001991	0.004748	0.00146	-0.001827	-0.00232
707	-1.9e-05	0.007542	0.001296	-0.000841	-0.001005
708	-0.001991	0.005734	0.001625	-0.000512	-0.002813
709	-0.003142	0.002447	0.002447	-0.000512	-0.000183
710	0.00031	0.00409	0.002447	-0.002648	-0.001498
711	-0.007908	0.001132	0.001789	0.000967	-0.001005
712	-0.000676	0.001954	0.001789	-0.000183	0.00031
713	-0.004128	0.002775	0.000803	0.002282	-0.001005
714	0.000967	0.002118	0.00031	-0.000183	-0.002484
715	-0.002484	0.004912	-0.000676	-0.001498	0.003597
716	-0.001169	0.002282	0.006556	-0.000676	0.003926
717	-0.003799	0.005076	-0.000512	-0.001827	-0.001169
718	0.000146	0.004255	0.002611	-0.002155	-0.000676
719	-0.00232	0.004748	0.00409	-0.001498	-0.000841
720	0.002118	0.003597	-0.001334	-0.003635	-0.001827
721	-0.005114	0.004583	-0.004785	-0.000676	-0.001827
722	-0.006264	0.001132	0.001296	-0.002155	-0.002813
723	-0.002977	0.007049	-0.000841	-0.002155	-0.002813
724	-0.000183	0.005241	-0.000183	-0.000512	-0.000676
725	0.000803	0.003926	0.000639	-1.9e-05	-0.002648
726	0.000967	0.00672	-0.004128	-0.001005	-0.002648
727	0.002447	0.005734	0.00031	-0.001498	-1.9e-05
728	-0.00347	0.003268	-0.001498	-1.9e-05	-0.000512
729	0.001625	0.00409	-0.001827	0.002118	-0.000512
730	-0.001498	0.006062	-0.000347	0.00031	0.000639
731	0.001296	0.005076	0.000639	-0.001498	0.00031
732	-0.001334	0.006391	-0.006429	-0.000183	0.002282
733	0.001954	0.003268	-0.00232	-0.002484	-0.000676
734	-0.001827	0.006227	-0.001991	-0.000512	-0.003963
735	-0.001005	0.003597	-0.001827	-0.001334	0.00031
736	-0.002484	0.002775	0.00031	-1.9e-05	-0.001827
737	-0.002813	0.003597	-0.001991	-0.001169	-0.001005
738	-0.001498	0.006227	-0.001334	-0.002648	-0.00347
739	0.000803	0.001954	-0.001334	-0.001169	-0.002155
740	-0.000512	0.004419	-0.003306	-0.003142	-0.005443
741	0.004255	0.004419	-0.001334	-0.000347	-0.002648
742	-0.000512	0.006556	-1.9e-05	-0.000347	-0.001662
743	0.000967	0.007542	-0.003142	0.001789	-0.001827
744	0.005734	0.004583	-0.001334	0.00031	0.00031
745	-0.000841	0.00672	-0.001334	0.000474	0.000639
746	-0.000183	0.005405	-0.001334	0.000474	-0.001827
747	-0.003306	0.002447	-0.001169	-0.000347	-0.001498
748	-0.005278	0.007706	-0.000347	-0.002648	0.004912
749	-0.000183	0.006884	0.002447	-0.000512	-0.004456
750	-0.003142	0.002775	0.001296	-0.001334	0.000474
751	0.002118	0.007542	0.001296	0.004748	0.002447
752	0.008035	0.011815	0.010829	0.009021	0.0105
753	0.011651	0.014938	0.018554	0.020197	0.020362
754	0.024306	-1.9e-05	0.021183	0.026114	0.024142
755	0.026936	0.001789	0.031209	0.034168	0.03236
756	0.033674	0.006884	0.039263	0.039263	0.038934
757	0.040577	0.017567	0.043865	0.044522	0.046823
758	0.047645	0.02332	0.05011	0.05537	0.052575
759	0.058985	0.030552	0.059807	0.057506	0.057013
760	0.059314	0.036962	0.060629	0.065724	0.061944
761	0.06408	0.04107	0.069669	0.069833	0.066875
762	0.071312	0.047152	0.072134	0.079366	0.07197
763	0.077722	0.05652	0.079366	0.081174	0.077886
764	0.080681	0.054876	0.082324	0.087419	0.083475
765	0.086433	0.053562	0.08857	0.089227	0.087255
766	0.089556	0.055698	0.091364	0.094651	0.091528
767	0.092514	0.049617	0.097609	0.09876	0.097609
768	0.09613	0.044686	0.100239	0.102704	0.100403
769	0.102704	0.037455	0.101061	0.104841	0.105005
770	0.104677	0.04255	0.111744	0.109607	0.107635
771	0.109443	0.046823	0.112894	0.112237	0.111251
772	0.110922	0.04896	0.116346	0.115031	0.113716
773	0.116346	0.056356	0.118647	0.119633	0.117661
774	0.120291	0.05274	0.123413	0.120291	0.121112
775	0.120619	0.03992	0.123578	0.127029	0.120948
776	0.124564	0.000639	0.124399	0.128015	0.124728
777	0.132946	0.005569	0.130645	0.13311	0.127194
778	0.133603	0.010829	0.134097	0.13459	0.130152
779	0.135083	0.019375	0.131631	0.140342	0.131796
780	0.138205	0.025128	0.135904	0.140671	0.13952
781	0.140013	0.032524	0.138205	0.143794	0.138534
782	0.142479	0.038605	0.143629	0.143958	0.143301
783	0.143465	0.040249	0.143794	0.147409	0.143136
784	0.148396	0.031538	0.146588	0.14971	0.145602
785	0.147245	0.039427	0.150368	0.150039	0.146259
786	0.151847	0.04255	0.15234	0.152505	0.14856
787	0.152011	0.046494	0.153491	0.153984	0.103197
788	0.156613	0.051754	0.156778	0.156285	0.000639
789	0.154641	0.03614	0.157764	0.155463	-1.9e-05
790	0.157435	0.042057	0.1576	0.159901	0.000803
791	0.162366	0.043536	0.157764	0.162366	-0.000841
792	0.1576	0.046494	0.160887	0.16138	0.002118
793	0.163681	0.046987	0.16253	0.162859	0.003926
794	0.160558	0.048631	0.161709	0.165817	0.008363
795	0.168447	0.049288	0.166311	0.166311	0.011815
796	0.169105	0.053562	0.165489	0.167625	0.018225
797	0.168447	0.054055	0.167132	0.167461	0.026771
798	0.166639	0.054548	0.165489	0.170913	0.028744
799	0.173214	0.063916	0.167625	0.169926	0.037126
800	0.168612	0.067532	0.171241	0.172392	0.042878
801	0.174364	0.068354	0.176008	0.179459	0.048795
802	0.173378	0.074435	0.173049	0.176829	0.051589
803	0.172392	0.076572	0.17535	0.176994	0.062601
804	0.175679	0.078544	0.176994	0.176994	0.066875
805	0.174693	0.084625	0.175515	0.178473	0.073942
806	0.17798	0.085611	0.178309	0.179459	0.070819
807	0.179623	0.093172	0.178637	0.180938	0.078873
808	0.178802	0.090378	0.179623	0.179788	0.085611
809	0.174857	0.090542	0.178802	0.182582	0.088898
810	0.18176	0.095801	0.179295	0.18061	0.093993
811	0.177815	0.098924	0.177815	0.182746	0.097116
812	0.175186	0.099253	0.180445	0.184225	0.10139
813	0.118154	0.104019	0.179623	0.188499	0.104019
814	0.120455	0.105005	0.181267	0.182089	0.111087
815	0.124235	0.108293	0.182253	0.182253	0.111744
816	0.128837	0.108786	0.181596	0.186198	0.116346
817	0.129988	0.110922	0.184061	0.186198	0.119469
818	0.134097	0.111744	0.184225	0.187348	0.123906
819	0.135576	0.114209	0.188006	0.188827	0.123085
820	0.138041	0.116346	0.186526	0.190142	0.128673
821	0.141164	0.116839	0.186033	0.187677	0.129166
822	0.140671	0.117661	0.182582	0.188334	0.132289
823	0.145766	0.051096	0.188992	0.189649	0.134754
824	0.145273	0.045015	0.185047	0.187513	0.136398
825	0.148396	0.023813	0.190471	0.187184	0.138863
826	0.149546	0.018882	0.189156	0.190471	0.140013
827	0.148724	0.012637	0.186526	0.18932	0.143794
828	0.148889	0.011815	0.185212	0.189649	0.14971
829	0.154312	0.009021	0.188006	0.188992	0.148889
830	0.158257	0.014445	0.18932	0.191128	0.149382
831	0.159901	0.017074	0.185376	0.192936	0.15119
832	0.16138	0.024964	0.188827	0.193922	0.152505
833	0.161873	0.030387	0.191128	0.189649	0.153655
834	0.163188	0.037783	0.190635	0.194744	0.156285
835	0.16516	0.045837	0.191457	0.191786	0.159408
836	0.167297	0.046823	0.189649	0.1908	0.159079
837	0.166804	0.050439	0.184883	0.193265	0.160229
838	0.170255	0.056027	0.184554	0.192279	0.162037
839	0.171077	0.06293	0.183075	0.191786	0.161873
840	0.172063	0.066381	0.182746	0.195566	0.163188
841	0.17272	0.070326	0.180116	0.197374	0.163681
842	0.171077	0.075585	0.177322	0.192279	0.168118
843	0.174035	0.081995	0.175515	0.194416	0.168776
844	0.174693	0.085447	0.171899	0.193101	0.16894
845	0.175679	0.089227	0.169105	0.194087	0.170091
846	0.177651	0.091857	0.168447	0.190635	0.17272
847	0.178309	0.095637	0.170419	0.192443	0.172227
848	0.182417	0.097445	0.166311	0.194251	0.174857
849	0.175679	0.101718	0.162202	0.193265	0.173542
850	0.180938	0.08709	0.16138	0.191786	0.174857
851	0.182582	0.081995	0.160394	0.193922	0.17535
852	0.183404	-0.000183	0.162202	0.195895	0.176829
853	0.183239	0.000474	0.158586	0.195402	0.178802
854	0.18439	-0.001169	0.155956	0.196388	0.179788
855	0.188663	0.010993	0.156778	0.195237	0.179788
856	0.184883	0.020526	0.153491	0.198031	0.180938
857	0.185705	0.025457	0.157107	0.194909	0.185376
858	0.185376	0.034168	0.155627	0.195566	0.17913
859	0.187841	0.03729	0.153819	0.194416	0.18061
860	0.188499	0.047152	0.152011	0.196059	0.184225
861	0.188499	0.051096	0.151683	0.195237	0.181596
862	0.190307	0.059314	0.150039	0.197045	0.178966
863	0.188499	0.066381	0.15119	0.19458	0.182582
864	0.189814	0.07049	0.151025	0.19573	0.182911
865	0.1908	0.072956	0.154312	0.197703	0.183897
866	0.189649	0.078051	0.152998	0.197703	0.182746
867	0.190635	0.082324	0.1576	0.19721	0.183568
868	0.190307	0.086269	0.164338	0.197703	0.184554
869	0.188334	0.091035	0.162859	0.198031	0.185376
870	0.191293	0.093829	0.164831	0.194909	0.186033
871	0.1908	0.09613	0.163681	0.202962	0.186033
872	0.193594	0.099089	0.16894	0.196388	0.187348
873	0.192608	0.101225	0.167954	0.201483	0.184718
874	0.194087	0.10517	0.171406	0.194087	0.185376
875	0.192608	0.111251	0.168776	0.199182	0.186691
876	0.192443	0.111908	0.171406	0.199346	0.189649
877	0.193429	0.115853	0.169269	0.196552	0.186526
878	0.193594	0.119797	0.169105	0.19573	0.186855
879	0.195566	0.12177	0.171241	0.196059	0.187019
880	0.193429	0.125386	0.174693	0.194909	0.189485
881	0.192115	0.127522	0.17272	0.196552	0.18817
882	0.190307	0.128508	0.173214	0.198196	0.189814
883	0.196223	0.131302	0.176994	0.197045	0.189978
884	0.196223	0.135247	0.176008	0.199675	0.180938
885	0.195073	0.13459	0.179952	0.197703	0.186691
886	0.196881	0.13574	0.178309	0.199675	0.186855
887	0.197374	0.138699	0.181103	0.197045	0.189156
888	0.194087	0.137055	0.18176	0.200497	0.188663
889	0.196881	0.139192	0.182089	0.198689	0.187184
890	0.194909	0.143301	0.183239	0.200332	0.18817
891	0.196552	0.14478	0.185705	0.197045	0.192279
892	0.196059	0.147738	0.183897	0.195402	0.191786
893	0.195566	0.148067	0.186526	0.197374	0.195073
894	0.196059	0.150039	0.185047	0.196388	0.191457
895	0.195237	0.153819	0.185705	0.19721	0.187019
896	0.196388	0.153326	0.185869	0.197703	0.192115
897	0.194087	0.155627	0.184225	0.197538	0.193101
898	0.196552	0.156613	0.186198	0.196223	0.192608
899	0.193429	0.157764	0.186855	0.195566	0.192608
900	0.194416	0.158914	0.188663	0.191786	0.191457
901	0.194744	0.159901	0.18554	0.197045	0.191293
902	0.194251	0.160394	0.18817	0.194909	0.195402
903	0.19195	0.162695	0.187019	0.195237	0.192608
904	0.192443	0.160722	0.191293	0.196059	0.193758
905	0.196717	0.164503	0.189978	0.198524	0.193758
906	0.197703	0.16779	0.189156	0.199018	0.194087
907	0.195895	0.163845	0.191457	0.199018	0.19458
908	0.19836	0.163516	0.192115	0.198196	0.197045
909	0.196717	0.166311	0.192115	0.197867	0.194416
910	0.196552	0.165817	0.193101	0.196388	0.195895
911	0.197374	0.16894	0.192443	0.196881	0.19458
912	0.196881	0.170748	0.192772	0.195566	0.194416
913	0.197538	0.171406	0.19458	0.19836	0.196388
914	0.196223	0.171077	0.191621	0.199675	0.193758
915	0.195566	0.174364	0.19458	0.196552	0.194251
916	0.196717	0.174035	0.192608	0.198031	0.193429
917	0.198031	0.175843	0.19195	0.197703	0.200332
918	0.198524	0.176336	0.193265	0.198689	0.193265
919	0.195402	0.175021	0.192936	0.198031	0.197538
920	0.19836	0.179295	0.192115	0.197867	0.192443
921	0.198031	0.173707	0.193101	0.192608	0.193758
922	0.196717	0.178966	0.19195	0.198689	0.194744
923	0.19836	0.177815	0.191293	0.198524	0.193594
924	0.19721	0.176994	0.195402	0.200332	0.194744
925	0.198689	0.178309	0.195402	0.201154	0.196717
926	0.197703	0.180116	0.195402	0.195895	0.191621
927	0.197867	0.179623	0.192443	0.199511	0.196717
928	0.200004	0.184554	0.194744	0.200332	0.201976
929	0.199182	0.17913	0.1908	0.199346	0.194416
930	0.198689	0.182582	0.196552	0.197703	0.195402
931	0.199675	0.183404	0.193922	0.20099	0.193594
932	0.197703	0.183239	0.192443	0.188334	0.195237
933	0.192608	0.184883	0.19458	0.195073	0.193594
934	0.19836	0.186526	0.196223	0.195073	0.193594
935	0.195566	0.186526	0.193758	0.199346	0.195073
936	0.197045	0.184061	0.196881	0.200004	0.195073
937	0.193265	0.186691	0.195073	0.199675	0.1908
938	0.199018	0.183075	0.19573	0.197374	0.193758
939	0.197867	0.185212	0.195566	0.20099	0.193594
940	0.199511	0.18554	0.19573	0.199675	0.188827
941	0.198853	0.187513	0.197867	0.199346	0.186362
942	0.201319	0.186855	0.19573	0.200168	0.192772
943	0.200332	0.187513	0.196059	0.196059	0.190307
944	0.199346	0.18817	0.198853	0.199511	0.191786
945	0.19836	0.185212	0.197703	0.198524	0.192443
946	0.19836	0.191786	0.198196	0.199182	0.19195
947	0.196388	0.18817	0.199675	0.198031	0.194087
948	0.196552	0.190471	0.196223	0.198524	0.191786
949	0.197045	0.190635	0.19721	0.197374	0.192936
950	0.195402	0.191293	0.19573	0.197045	0.192936
951	0.197538	0.191128	0.198689	0.19458	0.192279
952	0.189814	0.186691	0.195073	0.197703	0.192936
953	0.185047	0.183239	0.197374	0.199182	0.192443
954	0.185869	0.183897	0.194909	0.202633	0.193101
955	0.183404	0.18439	0.196223	0.199511	0.196388
956	0.186033	0.183897	0.196717	0.199018	0.193922
957	0.186526	0.182582	0.198031	0.199675	0.190964
958	0.185376	0.183897	0.199182	0.200661	0.195566
959	0.184554	0.183732	0.196552	0.200332	0.196223
960	0.188663	0.184554	0.197538	0.198196	0.194087
961	0.184225	0.187513	0.195566	0.202798	0.197045
962	0.144451	0.182253	0.196881	0.201812	0.194251
963	0.144944	0.187348	0.195402	0.20099	0.194251
964	0.146095	0.183732	0.199182	0.19836	0.194416
965	0.135904	0.187348	0.19573	0.204277	0.194416
966	0.138041	0.187348	0.19836	0.197538	0.19573
967	0.138205	0.191128	0.195895	0.197538	0.192608
968	0.121605	0.187184	0.195073	0.19721	0.194909
969	0.087584	0.188499	0.196223	0.198196	0.195566
970	0.094815	0.187841	0.198524	0.197538	0.196223
971	0.097116	0.190142	0.196388	0.198031	0.191621
972	0.096788	0.191457	0.188827	0.199839	0.196388
973	0.093336	0.193265	0.196059	0.199839	0.191457
974	0.099417	0.190142	0.197374	0.199346	0.191786
975	0.079037	0.189814	0.19836	0.19836	0.192443
976	0.086762	0.189814	0.197045	0.204606	0.190471
977	0.087748	0.193265	0.196388	0.197867	0.19573
978	0.087419	0.183075	0.195895	0.200004	0.185376
979	0.089391	0.182911	0.197538	0.198853	0.185047
980	0.089556	0.184554	0.196552	0.202305	0.179295
981	0.093336	0.183075	0.200004	0.200004	0.179952
982	0.096294	0.184718	0.196717	0.196388	0.176994
983	0.101554	0.183897	0.194909	0.199182	0.180938
984	0.10139	0.183568	0.195402	0.19721	0.178637
985	0.104677	0.187841	0.199018	0.195237	0.180281
986	0.108128	0.18176	0.197867	0.199839	0.178966
987	0.107635	0.184718	0.199346	0.199346	0.179788
988	0.109772	0.066053	0.198196	0.19458	0.177322
989	0.108786	0.014445	0.196059	0.199182	0.178966
990	0.107635	0.01576	0.199839	0.198196	0.179952
991	0.108293	0.000803	0.196552	0.199511	0.180774
992	0.111251	0.003433	0.200497	0.198031	0.181431
993	0.113059	-0.000183	0.198524	0.196717	0.183075
994	0.118154	0.001296	0.200661	0.200004	0.184554
995	0.120619	0.000146	0.196881	0.199018	0.186855
996	0.125879	0.00146	0.198196	0.197703	0.18554
997	0.113223	0.00409	0.19836	0.199839	0.183075
998	0.112894	0.00031	0.20099	0.198524	0.187348
999	0.116675	0.00031	0.198689	0.195895	0.185705
1000	0.120784	-0.001169	0.201647	0.196388	0.187841
1001	0.123578	-1.9e-05	0.20214	0.195237	0.185212
1002	0.127851	-1.9e-05	0.20099	0.198196	0.188663
1003	0.129001	-0.000183	0.199018	0.19573	0.187348
1004	0.131302	-1.9e-05	0.198196	0.197045	0.184883
1005	0.136726	-0.000183	0.202798	0.195895	0.187184
1006	0.139849	-0.000183	0.19573	0.197703	0.184883
1007	0.142479	0.00031	0.197867	0.19573	0.186198
1008	0.144287	-1.9e-05	0.196223	0.196717	0.183075
1009	0.146423	0.00031	0.200825	0.197374	0.189156
1010	0.147574	-1.9e-05	0.196717	0.196223	0.187513
1011	0.150861	0.000146	0.196552	0.19458	0.187348
1012	0.15119	0.000639	0.19836	0.19458	0.189156
1013	0.15612	-1.9e-05	0.198853	0.193758	0.191457
1014	0.15497	0.001954	0.197374	0.195402	0.188663
1015	0.157928	-0.000347	0.201812	0.193922	0.192279
1016	0.159736	0.001625	0.201319	0.194744	0.192279
1017	0.160229	0.007049	0.195237	0.194087	0.191457
1018	0.161215	0.009021	0.197374	0.193594	0.190964
1019	0.164174	0.015595	0.197867	0.193265	0.191786
1020	0.164996	0.026278	0.197867	0.194744	0.192115
1021	0.166639	0.030552	0.198031	0.192115	0.191786
1022	0.165817	0.038769	0.197374	0.1908	0.190964
1023	0.167132	0.048631	0.201154	0.194087	0.192443
1024	0.171406	0.052904	0.200825	0.191128	0.192608
1025	0.169762	0.061122	0.198524	0.190142	0.186526
1026	0.171899	0.060958	0.199018	0.191293	0.196881
1027	0.17535	0.069504	0.195237	0.192443	0.193758
1028	0.175843	0.071148	0.196059	0.190635	0.193922
1029	0.173542	0.0769	0.196717	0.189978	0.192279
1030	0.178966	0.08216	0.197045	0.186691	0.19573
1031	0.179952	0.086433	0.197703	0.189649	0.192443
1032	0.177815	0.085611	0.198853	0.187677	0.194087
1033	0.180116	0.091364	0.197703	0.186526	0.193429
1034	0.180116	0.095308	0.200332	0.187348	0.196388
1035	0.18061	0.100239	0.200004	0.186198	0.191786
1036	0.179459	0.097116	0.199675	0.186198	0.188499
1037	0.181924	0.105334	0.199675	0.186526	0.187841
1038	0.181103	0.111087	0.199182	0.186198	0.184883
1039	0.182911	0.115853	0.198031	0.183897	0.176336
1040	0.182417	0.118976	0.197045	0.186691	0.164831
1041	0.18554	0.121934	0.199839	0.184061	0.16401
1042	0.183404	0.125714	0.19721	0.182582	0.163516
1043	0.183568	0.128837	0.198524	0.184554	0.161709
1044	0.185047	0.130645	0.197867	0.185047	0.152176
1045	0.187841	0.131796	0.197045	0.184554	0.152011
1046	0.187677	0.136891	0.196717	0.178637	0.139356
1047	0.188006	0.137877	0.198524	0.182089	0.104512
1048	0.187513	0.13952	0.19836	0.18061	0.080681
1049	0.18439	0.140013	0.200825	0.178309	0.072298
1050	0.184718	0.145108	0.199182	0.176336	0.054055
1051	0.188499	0.144451	0.199675	0.178309	0.025292
1052	0.186855	0.147081	0.202305	0.176665	0.01576
1053	0.183732	0.150368	0.199346	0.176501	0.012965
1054	0.18817	0.151847	0.199675	0.173542	0.007377
1055	0.185869	0.155956	0.197374	0.174364	0.005898
1056	0.188006	0.156285	0.201976	0.170255	0.005898
1057	0.188992	0.159243	0.197703	0.174857	0.000639
1058	0.192279	0.157271	0.198689	0.16894	0.001625
1059	0.189814	0.161544	0.198689	0.166968	0.000803
1060	0.190471	0.160722	0.199675	0.15497	0.002447
1061	0.190471	0.161051	0.197374	0.143958	-0.000183
1062	0.190635	0.164996	0.196552	0.143629	0.001296
1063	0.19458	0.166311	0.197374	0.143301	0.001296
1064	0.192115	0.165817	0.196717	0.143136	0.001296
1065	0.191293	0.167461	0.196552	0.141986	0.001954
1066	0.193101	0.168118	0.198031	0.14478	0.001625
1067	0.193429	0.168283	0.196717	0.143136	0.001789
1068	0.192608	0.169762	0.200332	0.143301	0.001954
1069	0.195073	0.170091	0.200825	0.144451	0.002447
1070	0.194087	0.171734	0.197374	0.137384	-0.000183
1071	0.195402	0.169762	0.200825	0.137877	0.002447
1072	0.195073	0.174035	0.197538	0.13837	0.000803
1073	0.193594	0.172227	0.19836	0.136891	0.000639
1074	0.194087	0.174364	0.197703	0.138534	0.000967
1075	0.194416	0.175021	0.195566	0.136891	0.002775
1076	0.193101	0.177815	0.19836	0.135411	-1.9e-05
1077	0.193922	0.179623	0.193101	0.137877	0.000474
1078	0.19458	0.182911	0.194909	0.13837	0.000146
1079	0.196388	0.177158	0.198031	0.138699	-0.001005
1080	0.194416	0.180445	0.051589	0.137877	-0.000183
1081	0.193758	0.179295	0.009678	0.134261	0.000474
1082	0.19458	0.177815	0.001132	0.13459	-0.000841
1083	0.191128	0.178144	0.001132	0.137219	0.000474
1084	0.195566	0.1742	0.000639	0.132617	0.000146
1085	0.199018	0.168118	0.001132	0.135247	0.00146
1086	0.194909	0.163845	0.000639	0.133603	0.001132
1087	0.194251	0.166475	-0.000183	0.123085	0.000803
1088	0.19573	0.165817	0.00031	0.124893	0.00031
1089	0.196881	0.169598	-0.000183	0.126536	0.000474
1090	0.196552	0.168447	-1.9e-05	0.124728	-0.000183
1091	0.196223	0.003761	-0.000347	0.127029	-0.001334
1092	0.196552	0.00787	-1.9e-05	0.124564	0.000967
1093	0.195073	0.022663	-0.000512	0.120291	-0.000841
1094	0.195402	0.026936	-0.000183	0.120784	-0.000183
1095	0.196388	0.034661	-0.000183	0.108786	0.000803
1096	0.197045	0.032688	0.00031	0.098431	0.000639
1097	0.194416	0.038934	0.000639	0.091857	-1.9e-05
1098	0.19458	0.045179	-0.001334	0.089391	0.000474
1099	0.195566	0.050932	0.002447	0.081009	0.000474
1100	0.195237	0.058492	0.004419	0.074764	0.000146
1101	0.193922	0.062601	0.014609	0.07197	-1.9e-05
1102	0.193429	0.068189	0.021512	0.064409	0.000146
1103	0.201976	0.066546	0.028908	0.064245	0.000146
1104	0.194416	0.076407	0.029401	0.059478	0.00031
1105	0.193922	0.083475	0.03351	0.055534	0.000967
1106	0.201154	0.088898	0.037948	0.053562	0.000146
1107	0.197538	0.090706	0.005405	0.052575	0.000146
1108	0.197045	0.097116	-0.000841	0.051096	0.000146
1109	0.197538	0.097609	0.006556	0.046823	0.000474
1110	0.19721	0.10517	0.000146	0.045837	0.000146
1111	0.196223	0.108786	0.003761	0.047645	0.000146
1112	0.198031	0.112566	0.010664	0.044522	-0.000841
1113	0.19721	0.114045	-0.000347	0.047316	-0.000183
1114	0.19836	0.11799	0.000146	0.043865	-0.000347
1115	0.196388	0.121934	0.000146	0.038769	-1.9e-05
1116	0.19836	0.120126	-1.9e-05	0.035811	-1.9e-05
1117	0.196881	0.126536	0.00031	0.032195	0.000639
1118	0.197867	0.128837	0.00031	0.020197	0.000146
1119	0.196552	0.13196	0.00031	0.016581	0.000474
1120	0.199839	0.132289	0.000146	0.01428	0.000639
1121	0.198031	0.137548	-1.9e-05	0.017732	0.00031
1122	0.198524	0.137712	-1.9e-05	0.010336	-1.9e-05
1123	0.199182	0.14215	-0.000183	0.010829	-0.000183
1124	0.199346	0.144287	-0.000183	0.008528	0.00031
1125	0.196881	0.148396	-0.000183	0.001789	-0.000841
1126	0.197703	0.14593	-0.000183	0.003597	-0.000347
1127	0.198031	0.150368	-1.9e-05	0.002611	0.000146
1128	0.196059	0.150697	0.000146	0.003433	0.000474
1129	0.198689	0.151025	0.00031	0.001296	0.000146
1130	0.196223	0.157271	0.000146	0.002775	0.00031
1131	0.19836	0.155956	0.000146	0.004583	0.000967
1132	0.196717	0.160558	-1.9e-05	0.006391	0.000146
1133	0.198196	0.158914	-0.000183	0.004748	-1.9e-05
1134	0.198031	0.161873	-0.000183	0.005241	-1.9e-05
1135	0.196717	0.160065	-0.000347	0.004255	-0.000347
1136	0.19836	0.165817	-0.000347	0.004419	-1.9e-05
1137	0.197867	0.165817	-0.000347	0.002447	-0.000841
1138	0.197538	0.166968	-1.9e-05	0.004255	0.000146
1139	0.200825	0.166475	0.000146	0.003104	0.00031
1140	0.199839	0.169926	0.000146	0.001954	0.00031
1141	0.197538	0.172227	0.000146	0.001132	0.000474
1142	0.200661	0.171734	0.000146	0.002611	0.000146
1143	0.197374	0.175843	-1.9e-05	0.000474	0.000146
1144	0.199018	0.1742	-1.9e-05	0.003104	-0.000347
1145	0.196059	0.176994	-0.000183	0.003268	-1.9e-05
1146	0.199182	0.176172	-0.000183	0.001954	-0.000676
1147	0.194744	0.178802	-0.000347	0.008363	-0.000347
1148	0.19721	0.177487	-0.000347	0.002282	-0.000676
1149	0.195895	0.180774	0.000146	0.001954	0.000474
1150	0.196059	0.178802	-1.9e-05	0.00146	0.000474
1151	0.195566	0.181431	-1.9e-05	0.005241	0.000146
1152	0.199839	0.179788	0.000146	0.00409	-1.9e-05
1153	0.199182	0.181596	0.00031	0.005076	0.000474
1154	0.199675	0.179788	0.000146	0.004255	0.000474
1155	0.201483	0.182746	-1.9e-05	0.007049	-0.000183
1156	0.198524	0.180938	-0.000183	0.010829	-1.9e-05
1157	0.200332	0.183404	-0.000183	0.008199	-0.000183
1158	0.199839	0.184554	-0.000347	0.008199	-0.000183
1159	0.199675	0.184225	-0.000347	0.006391	0.000146
1160	0.195895	0.184225	-1.9e-05	0.010336	-1.9e-05
1161	0.197045	0.184225	0.000146	0.004583	0.000146
1162	0.194087	0.186526	0.000146	0.00409	0.00031
1163	0.197703	0.187019	0.00031	0.005569	0.000146
1164	0.156613	0.185376	0.00031	0.005076	0.000639
1165	0.002775	0.18817	0.000146	0.002282	-1.9e-05
1166	0.008035	0.189156	-1.9e-05	0.00409	-0.000183
1167	0.015102	0.186526	-0.000183	0.00294	-0.000347
1168	0.02595	0.18932	-0.000347	0.003268	-0.000347
1169	0.031045	0.188663	-0.000347	0.003433	-0.000347
1170	0.040742	0.188334	-0.000512	0.006227	-0.000183
1171	0.046494	0.190635	-1.9e-05	0.004912	0.000146
1172	0.046659	0.187348	0.000146	0.003761	-1.9e-05
1173	0.056356	0.180774	-1.9e-05	0.004583	0.000639
1174	0.065395	0.181596	0.000146	0.00409	0.000146
1175	0.068847	0.180938	0.000146	0.002775	0.00031
1176	0.077393	0.181103	0.000146	0.002775	-1.9e-05
1177	0.077393	0.182253	-0.000183	0.00294	-1.9e-05
1178	0.082488	0.181267	-0.000512	0.002282	-0.000512
1179	0.086597	0.183404	-0.000512	0.002447	-1.9e-05
1180	0.094487	0.183897	-0.000676	-0.000183	-0.000347
1181	0.096623	0.179788	-1.9e-05	0.002118	-0.000512
1182	0.101718	0.17798	-1.9e-05	0.00031	0.000146
1183	0.097445	0.179952	0.000146	0.000803	-0.000183
1184	0.107142	0.174035	0.000146	0.000474	0.00031
1185	0.112894	0.142643	0.00031	-0.000676	0.000146
1186	0.113552	0.031702	0.00031	0.00031	0.000474
1187	0.120619	0.007706	0.000146	0.002447	0.000146
1188	0.12292	0.008199	-1.9e-05	0.001954	-1.9e-05
1189	0.113552	0.013459	-0.000183	0.002611	-0.000676
1190	0.115524	0.014773	-0.000183	0.001789	-0.000347
1191	0.117825	0.027922	-0.000347	0.002282	-0.000512
1192	0.11914	0.030716	-0.000183	0.002118	0.000146
1193	0.121605	0.039427	-1.9e-05	0.001296	0.000146
1194	0.123578	0.046166	0.000146	0.001296	-1.9e-05
1195	0.127851	0.051754	0.00031	-0.000183	0.000146
1196	0.130809	0.059807	0.000146	0.000474	0.00031
1197	0.132124	0.06293	0.00031	0.00031	0.00031
1198	0.133439	0.070326	0.000146	0.001954	-1.9e-05
1199	0.13952	0.073613	-0.000183	-1.9e-05	-1.9e-05
1200	0.139027	0.081667	-0.000183	0.00146	-0.000183
1201	0.142807	0.084132	-0.000183	0.000967	-0.000347
1202	0.145108	0.090706	-0.000183	0.002118	-0.000347
1203	0.146588	0.093007	-0.000347	0.001296	-1.9e-05
1204	0.152011	0.098102	-0.000183	0.002118	-1.9e-05
1205	0.154148	0.102704	-1.9e-05	-1.9e-05	0.000146
1206	0.151847	0.105005	0.000146	-0.000841	0.000146
1207	0.153326	0.110758	0.000474	0.00031	0.000639
1208	0.112073	0.11158	0.000474	0.001625	0.000474
1209	0.112237	0.114867	0.000146	0.002118	0.000474
1210	0.115853	0.118483	-1.9e-05	0.002611	-0.000183
1211	0.116839	0.121441	-0.000512	0.00294	-0.000347
1212	0.123906	0.124071	-0.000512	-1.9e-05	-0.000347
1213	0.124399	0.129495	-0.000347	0.003761	-0.000347
1214	0.128344	0.128508	-0.000512	0.000474	-0.000183
1215	0.127522	0.133275	-1.9e-05	0.000639	-0.000183
1216	0.133439	0.134261	0.000146	-0.000183	0.00031
1217	0.130316	0.13952	0.000146	0.00146	0.000146
1218	0.135576	0.139027	0.00031	0.002282	0.00031
1219	0.133932	0.143465	0.00031	-0.000183	0.00031
1220	0.13459	0.145766	0.000146	0.002775	-0.000183
1221	0.134261	0.149875	-0.000183	0.001625	-0.000183
1222	0.132289	0.150861	-0.000183	0.001954	-0.000347
1223	0.136562	0.150861	-0.000347	0.001625	-0.000512
1224	0.127358	0.152176	-0.000347	0.003597	-0.000183
1225	0.012144	0.149217	-1.9e-05	0.000803	-0.000183
1226	0.022169	0.156778	-0.000183	0.00409	0.000146
1227	0.029237	0.157764	0.00031	0.002118	0.000146
1228	0.032853	0.159408	0.000474	0.000474	0.00031
1229	0.03992	0.160065	0.00031	0.001625	0.00031
1230	0.041399	0.163352	0.00031	0.001132	0.000146
1231	0.048138	0.163516	0.00031	0.000803	-1.9e-05
1232	0.054712	0.164667	-0.000347	0.001625	-0.000183
1233	0.053233	0.16138	-0.000347	-0.000676	-0.000347
1234	0.067039	0.164667	-0.000183	0.001954	-0.000183
1235	0.069011	0.170748	-0.000347	-0.000347	-0.000183
1236	0.074271	0.167954	-0.000512	-0.000841	-0.000183
1237	0.07838	0.169762	0.000146	0.000803	-0.000183
1238	0.085447	0.169433	0.00031	0.000967	0.000146
1239	0.084625	0.174364	-1.9e-05	0.000639	0.000146
1240	0.087912	0.170255	0.00031	0.001789	0.00031
1241	0.0935	0.172392	0.000146	0.00294	0.000474
1242	0.087419	0.17272	0.000474	0.000146	-0.000183
1243	0.085283	0.174528	-0.000183	0.002118	-0.000183
1244	0.088734	0.174857	-0.000183	0.000967	-0.000183
1245	0.068354	0.177651	-0.000183	0.002611	-0.000347
1246	0.003433	0.176994	-0.000347	0.002447	-0.000512
1247	0.000146	0.177158	-0.000347	0.000639	-0.000183
1248	0.001296	0.177487	-1.9e-05	-0.000512	0.00031
1249	0.009843	0.178802	0.000146	-0.000347	-1.9e-05
1250	0.012144	0.179788	0.000146	0.000639	0.000146
1251	0.000803	0.180281	0.00031	0.001132	0.000474
1252	0.005569	0.180774	0.000474	-0.000183	0.000474
1253	0.006556	0.183732	0.000146	-0.000347	-1.9e-05
1254	0.014773	0.184718	-0.000183	0.002282	-0.000183
1255	0.018225	0.182582	-0.000183	0.001789	-0.000347
1256	0.017239	0.183732	-0.000183	0.004748	-0.000347
1257	0.005569	0.183075	-0.000347	0.003433	-0.000347
1258	-0.000676	0.184883	-0.000183	0.003761	-1.9e-05
1259	0.000803	0.183404	-1.9e-05	0.00031	0.00031
1260	-1.9e-05	0.186033	0.000146	0.002447	0.00031
1261	0.001132	0.186033	0.000146	0.001132	0.00031
1262	0.002447	0.187348	0.00031	0.001954	0.000474
1263	0.001296	0.186362	0.000146	0.001296	0.00031
1264	0.001954	0.184225	-1.9e-05	0.000967	0.00031
1265	-0.001991	0.185212	-0.000183	0.001789	-0.000183
1266	0.007213	0.186855	-0.000347	0.000474	-0.000347
1267	0.008857	0.187184	-0.000347	0.00146	-0.000347
1268	0.00935	0.186033	0.004912	0.00146	-0.000512
1269	0.00787	0.1908	0.002282	0.00146	-0.000183
1270	0.011979	0.188334	0.008363	0.00031	-0.000183
1271	0.006884	0.189156	0.016088	0.001789	0.000146
1272	0.000474	0.189156	0.000639	0.00031	0.00031
1273	0.005241	0.190142	0.000146	0.001789	0.00031
1274	0.010993	0.188663	0.00031	0.001625	0.00031
1275	0.020197	0.191786	0.000803	0.004255	-1.9e-05
1276	0.027265	0.1908	0.008857	0.000967	-0.000347
1277	0.029072	0.192115	0.012144	0.003104	-0.000183
1278	0.042221	0.189156	0.021512	0.002118	-0.000347
1279	0.035482	0.193594	0.029566	0.003761	-1.9e-05
1280	0.039591	0.19195	0.034989	0.001296	-0.000183
1281	0.000146	0.192608	0.040413	-0.000347	0.00031
1282	0.005898	0.1908	0.048631	0.00031	0.000146
1283	0.013623	0.193265	0.056027	0.000474	0.000146
1284	0.015924	0.188006	0.060465	0.000474	0.00031
1285	0.00787	0.189649	0.068025	0.001789	0.00031
1286	0.01576	0.192936	0.070326	0.001789	-1.9e-05
1287	0.017732	0.190635	0.0769	-0.002484	-0.000183
1288	0.001789	0.1908	0.081338	0.001625	-0.000512
1289	0.011486	0.190142	0.08709	-0.000183	-0.000183
1290	0.014773	0.197045	0.089391	0.000474	-0.000183
1291	0.024142	0.192115	0.098924	-0.000347	-0.000183
1292	0.029401	0.195402	0.099746	0.001296	0.000146
1293	0.034825	0.194251	0.103526	0.000146	-1.9e-05
1294	0.040249	0.194416	0.106649	0.001625	-1.9e-05
1295	0.04748	0.194416	0.109114	0.000146	0.00031
1296	0.017239	0.193594	0.114209	0.001132	0.00031
1297	0.008035	0.193758	0.118318	0.001625	0.000146
1298	0.020362	0.195073	0.121277	0.00031	-1.9e-05
1299	0.023649	0.196717	0.123249	0.00146	-0.000183
1300	0.030059	0.195895	0.12818	0.000639	-0.000512
1301	0.035647	0.200497	0.129988	0.002118	-0.000183
1302	0.039427	0.193758	0.136562	-0.000841	-1.9e-05
1303	0.049946	0.195073	0.136069	0.001132	-1.9e-05
1304	0.054055	0.194251	0.137548	0.000803	0.00031
1305	0.057835	0.195073	0.137712	0.000967	-1.9e-05
1306	0.067861	0.19458	0.142972	-0.001991	0.000146
1307	0.065724	0.19573	0.144451	0.00031	0.000146
1308	0.072463	0.196059	0.147738	-0.001991	-1.9e-05
1309	0.078544	0.19721	0.147738	0.00146	-0.000183
1310	0.084461	0.195895	0.150532	0.000803	-0.000347
1311	0.091528	0.197538	0.151354	0.002118	-0.000347
1312	0.094815	0.197703	0.151025	0.001954	-0.000347
1313	0.098102	0.196388	0.1576	0.000967	-0.000512
1314	0.106156	0.196388	0.156778	0.002118	-1.9e-05
1315	0.109443	0.195566	0.158421	-0.000347	0.000146
1316	0.109279	0.196223	0.162366	0.000474	0.00031
1317	0.115031	0.195566	0.161709	0.001132	0.00031
1318	0.11651	0.195566	0.162695	0.001132	0.00031
1319	0.12177	0.19573	0.16894	0.001296	0.000146
1320	0.12292	0.195402	0.165982	0.001296	-0.000183
1321	0.124728	0.19573	0.169762	-0.001334	-0.000183
1322	0.126372	0.195402	0.169762	0.00146	-0.000183
1323	0.130974	0.199511	0.170584	0.000146	-0.000347
1324	0.133603	0.197867	0.172392	-0.00232	-0.000183
1325	0.133932	0.199182	0.172392	0.000639	0.000146
1326	0.141328	0.196552	0.171899	0.001625	0.000146
1327	0.137219	0.197703	0.170419	0.000967	0.000146
1328	0.13196	0.200661	0.175186	0.000146	0.000146
1329	0.133603	0.195895	0.175515	0.002282	0.000146
1330	0.136233	0.194087	0.179952	0.00146	-0.000183
1331	0.138534	0.19836	0.176501	0.003433	-0.000183
1332	0.144287	0.197374	0.177651	0.003761	-0.000183
1333	0.142972	0.19721	0.179623	0.000146	-0.000347
1334	0.145108	0.19721	0.181596	0.00031	-0.000676
1335	0.143465	0.196717	0.18554	0.00146	-1.9e-05
1336	0.151025	0.193265	0.182417	0.00146	0.000146
1337	0.151847	0.19721	0.182746	0.00409	0.00031
1338	0.152669	0.193758	0.184883	0.000146	0.000474
1339	0.15497	0.196059	0.184718	-1.9e-05	0.000146
1340	0.157271	0.192279	0.185212	0.000639	0.000146
1341	0.157107	0.196388	0.185047	0.001789	-1.9e-05
1342	0.160887	0.196388	0.187184	0.000967	-1.9e-05
1343	0.161051	0.199018	0.187184	0.000474	-0.000347
1344	0.163188	0.197045	0.185212	0.003268	-0.000347
1345	0.166475	0.201483	0.187841	0.001625	-0.000676
1346	0.163516	0.19836	0.188663	0.002118	-0.000183
1347	0.166804	0.197045	0.188827	0.000146	0.000146
1348	0.167625	0.199018	0.187677	0.00294	0.000146
1349	0.170913	0.199018	0.188499	0.000803	0.00031
1350	0.168447	0.19721	0.189485	0.001954	0.00031
1351	0.170091	0.195402	0.191293	0.002118	0.000146
1352	0.174035	0.200004	0.192608	0.002611	-1.9e-05
1353	0.175679	0.19573	0.193758	0.001132	-0.000183
1354	0.176008	0.19836	0.192443	0.002282	-0.000183
1355	0.176829	0.197867	0.193594	-0.003635	-0.000512
1356	0.179295	0.196388	0.191621	0.00294	-1.9e-05
1357	0.177815	0.196552	0.19195	-0.001005	-1.9e-05
1358	0.176008	0.199346	0.192608	0.003597	0.00031
1359	0.183239	0.193429	0.1908	0.003268	0.000146
1360	0.182089	0.198524	0.191293	-0.000347	-1.9e-05
1361	0.179952	0.19721	0.191293	0.000803	0.00031
1362	0.183897	0.197703	0.192936	0.00146	0.00031
1363	0.181596	0.199182	0.194251	0.001789	0.000146
1364	0.184554	0.19721	0.192772	0.00146	-0.000183
1365	0.183239	0.198853	0.19195	0.003268	-0.000347
1366	0.187513	0.19721	0.192115	0.00146	-0.000347
1367	0.185047	0.198031	0.190635	0.003433	0.000474
1368	0.188334	0.195402	0.195566	-0.000512	-1.9e-05
1369	0.186033	0.196717	0.191128	0.00294	0.00031
1370	0.18817	0.195566	0.195895	0.000967	0.00031
1371	0.188663	0.19721	0.193429	0.000967	0.000146
1372	0.187841	0.195566	0.193758	-0.001498	0.000474
1373	0.187184	0.196717	0.198031	0.00146	0.000146
1374	0.18932	0.197374	0.194251	0.000474	-1.9e-05
1375	0.189156	0.19836	0.194251	0.001296	-0.000347
1376	0.188334	0.197374	0.194416	0.001789	-0.000347
1377	0.189485	0.198853	0.194909	-0.001498	-0.000512
1378	0.19195	0.202962	0.194251	0.002775	-0.000183
1379	0.192443	0.195237	0.195073	0.000803	-1.9e-05
1380	0.18932	0.204277	0.191621	0.00031	0.000146
1381	0.190142	0.197703	0.194087	0.000474	0.000146
1382	0.177815	0.194416	0.191457	0.001132	0.000474
1383	0.166475	0.196388	0.192936	-0.001334	0.000146
1384	0.164667	0.195073	0.195402	0.002775	0.000474
1385	0.163188	0.195895	0.197703	0.000967	-1.9e-05
1386	0.156942	0.195895	0.196881	0.000474	-0.000347
1387	0.158421	0.196388	0.196881	0.001625	-0.000183
1388	0.161873	0.198524	0.196881	-0.000676	-0.000512
1389	0.022334	0.197538	0.198524	0.003597	-0.000512
1390	-0.000183	0.196552	0.194744	0.001132	0.000146
1391	0.007213	0.199839	0.195237	0.00031	-1.9e-05
1392	0.016088	0.197045	0.195073	0.002118	0.000146
1393	0.022991	0.200004	0.194744	-0.004621	0.000146
1394	0.029566	0.198853	0.196059	-0.001169	0.00031
1395	0.035647	0.198689	0.195895	0.002118	0.00031
1396	0.045344	0.200004	0.198031	-0.000183	-1.9e-05
1397	0.046166	0.198853	0.19573	0.001296	-0.000183
1398	0.052904	0.19836	0.197703	0.001296	-0.000347
1399	0.062437	0.198031	0.194909	0.00146	-0.000347
1400	0.065231	0.196552	0.196881	-0.001827	-0.000676
1401	0.070655	0.201647	0.197045	0.003597	0.000146
1402	0.079201	0.197867	0.200497	0.000967	0.000146
1403	0.082982	0.19721	0.197703	0.001296	0.000146
1404	0.088241	0.197703	0.19836	-0.003306	0.000146
1405	0.093336	0.198853	0.199346	0.001789	0.00031
1406	0.095637	0.198031	0.199346	0.002282	0.00031
1407	0.100568	0.195566	0.197703	0.000803	-1.9e-05
1408	0.105992	0.196717	0.197538	0.003104	-0.000347
1409	0.110265	0.196717	0.199839	-0.001991	-0.000512
1410	0.111744	0.198689	0.196388	0.000639	-0.000347
1411	0.11651	0.198031	0.198689	-0.000183	-0.000512
1412	0.117661	0.197374	0.197867	0.001625	-1.9e-05
1413	0.122098	0.197045	0.196717	-0.002155	0.000146
1414	0.125879	0.197867	0.196717	0.000803	0.000146
1415	0.1267	0.196223	0.198031	0.000639	0.00031
1416	0.129988	0.199346	0.196717	0.00146	0.00031
1417	0.132453	0.195402	0.197374	0.000967	0.00031
1418	0.135576	0.198196	0.196223	0.002611	0.000146
1419	0.140506	0.196881	0.200004	0.002282	-0.000183
1420	0.13952	0.196059	0.198524	0.001954	-0.000347
1421	0.145108	0.19573	0.197703	0.001954	-0.000347
1422	0.148396	0.197374	0.19458	-0.000841	-0.000347
1423	0.147738	0.196717	0.202962	0.001789	-0.000183
1424	0.151683	0.196717	0.197538	0.000803	0.000146
1425	0.151025	0.197538	0.196059	0.000967	0.00031
1426	0.154477	0.196881	0.20099	0.004583	0.000146
1427	0.155956	0.198689	0.195895	0.000639	0.00031
1428	0.157107	0.196552	0.199182	-0.000347	0.00031
1429	0.159079	0.195073	0.199018	0.002118	-0.000183
1430	0.162859	0.200825	0.192936	0.00031	-0.000512
1431	0.16138	0.201154	0.193594	-0.000183	-0.000183
1432	0.163845	0.194744	0.19721	-0.001005	-0.000183
1433	0.164503	0.197867	0.194416	0.001132	-0.000347
1434	0.16401	0.197374	0.19721	0.001132	-1.9e-05
1435	0.170091	0.196717	0.196552	0.00409	0.00031
1436	0.166146	0.196552	0.198031	0.000803	0.00031
1437	0.168447	0.19836	0.198196	0.006062	0.00031
1438	0.170584	0.199675	0.198524	-0.001005	0.00031
1439	0.171406	0.19836	0.198689	-0.001005	0.00031
1440	0.173049	0.199675	0.199018	0.002118	-0.000183
1441	0.175515	0.19836	0.199182	-1.9e-05	-0.000183
1442	0.174693	0.199018	0.197867	0.002118	-0.000183
1443	0.176994	0.198853	0.20099	-0.000183	-0.000347
1444	0.176008	0.203291	0.189814	0.001789	-0.000347
1445	0.177158	0.197867	0.198031	-0.000183	0.000146
1446	0.178802	0.199839	0.196388	0.001789	0.000146
1447	0.179952	0.198031	0.195402	0.000803	0.000146
1448	0.176336	0.199018	0.193758	0.00294	0.000146
1449	0.179788	0.199018	0.191786	0.000474	0.00031
1450	0.177815	0.201976	0.192279	0.002118	0.000146
1451	0.183568	0.195895	0.196059	0.001625	-1.9e-05
1452	0.182089	0.197045	0.195237	0.001789	-0.000512
1453	0.183075	0.198689	0.193101	0.002611	-0.000347
1454	0.187841	0.196717	0.193922	0.002118	-0.000512
1455	0.184718	0.199346	0.187513	0.005241	-0.000347
1456	0.187677	0.19836	0.190471	-0.000676	-1.9e-05
1457	0.184225	0.198524	0.180116	0.001296	0.000146
1458	0.187841	0.196881	0.164831	0.000803	0.00031
1459	0.183897	0.198689	0.097281	0.003268	0.000146
1460	0.186033	0.197867	0.072298	0.001789	0.00031
1461	0.186855	0.200004	0.064902	0.001132	0.000146
1462	0.186198	0.199018	0.038934	0.00031	-1.9e-05
1463	0.187348	0.199675	0.006062	0.001296	-0.000183
1464	0.184225	0.196717	0.010171	0.000639	-0.000183
1465	0.181267	0.197374	0.01576	0.000639	-0.000512
1466	0.003268	0.199675	0.026936	0.002118	-1.9e-05
1467	0.011322	0.199839	0.027922	0.00146	-1.9e-05
1468	0.019047	0.198031	0.038605	0.001954	0.000146
1469	0.028908	0.198853	0.042221	-1.9e-05	0.000146
1470	0.03088	0.200332	0.05011	0.000146	0.000146
1471	0.032031	0.200332	0.056684	0.00294	0.000474
1472	0.036962	0.195402	0.058657	0.002611	0.000146
1473	0.045344	0.199182	0.068847	0.000474	-0.000183
1474	0.050932	0.197538	0.072627	0.003433	-1.9e-05
1475	0.058328	0.198853	0.07838	0.001296	-0.000347
1476	0.05915	0.198524	0.083475	0.000803	-0.000347
1477	0.067696	0.201154	0.089885	0.002118	-0.000183
1478	0.074435	0.200168	0.089227	0.001296	-1.9e-05
1479	0.078215	0.19721	0.095801	0.000639	0.00031
1480	0.08216	0.195237	0.09991	0.001132	0.000146
1481	0.085118	0.196552	0.100075	0.001625	0.000474
1482	0.091692	0.197538	0.109114	0.001954	0.000146
1483	0.094815	0.197374	0.112237	0.00146	0.000146
1484	0.09876	0.198689	0.114374	-0.000347	-1.9e-05
1485	0.104348	0.197867	0.11914	0.001296	-0.000183
1486	0.104677	0.198689	0.124235	0.001789	-0.000347
1487	0.110429	0.199018	0.123085	0.003597	-0.000347
1488	0.114045	0.197703	0.133603	0.003597	-0.000347
1489	0.113223	0.198689	0.132946	0.001789	-1.9e-05
1490	0.123742	0.200825	0.133932	-0.000183	0.000146
1491	0.123742	0.198031	0.137219	0.003926	0.000146
1492	0.128015	0.198853	0.140506	0.00146	0.000474
1493	0.128673	0.199675	0.142479	0.003104	0.000474
1494	0.133275	0.199182	0.143465	0.001789	0.000146
1495	0.127851	0.201154	0.147245	0.000639	-1.9e-05
1496	0.110593	0.199675	0.150204	0.002611	-0.000347
1497	0.109279	0.195402	0.150368	0.001625	-1.9e-05
1498	0.11158	0.202633	0.153326	0.000803	-0.000347
1499	0.067861	0.199018	0.156613	0.00146	-0.000183
1500	0.069504	0.197538	0.155792	0.002611	-1.9e-05
1501	0.082982	0.198031	0.155463	0.003268	0.000146
1502	0.083475	0.201812	0.155956	0.004583	0.000146
1503	0.087584	0.200825	0.158421	0.001789	0.000146
1504	0.092021	0.200497	0.160229	0.008692	0.00031
1505	0.09876	0.201154	0.163188	-0.002484	0.000146
1506	0.099582	0.200332	0.164174	0.002775	-1.9e-05
1507	0.105992	0.181924	0.165653	0.000803	-0.000347
1508	0.1101	0.002282	0.165982	0.00294	-0.000183
1509	0.114867	-0.000183	0.16894	0.003761	-0.000512
1510	0.115524	0.000146	0.170091	0.012144	-0.000183
1511	0.122592	0.00031	0.170255	0.009185	-1.9e-05
1512	0.123906	0.002775	0.171734	0.012144	0.00031
1513	0.127358	0.011158	0.173214	0.010336	0.000146
1514	0.128508	0.01691	0.176008	0.007542	0.000146
1515	0.130809	0.026936	0.173542	0.012965	0.00031
1516	0.135576	0.03236	0.17535	0.015431	0.000146
1517	0.134097	0.042057	0.177322	0.020526	-1.9e-05
1518	0.141328	0.046494	0.182417	0.013787	-0.000347
1519	0.143136	0.052411	0.180445	0.015266	-0.000183
1520	0.144944	0.059478	0.179952	0.007049	-0.000512
1521	0.003597	0.064574	0.182253	0.005405	-1.9e-05
1522	0.004583	0.067203	0.180281	0.004419	-1.9e-05
1523	0.010664	0.076079	0.180116	0.005405	0.000146
1524	0.022991	0.080023	0.182089	-1.9e-05	0.000146
1525	0.027922	0.085611	0.184718	0.002282	0.000146
1526	0.034661	0.088405	0.183897	0.003268	0.000474
1527	0.042385	0.091692	0.184554	0.00146	0.000146
1528	0.049124	0.099089	0.184883	0.000967	-0.000183
1529	0.054712	0.099746	0.186033	0.00031	-1.9e-05
1530	0.059807	-0.000183	0.185869	0.001132	-0.000183
1531	0.066381	-0.000512	0.18817	0.002118	-0.000347
1532	0.069833	-0.000183	0.1908	0.00031	-1.9e-05
1533	0.076572	0.001296	0.189814	0.000967	-1.9e-05
1534	0.081995	0.003926	0.187513	0.002282	0.000146
1535	0.086762	0.011651	0.18932	0.001296	-1.9e-05
1536	0.086597	0.018554	0.189156	0.00409	0.000146
1537	0.094487	0.026443	0.18817	0.000639	0.00031
1538	0.097609	0.034003	0.188992	0.001625	0.000146
1539	0.102376	0.040906	0.194416	0.002118	0.000146
1540	0.107142	0.049453	0.193758	0.00146	-0.000183
1541	0.112401	0.054219	0.189485	0.001296	-0.000512
1542	0.115689	0.059643	0.191786	0.00146	-0.000512
1543	0.120784	0.06556	0.193594	0.00031	-0.000183
1544	0.121277	0.069504	0.192608	0.002611	0.000146
1545	0.122756	0.075421	0.192443	0.001789	-1.9e-05
1546	0.129166	0.078873	0.193594	-0.000347	0.00031
1547	0.130152	0.081502	0.193594	0.000639	0.000146
1548	0.130974	0.08594	0.196388	0.000803	0.00031
1549	0.133275	0.089885	0.193922	0.002611	0.00031
1550	0.135904	0.095473	0.193922	-0.000841	-1.9e-05
1551	0.146423	0.101718	0.193594	0.003433	-0.000183
1552	0.146752	0.098924	0.193922	0.000803	-1.9e-05
1553	0.142807	0.102869	0.194087	0.004255	-0.000347
1554	0.15119	0.105005	0.193758	0.001625	-0.000183
1555	0.148889	0.111251	0.193101	0.001296	-0.000183
1556	0.152669	0.114209	0.196717	0.000967	-0.000183
1557	0.155956	0.119304	0.193922	0.000803	0.00031
1558	0.155956	0.12292	0.194909	-1.9e-05	-1.9e-05
1559	0.158914	0.125714	0.19458	0.002282	0.000474
1560	0.161709	0.129166	0.194744	-0.000347	0.00031
1561	0.166311	0.121277	0.196717	0.003926	-0.000347
1562	0.164338	0.123413	0.195237	0.003268	-0.000347
1563	0.166146	0.126043	0.19573	0.00031	-0.000512
1564	0.166968	0.120948	0.194744	0.002611	-0.000183
1565	0.169269	0.12933	0.196552	0.000803	-0.000347
1566	0.168776	0.132453	0.194744	0.00294	-0.000183
1567	0.171406	0.132453	0.196223	-0.000676	0.000146
1568	0.172227	0.124728	0.192936	0.001296	0.000146
1569	0.172392	0.123249	0.197538	-0.000841	0.000146
1570	0.172556	0.124235	0.19721	0.000803	0.00031
1571	0.174693	0.131302	0.19573	0.00031	0.000146
1572	0.176501	0.135247	0.197045	0.001132	-0.000183
1573	0.175679	0.136726	0.197045	0.001296	-0.000183
1574	0.180774	0.141	0.196388	0.002611	-0.000347
1575	0.179623	0.139192	0.196552	0.00031	-0.000183
1576	0.182582	0.144451	0.199346	0.00146	-0.000512
1577	0.181267	0.116182	0.196717	0.00146	-1.9e-05
1578	0.181596	0.115031	0.196881	0.000639	-1.9e-05
1579	0.181596	0.11651	0.195566	0.001625	0.000146
1580	0.18176	0.095308	0.197703	0.001789	0.00031
1581	0.182746	0.096788	0.196552	-0.001334	0.00031
1582	0.182417	0.100568	0.198031	0.000146	0.000146
1583	0.182253	0.102869	0.199346	0.001625	-0.000183
1584	0.185376	0.104841	0.199182	0.00031	-0.000183
1585	0.18061	0.105498	0.199018	0.001789	-0.000347
1586	0.184061	0.112894	0.197867	0.00146	-0.000512
1587	0.183732	0.114867	0.199675	-0.000183	-0.000347
1588	0.184225	0.11651	0.198031	0.000803	0.000146
1589	0.184061	0.121441	0.199018	0.001789	0.000146
1590	0.183732	0.126043	0.199346	0.003761	0.000146
1591	0.186691	0.129495	0.200825	0.00031	0.000146
1592	0.185376	0.12933	0.196881	0.004912	0.00031
1593	0.187841	0.136069	0.199675	0.003433	0.00031
1594	0.184883	0.137877	0.197867	0.004255	-1.9e-05
1595	0.188663	0.031538	0.200168	0.006556	-1.9e-05
1596	0.186526	-0.000183	0.199511	0.002282	-0.000347
1597	0.188334	0.011979	0.197867	0.000474	-0.000183
1598	0.187513	0.010664	0.201154	0.000474	-0.000183
1599	0.194909	0.021676	0.201483	0.003926	0.000146
1600	0.1908	0.027922	0.201319	0.003268	0.00031
1601	0.189485	0.034496	0.201976	0.001625	0.000146
1602	0.197538	0.041399	0.201319	0.002775	0.000146
1603	0.192772	0.046166	0.202305	0.00031	0.000474
1604	0.192772	0.057013	0.20099	-0.002648	-1.9e-05
1605	0.194087	0.059972	0.201154	0.001954	-0.000183
1606	0.193758	0.067039	0.201976	0.001954	-0.000347
1607	0.195402	0.073449	0.199346	0.002282	-0.000183
1608	0.195402	0.079366	0.200168	0.002118	-0.000512
1609	0.193922	0.081995	0.199346	0.004419	-1.9e-05
1610	0.196717	0.083968	0.201976	0.004419	-1.9e-05
1611	0.193594	0.092514	0.199839	0.005405	0.000146
1612	0.19195	0.092843	0.20099	0.007049	0.000146
1613	0.193429	0.097445	0.196881	0.00409	-1.9e-05
1614	0.196223	0.097774	0.198031	0.002447	0.000146
1615	0.194251	0.104677	0.198853	0.002611	-0.000183
1616	0.197374	0.105334	0.198031	0.002775	-0.000183
1617	0.195895	0.108128	0.19836	0.002775	-0.000183
1618	0.198031	0.109114	0.200168	-0.000676	-0.000512
1619	0.197045	0.113223	0.19721	0.002282	-0.000512
1620	0.197045	0.110265	0.196881	0.002775	-0.000183
1621	0.198196	0.113059	0.19721	-0.001827	0.000146
1622	0.195566	0.114867	0.196552	0.002118	0.000146
1623	0.193265	0.114702	0.197374	0.002611	-1.9e-05
1624	0.195237	0.111908	0.19721	0.00409	0.00031
1625	0.196717	0.066217	0.197703	0.000803	-1.9e-05
1626	0.195402	0.040742	0.195073	0.004583	-1.9e-05
1627	0.199511	0.034496	0.196388	0.001789	-0.000183
1628	0.195237	0.017567	0.195566	0.00409	-0.000347
1629	0.19836	0.006556	0.196059	0.003926	-0.000512
1630	0.199018	0.003926	0.195073	0.004583	-0.000347
1631	0.197374	0.007377	0.198031	0.007542	-0.000183
1632	0.197703	0.005076	0.195402	0.00787	-1.9e-05
1633	0.199511	0.005898	0.201647	0.008199	-1.9e-05
1634	0.194087	0.00294	0.196552	0.011979	0.00031
1635	0.195402	0.000146	0.200168	0.010336	0.000146
1636	0.200332	0.001789	0.19721	0.009021	0.000474
1637	0.197867	-0.000183	0.195566	0.003597	0.000146
1638	0.199018	0.000146	0.200168	0.001625	-0.000183
1639	0.199018	-1.9e-05	0.198853	0.003104	-0.000347
1640	0.200168	0.000639	0.199346	0.00146	-0.000347
1641	0.198031	0.00031	0.198853	0.003761	-0.000347
1642	0.198853	0.001954	0.200825	0.002611	-0.000183
1643	0.198196	0.001625	0.19836	0.00672	-0.000183
1644	0.192279	0.00031	0.198196	0.000146	0.000146
1645	0.196059	0.000967	0.198524	0.000639	0.00031
1646	0.199346	0.001132	0.20099	0.00409	0.00031
1647	0.197045	0.000474	0.197703	0.00672	0.00031
1648	0.196552	0.00031	0.194087	0.005734	-1.9e-05
1649	0.198031	-0.000183	0.197374	0.003926	-0.000183
1650	0.192443	-0.000841	0.199839	0.002282	-0.000347
1651	0.196223	-1.9e-05	0.200661	0.001789	-0.000183
1652	0.20099	-0.000512	0.196388	0.002282	-0.000183
1653	0.201647	0.000474	0.200004	-0.000347	-0.000183
1654	0.198853	-0.000183	0.200004	-0.000183	0.000146
1655	0.195566	0.000146	0.200004	0.002447	0.000146
1656	0.19458	0.000146	0.199675	0.004255	0.000146
1657	0.200168	-0.000183	0.199182	-0.000347	-1.9e-05
1658	0.200004	0.000474	0.198853	0.001132	0.000474
1659	0.198031	0.000474	0.197538	-1.9e-05	-1.9e-05
1660	0.195895	-0.000347	0.200332	0.002775	-0.000183
1661	0.197538	-0.000183	0.198853	-0.000841	-0.000347
1662	0.196388	-1.9e-05	0.19721	0.000967	-0.000183
1663	0.200332	-0.000676	0.199675	-0.001334	-0.000183
1664	0.200004	-0.000183	0.199018	0.002447	-0.000183
1665	0.198689	0.00031	0.197703	0.00031	-0.000183
1666	0.199182	0.00031	0.199839	0.002447	-1.9e-05
1667	0.198524	0.00031	0.199018	0.002282	0.000474
1668	0.199839	0.000146	0.202305	0.001954	-1.9e-05
1669	0.199839	-1.9e-05	0.201812	0.003761	0.00031
1670	0.20099	-1.9e-05	0.201976	0.002775	0.00031
1671	0.19721	-0.000347	0.200004	0.00409	-1.9e-05
1672	0.199839	-0.000183	0.203126	0.001132	-0.000183
1673	0.197703	-0.000347	0.201976	0.001954	-0.000512
1674	0.199182	-0.000347	0.200661	-0.000347	-0.000347
1675	0.199182	0.000146	0.201812	0.002447	-1.9e-05
1676	0.199675	0.000146	0.20099	-0.001662	0.000146
1677	0.204441	0.00031	0.196552	0.000146	0.000146
1678	0.198524	0.000146	0.198031	0.002282	0.000146
1679	0.198689	0.00031	0.198031	0.002118	0.000146
1680	0.199346	0.000146	0.198689	0.001789	0.000474
1681	0.197703	0.00031	0.196717	0.001789	0.000146
1682	0.199511	-1.9e-05	0.198524	0.00787	-1.9e-05
1683	0.199346	-1.9e-05	0.200497	0.000967	-0.000183
1684	0.197538	-0.000347	0.198689	0.003268	-0.000183
1685	0.203455	-1.9e-05	0.200497	0.002611	-0.000512
1686	0.20099	-0.000347	0.200168	0.002611	-0.000512
1687	0.200661	0.000146	0.197867	0.00146	0.000146
1688	0.204277	-1.9e-05	0.199182	-0.000841	0.000146
1689	0.200168	0.000146	0.200168	-1.9e-05	0.000474
1690	0.200497	0.00031	0.200661	0.001954	0.00031
1691	0.200825	0.00031	0.198031	0.001296	0.00031
1692	0.200332	0.000146	0.198196	0.00146	0.000146
1693	0.199839	-0.000183	0.20214	0.003597	-0.000183
1694	0.199018	-0.000183	0.199346	0.003597	-0.000347
1695	0.199018	-0.000183	0.197703	0.002611	-0.000183
1696	0.198689	-1.9e-05	0.19836	0.004419	-0.000347
1697	0.199182	0.00031	0.198524	0.003926	-0.000512
1698	0.199018	-1.9e-05	0.198031	0.004583	0.000146
1699	0.19836	0.000146	0.196388	0.005569	0.00031
1700	0.19721	0.000146	0.198853	0.004419	0.000146
1701	0.196717	0.000146	0.197538	0.009021	0.000474
1702	0.197374	0.000474	0.199839	0.009185	0.00031
1703	0.200168	-0.000183	0.199182	0.00409	-1.9e-05
1704	0.20099	-0.000347	0.199346	0.003597	0.000146
1705	0.198524	-0.000183	0.20099	0.005734	0.000146
1706	0.200497	-0.000347	0.200168	0.004748	-0.000347
1707	0.200497	-0.000183	0.199018	0.005076	0.000146
1708	0.200661	-1.9e-05	0.20214	0.002118	-0.000183
1709	0.201154	0.00031	0.19836	0.002118	-0.000183
1710	0.20099	0.00031	0.19573	-0.000183	0.000146
1711	0.198524	0.00031	0.198196	0.000639	0.000146
1712	0.201483	0.00031	0.197045	-0.002155	0.000474
1713	0.200332	0.00031	0.197703	0.002118	-1.9e-05
1714	0.202469	-1.9e-05	0.194744	0.004255	-1.9e-05
1715	0.200332	-0.000183	0.19836	0.002447	-0.000183
1716	0.19721	-0.000347	0.197538	0.003926	-1.9e-05
1717	0.202469	-1.9e-05	0.198689	0.005569	-0.000347
1718	0.199346	-0.000512	0.198524	0.00787	-0.000183
1719	0.200004	-1.9e-05	0.201647	0.005241	-0.000183
1720	0.199018	-1.9e-05	0.19721	0.005898	-1.9e-05
1721	0.202469	0.000146	0.19836	0.00294	0.000474
1722	0.199018	0.000146	0.199018	0.003926	0.000474
1723	0.199182	0.000474	0.200332	0.003597	0.000474
1724	0.197867	0.000146	0.196059	0.00409	-1.9e-05
1725	0.200332	-0.000347	0.19573	0.005898	0.000639
1726	0.198196	-0.000183	0.199182	0.007706	0.000146
1727	0.200497	-0.000347	0.200004	0.00787	0.000146
1728	0.199839	-0.000347	0.198031	0.010336	-0.001005
1729	0.199839	-0.000183	0.197703	0.00935	0.000474
1730	0.198689	-1.9e-05	0.199675	0.01691	-0.000512
1731	0.199182	-1.9e-05	0.196059	0.025292	0.00031
1732	0.201319	0.000146	0.197045	0.031045	-0.000183
1733	0.198031	0.000474	0.19836	0.036797	0.000474
1734	0.202305	0.00031	0.199511	0.045672	0.000146
1735	0.200497	0.00031	0.199182	0.047645	0.000146
1736	0.199511	-0.000347	0.200661	0.057013	0.000146
1737	0.199182	-0.000512	0.199018	0.06293	-1.9e-05
1738	0.199675	-0.000183	0.200497	0.064245	0.00031
1739	0.197867	-0.000512	0.199182	0.072956	0.001625
1740	0.200825	-0.000347	0.198853	0.077229	0.000146
1741	0.200825	-1.9e-05	0.202798	0.084132	-0.000347
1742	0.20099	0.00031	0.201319	0.086104	0.000146
1743	0.203455	0.000146	0.198853	0.092021	0.000474
1744	0.200004	0.00031	0.20099	0.096294	-0.000347
1745	0.195402	0.000474	0.206414	0.098267	0.000639
1746	0.197867	0.000146	0.199182	0.101554	0.000639
1747	0.198196	-0.000183	0.199839	0.106978	0.000967
1748	0.197045	-0.000183	0.199182	0.109772	-0.000347
1749	0.197374	-0.000183	0.199839	0.109443	-0.000512
1750	0.198196	-0.000512	0.19836	0.119797	-0.000183
1751	0.203455	-0.000183	0.200497	0.121112	-0.000183
1752	0.200004	-1.9e-05	0.198689	0.124728	-0.001991
1753	0.197374	-1.9e-05	0.199839	0.124728	0.000967
1754	0.198853	-1.9e-05	0.19836	0.129001	0.000639
1755	0.199511	0.000474	0.199182	0.133275	0.000803
1756	0.200332	0.000146	0.198196	0.13952	-0.000183
1757	0.20099	0.000146	0.200004	0.138205	0.00031
1758	0.201319	-0.000347	0.200497	0.141986	-0.001498
1759	0.199675	-0.000347	0.200332	0.144451	0.000803
1760	0.199675	-0.000183	0.200168	0.144451	-0.000183
1761	0.20099	-0.000512	0.198689	0.149382	0.000967
1762	0.200168	-0.000347	0.200004	0.147574	0.000146
1763	0.203784	0.000146	0.199182	0.151354	-0.000676
1764	0.204606	0.000146	0.19721	0.147903	0.001789
1765	0.199675	0.000146	0.198689	0.148724	0.000803
1766	0.201154	0.00031	0.200168	0.149875	0.000803
1767	0.199675	0.00031	0.19721	0.153819	0.000474
1768	0.199839	0.00031	0.199346	0.15234	0.000474
1769	0.197867	-0.000183	0.19836	0.155463	-0.000183
1770	0.200168	-0.000183	0.198853	0.157107	0.001132
1771	0.200661	-0.000347	0.19836	0.160722	0.000146
1772	0.201976	-0.000347	0.199346	0.160722	0.001132
1773	0.199511	-0.000183	0.200661	0.164338	-0.000183
1774	0.200332	-1.9e-05	0.200332	0.165324	-0.000841
1775	0.201647	0.000146	0.203126	0.16779	0.001296
1776	0.201647	0.000146	0.201319	0.168118	-0.001005
1777	0.200332	0.000146	0.200497	0.167625	0.001296
1778	0.199839	0.00031	0.19836	0.173214	0.001625
1779	0.201483	0.00031	0.200332	0.168776	0.000639
1780	0.199182	-0.000183	0.200004	0.169926	0.002118
1781	0.198524	-0.000183	0.198853	0.171734	0.000474
1782	0.199018	-0.000347	0.19721	0.173707	-1.9e-05
1783	0.200661	-0.000183	0.201154	0.173542	0.000474
1784	0.198196	-0.000183	0.199675	0.176994	0.000967
1785	0.197045	-1.9e-05	0.20214	0.175679	-0.000512
1786	0.198689	0.000146	0.199511	0.178309	-0.000676
1787	0.200168	0.000146	0.198689	0.17798	0.000967
1788	0.19836	0.00031	0.198524	0.177487	-0.000347
1789	0.199182	0.00031	0.199182	0.183404	0.002118
1790	0.199675	-1.9e-05	0.200825	0.177322	-0.000841
1791	0.200332	-1.9e-05	0.200332	0.184225	0.001132
1792	0.200825	-0.000183	0.200497	0.178309	0.00031
1793	0.199018	-0.000183	0.199346	0.183732	0.000146
1794	0.201812	-0.000183	0.195073	0.182417	-1.9e-05
1795	0.199675	-0.000183	0.202305	0.183732	-0.001827
1796	0.200168	-0.000183	0.200661	0.184883	-0.000676
1797	0.197538	0.00031	0.200332	0.184061	0.000803
1798	0.201154	0.000146	0.200497	0.185047	0.001789
1799	0.200004	0.000146	0.199675	0.186855	-0.001169
1800	0.197374	0.000474	0.200004	0.186855	0.001789
1801	0.197045	0.000146	0.201319	0.188006	0.000146
1802	0.204113	-0.000183	0.20214	0.186855	0.002611
1803	0.199839	-0.000183	0.199675	0.187348	-0.000183
1804	0.198524	-0.000512	0.199675	0.18439	-1.9e-05
1805	0.201647	-0.000512	0.198853	0.187019	0.000474
1806	0.200332	-0.000183	0.199511	0.193758	-0.006593
1807	0.200661	0.000146	0.200004	0.190471	-0.000512
1808	0.200825	0.00031	0.200004	0.19195	0.002282
1809	0.200004	0.00031	0.200497	0.19195	0.000967
1810	0.201976	0.00031	0.198853	0.191128	0.00146
1811	0.201154	0.000146	0.20099	0.189814	0.000803
1812	0.199346	0.00031	0.200004	0.192936	0.000474
1813	0.201154	-0.000183	0.20099	0.194416	0.000803
1814	0.202305	-0.000183	0.199018	0.193429	0.000474
1815	0.198689	-0.000347	0.201154	0.193429	0.001132
1816	0.20099	-0.000347	0.197703	0.193429	0.000146
1817	0.200168	-0.000183	0.201319	0.194251	-0.00232
1818	0.197867	-1.9e-05	0.200825	0.194251	-1.9e-05
1819	0.200332	-1.9e-05	0.19836	0.193594	-0.000183
1820	0.198853	0.00031	0.198196	0.193101	0.002282
1821	0.201647	0.000146	0.198031	0.194744	0.001132
1822	0.201647	0.00031	0.197045	0.193429	-0.001662
1823	0.198689	0.000146	0.198524	0.196059	0.000474
1824	0.201647	-0.000347	0.193429	0.19458	-0.002155
1825	0.20099	-0.000347	0.198689	0.196059	0.001132
1826	0.200168	-0.000183	0.195895	0.196223	-0.000512
1827	0.200661	-0.000512	0.195073	0.197867	0.002282
1828	0.201154	-0.000183	0.198524	0.198524	0.006556
1829	0.20099	-1.9e-05	0.196223	0.198031	0.000639
1830	0.202962	0.00031	0.195237	0.195402	0.002282
1831	0.199839	0.000474	0.195895	0.198031	-0.001334
1832	0.198524	-1.9e-05	0.190471	0.196552	0.001625
1833	0.197538	0.00031	0.173707	0.195402	0.000803
1834	0.19836	-1.9e-05	0.153984	0.197045	0.000639
1835	0.199018	-1.9e-05	0.137055	0.196881	0.000967
1836	0.193265	-0.000183	0.126043	0.196717	-0.000347
1837	0.191621	-0.000183	0.110265	0.195402	0.002118
1838	0.196223	-0.000512	0.095637	0.195402	0.000967
1839	0.19573	-0.000347	0.080187	0.196552	0.004912
1840	0.195073	0.000146	0.070162	0.198524	-0.000183
1841	0.196223	0.000146	0.068847	0.199839	-0.00232
1842	0.196717	0.000146	0.069011	0.198196	-0.000347
1843	0.195566	0.000146	0.026114	0.196059	0.001625
1844	0.196388	0.000146	0.026607	0.195566	0.000146
1845	0.196388	-1.9e-05	0.036797	0.19721	0.001296
1846	0.194416	-0.000183	0.048467	0.197703	0.000474
1847	0.194744	-0.000347	0.051425	0.195895	0.000639
1848	0.191786	-0.000183	0.055041	0.199839	0.000803
1849	0.196717	-0.000347	0.062273	0.199018	0.000967
1850	0.196223	-0.000183	0.067696	0.197867	0.001296
1851	0.193101	-1.9e-05	0.074928	0.201812	0.002447
1852	0.192936	-1.9e-05	0.078873	0.199839	0.003268
1853	0.198524	0.00031	0.08331	0.197703	0.00294
1854	0.196223	0.000146	0.087748	0.192936	0.002282
1855	0.197045	0.00031	0.090871	0.195566	0.001296
1856	0.200332	-1.9e-05	0.095966	0.19836	-0.000512
1857	0.196059	-1.9e-05	0.101061	0.198031	-1.9e-05
1858	0.198031	-0.000183	0.105498	0.19721	0.00146
1859	0.195402	-0.000512	0.105334	0.196552	-0.001005
1860	0.198196	-0.000183	0.112894	0.196388	0.000803
1861	0.198031	-0.000183	0.114209	0.201483	0.001296
1862	0.200661	0.000146	0.117496	0.198853	0.000639
1863	0.19836	0.000146	0.120784	0.199839	0.001132
1864	0.19836	0.000146	0.125057	0.199018	-0.000183
1865	0.196223	0.000474	0.128673	0.192115	0.000803
1866	0.197045	0.000146	0.131302	0.19458	0.001789
1867	0.200004	-1.9e-05	0.131631	0.199182	-1.9e-05
1868	0.197867	-0.000183	0.139192	0.198031	0.001296
1869	0.198689	-0.000347	0.140506	0.19836	0.001132
1870	0.194251	-0.000183	0.140342	0.19573	0.000639
1871	0.200332	-0.000512	0.143629	0.19573	0.000474
1872	0.200004	-0.000183	0.146752	0.195566	0.001296
1873	0.197867	0.000146	0.146916	0.195566	-0.000183
1874	0.199346	0.000146	0.149546	0.198524	0.00031
1875	0.199675	0.000146	0.14971	0.19573	0.000639
1876	0.198853	0.000146	0.149217	0.193758	0.002775
1877	0.199346	0.000146	0.153819	0.192608	0.000146
1878	0.199018	-1.9e-05	0.155463	0.198689	0.000803
1879	0.200332	-0.000183	0.156449	0.196552	-0.001334
1880	0.199675	-0.000183	0.159408	0.198031	-0.000183
1881	0.19836	-0.000347	0.161873	0.198689	-0.000183
1882	0.200661	-0.000347	0.162695	0.196552	-0.000676
1883	0.202469	-1.9e-05	0.167625	0.197867	0.003433
1884	0.201647	-0.000183	0.165653	0.197703	0.001132
1885	0.199675	0.000146	0.167954	0.198853	0.001789
1886	0.203126	0.00031	0.170091	0.198524	0.000474
1887	0.200168	0.00031	0.168612	0.200004	0.001296
1888	0.200661	0.000146	0.172063	0.195402	0.000803
1889	0.197867	-1.9e-05	0.169926	0.200004	0.002118
1890	0.201319	-0.000347	0.1742	0.197045	0.000146
1891	0.199018	-0.000347	0.174035	0.199018	-1.9e-05
1892	0.202305	-0.000183	0.175186	0.196881	-1.9e-05
1893	0.197867	-0.000183	0.175679	0.197703	0.000146
1894	0.200004	-0.000183	0.179623	0.199839	0.000967
1895	0.199182	0.000146	0.175515	0.19836	0.001132
1896	0.199346	0.000146	0.176829	0.199018	0.000474
1897	0.200004	0.000146	0.175515	0.19721	0.000474
1898	0.197867	0.00031	0.18061	0.204113	0.000967
1899	0.200332	0.00031	0.180116	0.198853	0.00031
1900	0.200332	0.000146	0.183897	0.196388	0.002611
1901	0.202633	-0.000183	0.185212	0.196717	-1.9e-05
1902	0.200004	-0.000183	0.182089	0.200004	-0.001991
1903	0.199511	-0.000512	0.185376	0.201812	0.001132
1904	0.199182	-0.000347	0.181924	0.202798	0.000639
1905	0.200661	-1.9e-05	0.179459	0.200004	-0.000183
1906	0.199346	-1.9e-05	0.183075	0.202962	0.000474
1907	0.200332	0.000146	0.187019	0.197374	0.000967
1908	0.199675	0.000146	0.187348	0.198031	0.000474
1909	0.203126	0.00031	0.187184	0.200825	0.000803
1910	0.199675	0.000474	0.186198	0.198853	-0.000183
1911	0.202469	0.000146	0.188827	0.199346	0.000474
1912	0.201647	-1.9e-05	0.187184	0.199346	0.000967
1913	0.197374	-0.000183	0.188663	0.200004	0.00031
1914	0.20099	-0.000347	0.190307	0.198689	-0.000841
1915	0.201319	-0.000347	0.188663	0.19836	0.000474
1916	0.19836	-0.000183	0.182911	0.194744	-0.001498
1917	0.202633	0.000146	0.189156	0.199018	0.002118
1918	0.201647	-0.000183	0.192443	0.198689	0.000803
1919	0.199511	0.000146	0.189814	0.202305	0.001296
1920	0.200168	0.00031	0.190964	0.199675	0.000639
1921	0.199839	0.00031	0.190142	0.199511	0.001132
1922	0.200497	-1.9e-05	0.195073	0.199018	0.000639
1923	0.200004	-0.000183	0.193429	0.199346	-1.9e-05
1924	0.202305	-0.000183	0.195566	0.198689	0.000474
1925	0.199182	-0.000512	0.194744	0.197374	-0.000512
1926	0.200825	-0.000347	0.194251	0.194909	0.00031
1927	0.199839	-1.9e-05	0.186526	0.199018	0.000146
1928	0.200004	0.000146	0.193758	0.199018	0.000967
1929	0.20099	-1.9e-05	0.191293	0.198196	-0.000841
1930	0.200332	0.000146	0.192936	0.199675	0.001789
1931	0.199346	0.000146	0.194744	0.201483	0.00031
1932	0.200004	0.00031	0.192772	0.19836	-0.001991
1933	0.196223	0.000146	0.196388	0.197538	-0.000676
1934	0.199346	-0.000183	0.195566	0.200497	0.00031
1935	0.201976	-0.000183	0.195566	0.199182	-0.000183
1936	0.199182	-0.000347	0.196059	0.201812	0.00031
1937	0.200004	-0.000347	0.197045	0.198524	0.000146
1938	0.201812	-0.000347	0.200332	0.204113	0.001296
1939	0.201812	0.000146	0.193922	0.200661	0.00146
1940	0.200661	0.000146	0.196552	0.200004	-0.000183
1941	0.202633	0.00031	0.199675	0.199018	0.000803
1942	0.200332	0.00031	0.197538	0.20214	-1.9e-05
1943	0.200332	0.000146	0.19721	0.198689	0.000803
1944	0.199182	0.000146	0.195402	0.19836	0.000803
1945	0.196059	-0.000183	0.19721	0.197374	-1.9e-05
1946	0.201812	-0.000347	0.19836	0.199346	-0.000676
1947	0.199839	-0.000347	0.200004	0.199346	-0.000183
1948	0.196223	-0.000512	0.200332	0.197867	0.00031
1949	0.198031	-0.000183	0.201976	0.200497	-0.000183
1950	0.200497	0.00031	0.198031	0.199675	0.000146
1951	0.200825	0.00031	0.197703	0.201483	-0.001991
1952	0.203455	0.00031	0.198524	0.199675	0.002611
1953	0.204441	-1.9e-05	0.196552	0.202469	0.00146
1954	0.204441	0.000146	0.196717	0.202305	0.000639
1955	0.20099	-1.9e-05	0.199182	0.204277	0.000803
1956	0.201647	-0.000347	0.201154	0.20214	0.000639
1957	0.203126	-1.9e-05	0.199182	0.199839	-0.000183
1958	0.200332	-0.000183	0.199346	0.20099	0.000639
1959	0.202633	-0.000183	0.199346	0.200168	-0.000347
1960	0.200004	-0.000347	0.201647	0.199675	-0.000676
1961	0.200497	-0.000183	0.197538	0.202798	0.000146
1962	0.201154	0.00031	0.197867	0.201319	0.000639
1963	0.201483	0.00031	0.197703	0.198853	0.00031
1964	0.199346	0.000474	0.194416	0.205592	0.000803
1965	0.201976	0.000146	0.198196	0.19836	0.00031
1966	0.198853	-1.9e-05	0.197867	0.201319	0.00031
1967	0.205592	-0.000183	0.198196	0.200497	0.000967
1968	0.208879	-0.000183	0.198031	0.203948	-0.000512
1969	0.202962	-0.000347	0.198524	0.201319	0.000474
1970	0.202305	-0.000512	0.198689	0.201647	-0.000183
1971	0.203126	-0.000183	0.200661	0.202305	0.00031
1972	0.201647	0.000146	0.198031	0.202469	0.000803
1973	0.201812	0.000146	0.199018	0.201154	0.000803
1974	0.205099	0.00031	0.198196	0.200825	-0.000512
1975	0.199675	0.000146	0.20362	0.200168	0.001789
1976	0.201319	0.000146	0.200825	0.200004	0.000639
1977	0.202469	-0.000183	0.198031	0.19721	0.001132
1978	0.201976	-0.000183	0.198031	0.199675	-0.000183
1979	0.205263	-0.000347	0.19836	0.200168	-0.000347
1980	0.202305	-0.000183	0.198689	0.199018	-1.9e-05
1981	0.200332	-0.000512	0.197538	0.20099	0.000146
1982	0.202305	-1.9e-05	0.198196	0.198853	0.001954
1983	0.200004	-1.9e-05	0.198031	0.202798	-0.001169
1984	0.201319	0.000146	0.199346	0.201483	0.001296
1985	0.202962	0.000146	0.197703	0.201319	0.001625
1986	0.202962	0.00031	0.200004	0.203948	0.001296
1987	0.200825	0.00031	0.200332	0.202305	-0.000183
1988	0.201319	-1.9e-05	0.198196	0.199182	0.001625
1989	0.20099	-0.000347	0.200004	0.201154	0.000967
1990	0.202962	-0.000347	0.200825	0.20099	0.00031
1991	0.204441	-0.000183	0.200332	0.201647	0.000474
1992	0.20099	-0.000512	0.199839	0.198853	0.000639
1993	0.200332	-1.9e-05	0.201483	0.198031	0.001296
1994	0.200661	0.000146	0.196717	0.199346	0.001625
1995	0.199511	0.000146	0.20214	0.198689	0.002282
1996	0.200168	0.00031	0.203126	0.198853	-0.000347
1997	0.198031	0.000474	0.195895	0.199182	0.001132
1998	0.198196	0.000146	0.196717	0.201483	0.000146
1999	0.200168	-1.9e-05	0.199018	0.200332	0.000474
2000	0.195237	-0.000183	0.19836	0.200168	-0.000841
2001	0.198689	-0.000347	0.200661	0.200661	0.002447
2002	0.202962	-0.000183	0.198031	0.200661	-0.001498
2003	0.199839	-0.000347	0.199839	0.200661	0.000639
2004	0.204277	0.000146	0.201976	0.199018	-0.001498
2005	0.201976	0.000146	0.199839	0.198853	-0.000183
2006	0.198524	0.000146	0.200825	0.202305	0.00031
2007	0.200661	0.000146	0.200004	0.201647	0.000967
2008	0.196552	0.00031	0.201154	0.201812	0.00146
2009	0.198196	-1.9e-05	0.199346	0.202305	0.003104
2010	0.200497	-1.9e-05	0.201812	0.20099	0.001296
2011	0.200332	-0.000183	0.199675	0.201154	0.000146
2012	0.20099	-0.000183	0.201154	0.200168	0.001132
2013	0.202469	-0.000183	0.200168	0.201483	-0.000183
2014	0.201154	-0.000512	0.200661	0.199346	0.000146
2015	0.199675	-1.9e-05	0.200004	0.201483	-0.000347
2016	0.200825	0.00031	0.199182	0.201483	0.000967
2017	0.199839	0.000146	0.196881	0.202305	0.000146
2018	0.199346	0.000146	0.200168	0.202469	0.001625
2019	0.201319	0.00031	0.199839	0.201319	-1.9e-05
2020	0.199346	0.000146	0.198031	0.200168	0.000967
2021	0.202305	-0.000183	0.20099	0.201154	-0.001169
2022	0.201976	-0.000183	0.201647	0.203126	0.00146
2023	0.201812	-0.000183	0.202469	0.200497	0.000639
2024	0.20099	-0.000347	0.201154	0.203948	0.001789
2025	0.201976	-0.000512	0.200497	0.200497	0.007706
2026	0.202633	-0.000183	0.200168	0.202633	0.013787
2027	0.200004	-1.9e-05	0.200497	0.200332	0.021183
2028	0.200004	0.000146	0.198524	0.20099	0.024306
2029	0.200497	0.000146	0.199511	0.200332	0.035482
2030	0.199018	0.00031	0.199346	0.20099	0.03729
2031	0.201319	0.000146	0.200661	0.199346	0.044358
2032	0.199839	-0.000183	0.198689	0.201647	0.044522
2033	0.200332	-0.000512	0.203291	0.197867	0.055205
2034	0.202305	-0.000512	0.198853	0.201812	0.054055
2035	0.201319	-0.000347	0.199839	0.200168	0.061944
2036	0.201483	-1.9e-05	0.199675	0.199675	0.064902
2037	0.200004	0.000146	0.200168	0.199182	0.073284
2038	0.201812	0.00031	0.200004	0.199346	0.075092
2039	0.201976	0.000146	0.201483	0.200168	0.081667
2040	0.202305	0.00031	0.198689	0.201976	0.087584
2041	0.199182	0.00031	0.200004	0.203784	0.093665
2042	0.202305	0.000146	0.199346	0.199346	0.097938
2043	0.20099	-0.000183	0.197703	0.200004	0.099417
2044	0.201976	-0.000183	0.203948	0.198524	0.105992
2045	0.201483	-0.000347	0.200168	0.200825	0.110593
2046	0.200004	-0.000512	0.201319	0.197703	0.116346
2047	0.199346	-0.000347	0.200497	0.199346	0.115853
2048	0.200661	-1.9e-05	0.200661	0.200004	0.121112
2049	0.199675	-1.9e-05	0.20099	0.200661	0.119797
2050	0.200497	0.000146	0.200168	0.200497	0.129495
2051	0.199675	0.000146	0.20099	0.200168	0.131138
2052	0.200168	0.00031	0.201319	0.201812	0.131467
2053	0.201647	0.000146	0.201154	0.199839	0.130974
2054	0.201154	-1.9e-05	0.198196	0.200825	0.137219
2055	0.199182	-0.000183	0.202633	0.201483	0.141986
2056	0.201812	-0.000347	0.199839	0.198524	0.139356
2057	0.197703	-0.000183	0.20099	0.200497	0.144615
2058	0.201976	-0.000347	0.199182	0.200004	0.14593
2059	0.203784	-1.9e-05	0.201319	0.202469	0.14856
2060	0.199511	0.000146	0.198853	0.204606	0.149875
2061	0.203291	0.000146	0.201647	0.201483	0.151518
2062	0.200825	0.00031	0.199018	0.201976	0.153162
2063	0.202469	0.000146	0.200497	0.202305	0.157271
2064	0.201812	0.00031	0.197538	0.20099	0.157107
2065	0.199018	-1.9e-05	0.199675	0.200332	0.161051
2066	0.201319	-0.000183	0.199018	0.201976	0.161544
2067	0.200332	-0.000347	0.200661	0.200004	0.163845
2068	0.201154	-0.000347	0.199675	0.202469	0.163352
2069	0.202305	-0.000512	0.200168	0.198689	0.164667
2070	0.201154	-1.9e-05	0.199675	0.199346	0.166475
2071	0.200661	-1.9e-05	0.195402	0.201483	0.168283
2072	0.201812	0.000146	0.199675	0.198689	0.167461
2073	0.199346	0.00031	0.19836	0.201812	0.168612
2074	0.202798	0.000146	0.201319	0.202962	0.171899
2075	0.200168	0.000146	0.201154	0.202469	0.170748
2076	0.201976	-0.000183	0.19573	0.200497	0.173542
2077	0.201319	-0.000347	0.201319	0.203126	0.174857
2078	0.206085	-0.000183	0.20214	0.200168	0.173542
2079	0.206249	-0.000183	0.198524	0.203126	0.176829
2080	0.202633	-0.000347	0.201647	0.199839	0.179788
2081	0.201976	-0.000183	0.199511	0.200004	0.180938
2082	0.201154	-1.9e-05	0.200332	0.200004	0.177651
2083	0.201319	0.00031	0.201976	0.200332	0.175679
2084	0.199018	0.000146	0.199018	0.200497	0.178473
2085	0.199839	0.00031	0.20099	0.200661	0.178802
2086	0.200332	0.00031	0.200497	0.199018	0.180116
2087	0.201483	-0.000183	0.199182	0.197374	0.181267
2088	0.199839	-0.000183	0.201647	0.204441	0.180938
2089	0.20214	-0.000512	0.199839	0.198524	0.183732
2090	0.200168	-0.000347	0.200168	0.200661	0.185212
2091	0.201647	-0.000512	0.201812	0.201154	0.185705
2092	0.200661	-0.000183	0.200332	0.202305	0.185705
2093	0.202633	0.00031	0.200825	0.200661	0.187677
2094	0.199511	0.000146	0.202305	0.20099	0.186198
2095	0.199346	0.000474	0.201154	0.197374	0.188006
2096	0.202469	0.00031	0.200332	0.203291	0.187348
2097	0.197703	0.000146	0.200825	0.199511	0.190471
2098	0.199675	-1.9e-05	0.202633	0.198031	0.188334
2099	0.19836	-0.000347	0.203291	0.200825	0.191128
2100	0.200004	-0.000347	0.20099	0.199675	0.191621
2101	0.203291	-0.000347	0.201812	0.200168	0.19195
2102	0.202469	-0.000183	0.200332	0.199675	0.004419
2103	0.201647	-0.000183	0.204277	0.202305	0.012144
2104	0.201812	0.000146	0.199018	0.201154	0.020033
2105	0.197374	-1.9e-05	0.200497	0.203455	0.024964
2106	0.202469	0.000146	0.200332	0.203291	0.034168
2107	0.197538	0.000146	0.20214	0.202962	0.040577
2108	0.199182	0.000146	0.201812	0.200825	0.047152
2109	0.200168	-1.9e-05	0.196717	0.201812	0.053397
2110	0.200332	-0.000183	0.19721	0.200168	0.061286
2111	0.198196	-0.000347	0.20099	0.20362	0.061779
2112	0.203291	-0.000512	0.198853	0.201812	0.071477
2113	0.201976	-0.000512	0.20099	0.203291	0.076079
2114	0.20362	-0.000183	0.201647	0.201976	0.081009
2115	0.202798	0.00031	0.200497	0.20099	0.085283
2116	0.193922	0.000146	0.199018	0.200825	0.089885
2117	0.198524	0.000146	0.201812	0.200004	0.094815
2118	0.199839	0.000474	0.200497	0.201154	0.097609
2119	0.203291	0.000474	0.201812	0.199018	0.103362
2120	0.200332	-0.000183	0.200332	0.199018	0.105992
2121	0.201647	-0.000183	0.201647	0.20099	0.110593
2122	0.197867	-0.000183	0.199346	0.201647	0.114702
2123	0.202305	-0.000183	0.201154	0.197538	0.117496
2124	0.201319	-0.000512	0.199839	0.203948	0.121934
2125	0.201154	-0.000183	0.201483	0.201154	0.126372
2126	0.201483	-1.9e-05	0.194416	0.201976	0.125714
2127	0.196059	0.00031	0.194251	0.201812	0.130809
2128	0.202962	0.00031	0.198524	0.204113	0.133603
2129	0.199511	0.000146	0.197374	0.200168	0.134754
2130	0.202633	0.00031	0.199018	0.200825	0.139356
2131	0.204277	-0.000347	0.19836	0.20214	0.137548
2132	0.202633	-0.000347	0.200661	0.199018	0.146423
2133	0.201976	-1.9e-05	0.200825	0.20214	0.143958
2134	0.204113	-0.000183	0.202798	0.200661	0.145766
2135	0.201483	-0.000347	0.200168	0.198524	0.14856
2136	0.201976	0.000146	0.202469	0.202798	0.154477
2137	0.202798	-1.9e-05	0.199839	0.204934	0.151025
2138	0.202469	0.00031	0.20362	0.198196	0.155463
2139	0.19836	0.00031	0.199839	0.202469	0.155463
2140	0.201483	0.000146	0.200332	0.201319	0.160887
2141	0.200168	0.000146	0.200332	0.200332	0.160065
2142	0.201647	-1.9e-05	0.20099	0.201483	0.161544
2143	0.201319	-0.000347	0.204606	0.201319	0.163352
2144	0.198853	-0.000347	0.200661	0.201319	0.165653
2145	0.20214	-0.000347	0.200168	0.200332	0.166968
2146	0.201976	-0.000512	0.199839	0.201812	0.168118
2147	0.200168	0.000146	0.201812	0.201319	0.169105
2148	0.199675	0.000146	0.200004	0.199675	0.169598
2149	0.206742	0.00031	0.199346	0.199839	0.17157
2150	0.198524	0.00031	0.198689	0.200004	0.16894
2151	0.202962	0.00031	0.201976	0.198689	0.1742
2152	0.201319	0.000146	0.199675	0.202633	0.176008
2153	0.203784	-1.9e-05	0.201976	0.200497	0.177158
2154	0.199346	-0.000347	0.201812	0.202305	0.174364
2155	0.198031	-0.000512	0.201976	0.197703	0.180281
2156	0.200661	-0.000183	0.201319	0.20099	0.179295
2157	0.200332	-0.000347	0.200168	0.200661	0.181267
2158	0.199346	-1.9e-05	0.203291	0.201647	0.181596
2159	0.19836	0.000146	0.199182	0.199839	0.182911
2160	0.205592	-1.9e-05	0.199018	0.201647	0.181431
2161	0.198524	0.00031	0.198853	0.202798	0.18176
2162	0.200332	0.000146	0.196223	0.201976	0.182911
2163	0.200825	0.000146	0.20099	0.201812	0.184554
2164	0.200661	-0.000183	0.199839	0.199511	0.184718
2165	0.201483	-0.000183	0.199675	0.203291	0.186033
2166	0.201319	-0.000183	0.202305	0.199675	0.186033
2167	0.200497	-0.000512	0.20362	0.202633	0.186526
2168	0.201154	-0.000512	0.20362	0.200661	0.187348
2169	0.179459	-1.9e-05	0.198853	0.199839	0.189814
2170	0.084625	0.000146	0.20477	0.200168	0.187677
2171	0.00787	0.00031	0.201976	0.203455	0.187019
2172	0.003104	-1.9e-05	0.199839	0.199839	0.189485
2173	0.002447	0.00031	0.201647	0.201483	0.1908
2174	0.003926	0.000146	0.200825	0.202305	0.192115
2175	0.00294	-0.000183	0.196881	0.199182	0.192936
2176	0.00409	-0.000183	0.201154	0.201976	0.192279
2177	0.004419	-0.000676	0.194744	0.200497	0.190142
2178	-0.001334	-0.000512	0.198524	0.201483	0.191128
2179	0.000474	-0.000183	0.201483	0.201319	0.192772
2180	-0.000512	-1.9e-05	0.196717	0.201319	0.193101
2181	-0.000512	0.000146	0.19836	0.20099	0.190635
2182	0.000639	0.000146	0.200004	0.201812	0.192115
2183	0.000803	0.00031	0.200825	0.200332	0.198853
2184	0.000474	0.00031	0.201319	0.203784	0.19195
2185	0.001132	0.000146	0.202633	0.200825	0.193429
2186	0.000639	-0.000183	0.200332	0.199839	0.195895
2187	0.001132	-0.000183	0.202633	0.200004	0.19458
2188	0.000146	-1.9e-05	0.202469	0.201319	0.192279
2189	0.000474	-0.000347	0.202469	0.201483	0.195402
2190	-0.000512	-1.9e-05	0.201976	0.201812	0.195237
2191	0.000146	-0.000183	0.200661	0.201647	0.197538
2192	-0.000841	0.000146	0.203126	0.198524	0.195895
2193	-1.9e-05	0.00031	0.200332	0.200497	0.196552
2194	0.000803	0.00031	0.198524	0.201483	0.196388
2195	0.000639	0.000474	0.198689	0.200497	0.197703
2196	0.00031	0.000146	0.201319	0.200661	0.195895
2197	0.000803	-1.9e-05	0.198853	0.200825	0.196552
2198	0.000639	-1.9e-05	0.202798	0.201319	0.198031
2199	0.000803	-0.000512	0.198196	0.202798	0.193429
2200	0.000146	-0.000347	0.204277	0.202633	0.200004
2201	-0.000183	-0.000183	0.201647	0.205592	0.197538
2202	-0.000183	-1.9e-05	0.203455	0.201976	0.197867
2203	-0.000183	0.00031	0.201483	0.202633	0.197538
2204	-0.000183	0.000146	0.20099	0.202798	0.202305
2205	0.000146	0.000474	0.200004	0.204277	0.199182
2206	0.000146	0.000146	0.201319	0.204277	0.19836
2207	-0.000183	0.000146	0.200497	0.199018	0.199346
2208	0.00031	-0.000183	0.198689	0.200497	0.200332
2209	0.00031	-0.000347	0.199018	0.202633	0.198853
2210	0.00031	-0.000183	0.199018	0.200661	0.198524
2211	-0.000183	-0.000183	0.200332	0.201812	0.197703
2212	-0.000183	-0.000347	0.199511	0.204441	0.19836
2213	-0.000347	0.000146	0.200497	0.201154	0.198031
2214	-0.000347	0.00031	0.19573	0.202633	0.196388
2215	-0.000183	0.00031	0.200332	0.201647	0.198853
2216	-0.000183	0.00031	0.199346	0.203291	0.198853
2217	-1.9e-05	0.000146	0.201812	0.203784	0.19836
2218	0.00031	-1.9e-05	0.197538	0.203948	0.199839
2219	0.000474	-1.9e-05	0.197374	0.203784	0.198524
2220	0.00031	-0.000183	0.199018	0.201647	0.199018
2221	0.000146	-0.000512	0.20214	0.202962	0.198853
2222	-0.000183	-0.000347	0.200332	0.203126	0.199839
2223	-0.000183	-0.000512	0.199839	0.204934	0.200004
2224	-0.000676	-1.9e-05	0.20362	0.202798	0.199839
2225	-0.000512	0.000474	0.196881	0.202633	0.201154
2226	-0.000347	0.000639	0.199511	0.202633	0.200168
2227	-0.000183	0.000474	0.199511	0.20214	0.198031
2228	0.000146	0.002447	0.194909	0.201976	0.197867
2229	-1.9e-05	0.00672	0.19721	0.198853	0.197703
2230	0.000474	0.016417	0.20099	0.199675	0.200497
2231	0.000474	0.024635	0.201154	0.20099	0.198031
2232	0.000146	0.02595	0.199018	0.200332	0.199675
2233	-0.000347	0.034989	0.198196	0.202305	0.195895
2234	0.000146	0.039098	0.201154	0.202633	0.199839
2235	-0.000183	0.046823	0.202305	0.203291	0.19836
2236	-0.000183	0.054383	0.200825	0.20214	0.19836
2237	-0.000347	0.059972	0.201154	0.20362	0.201483
2238	-1.9e-05	0.065395	0.200497	0.201647	0.202305
2239	0.00031	0.068682	0.199675	0.202305	0.201154
2240	0.000146	0.072791	0.201976	0.20214	0.201483
2241	0.00031	0.080845	0.203784	0.199675	0.201812
2242	0.000474	0.085118	0.199675	0.198689	0.201154
2243	0.000146	0.087255	0.200497	0.196717	0.202633
2244	-1.9e-05	0.095637	0.197867	0.201483	0.201319
2245	-0.000183	0.099746	0.201647	0.197374	0.201647
2246	-0.000347	0.10139	0.202633	0.200332	0.198853
2247	-0.000347	0.105334	0.200332	0.196388	0.201647
2248	-0.000183	0.109114	0.200168	0.199018	0.198689
2249	-0.000183	0.112894	0.20099	0.200332	0.202469
2250	0.000146	0.105827	0.200825	0.198031	0.202962
2251	0.000474	0.03614	0.200497	0.200661	0.202469
2252	0.000146	0.006062	0.199839	0.202962	0.20099
2253	0.000146	0.009021	0.20099	0.19836	0.202962
2254	0.000146	0.01428	0.203784	0.20099	0.20099
2255	-0.000183	0.007706	0.200004	0.201154	0.203948
2256	-0.000347	0.015102	0.200332	0.200332	0.192115
2257	-0.000347	0.019375	0.201976	0.20099	0.200168
2258	-0.000347	0.029894	0.200004	0.200004	0.199346
2259	-0.000183	0.034003	0.199839	0.198524	0.199839
2260	-1.9e-05	0.040742	0.201319	0.200004	0.201483
2261	0.00031	0.05011	0.200004	0.203455	0.199675
2262	0.000474	0.049617	0.201319	0.201154	0.202798
2263	0.00031	0.057013	0.201319	0.201154	0.201154
2264	0.000146	0.060465	0.200497	0.197703	0.200825
2265	-1.9e-05	0.068682	0.200825	0.198853	0.200825
2266	-0.000183	0.072134	0.201319	0.198196	0.203455
2267	-0.000183	0.07838	0.200661	0.200332	0.190635
2268	-0.000183	0.080023	0.202633	0.199675	0.199018
2269	-0.000347	0.083146	0.200661	0.200332	0.19836
2270	-0.000347	-1.9e-05	0.199839	0.201319	0.198196
2271	-1.9e-05	0.000474	0.199511	0.199182	0.20099
2272	0.000474	-0.000347	0.196223	0.198853	0.198031
2273	-1.9e-05	0.000146	0.204113	0.197538	0.200332
2274	-1.9e-05	-0.000183	0.200497	0.199839	0.201154
2275	0.00031	-0.000347	0.198031	0.19836	0.200332
2276	0.000146	-0.000183	0.196881	0.197867	0.196059
2277	-0.000347	-0.000347	0.201976	0.19836	0.205427
2278	-0.000183	0.0105	0.198031	0.196881	0.195402
2279	-0.000347	0.011322	0.201154	0.196717	0.199182
2280	-0.000183	0.019704	0.201976	0.194744	0.200004
2281	-1.9e-05	0.021512	0.197045	0.195237	0.200168
2282	-0.000183	0.028415	0.199018	0.193758	0.197045
2283	0.000146	0.033674	0.202305	0.19458	0.195566
2284	0.000146	0.038112	0.200825	0.19721	0.193101
2285	0.00031	0.044522	0.198689	0.197045	0.20099
2286	0.000474	0.051589	0.20099	0.198524	0.196552
2287	0.000146	0.054712	0.19836	0.199675	0.198853
2288	-1.9e-05	0.044029	0.201812	0.199675	0.200168
2289	-0.000512	0.021676	0.198196	0.200661	0.20214
2290	-0.000183	0.013623	0.201647	0.198853	0.200332
2291	-0.000347	0.018882	0.201483	0.20099	0.19836
2292	-0.000347	0.012965	0.19836	0.197045	0.199511
2293	-1.9e-05	0.003268	0.197703	0.197538	0.199346
2294	-1.9e-05	0.00031	0.200004	0.197703	0.200497
2295	0.000146	-1.9e-05	0.202305	0.198689	0.199511
2296	0.00031	0.001296	0.201483	0.196059	0.202798
2297	0.00031	0.001954	0.201319	0.198196	0.199018
2298	0.00031	-0.001498	0.201319	0.197045	0.20477
2299	-0.000183	-0.000512	0.200497	0.199839	0.202305
2300	-0.000347	0.00294	0.197703	0.201319	0.205592
2301	-0.000347	0.012308	0.200661	0.201154	0.200168
2302	-0.000347	0.014116	0.198031	0.199675	0.200497
2303	-0.000347	0.018718	0.200661	0.200168	0.200825
2304	-0.000183	0.013294	0.198524	0.199018	0.199018
2305	0.000146	0.019047	0.200004	0.197867	0.199675
2306	0.000474	0.027265	0.203948	0.201154	0.199346
2307	0.00031	0.03088	0.201812	0.197867	0.201319
2308	0.000146	0.038112	0.200661	0.198853	0.20099
2309	0.000146	0.044522	0.20214	0.199675	0.200332
2310	-1.9e-05	0.049946	0.200497	0.199182	0.202798
2311	-0.000183	0.05537	0.203126	0.203455	0.20214
2312	-0.000347	0.057999	0.200497	0.201483	0.199675
2313	-0.000512	0.062601	0.201812	0.199839	0.20214
2314	-0.000183	0.063752	0.200332	0.200168	0.203126
2315	-1.9e-05	0.065231	0.201154	0.196552	0.201976
2316	0.00031	0.064574	0.200332	0.197703	0.201319
2317	-1.9e-05	0.057671	0.201976	0.198853	0.200661
2318	0.000146	0.060793	0.204606	0.201154	0.201647
2319	0.00031	0.063587	0.200497	0.19836	0.200497
2320	0.000146	0.067696	0.20099	0.200497	0.200661
2321	-0.000183	0.072298	0.200332	0.200004	0.201154
2322	-0.000183	0.07312	0.200661	0.200332	0.201319
2323	-0.000347	0.07049	0.199018	0.200168	0.196552
2324	-0.000347	0.00031	0.19836	0.199182	0.202633
2325	-0.000183	-1.9e-05	0.200004	0.202305	0.197538
2326	0.00031	-1.9e-05	0.198853	0.192115	0.199839
2327	-1.9e-05	0.00031	0.197045	0.196717	0.199511
2328	0.00031	0.000146	0.201812	0.198031	0.199675
2329	-1.9e-05	-0.000183	0.200332	0.199675	0.201812
2330	0.000474	-0.000183	0.198689	0.202633	0.20362
2331	-1.9e-05	0.000803	0.20099	0.198524	0.200168
2332	-1.9e-05	-0.000347	0.201154	0.199018	0.201483
2333	-0.000347	0.004419	0.201647	0.200332	0.20214
2334	-0.000183	0.002282	0.199182	0.200497	0.194087
2335	-0.000183	0.007049	0.20099	0.199018	0.200004
2336	-1.9e-05	0.007213	0.199511	0.201647	0.198853
2337	-1.9e-05	0.003597	0.200168	0.192772	0.198031
2338	0.000146	0.008692	0.197867	0.200497	0.197045
2339	0.00031	0.004419	0.202633	0.200497	0.198689
2340	0.000146	0.003268	0.201154	0.200332	0.197538
2341	0.00031	0.006227	0.200168	0.199182	0.199346
2342	-1.9e-05	0.01313	0.197374	0.201483	0.199675
2343	-1.9e-05	0.015102	0.199675	0.19836	0.200661
2344	-0.000183	0.010993	0.200004	0.201483	0.201812
2345	-0.000183	0.008363	0.201154	0.201154	0.199839
2346	-0.000347	0.015595	0.200825	0.201319	0.199346
2347	-0.000347	0.007049	0.199839	0.200004	0.201976
2348	0.000146	0.000967	0.202305	0.19836	0.201647
2349	-1.9e-05	0.009021	0.200497	0.199839	0.202633
2350	0.00031	-0.001334	0.201154	0.197703	0.199182
2351	0.000146	0.002775	0.20099	0.201647	0.199346
2352	0.00031	0.00031	0.201483	0.200661	0.200004
2353	0.000146	-0.000183	0.20362	0.201976	0.202305
2354	-0.000183	-0.000347	0.201483	0.200497	0.199018
2355	-0.000512	0.001296	0.199511	0.202633	0.200497
2356	-0.000183	0.000146	0.201812	0.201319	0.199511
2357	-0.000183	0.000146	0.198853	0.202305	0.199511
2358	-0.000347	0.000146	0.201154	0.201319	0.19836
2359	-1.9e-05	0.000146	0.202469	0.206414	0.197538
2360	-1.9e-05	0.000146	0.199675	0.198196	0.198689
2361	0.00031	-1.9e-05	0.200661	0.200004	0.198196
2362	0.000146	0.000146	0.20477	0.19836	0.199346
2363	0.00031	-0.000183	0.201647	0.201483	0.20099
2364	-1.9e-05	-0.000512	0.201154	0.203455	0.200661
2365	-0.000183	-0.000676	0.203784	0.197538	0.202469
2366	-0.000183	-0.000347	0.197045	0.201976	0.171734
2367	-0.000512	0.000146	0.197703	0.202798	0.085776
2368	-0.000347	-1.9e-05	0.200825	0.201647	0.081995
2369	-0.000347	0.00031	0.20099	0.200332	0.08857
2370	-0.000183	0.000146	0.200497	0.206742	0.092514
2371	0.000146	0.00031	0.201976	0.199675	0.097281
2372	0.00031	-1.9e-05	0.199675	0.202469	0.099417
2373	0.00031	-1.9e-05	0.203455	0.200825	0.105992
2374	0.000146	-0.000183	0.201319	0.201976	0.107799
2375	0.000146	-0.000183	0.203784	0.199675	0.115524
2376	-0.000183	-0.000512	0.199018	0.20099	0.116346
2377	-0.000183	-0.000347	0.194251	0.202305	0.118811
2378	-0.000347	0.000146	0.199182	0.202469	0.123742
2379	-0.000347	0.000146	0.199346	0.201483	0.12818
2380	-1.9e-05	0.000146	0.198524	0.197374	0.130974
2381	-1.9e-05	0.000146	0.200004	0.200004	0.131138
2382	-1.9e-05	0.000474	0.201319	0.196717	0.13574
2383	0.00031	0.000146	0.197538	0.199511	0.13952
2384	-1.9e-05	-0.000183	0.205592	0.201647	0.140671
2385	0.00031	-0.000347	0.200168	0.200497	0.142479
2386	-1.9e-05	-0.000347	0.20214	0.198196	0.146588
2387	-0.000347	-0.000512	0.202305	0.202962	0.146095
2388	-0.000183	-0.000347	0.194416	0.200004	0.146588
2389	-0.000347	0.00031	0.199018	0.200661	0.150204
2390	-0.000347	0.000146	0.201647	0.200332	0.151518
2391	-0.000183	0.000146	0.201154	0.201154	0.153326
2392	-1.9e-05	0.000146	0.198524	0.20099	0.156449
2393	0.000146	0.00031	0.199182	0.201154	0.157107
2394	0.000146	-1.9e-05	0.196223	0.200332	0.159572
2395	0.00031	-0.000183	0.203291	0.200332	0.163681
2396	0.00031	-0.000347	0.200332	0.202305	0.163188
2397	-1.9e-05	-0.000347	0.200825	0.199511	0.165653
2398	-0.000183	-0.000676	0.201319	0.200497	0.16516
2399	-0.000183	0.000146	0.199182	0.202305	0.172392
2400	-0.000183	0.00146	0.198031	0.203455	0.165817
2401	-0.000512	0.00031	0.201976	0.203126	0.171899
2402	-0.000347	0.000474	0.203291	0.203291	0.168612
2403	0.000146	0.000146	0.204277	0.201812	0.172227
2404	-1.9e-05	0.000146	0.201483	0.201319	0.171734
2405	0.00031	-0.000183	0.199346	0.20099	0.173542
2406	0.000474	0.000639	0.201647	0.202305	0.174364
2407	0.000146	-0.000347	0.201154	0.201647	0.174364
2408	0.000146	-0.000347	0.20099	0.203455	0.17157
2409	-0.000183	0.001132	0.199675	0.203291	0.176994
2410	-0.000347	0.010336	0.202962	0.203126	0.177651
2411	-0.000183	0.018389	0.19836	0.201976	0.175679
2412	-0.000347	0.022827	0.201154	0.204277	0.180445
2413	-0.000347	0.033181	0.199511	0.20214	0.178309
2414	0.000146	0.037619	0.200661	0.204113	0.180445
2415	0.000146	0.040577	0.199346	0.201812	0.181596
2416	0.000146	0.050439	0.201483	0.202469	0.179788
2417	0.000474	0.057342	0.197374	0.20362	0.180938
2418	0.00031	0.058164	0.204934	0.202798	0.184225
2419	-1.9e-05	0.06671	0.200004	0.202798	0.180116
2420	-0.000347	0.070983	0.201976	0.199839	0.183239
2421	-0.000183	0.0769	0.206249	0.203291	0.181596
2422	-0.000183	0.079859	0.200825	0.199511	0.183568
2423	-0.000512	0.084625	0.202962	0.201483	0.185869
2424	-0.000183	0.090049	0.199675	0.203455	0.183732
2425	-1.9e-05	0.078215	0.200332	0.203126	0.186362
2426	0.00031	0.014116	0.201154	0.201812	0.186855
2427	0.000146	0.019704	0.195402	0.202798	0.186033
2428	0.00031	0.026936	0.198031	0.201319	0.184718
2429	0.00031	0.025785	0.201812	0.202633	0.188663
2430	-1.9e-05	0.033346	0.199675	0.202469	0.187841
2431	-0.000183	0.039591	0.200168	0.20362	0.187841
2432	-1.9e-05	0.048302	0.204277	0.206907	0.18554
2433	-0.000347	0.053233	0.200497	0.204277	0.187513
2434	-0.000347	0.054712	0.199511	0.20362	0.188334
2435	-0.000512	0.060629	0.200497	0.20214	0.186198
2436	0.000146	0.067532	0.200497	0.201647	0.188663
2437	0.000146	0.072134	0.203291	0.198524	0.188499
2438	0.000146	0.079859	0.201976	0.200497	0.187184
2439	0.000146	0.081502	0.200332	0.200661	0.190964
2440	0.000146	0.061944	0.201154	0.199346	0.1908
2441	0.000146	0.066381	0.20099	0.199511	0.190635
2442	-0.000183	0.068682	0.202633	0.195895	0.191293
2443	-0.000347	0.074435	0.199675	0.202305	0.189814
2444	-0.000347	0.078873	0.199839	0.201976	0.192443
2445	-0.000347	0.082488	0.199018	0.200168	0.18817
2446	-0.000512	0.08709	0.200661	0.199675	0.191128
2447	0.000146	0.090706	0.198031	0.202469	0.18932
2448	0.00031	0.095308	0.200825	0.201154	0.1908
2449	0.000146	0.100403	0.19836	0.204277	0.189814
2450	0.00031	0.101718	0.201483	0.201483	0.188006
2451	-1.9e-05	0.105498	0.20214	0.203126	0.165817
2452	0.000146	0.106978	0.204113	0.202305	0.090706
2453	-0.000183	0.113552	0.19836	0.200825	0.040084
2454	-1.9e-05	0.117003	0.199018	0.201483	0.008363
2455	-0.000512	0.118976	0.19836	0.201812	0.000803
2456	-0.000347	0.114374	0.200004	0.201647	0.00146
2457	-0.000183	0.108293	0.202305	0.201647	-0.000512
2458	-1.9e-05	0.097116	0.199511	0.201812	0.004419
2459	0.00031	0.085776	0.201154	0.200168	0.007542
2460	0.000146	0.078873	0.198689	0.202633	0.011486
2461	0.00031	0.075092	0.201319	0.202305	0.018389
2462	0.000146	0.076572	0.19836	0.207235	0.024306
2463	-1.9e-05	0.077393	0.200004	0.20477	0.033674
2464	-0.000347	0.070819	0.199182	0.203126	0.035811
2465	-0.000347	0.061122	0.202305	0.203784	0.046166
2466	-0.000347	0.062601	0.198524	0.205756	0.048631
2467	-0.000512	0.064409	0.19836	0.202962	0.053397
2468	-0.000183	0.065067	0.200497	0.20362	0.062108
2469	0.000146	0.068518	0.200332	0.204113	0.064409
2470	-1.9e-05	0.076736	0.200497	0.200661	0.072298
2471	0.00031	0.070983	0.200168	0.203455	0.076736
2472	0.00031	0.07049	0.201647	0.200661	0.082653
2473	0.000474	0.070819	0.20099	0.203455	0.086269
2474	-0.000183	0.063094	0.201812	0.204606	0.085611
2475	-0.000347	0.059314	0.19836	0.20214	0.042878
2476	-0.000512	0.058492	0.200332	0.200004	0.002118
2477	-0.000512	0.064902	0.196881	0.203455	0.000967
2478	-0.000512	0.069011	0.199511	0.200661	0.000146
2479	-0.000183	0.074928	0.196717	0.204934	-0.000183
2480	0.000146	0.074599	0.198524	0.20477	0.000639
2481	-1.9e-05	0.082488	0.199511	0.20099	0.000474
2482	0.000146	0.077229	0.19836	0.19836	0.000803
2483	0.00031	0.070819	0.200168	0.201154	0.000474
2484	0.00031	0.070983	0.198853	0.198853	0.004255
2485	-1.9e-05	0.063916	0.200825	0.199839	0.009843
2486	-1.9e-05	0.062766	0.200004	0.200661	0.016746
2487	-0.000183	0.072956	0.203948	0.200004	0.027429
2488	-0.000347	0.069176	0.201154	0.201976	0.000474
2489	-0.000512	0.074271	0.201483	0.199018	0.000146
2490	-0.000183	0.082488	0.200004	0.200661	0.000146
2491	0.000146	0.068682	0.202305	0.200004	0.000639
2492	0.00031	0.054055	0.205263	0.200332	0.000639
2493	0.00031	0.054548	0.20362	0.197867	0.00294
2494	0.000146	0.055863	0.202633	0.20099	0.000474
2495	-1.9e-05	0.056849	0.200168	0.198196	0.003926
2496	-1.9e-05	0.050439	0.202633	0.198689	0.00787
2497	-0.000183	0.03992	0.198853	0.196552	0.014938
2498	-0.000347	0.046001	0.199675	0.199346	0.02069
2499	-0.000347	0.028744	0.200168	0.203455	0.028744
