Ladekurvenmessung

Zeit: 2018_05_04 10.04.36

Info: FVA3, v = 1.05, T = 23, F = 20, h = 591.0

Ladewiderstand[Ohm]: 1012700

Störkapazität[pF]: 0.000000

Entladezeit[ms]: 200

Abtastrate[Hz]: 250000

Anzahl der Messwerte: 2500.000000

Verzögerung[ms]: 1

Ladespannung[V]: 0.200000


	Kurve_1	Kurve_2	Kurve_3	Kurve_4	Kurve_5	Kurve_6	Kurve_7
0	-0.001827	-0.00347	-0.001169	-0.006757	0.000146	0.001789	-0.000512
1	-0.001169	-0.000347	-0.001005	-0.001334	0.003597	0.005569	0.003926
2	-0.000347	-0.001662	-0.001334	-0.002977	0.002447	0.009843	0.001296
3	-0.000347	-0.002648	-0.004128	-0.001498	0.008363	0.004748	-0.003635
4	-0.000841	-0.003635	-0.000512	0.001132	0.003761	0.007049	-0.004949
5	0.001132	-0.002977	-0.001169	-0.002155	0.005405	0.004419	0.00146
6	-0.001827	-0.003142	-0.001169	-0.004128	0.002118	0.001132	-0.000841
7	-0.001827	-0.00347	-0.002484	0.003597	0.003597	0.003104	-0.002813
8	-0.002813	-0.005607	-0.001005	-0.000512	0.000146	0.002447	-0.000183
9	-0.000676	-0.001169	0.000967	-0.000512	0.002447	0.004255	-1.9e-05
10	-0.000347	-0.003799	-0.005607	0.000474	0.003597	0.004419	0.00294
11	0.003926	-0.004292	-0.002648	-0.000183	0.002611	0.002775	-0.000183
12	-0.003799	-0.00873	-0.001005	0.000967	0.003268	0.002611	-1.9e-05
13	0.000639	-0.003963	-0.000347	-0.003799	0.003597	0.00409	-0.001005
14	-0.001005	-0.004292	-0.00232	-0.001169	0.009021	0.002775	-0.000347
15	0.001789	-0.002813	-0.005278	0.00146	0.004419	0.003104	-0.000183
16	0.000639	-0.006264	-0.002484	-0.001991	0.006556	0.003926	-0.000512
17	0.002447	-0.012346	0.000474	-0.002484	0.00294	0.00146	-0.001498
18	-0.001005	-0.00725	-0.004292	-0.000347	0.002447	0.000639	-0.002155
19	-1.9e-05	-0.006922	0.001954	-0.002155	0.003597	0.003761	-0.004128
20	-0.00232	-0.004621	-0.001827	-0.005278	-0.001498	0.003926	-0.000183
21	-0.001169	-0.004456	-0.002155	-0.008894	-0.002155	0.002282	0.000803
22	-0.000183	-0.005278	0.00031	0.001625	0.000639	0.000474	-0.002155
23	-0.004128	-0.007086	-0.000512	-0.003306	-0.001334	0.006062	0.003597
24	-0.003799	-0.0061	0.000639	-0.006264	0.002447	0.002447	-0.001005
25	-0.002484	-0.005771	-0.002813	0.000967	0.001789	0.003268	-0.001498
26	-0.001991	-0.005278	0.001132	-0.003306	0.000639	0.003926	0.000967
27	-0.003799	-0.005936	-0.001662	-0.00347	-0.001827	0.006062	-0.001334
28	-0.001498	-0.010373	-0.001005	-0.002155	0.001954	0.003761	0.000474
29	-0.000183	-0.009387	-0.002484	-0.001662	0.00031	0.002775	0.001296
30	0.000967	-0.003142	0.001296	-0.002155	-0.002155	0.003761	0.000474
31	-0.000347	-0.004621	0.000639	-0.001991	0.003104	-0.002977	0.002775
32	0.001789	-0.004949	0.001789	-0.005936	-0.000841	-0.003963	-0.000347
33	0.005569	-0.002977	-0.00232	-0.001005	-1.9e-05	-0.002648	-0.000183
34	0.00031	-0.007744	-1.9e-05	-0.002484	-0.00347	0.002118	-0.001498
35	-0.000183	-0.006264	0.002447	0.000146	0.003597	0.001789	-0.000676
36	-0.000183	-0.005607	-0.004785	-0.003142	0.000639	0.004255	-0.002813
37	-0.001662	-0.006757	-0.000183	-0.002813	0.003597	0.001954	-0.001334
38	-0.00232	-0.009058	-0.002648	-0.002813	0.000803	0.00672	0.002447
39	-1.9e-05	-0.013332	-0.001662	-0.00232	0.003433	0.003433	-0.002155
40	-0.001498	-0.008894	-0.003142	-0.001827	0.001789	0.002611	-0.001498
41	0.001296	-0.00725	-0.000512	-0.001005	0.001296	0.003926	-0.000183
42	-0.0061	-0.011031	-0.005443	-0.000841	0.002611	0.003926	-0.000183
43	-0.002977	-0.007744	0.00031	-0.002813	-0.000841	0.003761	0.001625
44	0.001625	-0.010209	-0.002155	-0.000841	0.000474	0.005076	-0.001334
45	-0.001005	-0.007744	-0.000183	-0.00347	-0.001334	0.005734	-0.00232
46	-0.001005	-0.008401	0.002611	-0.001169	0.005569	0.004419	-0.000512
47	0.000967	-0.003635	-0.002648	-0.002484	0.001296	0.002282	-0.005114
48	-0.000512	-0.005443	0.000639	-0.000841	0.003597	0.001954	-0.001334
49	0.00031	-0.004621	0.000967	-0.001334	-0.00347	0.007213	-0.003142
50	-0.001169	-0.00725	-0.002813	-0.001334	0.002118	0.003926	-0.001334
51	-0.001498	-0.011195	-0.00232	-0.003799	0.000803	0.00031	-0.005771
52	-0.001169	-0.007579	-0.001169	-0.004128	0.000639	-0.001498	-0.001169
53	-0.000841	-0.006593	-0.002977	-0.001005	0.000967	-1.9e-05	-0.003635
54	-0.001005	-0.006429	-0.005771	-0.006264	0.002611	-1.9e-05	-0.00347
55	-1.9e-05	-0.005443	-0.005936	-0.000183	0.004255	0.003926	-0.001005
56	-0.001827	-0.006593	-0.003142	-0.003635	0.001789	0.002611	0.000474
57	-0.007744	-0.010538	-0.006429	-0.002648	0.002118	0.000967	0.00031
58	-0.004949	-0.00347	-0.004456	-0.002155	0.001954	0.002775	0.000474
59	-0.005278	-0.008401	-0.005443	-0.001005	-0.000676	0.002775	-0.00232
60	-0.003306	-0.006264	-0.0061	-0.000841	0.000639	0.002775	-0.002977
61	-0.003635	-0.011524	-0.003799	-0.002484	0.001132	0.002775	0.00031
62	-0.000676	-0.003799	0.000474	-0.004456	0.002282	-0.002977	-0.003142
63	-0.000841	-0.003963	-0.00347	-0.002484	0.000803	0.002447	0.001132
64	-0.001498	-0.004621	0.001296	-0.002648	-0.001498	0.002611	-0.002813
65	-0.001334	-0.004785	-0.002648	-0.001334	0.001132	0.000474	-0.001005
66	0.001625	-0.004785	-0.001169	-0.000512	-0.00232	0.00409	-0.005607
67	-0.000183	-0.003635	-0.001005	-0.001334	0.000967	0.001789	-0.000512
68	-0.002977	-0.005607	-0.014647	-0.000676	0.00031	0.002611	-0.002813
69	-0.002977	-0.004292	-0.004456	-0.002813	-0.001498	0.001625	-0.0061
70	-0.003635	-0.005771	-0.004949	-0.006593	0.001132	0.003268	-0.005771
71	-0.00232	-0.004949	-0.002648	-0.002484	0.004255	0.002611	0.000146
72	-0.001005	-0.007086	-0.007086	-0.004292	0.00146	0.001296	-0.001991
73	0.000146	-0.006922	-0.001827	-0.004456	0.007542	0.000803	-0.00232
74	-0.004785	-0.008401	-0.002813	-0.003142	0.001954	0.002282	0.00146
75	-0.003635	-0.003635	-0.004292	-0.004949	-0.003635	0.001625	-0.002977
76	-0.00232	-0.009058	-0.001169	-0.001498	0.000474	0.000639	-0.002484
77	-0.001005	-0.00988	-0.000512	-0.000512	-0.001991	0.004748	-0.00232
78	-0.005278	-0.006757	-0.001334	-0.000841	-0.001005	0.002118	-0.000183
79	-0.002648	-0.004292	-0.004949	-0.002977	-0.000841	0.001954	-0.002813
80	-0.001005	-0.004456	-0.003963	0.000639	-0.001991	-0.001005	-0.004292
81	-0.001169	-0.004128	0.000803	-0.001334	-0.005771	0.006391	-0.002155
82	-0.004949	-0.004292	0.001625	-0.002484	0.000146	0.004419	-0.000512
83	0.001296	-0.004949	-0.00232	-0.002648	-0.000183	0.000639	-0.003963
84	0.002118	-0.006922	-0.002648	-0.001827	0.002775	0.00146	-0.005936
85	-0.001169	-0.00725	-0.001662	-0.003142	-0.005936	0.000967	-0.000841
86	0.002282	-0.004949	-0.003799	-0.002977	-0.001991	0.002611	-0.001827
87	-0.000676	-0.007908	0.000474	-0.001827	-1.9e-05	-0.001169	-0.000841
88	-0.001334	-0.004292	-0.001498	-0.001334	-0.001498	0.003268	0.000146
89	-0.002648	-0.005443	-0.004292	-0.004128	-0.000183	0.001132	0.000967
90	0.000474	-0.001005	-0.002977	-0.003142	0.000803	-1.9e-05	-0.003306
91	-0.00347	-0.007579	-0.006429	-0.001169	-0.002648	0.001296	-0.001498
92	-0.006922	-0.005278	-0.002977	-0.002648	0.00031	0.001132	-0.000841
93	-0.005114	-0.008401	-0.00347	-0.002648	-1.9e-05	0.000639	0.006391
94	-0.002648	-0.007579	-0.002813	-0.003306	-0.000841	0.002447	-0.001827
95	0.001789	-0.005607	-0.001991	-0.001334	0.00146	-0.002977	-0.000512
96	-0.002155	-0.011359	-0.000841	-0.003635	-0.001662	0.001625	-0.002155
97	-0.000676	-0.006593	-0.004128	-0.000512	0.000967	-0.001334	-0.000347
98	-0.000347	-0.005936	-0.004456	-0.002648	-0.006757	0.001132	-0.002813
99	-0.002813	-0.006757	0.00294	-0.001991	0.000639	-0.002813	-0.001662
100	-0.001334	-0.00873	-0.001498	-0.002813	-0.00347	-0.001005	-0.000512
101	0.000639	-0.004621	-0.001334	-0.000347	-0.002648	0.000639	-0.003963
102	-0.001334	-0.005936	-0.00347	-0.001827	-0.004621	0.004419	-0.003306
103	0.000639	-0.005607	-0.002977	-0.001169	0.000967	0.002282	-0.002813
104	0.000639	-0.007415	-0.004621	-0.002813	0.000967	0.002447	-0.000347
105	-0.00347	-0.003635	-0.000841	-0.004128	0.007542	0.000474	-0.001005
106	-0.001005	-0.007744	-0.004292	-0.003635	-1.9e-05	0.000474	-0.002648
107	-0.001991	-0.005278	-0.004292	-0.004785	-0.001498	-0.000676	0.000803
108	-0.007908	-0.009551	-0.005278	-0.000183	0.002447	0.000146	0.002447
109	-0.002648	-0.007415	-0.004456	-0.001334	-0.001169	0.003268	-0.001827
110	-0.002977	-0.005278	-0.007908	0.002447	0.000474	-0.002813	0.001132
111	-0.004128	-0.006757	0.00031	-0.003635	-0.001662	0.001954	-0.001169
112	-0.003142	-0.006429	-0.000841	-0.001169	-1.9e-05	-0.004456	0.00031
113	-0.002484	-0.004785	-0.002648	-0.001827	-0.003142	-0.001005	-0.00232
114	-0.000676	-0.004621	-0.002648	0.002118	-0.001005	-0.000347	-0.000347
115	0.000146	-0.004456	-0.001334	-0.005443	-0.000676	0.00146	-0.001991
116	-0.001005	-0.005607	-0.001498	-0.000841	0.000803	-0.001662	-0.002155
117	-0.00232	-0.008401	-0.002484	-0.000841	-0.001334	-0.001334	-0.00232
118	-0.002648	-0.005607	-0.001334	-0.002813	-0.000841	-0.00232	0.001625
119	-0.001169	-0.009551	-0.003306	-0.001827	-0.000676	0.003104	0.003433
120	0.000639	-0.004621	-0.003635	0.00672	-0.000183	-0.001005	-0.00347
121	-0.001005	-0.006757	-0.0061	-0.006429	-0.001662	0.000474	-0.000347
122	-1.9e-05	-0.005607	-0.001991	-0.0061	-0.000841	-1.9e-05	0.00031
123	-0.000347	-0.007086	-0.005278	-0.002155	-0.003635	0.000474	-0.001005
124	-0.00232	-0.00725	-0.003142	-0.000183	0.000146	-0.000512	-0.002813
125	-0.003635	-0.008072	-0.0061	-0.001334	0.001789	-0.000512	-0.000347
126	-0.002813	-0.008072	-0.004785	-0.006264	-0.003142	-0.000676	-0.000512
127	-0.001005	-0.010866	-0.001662	-0.002155	-0.002155	-0.002813	-0.001662
128	-0.002977	-0.012181	-0.004128	-0.002484	-0.001662	-0.001498	-0.001169
129	-0.001827	-0.009716	-0.000841	-0.001169	-0.001991	-0.004128	0.000474
130	-0.000183	-0.009551	-0.003306	-0.001827	-0.003963	-0.0061	-0.000676
131	-0.000183	-0.008237	-1.9e-05	-0.000183	-0.000183	-0.005443	-0.003799
132	-0.001827	-0.00725	-0.002484	-0.002484	-0.001169	-0.002484	-0.005114
133	-0.001005	-0.001498	-0.002484	-0.000841	-0.000676	0.000967	-1.9e-05
134	-0.000183	-0.008565	-0.002813	-0.003306	0.000146	0.002118	-0.003306
135	0.00146	-0.006922	-0.003306	-1.9e-05	0.001132	-0.003142	-0.001334
136	0.000474	-0.007086	-0.003799	-0.000347	-0.001334	-0.000347	-0.001169
137	-0.001498	-0.005607	-0.000347	-0.005278	-0.002648	0.000967	-0.004456
138	0.000639	-0.005771	-0.004128	-0.002648	-1.9e-05	-0.003142	-0.002484
139	0.007377	-0.002484	-0.001662	-0.000347	-1.9e-05	-0.000347	0.002282
140	0.000967	-0.001169	-0.005771	-0.001334	-0.001005	-0.002813	0.002447
141	0.000146	-0.005114	-0.002977	-0.005114	-0.003306	-0.001662	-0.00347
142	-0.001827	-0.007908	-0.00347	-0.001662	-0.001662	-0.002813	-0.000841
143	-1.9e-05	-0.007086	-0.00347	-0.005771	-0.002648	-0.003799	0.000803
144	-0.001991	-0.011359	-0.002648	-0.002648	-0.000347	-0.003142	0.002118
145	-0.000841	-0.010209	-0.003635	-0.003635	-0.005443	-0.001498	-0.001334
146	0.000639	-0.008894	-0.001334	-0.001005	-0.004785	-0.003142	0.00031
147	-0.001991	-0.012181	-0.001991	-0.001005	-0.002977	-0.001005	0.001132
148	0.00294	-0.004621	-0.00232	0.00031	-0.00725	-0.006922	-0.002977
149	-0.001662	-0.009058	-0.005607	-0.000347	-0.007579	-0.001169	0.000639
150	0.00294	-0.006922	-0.002648	-0.000676	-0.001662	-0.002484	0.000474
151	0.005076	-0.0061	-0.004292	-0.00232	-0.007744	0.000146	0.000639
152	0.000639	-0.006593	-0.000676	-0.001334	-0.005278	0.000146	-0.002484
153	0.000146	-0.009223	-0.001991	0.001296	-0.005443	-0.004292	-0.000841
154	0.001296	-0.005114	-0.000183	-0.004128	-0.0061	-0.0061	-0.000512
155	0.002447	-0.008072	-0.00347	-1.9e-05	-0.005278	-0.001662	-1.9e-05
156	0.002447	-0.00725	-0.002484	-0.00347	-0.004128	-0.004292	-0.003799
157	0.001954	-0.005278	-0.003142	-0.002977	-0.005278	-0.003142	-0.003306
158	-0.004621	-0.008072	-0.00347	-0.002977	-0.003799	-0.003306	-0.00232
159	-0.001498	-0.006429	-0.003635	-0.002813	-0.002155	-0.001005	-0.000512
160	-1.9e-05	-0.005278	-0.005936	-0.005114	-0.0061	-0.005771	-0.001169
161	0.00146	-0.004785	-0.001498	-0.003963	0.005734	-0.006757	0.002447
162	0.000146	-0.008565	-0.001005	-0.003306	-0.008894	-0.005936	0.000803
163	0.002611	-0.006757	-0.004785	-0.00347	-0.005278	-0.0061	-1.9e-05
164	-1.9e-05	-0.012181	-0.002648	-0.002813	-0.004949	-0.006593	-0.000512
165	0.003761	-0.006922	0.003597	-0.002484	-0.005771	-0.006757	-0.001827
166	0.00146	-0.007086	-0.004292	0.000803	-0.006429	-0.002813	0.001132
167	-1.9e-05	-0.009716	0.000803	-0.002155	-0.001662	-0.004456	-0.003963
168	0.003761	-0.006922	0.000639	-0.000183	-0.006429	-0.004128	-0.002648
169	0.005569	-0.0061	0.001789	-0.002977	-0.003635	-0.003635	0.002775
170	0.003597	-0.007415	-0.002648	-0.002155	-0.004785	-0.004785	0.002775
171	0.003597	-0.004949	-0.001005	-0.004456	-0.00725	-0.002977	-0.002977
172	0.004583	-0.005607	-0.001662	0.001132	-0.001827	-0.00988	0.003433
173	0.002282	-0.006429	-0.002977	-0.002977	-0.007579	-0.003635	0.000803
174	0.003433	-0.006429	-0.002648	-0.00347	-0.002484	-0.000676	-0.000841
175	0.001132	-0.00873	-0.001827	-0.005278	-0.006757	-0.002648	-0.001005
176	0.000967	-0.007415	-0.003799	-0.009387	-0.005443	-0.00725	-0.001662
177	-0.000841	-0.006429	-0.005443	-0.003306	-0.004949	-0.00347	0.000803
178	0.001954	-0.010045	-0.002648	-0.007415	-0.004128	-0.004292	0.001789
179	0.001132	-0.011688	-0.000676	-0.003306	-0.002977	-0.001827	-0.003306
180	0.003926	-0.00873	-0.004292	-0.003142	-0.005936	-0.004785	0.002775
181	0.004419	-0.010538	-0.005771	-0.005771	-0.002484	-0.007579	-0.002155
182	0.003597	-0.007086	-0.00725	-0.000512	-0.005936	-0.010209	-0.000676
183	0.002282	-0.008072	-0.005114	-0.001662	-0.011031	-0.006757	0.005076
184	0.003268	-0.008237	-0.003799	-0.002648	-0.005114	-0.004621	-0.000676
185	0.003268	-0.00725	-0.002648	-0.000841	-0.001498	-0.005771	-0.000183
186	0.002118	-0.008401	0.000474	-0.003142	-0.001169	-0.0061	-0.001169
187	0.003268	-0.0061	-0.001169	-0.001498	-0.005771	-0.005771	0.000639
188	0.003104	-0.006757	-0.001169	-0.00232	-0.005443	-0.000676	-0.002977
189	0.002447	-0.008237	-0.001498	-0.001991	-0.002813	-0.004621	0.000639
190	0.001132	-0.00232	-0.001991	-0.00232	-0.007415	-0.001169	-0.005771
191	0.001296	-0.005771	-0.004456	-0.003799	-0.003142	-0.004292	-0.005936
192	-0.000841	-0.011359	-0.002977	-0.00232	-0.003963	-0.003142	-0.002977
193	0.005898	-0.005443	-0.00347	-0.003963	-0.001498	-0.0061	-0.001005
194	0.00031	-0.008401	-0.00347	-0.003963	-0.017112	-0.003799	-1.9e-05
195	0.005898	-0.009223	-0.002484	-0.004128	-0.002813	-0.004128	0.003104
196	0.001296	-0.010866	-0.006593	-0.001991	-0.004456	-0.002648	-0.000183
197	0.000146	-0.011524	-0.000183	-0.002977	0.00031	-0.005443	-0.001991
198	-1.9e-05	-0.009223	-0.000676	-0.004949	-0.007415	-0.00347	0.002118
199	0.004748	-0.007415	0.001296	-0.001827	-0.005936	-0.000512	0.000474
200	-0.001498	-0.00873	-0.003799	-0.00347	-0.004128	0.003597	-0.000676
201	0.002118	-0.006922	-0.000676	-0.004292	-0.005278	-0.001827	-0.001827
202	-1.9e-05	-0.007908	-0.003306	-0.004785	-0.004621	-0.00873	0.000146
203	-0.001005	-0.00988	-0.000347	-0.002813	-0.009551	-0.004292	-0.001169
204	0.002611	-0.005771	-0.001498	-0.001498	-0.006429	-0.006264	-0.002155
205	0.001789	-0.005443	-0.003142	-0.004292	-0.015961	-0.002648	-0.00347
206	0.002775	-0.009387	-0.002977	-0.00232	-0.004128	-0.00232	-0.001827
207	0.00031	-0.007579	-0.003635	-0.00232	-0.004456	-0.001662	-0.005114
208	0.001954	-0.007086	-0.002977	-0.003306	-0.003142	-0.005443	-0.002155
209	-0.002813	-0.0061	-0.001498	-0.00347	-0.003142	0.000639	-0.003799
210	-0.000512	-0.008072	-0.003306	-0.000183	-0.001662	0.000967	0.000967
211	-0.004785	-0.013003	0.000146	-0.003142	-0.001334	-0.004456	-0.002813
212	-0.001498	-0.006757	0.002611	-0.00347	-0.001334	-0.00232	-0.001005
213	-0.002484	-0.008894	-0.00725	-0.000841	-1.9e-05	-0.004621	-0.001827
214	-1.9e-05	-0.006429	0.001296	-0.005607	0.000639	-0.001169	-0.001005
215	-0.00232	-0.009551	-0.003799	-0.001827	-0.001334	-0.006264	0.000967
216	-0.000183	-0.004621	-0.004949	-0.003799	-0.002977	-0.002484	-0.000676
217	-0.00347	-0.00988	-0.001991	-0.002648	0.001625	-0.003635	0.000803
218	-0.001005	-0.008237	-0.004785	-0.004621	-0.001827	-0.004456	0.00031
219	-0.000183	-0.007415	0.002611	-0.003963	-0.000512	-0.004785	-0.00232
220	-0.002484	-0.007415	0.000474	-0.00232	-0.004621	0.000967	0.000639
221	-0.002813	-0.005114	-0.002813	-0.002484	-0.002977	-0.000512	0.005405
222	-0.00347	-0.009387	0.000474	-0.006264	-0.001498	-0.001498	-0.002813
223	-0.004128	-0.004785	0.000639	-0.004785	-0.000841	-0.001662	-0.00232
224	-0.005771	-0.006757	-0.003142	-0.001827	-1.9e-05	-0.002648	-0.002484
225	-0.002484	-0.003799	-0.001334	-0.002155	0.002282	-0.001169	-0.003142
226	-0.005936	-0.008401	-0.003635	-0.006264	0.000639	-0.000676	-0.001991
227	-0.000841	-0.001169	-0.00232	-0.005114	0.000803	-0.002648	-0.001334
228	-0.00347	-0.005443	-0.00347	-0.003799	0.000146	-0.004128	-0.000512
229	-0.001169	-0.003799	-0.000512	-0.003799	0.002118	-0.001498	-0.00232
230	-0.002648	-0.005771	-0.002977	-0.00232	-0.000676	-0.003306	0.001625
231	-1.9e-05	-0.007086	-0.001005	-0.00347	0.000639	-0.00347	-0.002484
232	-0.005114	-0.007744	-0.00232	-0.001169	0.002118	-0.00232	-0.002977
233	-0.002648	-0.007908	-0.000676	-0.001334	0.000474	-0.005114	0.000146
234	-0.002155	-0.006757	-0.004128	-0.000512	0.003268	-0.006757	0.001625
235	-0.005936	-0.006757	-0.000841	-0.000183	-0.004456	-0.003306	0.00031
236	-0.004292	-0.006264	0.000474	-0.002813	0.007213	-0.005443	0.000146
237	-0.002648	-0.00725	-0.00232	-0.001169	0.001625	-0.004456	-0.000347
238	-0.000676	-0.003142	-0.002484	-0.000841	0.001789	-0.001498	-0.001334
239	-0.007415	-0.007415	-0.001169	-0.00347	0.000967	-0.000841	-0.001991
240	-0.004949	-0.005607	-0.002155	-1.9e-05	0.001625	-0.002813	-0.002813
241	-0.00347	-0.010209	-0.003306	-0.002813	0.001789	-0.002484	-0.005607
242	-0.002813	-0.009058	-0.000347	-0.002813	0.002447	0.002118	-0.002648
243	-0.004949	-0.009387	-0.003799	-0.001334	0.002611	-1.9e-05	-0.011359
244	-0.00232	-0.00873	-0.001169	-0.00347	0.003433	-1.9e-05	-0.004292
245	-0.003799	-0.006593	-0.000841	-0.000676	0.003104	-0.001169	-0.002977
246	-0.002813	-0.008894	-0.002648	-0.001005	0.004255	-1.9e-05	0.001296
247	-0.003635	-0.008894	-0.00347	0.000967	0.000967	-0.002648	-0.001005
248	-0.000841	-0.001991	-0.004456	-0.005771	0.003104	-0.000676	-0.001991
249	-0.007086	-0.004292	-0.002813	-0.000676	0.005734	-0.002484	0.000967
250	-0.005114	-0.0061	0.00031	-0.002648	0.003761	-0.006922	-0.00232
251	-0.001827	-0.001169	0.001954	0.002118	0.006062	0.000803	0.004912
252	0.010336	0.006062	0.012308	0.010664	0.018718	0.010993	0.008528
253	0.011651	0.014609	0.018718	0.015924	0.021183	0.018882	0.018882
254	0.022827	0.018882	0.025128	0.024799	0.031538	0.028251	0.016088
255	0.030059	0.029237	0.030223	0.033839	0.039263	0.034825	0.029566
256	0.034003	0.035811	0.039591	0.036797	0.042714	0.040906	0.038276
257	0.045672	0.0437	0.04633	0.046659	0.053726	0.049288	0.045672
258	0.049946	0.049781	0.048631	0.052411	0.058328	0.051918	0.051425
259	0.056356	0.057999	0.058985	0.054876	0.066381	0.058985	0.059643
260	0.059807	0.059478	0.062437	0.062273	0.07049	0.065231	0.063752
261	0.069011	0.065395	0.069833	0.066381	0.075914	0.074106	0.068189
262	0.06671	0.075585	0.07197	0.070819	0.082817	0.076407	0.079201
263	0.080516	0.079201	0.075092	0.075257	0.089063	0.07953	0.080187
264	0.083639	0.081831	0.081338	0.084461	0.094322	0.088241	0.08594
265	0.085118	0.086597	0.084954	0.086269	0.097609	0.090378	0.089556
266	0.088734	0.090542	0.089227	0.093172	0.102047	0.092021	0.094815
267	0.09235	0.095966	0.096294	0.09498	0.101718	0.100075	0.097938
268	0.096788	0.099089	0.101061	0.101883	0.112566	0.100896	0.105992
269	0.09991	0.102704	0.104348	0.100239	0.113388	0.107799	0.106978
270	0.103526	0.107306	0.109936	0.109607	0.118976	0.108621	0.107964
271	0.105827	0.106649	0.111908	0.110758	0.12177	0.11536	0.113223
272	0.112237	0.113881	0.11651	0.114374	0.125057	0.116182	0.114867
273	0.114538	0.116017	0.120291	0.118811	0.124893	0.120455	0.119797
274	0.116182	0.120784	0.126372	0.121934	0.132946	0.127687	0.122592
275	0.122592	0.12292	0.124399	0.124399	0.133932	0.130316	0.125879
276	0.125714	0.129823	0.130645	0.123085	0.137548	0.128508	0.128015
277	0.124728	0.129001	0.13459	0.133768	0.141821	0.135411	0.135247
278	0.129001	0.13837	0.134918	0.127687	0.13837	0.137877	0.131302
279	0.130152	0.131302	0.135904	0.136069	0.148889	0.135576	0.138205
280	0.136562	0.141986	0.139685	0.134754	0.149053	0.142643	0.139356
281	0.140178	0.140342	0.139192	0.137219	0.150204	0.142314	0.14478
282	0.138205	0.141821	0.143301	0.137712	0.152833	0.145602	0.146095
283	0.144122	0.143794	0.145108	0.142643	0.155627	0.148889	0.14971
284	0.145108	0.144615	0.144451	0.140342	0.156449	0.149382	0.153162
285	0.147245	0.147081	0.150861	0.144451	0.158093	0.151518	0.153491
286	0.15119	0.147574	0.150697	0.145602	0.155792	0.155299	0.154312
287	0.151847	0.15119	0.155792	0.147903	0.160887	0.151683	0.155792
288	0.149546	0.152669	0.155627	0.151354	0.161544	0.155627	0.1576
289	0.155463	0.157271	0.159901	0.152176	0.165653	0.162366	0.157271
290	0.156942	0.154148	0.157271	0.155627	0.162202	0.162859	0.15875
291	0.157271	0.154312	0.161873	0.153326	0.167625	0.169598	0.160065
292	0.161051	0.155299	0.162202	0.156942	0.167625	0.163845	0.162037
293	0.160722	0.161215	0.16516	0.155299	0.166639	0.167132	0.163188
294	0.163023	0.160887	0.164174	0.156942	0.175021	0.168612	0.165817
295	0.169105	0.163845	0.165817	0.162037	0.168283	0.170748	0.167297
296	0.165982	0.160558	0.166804	0.159408	0.172556	0.171406	0.170091
297	0.168118	0.160722	0.171734	0.16138	0.170419	0.171734	0.167461
298	0.168447	0.165982	0.166311	0.16401	0.170584	0.166968	0.173542
299	0.166311	0.169433	0.170913	0.160558	0.173707	0.173214	0.171406
300	0.172227	0.172063	0.166146	0.164338	0.174693	0.170748	0.174528
301	0.171241	0.166968	0.169598	0.166804	0.1742	0.177487	0.17272
302	0.172556	0.171406	0.174035	0.166146	0.171406	0.176994	0.17272
303	0.174528	0.170748	0.172392	0.168447	0.178966	0.177158	0.179623
304	0.173214	0.173049	0.177487	0.164996	0.178802	0.174857	0.176829
305	0.175515	0.168118	0.176172	0.170584	0.17798	0.172227	0.178637
306	0.174857	0.176994	0.173542	0.167625	0.178144	0.180281	0.179788
307	0.176665	0.173871	0.178309	0.168776	0.181103	0.179952	0.18061
308	0.178144	0.175186	0.18061	0.170748	0.177651	0.181596	0.179623
309	0.180774	0.177158	0.178966	0.172063	0.179788	0.181924	0.180116
310	0.182582	0.185047	0.18061	0.175186	0.179623	0.183568	0.184883
311	0.178637	0.181431	0.180116	0.174035	0.182582	0.183404	0.181431
312	0.17798	0.180938	0.183239	0.178637	0.181267	0.18554	0.183239
313	0.181924	0.181596	0.180116	0.17272	0.184554	0.187348	0.18554
314	0.183075	0.18061	0.18176	0.172227	0.182746	0.185212	0.180281
315	0.181431	0.180116	0.184225	0.176994	0.185047	0.184883	0.18554
316	0.183404	0.184554	0.181596	0.17535	0.187019	0.187348	0.18439
317	0.185376	0.181267	0.182089	0.177322	0.186855	0.187348	0.185705
318	0.184883	0.181431	0.186526	0.176994	0.185047	0.186855	0.187677
319	0.187184	0.183732	0.185705	0.184718	0.187841	0.185047	0.186526
320	0.180938	0.182911	0.183897	0.180445	0.186855	0.188499	0.190964
321	0.181924	0.187348	0.191786	0.178966	0.188499	0.187184	0.187841
322	0.184554	0.178473	0.186691	0.181924	0.185705	0.189485	0.188006
323	0.186691	0.185869	0.188006	0.187019	0.188006	0.189978	0.187513
324	0.184718	0.18439	0.188006	0.178309	0.18932	0.187513	0.188992
325	0.184883	0.185376	0.189485	0.178309	0.187513	0.189156	0.189156
326	0.182253	0.183404	0.188663	0.181431	0.190471	0.1908	0.190142
327	0.188663	0.18554	0.193922	0.183239	0.188499	0.193758	0.187348
328	0.187677	0.185212	0.190471	0.186526	0.188992	0.191621	0.191457
329	0.184554	0.182417	0.191786	0.184554	0.188663	0.194744	0.188006
330	0.189156	0.184718	0.191128	0.186691	0.189485	0.187348	0.191457
331	0.189649	0.187513	0.189978	0.188827	0.18932	0.192608	0.188663
332	0.190142	0.191621	0.192608	0.190635	0.189485	0.188499	0.189649
333	0.190307	0.186855	0.191128	0.185869	0.187348	0.195237	0.194744
334	0.192443	0.192279	0.192115	0.178802	0.193922	0.194251	0.19195
335	0.188663	0.186855	0.190964	0.186198	0.191128	0.191457	0.190635
336	0.192772	0.190635	0.192608	0.187513	0.190471	0.192772	0.192443
337	0.189649	0.190307	0.189978	0.188992	0.194744	0.190471	0.190471
338	0.191786	0.189649	0.193429	0.187841	0.195402	0.195402	0.193101
339	0.190471	0.18817	0.191457	0.189485	0.191293	0.193922	0.19721
340	0.194251	0.1908	0.193922	0.189485	0.18439	0.192608	0.192443
341	0.197703	0.187841	0.193101	0.188827	0.194251	0.191786	0.195402
342	0.191457	0.189978	0.194087	0.190142	0.192936	0.193429	0.193265
343	0.193758	0.194416	0.194416	0.192443	0.193594	0.192772	0.194416
344	0.192936	0.188334	0.193922	0.191128	0.191293	0.194251	0.194087
345	0.194251	0.192279	0.192608	0.181267	0.194744	0.194087	0.193758
346	0.193758	0.189814	0.19573	0.187513	0.19195	0.197703	0.19195
347	0.193758	0.18932	0.19573	0.191457	0.192772	0.191786	0.194744
348	0.194251	0.191128	0.194087	0.193265	0.191621	0.195566	0.192772
349	0.196552	0.193101	0.197867	0.190635	0.194416	0.192443	0.193265
350	0.195566	0.192115	0.198689	0.192443	0.192279	0.198031	0.195402
351	0.195566	0.194416	0.196388	0.192279	0.195237	0.19573	0.193758
352	0.191786	0.191786	0.195073	0.192608	0.195073	0.194087	0.193429
353	0.196223	0.194416	0.196388	0.198689	0.197045	0.194251	0.193758
354	0.196388	0.193758	0.195073	0.193758	0.196717	0.195566	0.192936
355	0.197374	0.192443	0.195237	0.192772	0.196881	0.200497	0.193265
356	0.191621	0.193429	0.191621	0.190307	0.20099	0.193101	0.194087
357	0.19458	0.195402	0.194416	0.190635	0.197045	0.202305	0.193265
358	0.195237	0.194087	0.192608	0.195402	0.200661	0.194087	0.198031
359	0.195895	0.191293	0.194909	0.195073	0.197867	0.196717	0.192115
360	0.194416	0.193265	0.19458	0.196059	0.197538	0.19458	0.19721
361	0.195237	0.190964	0.19721	0.192936	0.190142	0.194744	0.197538
362	0.19721	0.191457	0.199182	0.197374	0.195566	0.193265	0.196881
363	0.19573	0.193758	0.196059	0.195073	0.195073	0.194744	0.196717
364	0.195402	0.195402	0.197867	0.196881	0.196388	0.192279	0.196881
365	0.195566	0.193758	0.196552	0.194251	0.196223	0.197703	0.194909
366	0.197703	0.193265	0.19836	0.193922	0.202305	0.195237	0.195402
367	0.195237	0.195237	0.195402	0.196388	0.201319	0.196388	0.199511
368	0.198196	0.198196	0.196552	0.196717	0.19836	0.201319	0.193922
369	0.200004	0.196881	0.196059	0.19721	0.201319	0.192608	0.197045
370	0.194909	0.194251	0.196881	0.194909	0.200825	0.197045	0.194087
371	0.200825	0.195566	0.195237	0.195402	0.200661	0.195895	0.19721
372	0.199839	0.194909	0.201154	0.192115	0.199346	0.193429	0.196717
373	0.194087	0.196223	0.197374	0.192772	0.201647	0.197045	0.200168
374	0.199675	0.194416	0.195402	0.193101	0.198689	0.19573	0.19836
375	0.19573	0.194416	0.196388	0.194087	0.202633	0.195566	0.19836
376	0.193758	0.193429	0.195073	0.195237	0.200004	0.19836	0.196388
377	0.196223	0.190471	0.198524	0.195402	0.204934	0.191621	0.198031
378	0.198853	0.193594	0.197374	0.197538	0.202305	0.195402	0.196552
379	0.198689	0.20099	0.198196	0.197703	0.201154	0.19721	0.197045
380	0.196881	0.193922	0.20099	0.197867	0.197867	0.193594	0.197374
381	0.197867	0.194087	0.198524	0.196388	0.198853	0.195895	0.194416
382	0.197703	0.195895	0.199182	0.19721	0.200497	0.197867	0.194909
383	0.199675	0.197045	0.202633	0.195895	0.199018	0.194909	0.196388
384	0.196552	0.195073	0.197867	0.197538	0.199018	0.196717	0.196059
385	0.200497	0.199346	0.199346	0.196059	0.196552	0.196223	0.191293
386	0.196388	0.19573	0.19721	0.197045	0.200004	0.19836	0.199018
387	0.197703	0.196552	0.197703	0.196552	0.199839	0.200168	0.197374
388	0.197703	0.198853	0.195895	0.197538	0.201154	0.198031	0.193429
389	0.197045	0.197045	0.19573	0.195237	0.204113	0.195566	0.199511
390	0.198524	0.195566	0.195402	0.196717	0.203126	0.190142	0.19721
391	0.196223	0.195566	0.193922	0.194416	0.201154	0.196223	0.198524
392	0.193265	0.191786	0.194909	0.195237	0.203948	0.195895	0.200497
393	0.197374	0.19836	0.195073	0.197538	0.201154	0.196552	0.197703
394	0.197374	0.196717	0.200661	0.197045	0.197703	0.196223	0.20099
395	0.195237	0.195237	0.198031	0.201154	0.195895	0.19573	0.199182
396	0.199675	0.196388	0.197374	0.199182	0.195073	0.197867	0.200332
397	0.194909	0.196059	0.198524	0.19721	0.196223	0.196552	0.194744
398	0.196223	0.196059	0.200004	0.198524	0.195237	0.199839	0.20099
399	0.196223	0.195402	0.19573	0.19836	0.197867	0.204606	0.199018
400	0.19836	0.200497	0.199346	0.197703	0.196552	0.199675	0.195895
401	0.196552	0.197374	0.193922	0.199018	0.196552	0.184883	0.194909
402	0.200497	0.199182	0.197538	0.19836	0.194909	0.199346	0.191293
403	0.198689	0.202633	0.20099	0.200825	0.200004	0.199346	0.197045
404	0.199182	0.202469	0.202469	0.197374	0.196223	0.199346	0.192608
405	0.199511	0.200168	0.198524	0.198031	0.196552	0.200332	0.199839
406	0.195895	0.197703	0.19573	0.195895	0.195895	0.19721	0.196388
407	0.199839	0.19721	0.195073	0.197045	0.197045	0.196552	0.198196
408	0.194416	0.196881	0.193922	0.196223	0.195402	0.199839	0.199675
409	0.190471	0.19836	0.195402	0.192279	0.198689	0.19721	0.200332
410	0.192936	0.195895	0.195073	0.197867	0.201812	0.19721	0.19836
411	0.19721	0.197374	0.193429	0.197045	0.199675	0.19836	0.200661
412	0.195402	0.194744	0.198031	0.199675	0.200004	0.189649	0.200168
413	0.195566	0.197867	0.197374	0.198689	0.200168	0.19721	0.197374
414	0.198196	0.195895	0.196388	0.196717	0.195237	0.197703	0.199182
415	0.197703	0.196223	0.200497	0.196388	0.196388	0.197374	0.195566
416	0.198196	0.197045	0.197703	0.197045	0.194087	0.19836	0.201483
417	0.199018	0.197703	0.200004	0.197374	0.191293	0.19836	0.198524
418	0.204113	0.195895	0.198689	0.20214	0.196059	0.198524	0.200332
419	0.199018	0.197045	0.199182	0.196717	0.192115	0.200168	0.196717
420	0.197045	0.198031	0.198689	0.198689	0.195895	0.199182	0.199018
421	0.202633	0.201319	0.199511	0.198031	0.197045	0.200497	0.19836
422	0.200661	0.199018	0.198031	0.198031	0.196223	0.197374	0.194416
423	0.196223	0.196881	0.196552	0.196717	0.193594	0.196881	0.198689
424	0.196059	0.196881	0.196552	0.198524	0.197538	0.196717	0.19721
425	0.196881	0.199511	0.201976	0.197867	0.193594	0.199839	0.201154
426	0.193594	0.196223	0.201154	0.196059	0.197867	0.197538	0.198689
427	0.199346	0.192443	0.198196	0.196388	0.193922	0.19458	0.199675
428	0.200332	0.19721	0.199675	0.19721	0.195073	0.193922	0.20214
429	0.199511	0.192115	0.198524	0.191128	0.194909	0.194251	0.199675
430	0.200332	0.199346	0.199675	0.196223	0.192608	0.194744	0.199839
431	0.193594	0.193922	0.196223	0.19836	0.193758	0.196223	0.201976
432	0.200168	0.19573	0.201812	0.198689	0.193922	0.192936	0.198689
433	0.196059	0.198031	0.196881	0.200661	0.195402	0.194744	0.198524
434	0.199018	0.195073	0.200332	0.198689	0.193594	0.199182	0.195237
435	0.197703	0.193758	0.199675	0.200332	0.193101	0.196717	0.199018
436	0.199675	0.196388	0.19836	0.196717	0.192279	0.196388	0.196388
437	0.198853	0.193758	0.199675	0.199839	0.19458	0.195237	0.200825
438	0.199346	0.196223	0.196881	0.197867	0.191293	0.201976	0.19836
439	0.200825	0.196388	0.197867	0.199018	0.192279	0.196388	0.198031
440	0.190471	0.195073	0.195566	0.196059	0.1908	0.197867	0.198853
441	0.197538	0.197703	0.197867	0.197045	0.192279	0.198031	0.197538
442	0.194251	0.19458	0.197045	0.197867	0.190307	0.19573	0.202469
443	0.19836	0.195566	0.197538	0.197538	0.195237	0.195073	0.202305
444	0.196717	0.196059	0.195073	0.194416	0.193265	0.199346	0.200497
445	0.199675	0.192936	0.197703	0.199675	0.195402	0.195402	0.197867
446	0.196059	0.191128	0.19721	0.199511	0.195566	0.193101	0.201647
447	0.197374	0.199675	0.19721	0.194909	0.19195	0.19573	0.199018
448	0.198196	0.190471	0.19721	0.19836	0.19458	0.197703	0.200661
449	0.199018	0.193429	0.198524	0.19721	0.193265	0.198689	0.198853
450	0.197374	0.195073	0.196881	0.199839	0.189156	0.196059	0.199839
451	0.186855	0.19573	0.199346	0.196717	0.193758	0.196223	0.19721
452	0.198689	0.196552	0.200168	0.201483	0.193922	0.193922	0.200661
453	0.198196	0.195237	0.201319	0.200168	0.186691	0.196717	0.201812
454	0.198196	0.195895	0.198853	0.201483	0.195895	0.194744	0.199182
455	0.198689	0.194744	0.195237	0.199182	0.193594	0.19458	0.197045
456	0.200661	0.199182	0.193594	0.200825	0.194251	0.193265	0.198031
457	0.196881	0.192772	0.19573	0.196717	0.196388	0.194251	0.194909
458	0.199018	0.195073	0.196059	0.194909	0.194909	0.191621	0.195402
459	0.199511	0.19195	0.193922	0.195402	0.195402	0.19458	0.199018
460	0.195895	0.195237	0.19721	0.197374	0.195237	0.196059	0.200004
461	0.197867	0.196717	0.193429	0.195895	0.192279	0.194087	0.201154
462	0.196717	0.196388	0.198689	0.195566	0.19458	0.193265	0.203784
463	0.193922	0.194251	0.195895	0.200168	0.195237	0.191786	0.202469
464	0.196717	0.194909	0.198196	0.197538	0.19573	0.194744	0.202469
465	0.196881	0.194087	0.199511	0.198031	0.195895	0.190964	0.200825
466	0.19721	0.195566	0.197867	0.192443	0.192936	0.198196	0.199511
467	0.200004	0.195073	0.194744	0.19836	0.195895	0.193265	0.199346
468	0.19721	0.195566	0.200332	0.200825	0.194251	0.192115	0.198524
469	0.199675	0.197703	0.200497	0.196223	0.193429	0.194909	0.20099
470	0.198689	0.195073	0.197703	0.195895	0.194251	0.196881	0.195566
471	0.201154	0.194909	0.199182	0.198031	0.194744	0.19573	0.200497
472	0.198031	0.194251	0.195237	0.19573	0.1908	0.196881	0.200661
473	0.199346	0.196388	0.196552	0.196223	0.193429	0.195402	0.200004
474	0.188827	0.193101	0.199839	0.198524	0.19573	0.194416	0.199182
475	0.19458	0.194251	0.196059	0.197703	0.193101	0.199018	0.199018
476	0.193922	0.191786	0.200168	0.195237	0.195237	0.200332	0.197045
477	0.198031	0.194251	0.202798	0.194416	0.194909	0.198524	0.198196
478	0.198031	0.195402	0.197374	0.197703	0.196552	0.196552	0.199346
479	0.196881	0.193594	0.199511	0.193429	0.194416	0.197538	0.198853
480	0.196388	0.192443	0.19721	0.200497	0.194251	0.193922	0.200825
481	0.201319	0.191621	0.196717	0.196059	0.195237	0.193429	0.195566
482	0.197374	0.193265	0.198689	0.199675	0.194744	0.195237	0.204934
483	0.19836	0.1908	0.196059	0.198524	0.194251	0.195237	0.199018
484	0.19573	0.191786	0.199346	0.196881	0.193922	0.189978	0.198524
485	0.197374	0.194744	0.200332	0.202469	0.192936	0.193922	0.20099
486	0.198196	0.196059	0.19836	0.199839	0.195073	0.198853	0.199018
487	0.197703	0.191786	0.19836	0.199839	0.19195	0.200004	0.195895
488	0.199675	0.195566	0.195073	0.20099	0.195402	0.199182	0.198031
489	0.19836	0.193265	0.194909	0.200332	0.196059	0.200332	0.195237
490	0.197374	0.194251	0.199839	0.198031	0.194087	0.197374	0.19836
491	0.199018	0.192772	0.196223	0.200332	0.193429	0.202798	0.19836
492	0.201647	0.193594	0.197374	0.198853	0.197867	0.200825	0.198196
493	0.200661	0.191293	0.19721	0.197703	0.196552	0.197374	0.198524
494	0.200661	0.192115	0.196388	0.194416	0.192772	0.201154	0.199018
495	0.19836	0.193101	0.195895	0.195402	0.197045	0.197867	0.195895
496	0.19836	0.189649	0.198853	0.196881	0.196388	0.199511	0.192772
497	0.198196	0.189649	0.196717	0.199675	0.194909	0.199018	0.195073
498	0.199182	0.192936	0.196223	0.197374	0.190964	0.203455	0.198524
499	0.196717	0.194416	0.196223	0.195073	0.194909	0.196552	0.197703
500	0.197374	0.192936	0.196388	0.196388	0.194251	0.202633	0.194087
501	0.198031	0.193101	0.199675	0.198524	0.193758	0.200497	0.199018
502	0.197703	0.192608	0.197867	0.19458	0.195237	0.197703	0.194744
503	0.201483	0.193922	0.197045	0.200332	0.197374	0.199511	0.197538
504	0.198853	0.190471	0.198689	0.198196	0.194744	0.200332	0.196552
505	0.198689	0.194744	0.201647	0.196881	0.196059	0.20099	0.197374
506	0.197703	0.189649	0.199182	0.19573	0.197538	0.202469	0.196388
507	0.200004	0.194416	0.201319	0.196223	0.191457	0.203455	0.195895
508	0.197374	0.194087	0.198196	0.198689	0.198853	0.205427	0.199018
509	0.20099	0.195237	0.199839	0.19458	0.197045	0.203126	0.193429
510	0.201812	0.195073	0.194744	0.196388	0.195402	0.200661	0.197045
511	0.199675	0.193101	0.196717	0.19458	0.190964	0.203291	0.195895
512	0.199182	0.194251	0.194251	0.19573	0.199675	0.200825	0.196552
513	0.200332	0.19721	0.201976	0.194416	0.198689	0.200497	0.196881
514	0.200168	0.191293	0.19458	0.196059	0.197867	0.199511	0.196881
515	0.198524	0.193922	0.19836	0.194251	0.195237	0.198689	0.199182
516	0.199675	0.192443	0.197045	0.194087	0.197867	0.198196	0.198853
517	0.197703	0.196059	0.197538	0.193594	0.196552	0.199839	0.200497
518	0.198689	0.194744	0.199182	0.196388	0.19836	0.199839	0.199018
519	0.198853	0.190635	0.197867	0.195073	0.197703	0.200497	0.196059
520	0.19721	0.194744	0.198524	0.19458	0.197045	0.200661	0.19721
521	0.199182	0.192279	0.196717	0.193594	0.193429	0.202798	0.197703
522	0.197703	0.193429	0.199675	0.196388	0.197867	0.199675	0.197045
523	0.19721	0.195402	0.195402	0.197045	0.194909	0.203291	0.196717
524	0.19836	0.202469	0.202798	0.190635	0.194087	0.198689	0.196223
525	0.197703	0.192279	0.201319	0.195073	0.198853	0.197703	0.196717
526	0.200497	0.195237	0.196552	0.194416	0.194909	0.200661	0.195895
527	0.19836	0.194251	0.192279	0.194087	0.200332	0.200661	0.193758
528	0.198689	0.194251	0.199182	0.196059	0.195895	0.200497	0.194416
529	0.200168	0.19573	0.194744	0.197538	0.199511	0.195237	0.195402
530	0.198196	0.193594	0.195402	0.195895	0.196717	0.200168	0.194909
531	0.199018	0.195566	0.19721	0.197703	0.200661	0.202305	0.19836
532	0.196388	0.192279	0.195073	0.194744	0.195566	0.199511	0.196223
533	0.199018	0.196717	0.198196	0.196388	0.200332	0.197045	0.201976
534	0.197703	0.193101	0.196881	0.188334	0.199018	0.196717	0.19573
535	0.198853	0.196388	0.198196	0.18932	0.200168	0.198196	0.200004
536	0.197703	0.192443	0.196717	0.188827	0.198524	0.198524	0.200332
537	0.197867	0.195237	0.198689	0.188006	0.19836	0.199018	0.198853
538	0.197703	0.191786	0.196552	0.191293	0.196552	0.201154	0.199018
539	0.200825	0.193594	0.201483	0.18817	0.201483	0.201319	0.197045
540	0.205263	0.193758	0.19721	0.198524	0.199346	0.197867	0.198524
541	0.199511	0.195073	0.200661	0.188334	0.196223	0.202962	0.196388
542	0.193101	0.19458	0.198689	0.194744	0.193758	0.201976	0.198853
543	0.203784	0.194087	0.196552	0.192608	0.195566	0.203948	0.197374
544	0.198031	0.192936	0.201483	0.192443	0.20099	0.199346	0.198196
545	0.199675	0.19458	0.194744	0.191293	0.195566	0.20477	0.196223
546	0.199018	0.184883	0.197703	0.191128	0.197867	0.199346	0.203948
547	0.199839	0.189485	0.199511	0.189649	0.20099	0.197045	0.206907
548	0.199675	0.193594	0.195402	0.191457	0.198524	0.201483	0.202469
549	0.194744	0.194416	0.197867	0.190471	0.19836	0.198853	0.203291
550	0.20214	0.195073	0.197374	0.190964	0.202633	0.197703	0.199839
551	0.200825	0.190142	0.196388	0.186526	0.198524	0.199346	0.198689
552	0.198689	0.193101	0.201154	0.18932	0.203455	0.200497	0.196881
553	0.197374	0.194087	0.200497	0.194416	0.202633	0.199346	0.197374
554	0.199675	0.198031	0.19573	0.187348	0.200661	0.200825	0.197045
555	0.196059	0.19721	0.194744	0.191293	0.20214	0.199018	0.196552
556	0.198524	0.195402	0.192443	0.190142	0.201647	0.206414	0.198196
557	0.197374	0.18439	0.195237	0.189485	0.202305	0.202798	0.19573
558	0.202962	0.193429	0.199346	0.187019	0.202962	0.200004	0.199511
559	0.200332	0.193758	0.198031	0.19195	0.199346	0.201647	0.200825
560	0.199839	0.197867	0.198196	0.191457	0.197374	0.202305	0.197703
561	0.199839	0.195895	0.19721	0.192279	0.204934	0.199839	0.199182
562	0.200332	0.194416	0.197867	0.193429	0.198689	0.201483	0.196717
563	0.197538	0.19721	0.20099	0.19195	0.201976	0.202305	0.199182
564	0.20099	0.192772	0.203948	0.192115	0.201483	0.202469	0.196388
565	0.201976	0.196388	0.19836	0.192608	0.205099	0.19721	0.199839
566	0.197867	0.194416	0.196717	0.192279	0.199839	0.202962	0.199182
567	0.200168	0.19458	0.196388	0.191293	0.205427	0.201976	0.197703
568	0.197867	0.189485	0.193265	0.193101	0.204606	0.198853	0.199839
569	0.199839	0.194744	0.199511	0.187184	0.209208	0.200332	0.200004
570	0.196717	0.19195	0.196717	0.193101	0.202962	0.199182	0.198689
571	0.200004	0.195895	0.196223	0.193101	0.201647	0.200825	0.199182
572	0.194416	0.193265	0.199511	0.191457	0.202633	0.197867	0.201154
573	0.19836	0.194909	0.199346	0.192279	0.200825	0.203784	0.199018
574	0.195566	0.194087	0.196552	0.195237	0.202962	0.205921	0.199511
575	0.194909	0.194909	0.193429	0.192936	0.202469	0.19836	0.19721
576	0.197045	0.195237	0.197374	0.193594	0.20362	0.197538	0.20099
577	0.197045	0.195566	0.200825	0.19458	0.202305	0.200497	0.200332
578	0.200168	0.19573	0.200332	0.201319	0.20362	0.197538	0.202798
579	0.196388	0.194909	0.199346	0.194744	0.20477	0.200497	0.198196
580	0.199839	0.195895	0.201483	0.19573	0.204441	0.196717	0.19836
581	0.198524	0.194251	0.196881	0.193922	0.200004	0.199675	0.200661
582	0.200497	0.197374	0.199839	0.194416	0.201812	0.199511	0.197867
583	0.199839	0.191786	0.192443	0.197538	0.205099	0.197045	0.201154
584	0.201812	0.194416	0.203784	0.196223	0.202305	0.195566	0.20099
585	0.202633	0.195566	0.196717	0.196059	0.203291	0.199675	0.200004
586	0.197374	0.192279	0.185047	0.193922	0.204277	0.198853	0.198524
587	0.19573	0.191293	0.199346	0.196881	0.204277	0.200661	0.20099
588	0.200004	0.197703	0.198196	0.197045	0.202798	0.199675	0.196552
589	0.196552	0.191293	0.195402	0.195073	0.201319	0.198196	0.200497
590	0.196881	0.195566	0.199675	0.195402	0.201976	0.200825	0.198524
591	0.200004	0.191128	0.198031	0.197538	0.192115	0.198524	0.199182
592	0.196223	0.190964	0.199018	0.193922	0.200004	0.198689	0.195895
593	0.200332	0.19836	0.19721	0.199839	0.200825	0.198031	0.199839
594	0.199675	0.193429	0.198524	0.198196	0.198853	0.199839	0.197538
595	0.19836	0.194251	0.201319	0.20099	0.198031	0.200825	0.200332
596	0.197703	0.195566	0.196552	0.19836	0.19721	0.200661	0.192936
597	0.202633	0.19721	0.195566	0.197045	0.198196	0.200168	0.195237
598	0.199675	0.19836	0.194087	0.196388	0.199346	0.199018	0.195402
599	0.199839	0.197867	0.19836	0.196388	0.200661	0.196552	0.197374
600	0.199018	0.196717	0.195895	0.196059	0.198689	0.196717	0.198689
601	0.197867	0.197045	0.199018	0.194909	0.202798	0.197538	0.20099
602	0.201319	0.196717	0.194416	0.198853	0.194251	0.195237	0.200332
603	0.201319	0.194744	0.200332	0.197703	0.198031	0.19721	0.196388
604	0.196059	0.190307	0.195402	0.199018	0.199675	0.195237	0.200168
605	0.198524	0.196388	0.19721	0.196223	0.197867	0.196223	0.198031
606	0.198196	0.19195	0.197374	0.19836	0.200825	0.199839	0.199018
607	0.196717	0.193758	0.195402	0.195895	0.200004	0.201319	0.195566
608	0.198524	0.196552	0.194251	0.197045	0.201319	0.190964	0.200004
609	0.199675	0.195402	0.19573	0.193922	0.197867	0.196059	0.198853
610	0.199675	0.196717	0.198031	0.198689	0.203948	0.196223	0.197867
611	0.199346	0.199346	0.197867	0.19573	0.19836	0.197538	0.200004
612	0.19721	0.196388	0.200332	0.200661	0.199511	0.196059	0.19721
613	0.199675	0.197703	0.197703	0.19721	0.197867	0.198196	0.198031
614	0.195073	0.19836	0.199346	0.194087	0.200497	0.196223	0.196552
615	0.196881	0.195566	0.196059	0.199839	0.197703	0.197045	0.200661
616	0.199675	0.19836	0.198524	0.196881	0.19573	0.197538	0.198689
617	0.199675	0.20099	0.199182	0.200661	0.198196	0.198689	0.199018
618	0.198853	0.197045	0.197538	0.199511	0.195237	0.200825	0.198853
619	0.200004	0.19458	0.19573	0.198524	0.181924	0.198031	0.198689
620	0.199018	0.19721	0.197703	0.194744	0.182911	0.198689	0.200004
621	0.198196	0.19573	0.197538	0.196881	0.18554	0.195402	0.201647
622	0.197703	0.196552	0.196552	0.192936	0.180281	0.201647	0.195566
623	0.195073	0.195895	0.195237	0.192443	0.189156	0.19721	0.201154
624	0.196552	0.197538	0.19836	0.195073	0.182089	0.199839	0.196881
625	0.200332	0.196223	0.199675	0.196552	0.183404	0.19573	0.195237
626	0.196223	0.192115	0.200332	0.195237	0.185869	0.195566	0.196717
627	0.200004	0.195895	0.200332	0.200168	0.185376	0.192936	0.19573
628	0.196223	0.193758	0.196388	0.19836	0.182746	0.197374	0.197374
629	0.199511	0.195566	0.198196	0.193758	0.18439	0.199839	0.199182
630	0.202633	0.195073	0.196223	0.197867	0.181431	0.193758	0.199182
631	0.200661	0.196881	0.196388	0.192279	0.183897	0.199018	0.198524
632	0.199018	0.195895	0.198853	0.197045	0.185705	0.196388	0.198689
633	0.202305	0.20099	0.197703	0.194087	0.185705	0.198689	0.197703
634	0.197867	0.197703	0.198853	0.194416	0.187841	0.192115	0.200332
635	0.194251	0.201154	0.198031	0.193758	0.186855	0.19721	0.196717
636	0.198196	0.201319	0.196059	0.195895	0.185376	0.196388	0.19573
637	0.197045	0.196223	0.19836	0.193594	0.188334	0.19721	0.200661
638	0.197867	0.195237	0.196717	0.196223	0.192443	0.198196	0.197703
639	0.198031	0.196552	0.195566	0.197045	0.188006	0.19836	0.197374
640	0.197867	0.195073	0.200004	0.194251	0.191457	0.196059	0.201812
641	0.197703	0.191293	0.196223	0.193265	0.191128	0.199839	0.19721
642	0.197867	0.194909	0.197374	0.1908	0.19195	0.195566	0.198853
643	0.196388	0.193101	0.197703	0.195566	0.192279	0.198524	0.198689
644	0.199346	0.195073	0.193758	0.194251	0.1908	0.199018	0.190307
645	0.196223	0.189978	0.200332	0.19458	0.190142	0.196717	0.196223
646	0.200825	0.198031	0.198853	0.196717	0.187513	0.19836	0.19836
647	0.199182	0.194744	0.197538	0.197867	0.186855	0.19721	0.19573
648	0.201976	0.197374	0.19573	0.19573	0.189485	0.199346	0.203784
649	0.19836	0.192443	0.199346	0.194251	0.188663	0.195237	0.200004
650	0.201647	0.197867	0.198524	0.196552	0.184554	0.198524	0.196881
651	0.197703	0.195895	0.200168	0.199018	0.190964	0.197703	0.199018
652	0.201812	0.194909	0.196223	0.199018	0.18817	0.197703	0.195402
653	0.203126	0.19721	0.197867	0.197703	0.191457	0.196552	0.195566
654	0.199018	0.197538	0.19721	0.196717	0.192115	0.198689	0.195237
655	0.199675	0.198853	0.195566	0.195073	0.192279	0.197703	0.198689
656	0.193101	0.19721	0.195566	0.193265	0.191786	0.197045	0.196552
657	0.201812	0.20099	0.199182	0.193594	0.193429	0.19573	0.200004
658	0.197045	0.195566	0.195895	0.194416	0.192279	0.19573	0.20099
659	0.200825	0.197045	0.199018	0.193594	0.197867	0.193758	0.199182
660	0.194909	0.195566	0.196881	0.195237	0.193594	0.19836	0.200332
661	0.199018	0.197045	0.197867	0.194251	0.191293	0.195237	0.197045
662	0.198853	0.193922	0.196388	0.196552	0.191457	0.195073	0.199182
663	0.202798	0.193758	0.199346	0.19721	0.192443	0.201154	0.19836
664	0.200497	0.196388	0.200332	0.197045	0.189156	0.196552	0.19573
665	0.199018	0.194744	0.200332	0.201976	0.187348	0.196552	0.198031
666	0.197867	0.194744	0.197703	0.197045	0.1908	0.198031	0.198689
667	0.199346	0.197703	0.199675	0.193101	0.18817	0.198689	0.197045
668	0.199839	0.196881	0.198689	0.199839	0.190142	0.19836	0.200004
669	0.199511	0.196552	0.19836	0.198689	0.192608	0.200332	0.196717
670	0.201647	0.196223	0.197374	0.193101	0.190142	0.196552	0.199839
671	0.199018	0.19458	0.197703	0.196552	0.188499	0.199675	0.19836
672	0.198689	0.196059	0.198196	0.193265	0.192115	0.196059	0.198853
673	0.196881	0.195073	0.199346	0.192936	0.191457	0.197374	0.200825
674	0.19836	0.195566	0.20099	0.193922	0.193758	0.198524	0.199182
675	0.196552	0.194251	0.198031	0.195073	0.190964	0.199018	0.200168
676	0.199346	0.195895	0.199675	0.197538	0.192772	0.19836	0.198853
677	0.19573	0.192608	0.198524	0.195566	0.192608	0.195237	0.19836
678	0.200004	0.195402	0.201483	0.191786	0.190307	0.198853	0.199018
679	0.199018	0.191128	0.198689	0.193758	0.189649	0.195402	0.195895
680	0.197374	0.194416	0.201319	0.197867	0.187019	0.196552	0.197538
681	0.19721	0.192772	0.197374	0.197538	0.191457	0.19836	0.198031
682	0.200661	0.190964	0.200825	0.196552	0.189485	0.197538	0.195566
683	0.198853	0.193429	0.198524	0.199511	0.188334	0.196717	0.201319
684	0.197867	0.195073	0.200004	0.197538	0.18817	0.19836	0.19721
685	0.203291	0.192936	0.200661	0.197703	0.191128	0.195895	0.197538
686	0.207893	0.194087	0.200332	0.199182	0.187841	0.202962	0.196223
687	0.200825	0.198853	0.196881	0.189649	0.187513	0.201812	0.196059
688	0.202798	0.194744	0.198853	0.195237	0.188992	0.202962	0.197045
689	0.204113	0.196059	0.197045	0.196223	0.193594	0.200497	0.197538
690	0.19836	0.197045	0.196881	0.197045	0.187348	0.199511	0.19836
691	0.200825	0.19458	0.197703	0.19721	0.194087	0.198689	0.199511
692	0.200497	0.193429	0.195237	0.196059	0.193594	0.199839	0.199839
693	0.20099	0.194909	0.199346	0.194909	0.194251	0.199346	0.201976
694	0.197867	0.191128	0.197374	0.197538	0.193594	0.198853	0.19836
695	0.200332	0.193265	0.200661	0.196552	0.191293	0.196881	0.20477
696	0.197703	0.189978	0.19573	0.198689	0.193101	0.198689	0.201154
697	0.197538	0.196223	0.201976	0.198524	0.186526	0.201319	0.198524
698	0.199346	0.190471	0.197045	0.188992	0.192936	0.201976	0.199182
699	0.200497	0.188827	0.200004	0.195895	0.1908	0.200661	0.194251
700	0.202305	0.195566	0.197867	0.200497	0.186362	0.199182	0.20099
701	0.201483	0.19458	0.201976	0.198689	0.189156	0.200825	0.192115
702	0.201976	0.19721	0.20099	0.202305	0.194744	0.198853	0.196059
703	0.200661	0.19836	0.197045	0.199018	0.187019	0.200825	0.198031
704	0.20099	0.198524	0.200825	0.200004	0.190142	0.199182	0.196552
705	0.196223	0.194416	0.196552	0.193922	0.190142	0.20099	0.197867
706	0.199511	0.19573	0.193758	0.19721	0.193429	0.195895	0.197703
707	0.198524	0.195237	0.197374	0.197538	0.192279	0.199839	0.196059
708	0.198689	0.191457	0.198196	0.196388	0.193922	0.199182	0.196717
709	0.197703	0.193101	0.19458	0.193429	0.190142	0.200332	0.197703
710	0.197374	0.198689	0.194744	0.190964	0.192772	0.20362	0.199018
711	0.198689	0.192936	0.197045	0.197703	0.195237	0.199018	0.200497
712	0.197867	0.194251	0.199675	0.19573	0.19195	0.199018	0.196388
713	0.191128	0.194744	0.196223	0.198196	0.194909	0.196881	0.199675
714	0.200825	0.191786	0.199675	0.196552	0.193594	0.200004	0.197867
715	0.20099	0.193758	0.199839	0.199018	0.191621	0.19573	0.204277
716	0.199182	0.195073	0.199346	0.195402	0.194416	0.198689	0.197045
717	0.19836	0.196223	0.199675	0.198031	0.194087	0.195566	0.204441
718	0.200004	0.195073	0.198689	0.200661	0.192279	0.202305	0.196059
719	0.198524	0.197867	0.199182	0.201647	0.194087	0.198853	0.198853
720	0.197703	0.199675	0.197374	0.202305	0.193101	0.200497	0.197867
721	0.200661	0.196552	0.199018	0.19195	0.193922	0.199511	0.19836
722	0.198524	0.195237	0.199839	0.19721	0.192608	0.196552	0.198031
723	0.202305	0.200332	0.196388	0.197374	0.195566	0.199018	0.196223
724	0.197538	0.195237	0.194909	0.196552	0.193429	0.200332	0.197374
725	0.198689	0.194744	0.19721	0.197867	0.194416	0.198853	0.197703
726	0.199675	0.195566	0.196717	0.196388	0.194909	0.199346	0.199675
727	0.200332	0.194087	0.199018	0.194251	0.194087	0.197045	0.199839
728	0.19458	0.193758	0.196388	0.198524	0.194909	0.196223	0.210029
729	0.196223	0.193429	0.194251	0.197374	0.193922	0.202305	0.198689
730	0.194251	0.196059	0.193758	0.20099	0.195402	0.197867	0.200004
731	0.197703	0.194416	0.197045	0.198853	0.194251	0.201647	0.199018
732	0.198524	0.197045	0.198196	0.198524	0.196223	0.198196	0.202798
733	0.200004	0.195237	0.197538	0.19836	0.191786	0.195237	0.198524
734	0.205756	0.19721	0.199675	0.198524	0.195073	0.201976	0.199511
735	0.199018	0.195402	0.198196	0.196881	0.193922	0.203784	0.197045
736	0.196717	0.192279	0.198196	0.197703	0.197045	0.199675	0.198853
737	0.196717	0.192936	0.200332	0.198524	0.192772	0.198689	0.195073
738	0.199346	0.196552	0.199675	0.196223	0.191293	0.199675	0.196059
739	0.195073	0.193429	0.197703	0.200825	0.195566	0.200332	0.200004
740	0.200825	0.196552	0.200332	0.198524	0.193101	0.203784	0.19458
741	0.19836	0.197538	0.198524	0.200004	0.19458	0.195566	0.199182
742	0.201812	0.196552	0.19721	0.196552	0.193922	0.202962	0.196881
743	0.19836	0.192772	0.195895	0.198524	0.198196	0.199839	0.199182
744	0.203291	0.195073	0.199346	0.193922	0.196552	0.200004	0.200661
745	0.198689	0.193265	0.196223	0.199346	0.193758	0.198524	0.19836
746	0.198689	0.193922	0.196552	0.19573	0.195073	0.201483	0.19573
747	0.197374	0.191786	0.197538	0.196717	0.196388	0.19721	0.201483
748	0.197538	0.197045	0.19721	0.198196	0.189156	0.201976	0.199346
749	0.19573	0.196388	0.199182	0.196059	0.193922	0.205099	0.204934
750	0.196881	0.193594	0.202633	0.199182	0.193594	0.200168	0.190964
751	0.200004	0.195237	0.19573	0.199839	0.195566	0.200168	0.195237
752	0.19721	0.199346	0.197703	0.201647	0.192772	0.20099	0.196223
753	0.199675	0.200497	0.197374	0.196881	0.195895	0.200825	0.194909
754	0.198031	0.193758	0.196717	0.200661	0.194909	0.203126	0.19573
755	0.201812	0.195073	0.200332	0.195895	0.194251	0.198524	0.198524
756	0.198689	0.196059	0.195895	0.198689	0.197374	0.201483	0.195402
757	0.201154	0.194909	0.193265	0.196059	0.190635	0.20099	0.193758
758	0.199182	0.197538	0.193594	0.199675	0.195237	0.19836	0.202305
759	0.198524	0.199675	0.199675	0.195073	0.188827	0.201647	0.197703
760	0.200497	0.198689	0.192608	0.198524	0.187841	0.202305	0.198524
761	0.198689	0.194416	0.198031	0.196717	0.190307	0.199511	0.189978
762	0.202633	0.194909	0.198031	0.19721	0.189978	0.198689	0.200168
763	0.195895	0.198524	0.197374	0.197703	0.188006	0.200004	0.198524
764	0.196552	0.192936	0.199839	0.196881	0.190635	0.19721	0.200168
765	0.197045	0.196717	0.195073	0.197538	0.193922	0.200661	0.199675
766	0.202305	0.199018	0.199675	0.195402	0.19458	0.196223	0.20099
767	0.197538	0.192608	0.197703	0.198196	0.190471	0.198031	0.199675
768	0.202469	0.190964	0.200332	0.199018	0.192115	0.199182	0.197703
769	0.198196	0.197374	0.196388	0.201976	0.189978	0.198524	0.200497
770	0.195237	0.196552	0.202305	0.200497	0.190142	0.198689	0.19573
771	0.200332	0.195073	0.197867	0.198853	0.191128	0.196223	0.196881
772	0.19721	0.197045	0.199346	0.197538	0.190964	0.198853	0.193922
773	0.194744	0.197374	0.195566	0.197045	0.19195	0.198853	0.201976
774	0.199018	0.199675	0.199675	0.193429	0.190471	0.198524	0.195073
775	0.197374	0.196388	0.199018	0.194251	0.194087	0.199839	0.200497
776	0.197045	0.196223	0.19721	0.194087	0.193922	0.199018	0.19836
777	0.197045	0.197538	0.19836	0.193758	0.194909	0.197538	0.197045
778	0.196388	0.196388	0.19573	0.194087	0.19573	0.199182	0.198689
779	0.198524	0.195237	0.194251	0.19573	0.195073	0.193922	0.201812
780	0.197538	0.194087	0.197045	0.196881	0.191457	0.199346	0.200825
781	0.199018	0.191457	0.199346	0.199182	0.196223	0.19836	0.200497
782	0.197538	0.196223	0.198689	0.19573	0.192772	0.197538	0.201976
783	0.200825	0.197045	0.200332	0.193429	0.193922	0.197703	0.200168
784	0.195073	0.197045	0.19836	0.195895	0.194416	0.199511	0.197538
785	0.197374	0.200661	0.199018	0.196388	0.192279	0.19836	0.196223
786	0.198524	0.196717	0.198853	0.196388	0.196717	0.199675	0.197703
787	0.202798	0.193758	0.200332	0.197867	0.196881	0.200332	0.198031
788	0.199346	0.194909	0.198524	0.197867	0.19458	0.19721	0.197538
789	0.199182	0.197538	0.200168	0.193429	0.194744	0.199511	0.19573
790	0.200825	0.194744	0.198689	0.200332	0.196223	0.197703	0.198031
791	0.202305	0.196059	0.196881	0.195895	0.193429	0.200332	0.197045
792	0.197703	0.196717	0.20099	0.198689	0.193265	0.195566	0.199018
793	0.202305	0.194251	0.197703	0.19836	0.19458	0.200332	0.196388
794	0.200332	0.195402	0.198524	0.197703	0.197703	0.199182	0.196717
795	0.197045	0.19573	0.198524	0.19573	0.19195	0.197045	0.194087
796	0.19836	0.197867	0.197045	0.196881	0.194087	0.20214	0.197538
797	0.201483	0.196717	0.197374	0.196717	0.194416	0.197045	0.194744
798	0.20099	0.197538	0.197703	0.196552	0.194744	0.200497	0.200168
799	0.19721	0.196388	0.19721	0.19458	0.196388	0.194744	0.196881
800	0.19836	0.199182	0.201483	0.196388	0.19721	0.199182	0.194744
801	0.197703	0.19195	0.20099	0.196388	0.19836	0.197045	0.19458
802	0.200497	0.196717	0.195402	0.194416	0.195237	0.197045	0.19573
803	0.197045	0.191293	0.199839	0.196059	0.19721	0.196388	0.197045
804	0.205756	0.193594	0.198524	0.196223	0.196552	0.199346	0.196388
805	0.196223	0.194251	0.19458	0.197867	0.19721	0.19721	0.196552
806	0.199675	0.198196	0.199511	0.196552	0.197045	0.199346	0.19573
807	0.19836	0.196059	0.195566	0.199839	0.196552	0.196717	0.195895
808	0.200004	0.196717	0.195402	0.19721	0.194909	0.198853	0.195895
809	0.198689	0.197703	0.197867	0.199182	0.196223	0.201812	0.200661
810	0.197374	0.195073	0.198689	0.197867	0.195237	0.200497	0.191786
811	0.196717	0.195237	0.198524	0.199346	0.197703	0.19458	0.19836
812	0.199346	0.194909	0.200168	0.198524	0.193922	0.194251	0.199018
813	0.201647	0.196717	0.195402	0.193429	0.200825	0.195237	0.200825
814	0.20099	0.196388	0.198689	0.19836	0.19721	0.197045	0.200497
815	0.200825	0.196717	0.199675	0.195073	0.197867	0.194744	0.202798
816	0.192279	0.195895	0.19458	0.19573	0.197374	0.196223	0.199182
817	0.196881	0.200168	0.201154	0.198524	0.19573	0.196388	0.198689
818	0.198524	0.196223	0.196223	0.197045	0.197703	0.19573	0.200825
819	0.19836	0.194251	0.199018	0.194087	0.201483	0.199675	0.198524
820	0.197374	0.192772	0.199182	0.201154	0.197045	0.192936	0.201812
821	0.197703	0.195237	0.197374	0.196881	0.200004	0.196059	0.197867
822	0.195566	0.198196	0.197374	0.19721	0.199839	0.19458	0.199018
823	0.198524	0.192115	0.196223	0.196059	0.199018	0.196059	0.197045
824	0.196717	0.196388	0.199839	0.196717	0.201319	0.196223	0.198524
825	0.198689	0.19458	0.201976	0.195566	0.19836	0.197538	0.196223
826	0.187513	0.196223	0.199675	0.196388	0.201483	0.195566	0.197045
827	0.193758	0.194087	0.199346	0.197045	0.198689	0.19573	0.199675
828	0.198031	0.200497	0.199839	0.197538	0.198196	0.195566	0.192936
829	0.200004	0.197045	0.19836	0.196388	0.199346	0.201483	0.197374
830	0.199839	0.197045	0.203948	0.198031	0.200168	0.194416	0.199182
831	0.198689	0.193922	0.19721	0.19836	0.201647	0.185705	0.197867
832	0.199839	0.195073	0.199018	0.193594	0.201812	0.194416	0.198196
833	0.194251	0.19721	0.196388	0.199182	0.200825	0.195237	0.199346
834	0.196881	0.193594	0.199839	0.19195	0.202305	0.190635	0.199182
835	0.196717	0.193101	0.197045	0.197538	0.198853	0.196059	0.20099
836	0.200004	0.19836	0.201154	0.194744	0.199511	0.194087	0.19573
837	0.184883	0.193594	0.204113	0.196388	0.201812	0.197703	0.200497
838	0.194087	0.197703	0.200004	0.195402	0.200497	0.19721	0.198524
839	0.196717	0.195895	0.199018	0.195402	0.201812	0.196059	0.201647
840	0.196059	0.195402	0.201319	0.196059	0.200168	0.197538	0.198031
841	0.196881	0.192936	0.197538	0.19836	0.202633	0.198031	0.198853
842	0.198031	0.192772	0.198031	0.19836	0.19836	0.197374	0.19573
843	0.199675	0.194416	0.198524	0.198524	0.200497	0.196881	0.195073
844	0.197374	0.193265	0.198524	0.199018	0.200004	0.199182	0.19573
845	0.201812	0.193429	0.199839	0.196223	0.201647	0.19721	0.198196
846	0.198196	0.19458	0.199346	0.196881	0.198853	0.200661	0.200332
847	0.200332	0.195895	0.200825	0.196881	0.201483	0.197867	0.19836
848	0.193429	0.193101	0.197867	0.197374	0.202305	0.199018	0.201647
849	0.19836	0.196717	0.198524	0.197374	0.200661	0.195237	0.195073
850	0.195566	0.197045	0.199182	0.199182	0.201154	0.190142	0.195073
851	0.202305	0.194909	0.201812	0.193758	0.203126	0.198524	0.199346
852	0.195895	0.192279	0.195566	0.197703	0.207893	0.196223	0.199675
853	0.199182	0.190964	0.199675	0.196388	0.200332	0.197703	0.195895
854	0.199182	0.193101	0.195237	0.195566	0.205921	0.195073	0.199018
855	0.195237	0.193758	0.19573	0.196223	0.200004	0.198031	0.197867
856	0.200661	0.191621	0.196881	0.198853	0.204934	0.19573	0.199018
857	0.196223	0.193265	0.199346	0.19721	0.202469	0.19721	0.19836
858	0.199182	0.196059	0.196552	0.199018	0.198689	0.197045	0.199346
859	0.195895	0.191128	0.196552	0.198524	0.196552	0.19836	0.19836
860	0.196881	0.194087	0.196388	0.196223	0.200497	0.198196	0.198031
861	0.198853	0.196223	0.199018	0.198689	0.200168	0.19721	0.199346
862	0.198524	0.193758	0.200004	0.196388	0.201812	0.195566	0.197045
863	0.197703	0.196223	0.19721	0.198524	0.203126	0.198853	0.196552
864	0.200497	0.197867	0.199511	0.19721	0.201483	0.199675	0.196552
865	0.196388	0.195237	0.196881	0.199346	0.203948	0.193758	0.198196
866	0.195566	0.196223	0.200497	0.194251	0.202469	0.199675	0.200332
867	0.201154	0.193758	0.196059	0.19836	0.202633	0.197703	0.197045
868	0.198689	0.195073	0.200661	0.188992	0.202962	0.197703	0.199839
869	0.198196	0.196059	0.199839	0.198524	0.202962	0.201154	0.200332
870	0.198524	0.19573	0.198689	0.189156	0.205263	0.199018	0.199511
871	0.197374	0.194251	0.197867	0.194251	0.204277	0.196388	0.203784
872	0.196059	0.194744	0.197703	0.195073	0.199839	0.199182	0.20099
873	0.196059	0.193922	0.196717	0.196717	0.202962	0.197374	0.197703
874	0.195402	0.193594	0.201319	0.197867	0.201647	0.197703	0.197538
875	0.197703	0.195402	0.201647	0.201647	0.204441	0.198031	0.197374
876	0.197538	0.19195	0.196223	0.197703	0.199018	0.197538	0.198853
877	0.195073	0.202962	0.201483	0.197538	0.199839	0.196223	0.197045
878	0.195237	0.194087	0.196881	0.198524	0.199182	0.196717	0.198689
879	0.199675	0.195402	0.202305	0.195237	0.198853	0.199839	0.192772
880	0.198853	0.197703	0.201647	0.201483	0.199511	0.198031	0.19573
881	0.200497	0.199675	0.19721	0.193265	0.19836	0.197374	0.200004
882	0.194416	0.196717	0.19721	0.197045	0.201483	0.19573	0.201319
883	0.03236	0.197374	0.198689	0.196881	0.201154	0.198689	0.195566
884	0.00787	0.195402	0.199182	0.19836	0.204277	0.196552	0.199182
885	0.005569	0.19721	0.197867	0.196059	0.205099	0.202633	0.197045
886	0.015924	0.196223	0.198853	0.198853	0.201319	0.201483	0.201976
887	0.025292	0.199675	0.196059	0.198196	0.201812	0.200497	0.197045
888	0.030716	0.200825	0.197374	0.192279	0.203126	0.195566	0.199839
889	0.039591	0.193429	0.197703	0.197045	0.19836	0.198689	0.199018
890	0.046001	0.196717	0.200497	0.196388	0.202962	0.197867	0.200825
891	0.050932	0.192115	0.199675	0.198853	0.198689	0.19836	0.20099
892	0.058985	0.193594	0.199182	0.197045	0.197045	0.199018	0.199182
893	0.059807	0.194909	0.197703	0.198689	0.194909	0.201154	0.20362
894	0.069176	0.194744	0.200168	0.199675	0.198524	0.201647	0.197374
895	0.07312	0.192936	0.200332	0.19836	0.198524	0.200661	0.20099
896	0.079694	0.193922	0.200497	0.198853	0.196388	0.198853	0.198689
897	0.082982	0.196059	0.199018	0.199839	0.197538	0.199182	0.200004
898	0.090213	0.197374	0.198853	0.196717	0.196388	0.202798	0.196552
899	0.091857	0.195566	0.195566	0.197867	0.199511	0.201976	0.199675
900	0.100239	0.196059	0.197538	0.197374	0.195895	0.200497	0.19573
901	0.103033	0.196881	0.200497	0.199346	0.197374	0.197538	0.202962
902	0.105498	0.193101	0.197374	0.200332	0.198524	0.199839	0.198524
903	0.109936	0.1908	0.19721	0.198196	0.200332	0.198524	0.197867
904	0.110429	0.195073	0.195566	0.198524	0.198689	0.198196	0.196059
905	0.114374	0.19458	0.198031	0.19836	0.201154	0.20362	0.198524
906	0.117825	0.191621	0.200168	0.198031	0.108128	0.197374	0.198031
907	0.120948	0.196223	0.200332	0.197045	0.106156	0.198031	0.200004
908	0.12292	0.194251	0.193101	0.200004	0.10632	0.19721	0.199839
909	0.130481	0.194909	0.197045	0.196059	0.112894	0.201154	0.19721
910	0.129001	0.186362	0.196881	0.200168	0.117332	0.197867	0.200332
911	0.136562	0.196552	0.19721	0.198196	0.118318	0.199675	0.196881
912	0.139192	0.195073	0.197703	0.200661	0.123085	0.197538	0.198524
913	0.140671	0.196059	0.199346	0.197703	0.124399	0.197538	0.199018
914	0.144287	0.196717	0.201319	0.196388	0.130481	0.20099	0.200168
915	0.146752	0.198031	0.198853	0.199346	0.128837	0.199511	0.197703
916	0.149053	0.193101	0.200332	0.200332	0.136891	0.199346	0.200825
917	0.146259	0.194251	0.199675	0.198853	0.13952	0.201154	0.196059
918	0.152011	0.196881	0.197538	0.199018	0.137877	0.198853	0.19836
919	0.152011	0.19195	0.197867	0.199511	0.142807	0.203455	0.194909
920	0.154477	0.196388	0.197374	0.194744	0.146588	0.202798	0.196388
921	0.155299	0.18439	0.197538	0.195237	0.145437	0.198031	0.202633
922	0.159243	0.19458	0.199839	0.196552	0.151025	0.198031	0.200332
923	0.159079	0.19458	0.199839	0.192936	0.14971	0.197374	0.200168
924	0.162695	0.195237	0.200332	0.195073	0.15234	0.19721	0.199839
925	0.158421	0.191457	0.197538	0.198853	0.155463	0.195237	0.200332
926	0.164667	0.195566	0.200497	0.194744	0.154148	0.197867	0.198853
927	0.163352	0.192608	0.199346	0.197374	0.158257	0.196881	0.200661
928	0.164831	0.190635	0.200825	0.19836	0.160394	0.196059	0.195237
929	0.166968	0.193265	0.19573	0.197703	0.159736	0.193758	0.196552
930	0.16894	0.195237	0.200825	0.199839	0.157271	0.197703	0.192936
931	0.169598	0.194744	0.197045	0.201319	0.166804	0.197703	0.19836
932	0.169926	0.192443	0.204606	0.199346	0.165489	0.198031	0.195566
933	0.177651	0.195237	0.201154	0.199182	0.167954	0.198196	0.198524
934	0.178802	0.195402	0.19836	0.199839	0.169433	0.20099	0.197045
935	0.177487	0.197045	0.19836	0.197045	0.169762	0.199346	0.196717
936	0.176665	0.194744	0.200497	0.199346	0.171077	0.199182	0.196881
937	0.179295	0.199675	0.198853	0.201812	0.175843	0.197045	0.197374
938	0.179459	0.189978	0.19836	0.19836	0.174528	0.19836	0.199511
939	0.177322	0.196388	0.201812	0.196552	0.176336	0.196717	0.195073
940	0.178637	0.196223	0.193594	0.199839	0.173542	0.196059	0.200004
941	0.181596	0.197045	0.198689	0.194744	0.181596	0.197867	0.197703
942	0.180281	0.193429	0.194909	0.197538	0.177815	0.197374	0.199839
943	0.180281	0.193101	0.197867	0.196717	0.176665	0.195566	0.196223
944	0.182253	0.19195	0.198853	0.19721	0.18176	0.195073	0.20477
945	0.183732	0.192443	0.199018	0.19721	0.176829	0.197867	0.199511
946	0.182746	0.192608	0.197538	0.198196	0.179788	0.194744	0.199839
947	0.184718	0.192608	0.203126	0.199675	0.181596	0.196717	0.199182
948	0.187513	0.195073	0.201647	0.202469	0.178802	0.195895	0.196881
949	0.186033	0.192115	0.200168	0.198524	0.178966	0.20214	0.19721
950	0.18554	0.193594	0.205756	0.201976	0.182746	0.19836	0.198853
951	0.185869	0.196552	0.196223	0.19836	0.178144	0.202798	0.194251
952	0.191293	0.192772	0.199346	0.196717	0.183239	0.198689	0.191621
953	0.184718	0.192608	0.197538	0.198853	0.184883	0.200497	0.194087
954	0.189814	0.195895	0.197867	0.195895	0.187513	0.197045	0.194251
955	0.189649	0.193101	0.198689	0.198196	0.18817	0.19721	0.196717
956	0.193922	0.195402	0.196388	0.196223	0.187513	0.199675	0.200168
957	0.187019	0.19573	0.195237	0.19721	0.187184	0.196223	0.198196
958	0.1908	0.19573	0.19721	0.196552	0.186362	0.198689	0.197045
959	0.189814	0.193429	0.195402	0.199675	0.188663	0.196881	0.19836
960	0.186198	0.198524	0.194744	0.196223	0.189156	0.19458	0.196552
961	0.187677	0.195402	0.202469	0.197703	0.191621	0.194744	0.199182
962	0.18817	0.193429	0.197374	0.199018	0.18817	0.200661	0.196223
963	0.193429	0.195402	0.199675	0.19836	0.191457	0.194744	0.199018
964	0.19195	0.193101	0.199182	0.198196	0.187677	0.203291	0.197867
965	0.193265	0.195895	0.199511	0.200168	0.190142	0.195895	0.199182
966	0.195237	0.194251	0.198853	0.198031	0.190471	0.199675	0.194087
967	0.196388	0.194087	0.199018	0.198031	0.191786	0.196717	0.196388
968	0.193429	0.193265	0.19721	0.200332	0.186691	0.198689	0.197374
969	0.196717	0.195073	0.200497	0.200332	0.188663	0.20099	0.195402
970	0.195073	0.195895	0.200497	0.204113	0.189814	0.196388	0.194744
971	0.19458	0.19573	0.199346	0.197538	0.187513	0.201812	0.195895
972	0.191128	0.19195	0.19458	0.200332	0.189649	0.19836	0.197374
973	0.193922	0.198196	0.20099	0.197045	0.189978	0.199182	0.196059
974	0.19458	0.193922	0.198031	0.198196	0.194251	0.197867	0.197374
975	0.192115	0.194251	0.200168	0.192772	0.192115	0.198689	0.201319
976	0.190471	0.192279	0.19836	0.196717	0.194251	0.197538	0.197703
977	0.194251	0.195073	0.198853	0.197703	0.190307	0.197703	0.192608
978	0.195073	0.190635	0.197867	0.197374	0.19195	0.196717	0.198853
979	0.194744	0.192115	0.198853	0.196717	0.1908	0.199182	0.196388
980	0.196059	0.192936	0.199346	0.201154	0.192443	0.196717	0.19573
981	0.198689	0.191457	0.199675	0.201647	0.192772	0.193594	0.196223
982	0.196552	0.195402	0.20477	0.198031	0.189814	0.19458	0.199675
983	0.20099	0.193594	0.189485	0.199018	0.187184	0.196059	0.195073
984	0.199511	0.196059	0.199511	0.202962	0.189978	0.196717	0.195402
985	0.196881	0.194087	0.199182	0.212824	0.193429	0.19573	0.195073
986	0.199675	0.193429	0.202305	0.200332	0.191293	0.19573	0.196223
987	0.194909	0.196388	0.19721	0.200497	0.190471	0.195566	0.19573
988	0.200168	0.19721	0.19721	0.199839	0.190307	0.200168	0.192115
989	0.195402	0.195402	0.200332	0.196881	0.192443	0.197538	0.199018
990	0.197045	0.195237	0.198689	0.198196	0.192443	0.198196	0.196552
991	0.197374	0.192772	0.197538	0.199182	0.192772	0.195895	0.198031
992	0.197045	0.191457	0.20099	0.194909	0.191128	0.196552	0.196552
993	0.19721	0.192443	0.196059	0.200004	0.191293	0.198689	0.199675
994	0.196552	0.193101	0.189649	0.19573	0.192772	0.196717	0.198524
995	0.195895	0.191128	0.197045	0.197045	0.192279	0.195402	0.201483
996	0.197045	0.194087	0.197538	0.19836	0.192936	0.195895	0.19836
997	0.197538	0.197045	0.200825	0.197045	0.194909	0.194416	0.198689
998	0.192608	0.194416	0.199675	0.201319	0.190964	0.196881	0.198031
999	0.205099	0.195566	0.200004	0.197867	0.195402	0.196388	0.19458
1000	0.198524	0.193101	0.200004	0.198196	0.188663	0.193101	0.200004
1001	0.196059	0.193758	0.201319	0.194251	0.193758	0.194744	0.196552
1002	0.199346	0.191786	0.199182	0.201154	0.191786	0.195566	0.190471
1003	0.201319	0.194087	0.20099	0.197538	0.191457	0.19573	0.197374
1004	0.198524	0.194416	0.195073	0.200332	0.191621	0.198031	0.198031
1005	0.199675	0.196059	0.193265	0.197703	0.191786	0.198689	0.193758
1006	0.199018	0.195402	0.196881	0.198196	0.19458	0.19836	0.196881
1007	0.198689	0.198031	0.199346	0.196388	0.192772	0.197703	0.196388
1008	0.201319	0.195073	0.193101	0.197045	0.191786	0.19836	0.198031
1009	0.197045	0.195566	0.198031	0.197045	0.191293	0.197045	0.198689
1010	0.199346	0.196223	0.199018	0.19721	0.197867	0.195402	0.199018
1011	0.199018	0.193265	0.195073	0.196717	0.192443	0.19721	0.198524
1012	0.199346	0.190471	0.198689	0.197374	0.195895	0.193758	0.200497
1013	0.195073	0.189978	0.199511	0.199018	0.193594	0.195895	0.198524
1014	0.203784	0.195566	0.200661	0.196388	0.195237	0.197538	0.199346
1015	0.193922	0.192936	0.198196	0.199511	0.192279	0.198689	0.201812
1016	0.200332	0.194744	0.198031	0.19836	0.192115	0.199346	0.19721
1017	0.201647	0.195566	0.197538	0.198524	0.19195	0.196223	0.198689
1018	0.199346	0.193922	0.199346	0.199018	0.194087	0.19573	0.200168
1019	0.200004	0.194251	0.198853	0.197374	0.190307	0.197374	0.197045
1020	0.198853	0.197867	0.200825	0.195073	0.192936	0.19573	0.194909
1021	0.200004	0.195402	0.199346	0.198031	0.197374	0.196223	0.197374
1022	0.196223	0.196223	0.20099	0.196059	0.191457	0.198853	0.196717
1023	0.19836	0.194744	0.200004	0.199839	0.192772	0.196552	0.198031
1024	0.197867	0.195895	0.203291	0.195073	0.196223	0.200825	0.195566
1025	0.200825	0.198031	0.19836	0.196059	0.193922	0.195073	0.197867
1026	0.19721	0.194416	0.200497	0.194909	0.192936	0.196552	0.198689
1027	0.197538	0.19721	0.199346	0.197867	0.196059	0.197867	0.197703
1028	0.198524	0.201154	0.195895	0.197538	0.192279	0.196552	0.197538
1029	0.198689	0.19573	0.199675	0.197374	0.195566	0.192936	0.198524
1030	0.197703	0.19458	0.196717	0.199182	0.193594	0.196388	0.198196
1031	0.199182	0.196717	0.200497	0.199182	0.197703	0.193101	0.197374
1032	0.201319	0.195402	0.199182	0.197538	0.196552	0.19721	0.202305
1033	0.201976	0.195895	0.196223	0.197045	0.190635	0.197703	0.197867
1034	0.196552	0.194251	0.197374	0.201483	0.192115	0.194251	0.199675
1035	0.199182	0.198196	0.200825	0.196717	0.191128	0.199839	0.196881
1036	0.201812	0.195073	0.198031	0.194087	0.192608	0.193101	0.198853
1037	0.197703	0.199346	0.200661	0.193594	0.191293	0.196223	0.198031
1038	0.199839	0.199018	0.198853	0.20214	0.194744	0.198524	0.199839
1039	0.200004	0.196717	0.199346	0.196552	0.18817	0.199018	0.194744
1040	0.203455	0.197867	0.198524	0.201483	0.199675	0.19721	0.200004
1041	0.200661	0.195895	0.19836	0.196059	0.191621	0.201154	0.194909
1042	0.198524	0.194909	0.201976	0.19836	0.189814	0.194744	0.197374
1043	0.201319	0.197374	0.19573	0.200825	0.193758	0.196717	0.200825
1044	0.200497	0.194416	0.200497	0.197374	0.193758	0.197867	0.204934
1045	0.197374	0.193758	0.197374	0.194251	0.192936	0.196388	0.200497
1046	0.201154	0.194909	0.193922	0.193922	0.192279	0.195402	0.201319
1047	0.199346	0.196059	0.199182	0.198031	0.194416	0.191457	0.200004
1048	0.199346	0.196717	0.197703	0.19836	0.193594	0.197538	0.202305
1049	0.195895	0.193429	0.19721	0.20099	0.194087	0.19573	0.199346
1050	0.198524	0.199182	0.198524	0.199018	0.191128	0.199018	0.193429
1051	0.197045	0.194909	0.198031	0.199839	0.192443	0.198853	0.202633
1052	0.197045	0.19836	0.199675	0.196717	0.195073	0.197867	0.196717
1053	0.196552	0.190471	0.19836	0.19721	0.192936	0.196059	0.201976
1054	0.203455	0.197867	0.197867	0.197867	0.195895	0.195073	0.199018
1055	0.198524	0.197045	0.197045	0.200332	0.192115	0.196881	0.199675
1056	0.20362	0.198196	0.197703	0.196388	0.191457	0.198031	0.197538
1057	0.198031	0.198689	0.195895	0.199182	0.194416	0.196059	0.196388
1058	0.20214	0.198524	0.194744	0.197538	0.19195	0.196717	0.199511
1059	0.20099	0.199182	0.198196	0.196059	0.189649	0.198196	0.200168
1060	0.199511	0.198196	0.199018	0.200497	0.193265	0.198031	0.19721
1061	0.206249	0.200004	0.198689	0.198196	0.194087	0.199839	0.19721
1062	0.197703	0.197045	0.197703	0.199182	0.194744	0.198196	0.199018
1063	0.199018	0.201976	0.198853	0.197538	0.197045	0.195566	0.199675
1064	0.201319	0.200332	0.19836	0.19836	0.193758	0.199018	0.199511
1065	0.200332	0.198853	0.199511	0.195895	0.200825	0.191786	0.200004
1066	0.196717	0.197374	0.196717	0.199511	0.19458	0.19195	0.201647
1067	0.204441	0.199018	0.198524	0.197703	0.193101	0.201483	0.199018
1068	0.196223	0.19458	0.198031	0.200168	0.193265	0.19458	0.204113
1069	0.19836	0.199018	0.200661	0.192772	0.197374	0.19458	0.200332
1070	0.197538	0.198524	0.199675	0.195402	0.199182	0.200497	0.202962
1071	0.198031	0.19836	0.200332	0.199182	0.194087	0.200661	0.196388
1072	0.199511	0.200661	0.19721	0.199839	0.194744	0.197538	0.197045
1073	0.199018	0.199182	0.196881	0.195402	0.193594	0.200497	0.196388
1074	0.197538	0.199511	0.201154	0.190307	0.196059	0.19836	0.197867
1075	0.197867	0.199182	0.199018	0.195895	0.195895	0.20214	0.196388
1076	0.200497	0.202798	0.199839	0.19573	0.197045	0.196223	0.200168
1077	0.194909	0.196717	0.199675	0.197374	0.192608	0.196717	0.198853
1078	0.197045	0.202305	0.197867	0.198196	0.194909	0.198031	0.198524
1079	0.200168	0.196881	0.201154	0.199182	0.196881	0.196223	0.19573
1080	0.198689	0.199346	0.198031	0.197538	0.194909	0.198689	0.197045
1081	0.198853	0.198031	0.196717	0.199018	0.197045	0.199346	0.199182
1082	0.201154	0.197867	0.199018	0.196388	0.199346	0.199182	0.197045
1083	0.195895	0.198689	0.195237	0.200825	0.195073	0.198196	0.200168
1084	0.197538	0.195402	0.194416	0.199839	0.196388	0.199675	0.199346
1085	0.196881	0.199839	0.19836	0.198031	0.197703	0.198689	0.19836
1086	0.199675	0.199839	0.198524	0.19721	0.19573	0.199182	0.197867
1087	0.200497	0.202798	0.199675	0.198853	0.187184	0.195895	0.200661
1088	0.199018	0.199018	0.199346	0.19836	0.193758	0.198196	0.200661
1089	0.200661	0.198524	0.197703	0.199182	0.196552	0.196881	0.19836
1090	0.201483	0.199511	0.199839	0.199346	0.193101	0.19836	0.19721
1091	0.19836	0.196388	0.200332	0.198524	0.196223	0.199675	0.199018
1092	0.19721	0.195237	0.198853	0.203291	0.193429	0.199346	0.197703
1093	0.201976	0.19836	0.199675	0.199511	0.197703	0.200332	0.197538
1094	0.198031	0.19721	0.199346	0.200332	0.197045	0.198031	0.201483
1095	0.200168	0.198524	0.198853	0.202798	0.197374	0.200661	0.199346
1096	0.199346	0.193922	0.197374	0.197867	0.200497	0.199675	0.200825
1097	0.202305	0.197538	0.196388	0.188663	0.193265	0.199346	0.199675
1098	0.201812	0.200497	0.192443	0.183897	0.185212	0.197867	0.201812
1099	0.199182	0.197538	0.19836	0.143301	0.194744	0.198853	0.197374
1100	0.198196	0.19721	0.197374	0.082488	0.19458	0.197045	0.199018
1101	0.200168	0.19836	0.197703	0.068518	0.194087	0.199511	0.19836
1102	0.197867	0.196059	0.200661	0.052082	0.197703	0.196881	0.200168
1103	0.195566	0.19195	0.192608	0.059314	0.195237	0.200004	0.201154
1104	0.20099	0.195073	0.19573	0.063094	0.197045	0.198196	0.196552
1105	0.198689	0.197867	0.199675	0.067696	0.195895	0.197703	0.198689
1106	0.200004	0.198031	0.195566	0.071805	0.199182	0.198689	0.197703
1107	0.197538	0.19721	0.196717	0.077558	0.196552	0.200661	0.197538
1108	0.198689	0.199182	0.199511	0.081667	0.197374	0.198196	0.202962
1109	0.198031	0.200825	0.195237	0.088734	0.188334	0.199182	0.198689
1110	0.198196	0.199182	0.198689	0.091035	0.192608	0.200168	0.196388
1111	0.198853	0.195566	0.196717	0.095308	0.196388	0.19836	0.200661
1112	0.200004	0.202469	0.200825	0.099417	0.194744	0.198689	0.198689
1113	0.200497	0.199182	0.199018	0.104677	0.196881	0.197703	0.201812
1114	0.199018	0.200168	0.201154	0.10895	0.192936	0.201647	0.201319
1115	0.197045	0.196881	0.199346	0.112237	0.196552	0.19836	0.199675
1116	0.192936	0.199675	0.201976	0.116182	0.195237	0.201483	0.203126
1117	0.203126	0.198196	0.19721	0.116675	0.200825	0.199839	0.200004
1118	0.199511	0.197538	0.198689	0.120455	0.197538	0.19458	0.201154
1119	0.199675	0.195895	0.199018	0.122098	0.201647	0.196717	0.205099
1120	0.198031	0.199675	0.197703	0.124728	0.195402	0.200168	0.20099
1121	0.199511	0.194744	0.200332	0.127194	0.193758	0.194744	0.199839
1122	0.197538	0.197538	0.197045	0.133275	0.19573	0.197703	0.202633
1123	0.199346	0.195402	0.196223	0.133932	0.196552	0.197045	0.200497
1124	0.197538	0.196388	0.197538	0.13837	0.197703	0.192772	0.200004
1125	0.198524	0.195402	0.201319	0.146588	0.196223	0.202469	0.205592
1126	0.197538	0.192772	0.196223	0.147409	0.193101	0.196881	0.198853
1127	0.196388	0.197374	0.202798	0.145108	0.194087	0.197374	0.198853
1128	0.196223	0.195402	0.197867	0.153491	0.198853	0.20099	0.199511
1129	0.200661	0.198031	0.198689	0.146916	0.196388	0.199675	0.194087
1130	0.200004	0.19573	0.198689	0.154641	0.19573	0.196059	0.20099
1131	0.201483	0.197538	0.198853	0.154312	0.194909	0.19721	0.199018
1132	0.198031	0.196552	0.199018	0.155627	0.193758	0.196388	0.197703
1133	0.197374	0.196223	0.198031	0.155792	0.197045	0.197867	0.201319
1134	0.200825	0.19458	0.196881	0.15612	0.199839	0.199018	0.202305
1135	0.199346	0.197045	0.201976	0.159572	0.19836	0.199346	0.199675
1136	0.196717	0.195402	0.200332	0.161709	0.200168	0.201154	0.208879
1137	0.19836	0.194416	0.199839	0.16138	0.198031	0.195895	0.198196
1138	0.199346	0.197045	0.20214	0.162366	0.19836	0.194251	0.200004
1139	0.196388	0.19458	0.199018	0.170584	0.202305	0.196717	0.205756
1140	0.197703	0.199346	0.197867	0.166146	0.197867	0.197867	0.199182
1141	0.195402	0.192115	0.198031	0.168612	0.197045	0.196388	0.200497
1142	0.196388	0.19573	0.199182	0.170584	0.199675	0.198031	0.199675
1143	0.199182	0.193594	0.197374	0.173049	0.199182	0.197374	0.201812
1144	0.200004	0.195895	0.201154	0.17272	0.197045	0.195895	0.202469
1145	0.198853	0.194087	0.202305	0.178802	0.195895	0.197703	0.20477
1146	0.200004	0.194909	0.200825	0.171077	0.195895	0.202469	0.199182
1147	0.19721	0.194744	0.199839	0.180116	0.195895	0.19721	0.207893
1148	0.201647	0.19721	0.199182	0.17798	0.194416	0.201483	0.199839
1149	0.200332	0.199182	0.200332	0.177487	0.198689	0.197045	0.199018
1150	0.198196	0.196552	0.199018	0.180938	0.195402	0.201319	0.203126
1151	0.199346	0.196717	0.196388	0.178309	0.201319	0.200497	0.199182
1152	0.199182	0.194744	0.197867	0.177651	0.199675	0.196717	0.200004
1153	0.195895	0.196388	0.201647	0.178637	0.20214	0.197045	0.203291
1154	0.199839	0.190964	0.198196	0.180938	0.199675	0.198196	0.196223
1155	0.199018	0.195237	0.199018	0.182746	0.200332	0.199675	0.196717
1156	0.199018	0.191621	0.198524	0.182746	0.198853	0.19721	0.205099
1157	0.201483	0.19573	0.20099	0.180774	0.19836	0.202633	0.202305
1158	0.196388	0.195073	0.200825	0.185212	0.199675	0.196717	0.201483
1159	0.199018	0.196059	0.199182	0.183075	0.196717	0.200004	0.197045
1160	0.19721	0.197045	0.196223	0.188499	0.194251	0.199018	0.202305
1161	0.199018	0.196552	0.199018	0.187513	0.199018	0.19836	0.20099
1162	0.196388	0.195402	0.197703	0.186198	0.197045	0.200661	0.200661
1163	0.201319	0.196223	0.197374	0.187184	0.196059	0.19721	0.200332
1164	0.198031	0.199018	0.198524	0.189156	0.199018	0.199346	0.199018
1165	0.199839	0.193265	0.19721	0.18817	0.199182	0.201319	0.20099
1166	0.20214	0.195566	0.197045	0.187513	0.19721	0.198196	0.201319
1167	0.198853	0.198031	0.203455	0.188334	0.199839	0.20099	0.197045
1168	0.204277	0.193101	0.200004	0.188499	0.200004	0.199675	0.202962
1169	0.199182	0.19458	0.198196	0.187841	0.197374	0.197703	0.193594
1170	0.199675	0.198853	0.199018	0.188499	0.196223	0.200168	0.198524
1171	0.19573	0.195237	0.198853	0.190964	0.194251	0.198853	0.200661
1172	0.19836	0.196717	0.201812	0.193594	0.20214	0.199018	0.200004
1173	0.195237	0.195237	0.19573	0.189156	0.199675	0.199511	0.203455
1174	0.200004	0.196552	0.194744	0.181431	0.20099	0.196552	0.197045
1175	0.191621	0.195566	0.195895	0.190307	0.200661	0.198689	0.202469
1176	0.198689	0.19195	0.199511	0.193101	0.202633	0.203948	0.197703
1177	0.195237	0.193922	0.195402	0.193594	0.195237	0.199839	0.201154
1178	0.199018	0.194909	0.200661	0.191128	0.197045	0.199346	0.197045
1179	0.202305	0.194416	0.199675	0.196717	0.19721	0.19836	0.198689
1180	0.199346	0.197045	0.200661	0.191621	0.191457	0.196717	0.184718
1181	0.203291	0.19721	0.201976	0.195895	0.197867	0.200168	0.199018
1182	0.198524	0.198689	0.199182	0.193265	0.194416	0.197703	0.196881
1183	0.197703	0.198196	0.198524	0.19836	0.197045	0.200332	0.197045
1184	0.197045	0.196223	0.20099	0.192936	0.199018	0.20214	0.19573
1185	0.202305	0.198689	0.203948	0.193429	0.200004	0.197045	0.195237
1186	0.196881	0.197374	0.199839	0.194087	0.199511	0.200168	0.197045
1187	0.200661	0.193101	0.199182	0.193265	0.201976	0.200004	0.195895
1188	0.199675	0.193922	0.197045	0.195073	0.196552	0.197867	0.198524
1189	0.200661	0.196717	0.200004	0.190471	0.201976	0.198031	0.196881
1190	0.197867	0.196059	0.19573	0.196717	0.197867	0.200497	0.198524
1191	0.199675	0.196552	0.198196	0.194251	0.199511	0.199839	0.186033
1192	0.203126	0.19573	0.196881	0.194744	0.203126	0.19836	0.197045
1193	0.200332	0.195566	0.198031	0.197045	0.198853	0.201319	0.194744
1194	0.200004	0.192936	0.199675	0.200332	0.200004	0.199675	0.192608
1195	0.200168	0.193429	0.201812	0.188334	0.196717	0.200004	0.199182
1196	0.200825	0.197703	0.199182	0.198524	0.200332	0.199511	0.196388
1197	0.199839	0.193594	0.199511	0.197538	0.194909	0.201319	0.195237
1198	0.201647	0.195566	0.200332	0.195073	0.198524	0.200497	0.197045
1199	0.201154	0.195402	0.197374	0.196223	0.196552	0.20362	0.194087
1200	0.200825	0.197538	0.200661	0.195566	0.195073	0.198853	0.193594
1201	0.19836	0.196552	0.197045	0.194744	0.195895	0.201483	0.196059
1202	0.200661	0.200825	0.19836	0.196059	0.197703	0.201483	0.18817
1203	0.199839	0.200661	0.198689	0.197703	0.197703	0.201154	0.194416
1204	0.20214	0.195895	0.196059	0.195402	0.199018	0.202305	0.192115
1205	0.198524	0.196881	0.194909	0.192279	0.203291	0.201154	0.195073
1206	0.200497	0.196717	0.200168	0.193429	0.200661	0.200004	0.195073
1207	0.200332	0.193922	0.196552	0.196223	0.200168	0.201976	0.19721
1208	0.201154	0.195895	0.194744	0.195073	0.19573	0.202469	0.193594
1209	0.199346	0.192936	0.198196	0.194909	0.205263	0.200168	0.196059
1210	0.199018	0.195237	0.199346	0.196881	0.197045	0.202798	0.197045
1211	0.20214	0.197538	0.201154	0.197867	0.196881	0.199675	0.19721
1212	0.198853	0.195073	0.200332	0.196881	0.197867	0.199675	0.19721
1213	0.201154	0.197045	0.199839	0.201483	0.197374	0.200168	0.196223
1214	0.199018	0.196388	0.198031	0.196223	0.197374	0.201154	0.191621
1215	0.199511	0.191786	0.203784	0.197867	0.199018	0.201976	0.194087
1216	0.19836	0.196059	0.198031	0.187841	0.197538	0.20362	0.193922
1217	0.201483	0.197538	0.204606	0.19573	0.198853	0.199675	0.189978
1218	0.201976	0.195237	0.19721	0.19836	0.199018	0.201812	0.195402
1219	0.20099	0.199346	0.199675	0.197703	0.197374	0.202469	0.194416
1220	0.205099	0.196717	0.199675	0.198031	0.199839	0.199839	0.195566
1221	0.199675	0.197045	0.199839	0.194744	0.199675	0.204277	0.197703
1222	0.199018	0.197374	0.198524	0.19573	0.201319	0.201483	0.196388
1223	0.199182	0.196881	0.202305	0.196717	0.200661	0.200497	0.196223
1224	0.199675	0.197867	0.196881	0.199346	0.198524	0.199839	0.200661
1225	0.19721	0.196059	0.197703	0.192115	0.198031	0.19721	0.195073
1226	0.195895	0.195402	0.199182	0.192772	0.198853	0.197045	0.198524
1227	0.198031	0.194416	0.197374	0.19195	0.198853	0.200661	0.195402
1228	0.20099	0.196223	0.19836	0.195895	0.202469	0.200004	0.200004
1229	0.199675	0.193101	0.198524	0.200168	0.200004	0.196388	0.200661
1230	0.201154	0.199346	0.199182	0.199346	0.197374	0.197703	0.199675
1231	0.201812	0.195402	0.199346	0.19836	0.195073	0.199182	0.197045
1232	0.202305	0.193758	0.202798	0.197538	0.197538	0.197703	0.197374
1233	0.19721	0.199182	0.201812	0.201647	0.195566	0.201319	0.196223
1234	0.202305	0.194909	0.200497	0.197703	0.196388	0.201647	0.19573
1235	0.199018	0.196881	0.201154	0.205099	0.197703	0.198524	0.195237
1236	0.202469	0.195402	0.198524	0.197374	0.198031	0.202633	0.193429
1237	0.197374	0.1908	0.204277	0.200825	0.199346	0.196552	0.19721
1238	0.202305	0.197045	0.197374	0.197867	0.199839	0.206414	0.195237
1239	0.201647	0.194909	0.195237	0.196388	0.199018	0.206085	0.19721
1240	0.197374	0.193758	0.197867	0.195566	0.198524	0.197703	0.196881
1241	0.199675	0.193101	0.197045	0.199839	0.200004	0.200825	0.199018
1242	0.203291	0.192772	0.197374	0.197538	0.198524	0.199182	0.196881
1243	0.199018	0.192772	0.197045	0.197703	0.197538	0.197374	0.200168
1244	0.198031	0.191621	0.201319	0.199018	0.194909	0.200168	0.195073
1245	0.200497	0.192772	0.200497	0.199839	0.195237	0.19721	0.196552
1246	0.198031	0.196223	0.19836	0.202633	0.19721	0.197703	0.199182
1247	0.200168	0.195402	0.200497	0.195895	0.199182	0.202305	0.194251
1248	0.198524	0.192115	0.199675	0.201647	0.193265	0.196388	0.200004
1249	0.201483	0.196717	0.199839	0.197867	0.198031	0.200168	0.195895
1250	0.198853	0.192443	0.196552	0.199346	0.195566	0.204441	0.194744
1251	0.201483	0.197703	0.199675	0.199511	0.19836	0.197538	0.196223
1252	0.199182	0.194251	0.199346	0.201154	0.199182	0.198524	0.195566
1253	0.203126	0.200332	0.199182	0.199182	0.196223	0.201976	0.193429
1254	0.20099	0.195402	0.199675	0.199675	0.201154	0.199839	0.198853
1255	0.199018	0.196552	0.202305	0.20099	0.197045	0.202798	0.196223
1256	0.198689	0.196059	0.198524	0.198524	0.199182	0.198689	0.204113
1257	0.197867	0.193265	0.19573	0.199675	0.198689	0.19721	0.199346
1258	0.199675	0.195073	0.196552	0.200497	0.20099	0.194416	0.199182
1259	0.199018	0.190307	0.196552	0.198689	0.193101	0.196717	0.199182
1260	0.199675	0.194744	0.196717	0.201154	0.2074	0.195237	0.199675
1261	0.199018	0.192608	0.198031	0.198031	0.200004	0.201154	0.196717
1262	0.199346	0.195073	0.200497	0.19721	0.199346	0.195402	0.199839
1263	0.198689	0.193594	0.198196	0.199675	0.199511	0.194416	0.199346
1264	0.201976	0.192608	0.199182	0.199511	0.197538	0.197045	0.195895
1265	0.199675	0.193265	0.20099	0.201154	0.199346	0.194416	0.200168
1266	0.203784	0.197045	0.199346	0.200168	0.198853	0.19721	0.198524
1267	0.20477	0.194909	0.201647	0.200004	0.197703	0.196552	0.196388
1268	0.200825	0.195895	0.202305	0.200661	0.197703	0.197538	0.197045
1269	0.199675	0.195402	0.199839	0.200332	0.199511	0.196881	0.200168
1270	0.201647	0.195402	0.200661	0.201154	0.195237	0.197703	0.195402
1271	0.20099	0.193922	0.197703	0.201647	0.201647	0.198524	0.199018
1272	0.201319	0.194909	0.200332	0.195566	0.200661	0.198689	0.197045
1273	0.198524	0.196223	0.198689	0.197045	0.204934	0.194416	0.197045
1274	0.195566	0.191457	0.202798	0.198031	0.201154	0.195073	0.199346
1275	0.197867	0.196388	0.201483	0.203291	0.201483	0.197703	0.197867
1276	0.199675	0.191293	0.197703	0.196717	0.196552	0.195566	0.199839
1277	0.19721	0.194744	0.199675	0.195073	0.201976	0.193429	0.199839
1278	0.200004	0.193429	0.197703	0.199182	0.203126	0.19836	0.206249
1279	0.198524	0.194416	0.199182	0.19836	0.201647	0.192772	0.199839
1280	0.199511	0.195237	0.197867	0.201483	0.200661	0.192936	0.200825
1281	0.201647	0.192936	0.20099	0.200004	0.201154	0.195566	0.197045
1282	0.201483	0.192772	0.198031	0.198853	0.200332	0.195237	0.198853
1283	0.197867	0.193265	0.201976	0.200825	0.199839	0.189485	0.19836
1284	0.199018	0.196717	0.198689	0.201319	0.197045	0.192936	0.196881
1285	0.200825	0.192772	0.200661	0.201483	0.198524	0.197045	0.199675
1286	0.200332	0.191457	0.195895	0.200661	0.198853	0.196552	0.196388
1287	0.201483	0.195402	0.196717	0.201154	0.196059	0.197703	0.198196
1288	0.199346	0.192115	0.197867	0.201319	0.200497	0.193758	0.201319
1289	0.201812	0.195073	0.197045	0.200497	0.198031	0.199346	0.195566
1290	0.200497	0.194909	0.19721	0.196552	0.197703	0.197867	0.199018
1291	0.198524	0.191457	0.197703	0.200661	0.196059	0.199018	0.198689
1292	0.202305	0.190964	0.196881	0.201483	0.200004	0.197703	0.19836
1293	0.19458	0.190471	0.195237	0.201319	0.200332	0.196223	0.20099
1294	0.194909	0.194087	0.197045	0.204441	0.201976	0.189156	0.201647
1295	0.199182	0.190471	0.195566	0.200497	0.19836	0.192608	0.196223
1296	0.19836	0.190964	0.199018	0.198196	0.199018	0.19721	0.197538
1297	0.198524	0.189814	0.196059	0.204606	0.200004	0.193594	0.199675
1298	0.202962	0.195237	0.201976	0.201647	0.197374	0.196223	0.198689
1299	0.19836	0.190635	0.195566	0.199511	0.198853	0.195402	0.200004
1300	0.199839	0.191621	0.200004	0.198196	0.195566	0.198196	0.196388
1301	0.199182	0.190142	0.197374	0.202962	0.196881	0.196223	0.198031
1302	0.200497	0.191786	0.200661	0.199346	0.198524	0.197538	0.202633
1303	0.200661	0.191786	0.198196	0.201812	0.203126	0.190142	0.19458
1304	0.200497	0.198196	0.197538	0.197703	0.199675	0.19458	0.196059
1305	0.201483	0.194744	0.195566	0.201319	0.200332	0.192772	0.19836
1306	0.197045	0.194087	0.193265	0.199346	0.19836	0.196717	0.200004
1307	0.201154	0.197703	0.197538	0.198853	0.19836	0.200168	0.201154
1308	0.199018	0.193265	0.195237	0.20099	0.198853	0.202469	0.199018
1309	0.201647	0.195073	0.196388	0.197045	0.19836	0.199511	0.200825
1310	0.200661	0.191128	0.194744	0.199346	0.195237	0.19721	0.200497
1311	0.202305	0.193758	0.199675	0.196223	0.19836	0.197538	0.199675
1312	0.197538	0.191293	0.198031	0.20099	0.200825	0.193758	0.199182
1313	0.200168	0.194416	0.200661	0.197045	0.200004	0.197538	0.202305
1314	0.200332	0.192115	0.200497	0.199839	0.203784	0.19573	0.201812
1315	0.197538	0.195566	0.196717	0.197538	0.197703	0.19721	0.200661
1316	0.202633	0.194744	0.198524	0.200332	0.205756	0.195402	0.20099
1317	0.202962	0.19573	0.201483	0.197703	0.198853	0.196717	0.197374
1318	0.200825	0.196717	0.199182	0.199346	0.198196	0.19573	0.202469
1319	0.201647	0.192608	0.197867	0.196223	0.19836	0.19573	0.198031
1320	0.200661	0.19573	0.197867	0.197703	0.200168	0.196717	0.201976
1321	0.199839	0.193265	0.197703	0.19836	0.197538	0.199346	0.199346
1322	0.20099	0.191621	0.200168	0.198689	0.20099	0.198031	0.198853
1323	0.197045	0.190471	0.195566	0.202633	0.198689	0.201154	0.199675
1324	0.131467	0.193429	0.197703	0.197374	0.193922	0.202305	0.200332
1325	0.133439	0.193265	0.202305	0.199346	0.199018	0.200004	0.199346
1326	0.139027	0.194087	0.19836	0.202305	0.201483	0.199182	0.200825
1327	0.138205	0.192115	0.198524	0.201647	0.196552	0.198853	0.199511
1328	0.142972	0.193922	0.202633	0.199675	0.200825	0.195237	0.200004
1329	0.144615	0.193265	0.195566	0.197045	0.202469	0.192608	0.198689
1330	0.147081	0.193429	0.199839	0.197045	0.199346	0.197045	0.198031
1331	0.152505	0.192443	0.196223	0.195895	0.19721	0.195895	0.200825
1332	0.155299	0.194087	0.198524	0.197374	0.200004	0.19721	0.200661
1333	0.159079	0.192115	0.19721	0.193265	0.199018	0.197867	0.203455
1334	0.154477	0.192936	0.199839	0.197538	0.199346	0.198853	0.201812
1335	0.157764	0.193922	0.20099	0.198853	0.201319	0.196717	0.201483
1336	0.160722	0.195566	0.200004	0.198524	0.199511	0.199182	0.199675
1337	0.160394	0.195237	0.194909	0.19836	0.20214	0.204934	0.200332
1338	0.162366	0.196223	0.202798	0.201812	0.199839	0.190471	0.199182
1339	0.163681	0.195566	0.200497	0.197538	0.199018	0.199346	0.199018
1340	0.165489	0.192115	0.198196	0.200332	0.199018	0.200168	0.200497
1341	0.170255	0.197374	0.202798	0.195402	0.201647	0.199511	0.198689
1342	0.168612	0.188827	0.199675	0.199675	0.202305	0.196059	0.200661
1343	0.172227	0.197045	0.195566	0.197867	0.196059	0.202798	0.199675
1344	0.172063	0.193101	0.19836	0.19836	0.197538	0.200497	0.201976
1345	0.175021	0.196388	0.199675	0.192608	0.198196	0.199182	0.202798
1346	0.175515	0.194087	0.195895	0.199018	0.197867	0.200168	0.204113
1347	0.176829	0.191128	0.199182	0.194744	0.198031	0.200661	0.199018
1348	0.172392	0.195566	0.195566	0.196881	0.199182	0.198853	0.203126
1349	0.178473	0.195237	0.200004	0.190635	0.200332	0.199675	0.198853
1350	0.176665	0.195402	0.197538	0.194909	0.200497	0.19458	0.203126
1351	0.178144	0.193101	0.19836	0.196059	0.200497	0.201976	0.199018
1352	0.17913	0.192936	0.199018	0.195895	0.200825	0.198853	0.197538
1353	0.180938	0.191786	0.196388	0.199018	0.200004	0.199675	0.203455
1354	0.184061	0.191128	0.200004	0.197374	0.198524	0.201976	0.199182
1355	0.187677	0.193594	0.198031	0.196223	0.198689	0.19836	0.199675
1356	0.180116	0.19458	0.201319	0.198689	0.201319	0.20099	0.202633
1357	0.182746	0.195566	0.19836	0.199511	0.196881	0.197867	0.200004
1358	0.184554	0.19458	0.201812	0.19721	0.200661	0.198853	0.200004
1359	0.184061	0.197045	0.196059	0.199675	0.198524	0.201976	0.197045
1360	0.186855	0.198689	0.19836	0.199346	0.199018	0.202798	0.200004
1361	0.184225	0.194087	0.198689	0.198524	0.19836	0.198031	0.20099
1362	0.184883	0.198196	0.201319	0.196388	0.196881	0.201647	0.200332
1363	0.187513	0.194909	0.196388	0.198853	0.199018	0.197867	0.201812
1364	0.186691	0.196388	0.197867	0.195566	0.199346	0.200004	0.204113
1365	0.188499	0.194909	0.197374	0.198689	0.202305	0.196388	0.206249
1366	0.190635	0.198689	0.197703	0.195237	0.200168	0.200825	0.20362
1367	0.184718	0.195895	0.199346	0.197867	0.203126	0.197538	0.204934
1368	0.187019	0.191786	0.198196	0.198689	0.19573	0.200661	0.205921
1369	0.187513	0.19458	0.20214	0.19721	0.205263	0.199182	0.203291
1370	0.184883	0.196059	0.196552	0.198689	0.195073	0.199018	0.203948
1371	0.189485	0.19836	0.196388	0.196223	0.197045	0.199182	0.202469
1372	0.186033	0.19458	0.199839	0.196388	0.201647	0.200661	0.205592
1373	0.188334	0.195402	0.200497	0.196717	0.195566	0.199346	0.201319
1374	0.189814	0.193429	0.195073	0.19721	0.196552	0.197045	0.202633
1375	0.189814	0.19721	0.201483	0.195895	0.196552	0.198689	0.205427
1376	0.188663	0.195073	0.196223	0.201976	0.198196	0.196552	0.201483
1377	0.183404	0.197867	0.200332	0.201812	0.199839	0.19836	0.200004
1378	0.192608	0.195402	0.199346	0.202633	0.19836	0.197045	0.201154
1379	0.192772	0.197867	0.198853	0.200661	0.198031	0.205099	0.201647
1380	0.192115	0.197867	0.197538	0.200497	0.199346	0.19836	0.201483
1381	0.072627	0.19721	0.198689	0.197374	0.195895	0.198031	0.20362
1382	0.079859	0.19836	0.198031	0.197045	0.203126	0.200004	0.204113
1383	0.088241	0.197703	0.196881	0.195402	0.199839	0.202798	0.203126
1384	0.090706	0.19573	0.19836	0.197045	0.202798	0.197703	0.203291
1385	0.093172	0.192608	0.197703	0.201319	0.202469	0.199675	0.207071
1386	0.09876	0.199182	0.199511	0.195237	0.201812	0.198031	0.205592
1387	0.102869	0.194909	0.199675	0.199018	0.201319	0.200168	0.205756
1388	0.095144	0.198853	0.206414	0.197045	0.197867	0.201319	0.203784
1389	0.109443	0.196717	0.201976	0.198031	0.198689	0.197867	0.203948
1390	0.113552	0.195402	0.200332	0.198689	0.201976	0.201154	0.202962
1391	0.117496	0.192772	0.201812	0.200004	0.20214	0.200168	0.20362
1392	0.121112	0.198853	0.205592	0.197538	0.197703	0.201154	0.201976
1393	0.124399	0.193758	0.199018	0.197703	0.198196	0.199839	0.204606
1394	0.128837	0.197045	0.199839	0.191457	0.198031	0.201319	0.203291
1395	0.134918	0.198853	0.198853	0.19836	0.198689	0.199018	0.208879
1396	0.136069	0.197045	0.201812	0.197045	0.199018	0.201812	0.204606
1397	0.138534	0.193265	0.200004	0.196223	0.197374	0.198524	0.209208
1398	0.13952	0.199018	0.199511	0.197703	0.197374	0.200661	0.203784
1399	0.140506	0.194744	0.198031	0.196552	0.202469	0.200168	0.205592
1400	0.141657	0.196059	0.197703	0.196881	0.199511	0.197374	0.204606
1401	0.147738	0.196388	0.198689	0.20099	0.201812	0.199839	0.201483
1402	0.143301	0.194087	0.196223	0.199675	0.200661	0.201483	0.200332
1403	0.156449	0.19721	0.199511	0.196717	0.198031	0.197045	0.206742
1404	0.152833	0.195237	0.197703	0.199018	0.201812	0.199675	0.205263
1405	0.152669	0.195402	0.201483	0.194744	0.199839	0.201976	0.201812
1406	0.155463	0.200332	0.198196	0.197867	0.200825	0.199839	0.205592
1407	0.157928	0.193265	0.198524	0.195566	0.201319	0.201483	0.206085
1408	0.160229	0.195237	0.197703	0.198031	0.198524	0.19458	0.206249
1409	0.162366	0.198031	0.200004	0.196881	0.199675	0.200004	0.199018
1410	0.16253	0.195895	0.198031	0.198524	0.201483	0.194909	0.205427
1411	0.163516	0.195402	0.199018	0.199839	0.19836	0.198031	0.201812
1412	0.164996	0.198031	0.200332	0.199511	0.199675	0.199018	0.205921
1413	0.167461	0.197538	0.201154	0.199839	0.199182	0.201319	0.20099
1414	0.169762	0.193429	0.198524	0.197045	0.196881	0.196717	0.205099
1415	0.167954	0.197538	0.198853	0.199675	0.200004	0.201483	0.204934
1416	0.16894	0.194416	0.198689	0.19458	0.203126	0.202962	0.205099
1417	0.166968	0.198689	0.19836	0.196059	0.201154	0.198524	0.205427
1418	0.173378	0.190635	0.198853	0.196881	0.203784	0.19836	0.206578
1419	0.172885	0.193101	0.194909	0.199675	0.200497	0.198689	0.207235
1420	0.17535	0.196059	0.19836	0.195402	0.200332	0.199346	0.206085
1421	0.17535	0.195073	0.196059	0.196717	0.201976	0.197538	0.206414
1422	0.176994	0.194251	0.199182	0.194909	0.200168	0.19836	0.203948
1423	0.176665	0.19573	0.197867	0.196059	0.206742	0.194909	0.206907
1424	0.177487	0.194251	0.204113	0.195237	0.201812	0.19573	0.202305
1425	0.176172	0.193922	0.199018	0.196388	0.205099	0.193922	0.203455
1426	0.18176	0.195895	0.197867	0.195895	0.209208	0.198853	0.202305
1427	0.181267	0.195237	0.199675	0.195895	0.205099	0.198689	0.201319
1428	0.18176	0.185869	0.200497	0.198196	0.200168	0.197374	0.20099
1429	0.185705	0.193101	0.199182	0.198524	0.204113	0.194087	0.205099
1430	0.184718	0.195237	0.198031	0.201319	0.203126	0.194251	0.200661
1431	0.187184	0.197045	0.199018	0.198031	0.201976	0.198031	0.202962
1432	0.182253	0.193265	0.198853	0.199182	0.201647	0.198853	0.202305
1433	0.188499	0.196059	0.198524	0.198031	0.202962	0.198524	0.201647
1434	0.18932	0.193922	0.19836	0.198853	0.203784	0.20099	0.203126
1435	0.185869	0.195073	0.20214	0.198524	0.20477	0.198689	0.198031
1436	0.187184	0.190635	0.197045	0.198689	0.200661	0.200825	0.202962
1437	0.190142	0.194087	0.198853	0.194909	0.207728	0.197538	0.201154
1438	0.188006	0.193758	0.200825	0.198524	0.204441	0.199182	0.20362
1439	0.1908	0.184225	0.19721	0.19573	0.202305	0.200661	0.199675
1440	0.187019	0.191786	0.196388	0.200497	0.205263	0.193758	0.202798
1441	0.191128	0.194251	0.196552	0.19721	0.201483	0.19721	0.200004
1442	0.189978	0.195402	0.197867	0.198689	0.200168	0.195566	0.197703
1443	0.190635	0.191786	0.198524	0.197703	0.202305	0.197374	0.203126
1444	0.194416	0.192443	0.196059	0.195566	0.204277	0.196388	0.197867
1445	0.194744	0.193101	0.207235	0.199346	0.197374	0.200497	0.195237
1446	0.189814	0.192443	0.205592	0.197867	0.203455	0.198689	0.200004
1447	0.192115	0.195566	0.19573	0.199346	0.200497	0.199018	0.19836
1448	0.19458	0.194744	0.199511	0.199182	0.201483	0.198853	0.198689
1449	0.191457	0.193594	0.197045	0.19721	0.201976	0.200825	0.197374
1450	0.192279	0.195895	0.201154	0.198689	0.201154	0.196717	0.195237
1451	0.196881	0.193101	0.197703	0.195073	0.201647	0.197867	0.200332
1452	0.192443	0.193758	0.199018	0.196388	0.20099	0.19721	0.19195
1453	0.196388	0.195566	0.196059	0.19573	0.201647	0.193922	0.196552
1454	0.194251	0.195237	0.197538	0.197045	0.203126	0.197374	0.199675
1455	0.196388	0.196552	0.194251	0.195237	0.206742	0.19458	0.198689
1456	0.195402	0.197374	0.193922	0.194909	0.202962	0.197703	0.197374
1457	0.192772	0.193758	0.19721	0.197538	0.204934	0.192279	0.200004
1458	0.195237	0.196059	0.19458	0.194909	0.20214	0.200004	0.199018
1459	0.196881	0.195566	0.19458	0.197703	0.205756	0.194251	0.196223
1460	0.191293	0.194744	0.201483	0.197703	0.202798	0.196552	0.197374
1461	0.199018	0.197538	0.201319	0.197703	0.205592	0.195073	0.199839
1462	0.196388	0.194416	0.199018	0.197867	0.2074	0.195402	0.19573
1463	0.197538	0.195402	0.20214	0.197538	0.201812	0.196059	0.190471
1464	0.196223	0.196388	0.197538	0.198689	0.201483	0.198689	0.198031
1465	0.195073	0.195073	0.201812	0.199511	0.199018	0.197867	0.195402
1466	0.198031	0.193429	0.197867	0.201154	0.197374	0.196388	0.19836
1467	0.198524	0.197538	0.202469	0.197374	0.204113	0.198031	0.196881
1468	0.19721	0.189814	0.189156	0.199346	0.202305	0.196059	0.199018
1469	0.198524	0.197045	0.197703	0.193429	0.202798	0.199675	0.196388
1470	0.197045	0.196223	0.195566	0.197374	0.205592	0.197867	0.199346
1471	0.198031	0.198524	0.196552	0.199839	0.205592	0.199839	0.197538
1472	0.194251	0.195402	0.197867	0.19836	0.2074	0.195402	0.196223
1473	0.200332	0.199018	0.19836	0.19573	0.208879	0.193758	0.197045
1474	0.19573	0.193429	0.199018	0.197538	0.204934	0.196388	0.197045
1475	0.194744	0.193922	0.199182	0.199675	0.204441	0.198689	0.197703
1476	0.196881	0.195237	0.204113	0.197045	0.206085	0.194744	0.201812
1477	0.196717	0.194744	0.200661	0.200168	0.207564	0.193265	0.201154
1478	0.198689	0.195895	0.201154	0.197703	0.203291	0.195073	0.199018
1479	0.197867	0.190471	0.196717	0.199675	0.202962	0.19195	0.19573
1480	0.198689	0.196552	0.199675	0.197867	0.203291	0.199182	0.197045
1481	0.197867	0.195073	0.197703	0.202305	0.196223	0.198689	0.197703
1482	0.201154	0.19573	0.201976	0.198689	0.205592	0.198031	0.194909
1483	0.195237	0.19573	0.202305	0.19836	0.206085	0.193922	0.19721
1484	0.19836	0.196223	0.199182	0.197867	0.192115	0.200661	0.197538
1485	0.199511	0.194744	0.200661	0.199346	0.202305	0.195402	0.19458
1486	0.199839	0.198031	0.200661	0.197374	0.206085	0.199182	0.195895
1487	0.198031	0.195237	0.199675	0.200332	0.199346	0.197045	0.196223
1488	0.201483	0.197374	0.198853	0.199511	0.204113	0.196059	0.195895
1489	0.196059	0.195073	0.200661	0.197538	0.205263	0.198689	0.19836
1490	0.198524	0.195073	0.200168	0.198031	0.203126	0.197703	0.193922
1491	0.201154	0.192936	0.202962	0.197374	0.207728	0.193265	0.198853
1492	0.197703	0.193429	0.19836	0.196717	0.206742	0.19836	0.195402
1493	0.199675	0.194744	0.201319	0.195895	0.205921	0.196717	0.19721
1494	0.19721	0.193101	0.200332	0.201647	0.205592	0.195402	0.198196
1495	0.203126	0.1908	0.199182	0.197867	0.19836	0.195237	0.194744
1496	0.198524	0.190307	0.199182	0.201154	0.200497	0.198196	0.1908
1497	0.195073	0.193594	0.200497	0.200661	0.204934	0.196881	0.193429
1498	0.200168	0.193922	0.197867	0.204113	0.19836	0.197374	0.193429
1499	0.199675	0.197045	0.199675	0.201154	0.198524	0.198524	0.192936
1500	0.197045	0.195073	0.198689	0.199346	0.198689	0.199675	0.191457
1501	0.202469	0.196881	0.208879	0.198524	0.203948	0.200825	0.191786
1502	0.195402	0.197538	0.197374	0.201812	0.205592	0.201483	0.196223
1503	0.200168	0.198689	0.198524	0.19721	0.204113	0.201154	0.191293
1504	0.201154	0.194744	0.197538	0.198689	0.204606	0.200497	0.190471
1505	0.197703	0.193922	0.198689	0.196881	0.202633	0.195073	0.195402
1506	0.203126	0.199675	0.195237	0.196717	0.20362	0.198689	0.193429
1507	0.199839	0.195566	0.196223	0.194744	0.200661	0.197374	0.193101
1508	0.201319	0.191457	0.194909	0.194087	0.203948	0.198524	0.195073
1509	0.200661	0.193594	0.194087	0.196223	0.203126	0.200825	0.19458
1510	0.20099	0.199511	0.197867	0.196059	0.203455	0.197867	0.200497
1511	0.19836	0.197538	0.197538	0.192115	0.201976	0.197867	0.199675
1512	0.201647	0.192115	0.199018	0.191128	0.199675	0.198853	0.197045
1513	0.200004	0.197374	0.195895	0.19195	0.201483	0.19721	0.197374
1514	0.201483	0.19721	0.194744	0.193265	0.20099	0.198524	0.194416
1515	0.202798	0.194416	0.195895	0.193758	0.199346	0.19573	0.193594
1516	0.204277	0.197045	0.200004	0.190635	0.203126	0.196388	0.196223
1517	0.204934	0.197867	0.196223	0.193429	0.200825	0.197703	0.193101
1518	0.205921	0.195895	0.198196	0.191457	0.197867	0.200825	0.192772
1519	0.201976	0.196059	0.196223	0.190471	0.20099	0.19836	0.193594
1520	0.203948	0.195073	0.196717	0.189814	0.196223	0.200168	0.192936
1521	0.204606	0.195237	0.199018	0.189156	0.19836	0.200825	0.193429
1522	0.200004	0.195073	0.19573	0.190471	0.199839	0.200004	0.193758
1523	0.201483	0.196059	0.19573	0.191457	0.19836	0.200661	0.192772
1524	0.200332	0.19573	0.195895	0.191128	0.197867	0.201154	0.19195
1525	0.201812	0.196881	0.196388	0.19458	0.197703	0.196881	0.19458
1526	0.200332	0.194416	0.194087	0.19573	0.194909	0.196717	0.193101
1527	0.197374	0.195073	0.197374	0.189156	0.195895	0.197703	0.188663
1528	0.19836	0.194416	0.194416	0.191457	0.192936	0.195895	0.195073
1529	0.202633	0.193265	0.193101	0.192772	0.19573	0.196059	0.190964
1530	0.200497	0.198853	0.190471	0.195073	0.192608	0.196388	0.195073
1531	0.202798	0.197867	0.195895	0.193922	0.192772	0.201319	0.194251
1532	0.20099	0.195566	0.195073	0.192772	0.188334	0.200168	0.193758
1533	0.204277	0.19836	0.197374	0.194909	0.192608	0.201976	0.191786
1534	0.208057	0.195237	0.197374	0.196388	0.19721	0.198853	0.192443
1535	0.205592	0.197703	0.199346	0.195895	0.188663	0.201647	0.190142
1536	0.202633	0.20099	0.196388	0.196059	0.195237	0.197703	0.191786
1537	0.203455	0.196223	0.19721	0.195073	0.195073	0.201812	0.18932
1538	0.201647	0.197374	0.197374	0.194416	0.190471	0.198196	0.192115
1539	0.202962	0.196717	0.197867	0.195895	0.193594	0.19836	0.191786
1540	0.203948	0.195895	0.195566	0.195895	0.196552	0.201483	0.188334
1541	0.201647	0.19458	0.195895	0.195402	0.192115	0.198196	0.194087
1542	0.20362	0.192443	0.195237	0.194744	0.191293	0.198689	0.193101
1543	0.201483	0.191621	0.195073	0.198196	0.18932	0.201812	0.192608
1544	0.20099	0.193758	0.197538	0.197867	0.193429	0.20362	0.193594
1545	0.145273	0.1908	0.195566	0.198031	0.191786	0.19836	0.193429
1546	0.149053	0.194087	0.196552	0.199675	0.190307	0.19836	0.197045
1547	0.14478	0.192443	0.196717	0.199675	0.191786	0.19721	0.194416
1548	0.150697	0.195237	0.196223	0.196059	0.191128	0.201319	0.193101
1549	0.154477	0.194251	0.194087	0.19573	0.193922	0.197374	0.195566
1550	0.157764	0.196552	0.195566	0.198689	0.192443	0.199675	0.191457
1551	0.163188	0.194416	0.189814	0.201319	0.196059	0.199839	0.189649
1552	0.159408	0.196223	0.196388	0.196223	0.1908	0.202305	0.190471
1553	0.163516	0.195566	0.196881	0.197867	0.19573	0.200825	0.192279
1554	0.153326	0.19573	0.197045	0.196717	0.191293	0.204934	0.008857
1555	0.00146	0.198689	0.19836	0.196059	0.189485	0.20362	0.017732
1556	0.00935	0.195073	0.197045	0.197538	0.191786	0.203126	0.02332
1557	0.019868	0.196223	0.19721	0.198689	0.192936	0.201647	0.033017
1558	0.026771	0.19836	0.195566	0.200004	0.194251	0.201812	0.040742
1559	0.035154	0.196388	0.195402	0.194744	0.196059	0.204277	0.046166
1560	0.03992	0.193101	0.194087	0.197867	0.194744	0.202305	0.054712
1561	0.049946	0.192279	0.197867	0.196717	0.196881	0.200332	0.050932
1562	0.052247	0.192279	0.192443	0.197867	0.196059	0.198689	0.061615
1563	0.061451	0.193922	0.195566	0.195402	0.192115	0.200497	0.07049
1564	0.064738	0.192115	0.197703	0.195895	0.19458	0.198031	0.077722
1565	0.069176	0.192936	0.198853	0.194744	0.189156	0.202305	0.080023
1566	0.07575	0.193758	0.198689	0.199018	0.189649	0.200661	0.08709
1567	0.080187	0.192772	0.199839	0.196223	0.192279	0.200661	0.088734
1568	0.08709	0.196717	0.201319	0.197045	0.192279	0.200661	0.093829
1569	0.094487	0.196388	0.195402	0.205592	0.192443	0.201319	0.096623
1570	0.096623	0.192608	0.20214	0.193922	0.194416	0.20214	0.104019
1571	0.102376	0.19458	0.198853	0.196223	0.195566	0.200825	0.102047
1572	0.104512	0.196223	0.200332	0.195237	0.19458	0.200332	0.110429
1573	0.104512	0.193758	0.199346	0.196717	0.197538	0.203291	0.111908
1574	0.113716	0.195237	0.196881	0.192443	0.195073	0.205263	0.11799
1575	0.114045	0.190471	0.198196	0.197703	0.194416	0.200332	0.125714
1576	0.116675	0.192443	0.198689	0.196223	0.195402	0.20214	0.12177
1577	0.120784	0.190635	0.196881	0.201319	0.196881	0.196552	0.125386
1578	0.125057	0.19195	0.19836	0.19573	0.194744	0.199839	0.127851
1579	0.127194	0.191128	0.196059	0.197374	0.01576	0.197867	0.134754
1580	0.130645	0.191128	0.197703	0.194087	0.014116	0.197867	0.133932
1581	0.132946	0.191457	0.196223	0.194909	0.003433	0.19721	0.138863
1582	0.137384	0.18932	0.198689	0.199675	0.009678	0.194416	0.140013
1583	0.138041	0.194416	0.199018	0.201483	0.018554	0.198031	0.143465
1584	0.13952	0.188006	0.200497	0.194909	-0.000183	0.198524	0.14478
1585	0.146259	0.192608	0.200497	0.197703	0.00787	0.196059	0.144944
1586	0.143465	0.19195	0.200661	0.199018	0.017567	0.199346	0.147738
1587	0.147409	0.193265	0.201319	0.196388	0.020855	0.199839	0.149875
1588	0.149053	0.193429	0.199018	0.200004	0.024964	0.198524	0.150532
1589	0.15234	0.188992	0.200497	0.197374	0.034661	0.201319	0.151683
1590	0.150861	0.189156	0.19836	0.200168	0.039756	0.200661	0.156613
1591	0.157271	0.190964	0.200004	0.186526	0.048302	0.200825	0.155792
1592	0.156613	0.188827	0.198853	0.200004	0.054876	0.19836	0.159243
1593	0.161051	0.187841	0.197867	0.200661	0.057671	0.200004	0.160887
1594	0.160558	0.186691	0.196717	0.200661	0.063423	0.198853	0.163188
1595	0.161215	0.188499	0.202305	0.198031	0.070655	0.200332	0.163188
1596	0.162695	0.187513	0.196881	0.200661	0.074928	0.197374	0.167461
1597	0.164503	0.186855	0.201154	0.197374	0.078544	0.199839	0.168283
1598	0.164996	0.187184	0.199675	0.196388	0.087584	0.197045	0.172063
1599	0.166475	0.188992	0.202305	0.198524	0.093829	0.199018	0.170913
1600	0.172885	0.186198	0.206414	0.197538	0.096952	0.195895	0.168283
1601	0.169926	0.188827	0.203291	0.200168	0.09876	0.197374	0.168118
1602	0.172885	0.18817	0.202962	0.186855	0.107142	0.196059	0.169105
1603	0.170255	0.187677	0.200004	0.195402	0.106649	0.198524	0.172885
1604	0.174364	0.186691	0.199511	0.196388	0.112894	0.195402	0.173871
1605	0.175679	0.188992	0.200168	0.198853	0.114702	0.197538	0.173707
1606	0.174693	0.188663	0.199182	0.19721	0.118976	0.198031	0.175679
1607	0.175021	0.185705	0.196717	0.201812	0.123413	0.200168	0.17798
1608	0.176829	0.186362	0.199511	0.199511	0.125386	0.201812	0.17798
1609	0.176336	0.18061	0.200332	0.198689	0.131302	0.200332	0.18061
1610	0.176172	0.18932	0.200497	0.20214	0.133275	0.198524	0.179952
1611	0.178802	0.180938	0.200168	0.199018	0.133768	0.19836	0.180774
1612	0.178637	0.185212	0.198524	0.200004	0.136233	0.199675	0.181267
1613	0.178309	0.183075	0.198689	0.195566	0.142479	0.19836	0.181924
1614	0.181267	0.181431	0.19721	0.200497	0.143465	0.199675	0.183897
1615	0.188499	0.18176	0.200332	0.196388	0.150861	0.19721	0.185047
1616	0.183568	0.182417	0.20099	0.198689	0.14478	0.199018	0.187841
1617	0.183897	0.180938	0.202305	0.199182	0.150861	0.196881	0.18176
1618	0.183732	0.179459	0.199675	0.200168	0.148396	0.197045	0.190307
1619	0.185212	0.183404	0.203455	0.202962	0.151847	0.199675	0.188006
1620	0.185047	0.178966	0.199675	0.199839	0.15497	0.196717	0.190142
1621	0.184883	0.180938	0.203784	0.19836	0.158914	0.195566	0.188006
1622	0.182746	0.179459	0.199675	0.202798	0.15875	0.198853	0.18817
1623	0.18817	0.181103	0.202469	0.19836	0.159079	0.201319	0.189156
1624	0.183075	0.178802	0.201154	0.19836	0.163352	0.198689	0.188499
1625	0.18439	0.178637	0.199182	0.195895	0.161873	0.200497	0.188827
1626	0.190471	0.180938	0.201483	0.200332	0.169269	0.198689	0.191786
1627	0.191128	0.175679	0.202633	0.202633	0.165324	0.199018	0.18932
1628	0.190471	0.176665	0.201154	0.200825	0.166146	0.195237	0.190471
1629	0.188663	0.175021	0.203948	0.197045	0.167297	0.199182	0.1908
1630	0.191293	0.18061	0.20362	0.200825	0.001625	0.20099	0.193922
1631	0.192115	0.178144	0.199182	0.195237	0.004912	0.199182	0.197867
1632	0.1908	0.17535	0.201647	0.198031	0.013952	0.192443	0.197703
1633	0.191786	0.173378	0.201647	0.201319	0.021019	0.200825	0.194744
1634	0.191293	0.178637	0.201976	0.199839	0.032524	0.199675	0.191293
1635	0.187348	0.174693	0.201154	0.201647	0.038605	0.196717	0.195073
1636	0.191128	0.176665	0.202469	0.196717	0.039098	0.200497	0.193265
1637	0.193265	0.175186	0.201976	0.201154	0.047973	0.196059	0.197867
1638	0.19458	0.175021	0.203784	0.199182	0.058328	0.203126	0.194251
1639	0.191786	0.172885	0.201154	0.200004	0.062108	0.195895	0.195402
1640	0.194744	0.17272	0.202305	0.200497	0.061779	0.198853	0.197045
1641	0.192443	0.171899	0.201483	0.20099	0.07197	0.200004	0.196881
1642	0.193758	0.175021	0.20362	0.201319	0.074764	0.200332	0.193594
1643	0.195402	0.175679	0.201812	0.206742	0.07953	0.196223	0.204113
1644	0.193922	0.168776	0.201154	0.200497	0.07953	0.20214	0.193429
1645	0.19458	0.174693	0.202469	0.200332	0.086433	0.199675	0.19573
1646	0.194744	0.174364	0.201812	0.200168	0.093336	0.200168	0.197374
1647	0.195895	0.173049	0.203291	0.198689	0.093665	0.198853	0.19573
1648	0.196388	0.172885	0.202305	0.200168	0.097445	0.197703	0.198853
1649	0.197867	0.174364	0.203126	0.197538	0.031373	0.199839	0.196223
1650	0.188992	0.172063	0.200497	0.199839	-0.016126	0.197703	0.195402
1651	0.194251	0.172885	0.203126	0.199346	-0.006757	0.19836	0.198196
1652	0.193922	0.169105	0.19573	0.196223	0.002447	0.198524	0.198031
1653	0.195566	0.175679	0.202469	0.19836	0.010171	0.195237	0.195895
1654	0.192772	0.171899	0.199675	0.201154	0.016417	0.196717	0.193594
1655	0.196223	0.167954	0.201976	0.199018	0.023484	0.199675	0.196388
1656	0.194087	0.174693	0.199182	0.200825	0.030716	0.197867	0.199839
1657	0.19836	0.174035	0.198853	0.199839	0.036633	0.201812	0.19836
1658	0.192279	0.173871	0.198031	0.200168	0.043043	0.200661	0.200332
1659	0.200168	0.174364	0.200004	0.199346	0.048631	0.201647	0.197374
1660	0.196388	0.178144	0.200004	0.199839	0.054712	0.200004	0.199346
1661	0.199182	0.178144	0.199018	0.199675	0.059643	0.200332	0.197867
1662	0.200004	0.175843	0.201154	0.19721	0.065067	0.199182	0.200332
1663	0.19721	0.175843	0.198031	0.199839	0.070162	0.199675	0.199018
1664	0.201647	0.177158	0.196223	0.197703	0.073449	0.200004	0.196059
1665	0.198196	0.176501	0.164996	0.200825	0.077886	0.196223	0.186198
1666	0.198853	0.174857	0.158257	0.199511	0.088734	0.200332	0.195073
1667	0.196059	0.177651	0.155463	0.197703	0.087255	0.199511	0.196059
1668	0.198853	0.180445	0.079366	0.195566	0.094815	0.199675	0.197538
1669	0.196717	0.177815	0.009843	0.197045	0.099417	0.205427	0.201812
1670	0.198689	0.182911	-1.9e-05	0.196881	0.101225	0.198031	0.196881
1671	0.195895	0.178309	0.000639	0.199018	0.106649	0.197538	0.202798
1672	0.196552	0.17913	0.000146	0.19836	0.110265	0.197045	0.202469
1673	0.193922	0.180938	-1.9e-05	0.198031	0.108786	0.196881	0.200332
1674	0.195895	0.180445	-0.000512	0.198853	0.117496	0.202633	0.198031
1675	0.199675	0.184883	0.011322	0.194251	0.116839	0.196552	0.198853
1676	0.197374	0.183732	-0.001498	0.201483	0.117825	0.200497	0.192772
1677	0.197867	0.183897	-0.000512	0.202962	0.124728	0.199839	0.196059
1678	0.199346	0.186033	0.005076	0.201647	0.124564	0.199839	0.197374
1679	0.199182	0.185705	0.016417	0.19836	0.131796	0.199839	0.196059
1680	0.19573	0.185869	0.021512	0.202633	0.131302	0.198524	0.197374
1681	0.199839	0.18817	0.033017	0.19721	0.136726	0.200004	0.197538
1682	0.199018	0.186855	0.038769	0.198196	0.139356	0.19836	0.199511
1683	0.199839	0.190964	0.044851	0.200168	0.13952	0.202798	0.199675
1684	0.200168	0.187677	0.049453	0.197538	0.140506	0.201812	0.198853
1685	0.200825	0.195073	-0.001334	0.19836	0.139192	0.200497	0.198524
1686	0.199675	0.192443	-0.001827	0.198689	0.146095	0.200332	0.034003
1687	0.199675	0.191457	0.008035	0.198196	0.146259	0.198524	0.005241
1688	0.19721	0.192608	0.013787	0.199511	0.14478	0.198853	0.017239
1689	0.193429	0.195073	0.023813	0.199182	0.14478	0.200825	0.019868
1690	0.195895	0.195237	0.030223	0.200661	0.152998	0.196717	0.027758
1691	0.196552	0.196223	0.036469	0.20099	0.152011	0.187348	0.038934
1692	0.201154	0.197867	0.044193	0.201154	0.154806	0.197374	0.042714
1693	0.197045	0.196881	0.050274	0.20214	0.154641	0.199182	0.049453
1694	0.200661	0.198524	0.057671	0.204441	0.158257	0.198196	0.055863
1695	0.200661	0.195895	0.060465	0.199018	0.15875	0.202469	0.061615
1696	0.202962	0.200168	0.069833	0.200661	0.161051	0.197703	0.066546
1697	0.205263	0.200168	0.073613	0.200332	0.15875	0.197867	0.072791
1698	0.199346	0.201812	0.079366	0.201647	0.158914	0.201154	0.078051
1699	0.199511	0.203784	0.078544	0.200004	0.164338	0.201647	0.082817
1700	0.201154	0.210194	0.085776	0.199346	0.162859	0.201483	0.085283
1701	0.201154	0.20362	0.090049	0.199346	0.167625	0.199018	0.090378
1702	0.201647	0.206907	0.099253	0.201154	0.164667	0.19573	0.091857
1703	0.19836	0.205263	0.101883	0.203948	0.168447	0.196223	0.098924
1704	0.198196	0.207564	0.104841	0.199839	0.166311	0.197538	0.103362
1705	0.198853	0.206085	0.106978	0.198524	0.16779	0.19836	0.108786
1706	0.199018	0.207071	0.106649	0.200661	0.165653	0.199182	0.114538
1707	0.200661	0.206578	0.119304	0.19836	0.168776	0.197045	0.119469
1708	0.204934	0.212166	0.121277	0.199675	0.167954	0.19836	0.125057
1709	0.196717	0.213152	0.121112	0.200168	0.170255	0.200004	0.125714
1710	0.201319	0.206578	0.126372	0.200004	0.169269	0.199182	0.131631
1711	0.197867	0.21874	0.132617	0.198853	0.17272	0.199018	0.129823
1712	0.19458	0.215125	0.131302	0.20099	0.171899	0.202798	0.131302
1713	0.20214	0.215782	0.138863	0.20099	0.173542	0.196223	0.135083
1714	0.200825	0.214467	0.136562	0.200825	0.179952	0.196717	0.139027
1715	0.196388	0.220055	0.141986	0.198853	0.174528	0.197703	0.139849
1716	0.20099	0.215125	0.142972	0.200332	0.180774	0.19573	0.144615
1717	0.201483	0.216932	0.144944	0.198853	0.181267	0.199839	0.146259
1718	0.200825	0.21759	0.146259	0.195237	0.181596	0.198031	0.150039
1719	0.199018	0.215946	0.150204	0.193922	0.179459	0.200661	0.15119
1720	0.198031	0.215782	0.151683	0.19836	0.184883	0.197045	0.153819
1721	0.199182	0.218905	0.153326	0.195895	0.181431	0.199675	0.156449
1722	0.197867	0.218247	0.155299	0.195566	0.184225	0.196223	0.154641
1723	0.200332	0.218412	0.154641	0.199839	0.182417	0.195895	0.153655
1724	0.199182	0.217097	0.159572	0.200825	0.183404	0.197867	0.158421
1725	0.196388	0.214467	0.159736	0.201319	0.183732	0.19573	0.16516
1726	0.19836	0.222028	0.16138	0.199346	0.184554	0.195895	0.159572
1727	0.198689	0.216932	0.165489	0.202633	0.184225	0.19721	0.164831
1728	0.199675	0.219727	0.164831	0.196552	0.18439	0.196552	0.167954
1729	0.20099	0.224329	0.169433	0.205263	0.184061	0.196552	0.167297
1730	0.192936	0.221534	0.166639	0.197374	0.18439	0.195237	0.166968
1731	0.198196	0.220713	0.167461	0.200332	0.188827	0.195566	0.170255
1732	0.20214	0.229588	0.17272	0.199675	0.186362	0.19721	0.171241
1733	0.201319	0.223342	0.174364	0.199182	0.190307	0.196552	0.170255
1734	0.20099	0.222028	0.173542	0.201319	0.185705	0.202305	0.168447
1735	0.20362	0.220877	0.173049	0.202633	0.18932	0.193922	0.171734
1736	0.202962	0.21874	0.175515	0.198689	0.1908	0.196223	0.173214
1737	0.196388	0.218083	0.177158	0.200004	0.189485	0.194909	0.173542
1738	0.202798	0.217261	0.17535	0.198031	0.194909	0.195895	0.176336
1739	0.203455	0.220713	0.177487	0.198853	0.195073	0.195895	0.178473
1740	0.200661	0.215289	0.180445	0.199346	0.19195	0.195566	0.178309
1741	0.196059	0.217097	0.181267	0.197045	0.192608	0.194416	0.178966
1742	0.19721	0.218412	0.179623	0.200332	0.18932	0.195073	0.180116
1743	0.201319	0.222685	0.181267	0.20099	0.189814	0.197703	0.178144
1744	0.203126	0.218247	0.180116	0.202633	0.191128	0.195073	0.17913
1745	0.202962	0.216439	0.183732	0.201319	0.190471	0.196059	0.178802
1746	0.201812	0.215125	0.182746	0.204277	0.189814	0.195073	0.183568
1747	0.206085	0.217919	0.186526	0.200168	0.190471	0.194744	0.179788
1748	0.199839	0.218905	0.179952	0.201976	0.194416	0.190635	0.181267
1749	0.036304	0.217261	0.186691	0.196388	0.194416	0.198196	0.180281
1750	0.044686	0.215453	0.185869	0.200004	0.193101	0.193429	0.182746
1751	0.053726	0.215946	0.187513	0.206249	0.192279	0.19836	0.181924
1752	0.056849	0.213152	0.187841	0.198031	0.196552	0.195237	0.184225
1753	0.0603	0.215125	0.184883	0.200497	0.192936	0.200004	0.185869
1754	0.067368	0.215782	0.184554	0.199182	0.196552	0.200661	0.184718
1755	0.07575	0.213152	0.184883	0.196388	0.19458	0.194909	0.182911
1756	0.079037	0.214303	0.184554	0.200332	0.198853	0.196881	0.185047
1757	0.082653	0.215782	0.187513	0.198031	0.195237	0.196881	0.185212
1758	0.092679	0.210851	0.189978	0.198031	0.197703	0.198853	0.186033
1759	0.095966	0.217754	0.187513	0.199675	0.196552	0.19573	0.186362
1760	0.101883	0.211837	0.188992	0.199346	0.193758	0.196059	0.182582
1761	0.10139	0.206414	0.191293	0.198689	0.195237	0.192443	0.187841
1762	0.107964	0.209043	0.194251	0.197374	0.194416	0.196717	0.184883
1763	0.1101	0.207893	0.191128	0.200332	0.192936	0.19573	0.186033
1764	0.114538	0.209701	0.196388	0.200168	0.194087	0.195566	0.187513
1765	0.120784	0.21233	0.192279	0.201319	0.196059	0.196388	0.186855
1766	0.124235	0.209208	0.196059	0.199675	0.192772	0.19836	0.185376
1767	0.126207	0.20855	0.191128	0.205592	0.19721	0.198031	0.187348
1768	0.134097	0.209536	0.192443	0.202798	0.194416	0.198524	0.186033
1769	0.13196	0.20855	0.192443	0.195073	0.197867	0.197538	0.184225
1770	0.135904	0.212166	0.191786	0.198524	0.195237	0.197374	0.183239
1771	0.141164	0.20477	0.193265	0.197867	0.198524	0.198524	0.186855
1772	0.139356	0.205099	0.195402	0.195237	0.193265	0.19458	0.189156
1773	0.143301	0.205263	0.19573	0.195895	0.198031	0.192115	0.193429
1774	0.143629	0.203784	0.192608	0.195073	0.19836	0.190142	0.192772
1775	0.147903	0.206249	0.197538	0.198524	0.196717	0.193758	0.188334
1776	0.151354	0.204606	0.196059	0.201812	0.199675	0.192443	0.191293
1777	0.156778	0.205427	0.194251	0.196717	0.19721	0.193922	0.187513
1778	0.156285	0.205756	0.193594	0.197703	0.199018	0.193265	0.189485
1779	0.1576	0.203784	0.197867	0.200004	0.196388	0.195895	0.187513
1780	0.159572	0.20362	0.195237	0.199018	0.19573	0.193758	0.189814
1781	0.163023	0.200825	0.193429	0.198524	0.196881	0.195895	0.194087
1782	0.165653	0.196717	0.191457	0.200497	0.196552	0.195895	0.186855
1783	0.168447	0.201319	0.200497	0.197867	0.193922	0.196717	0.188663
1784	0.172392	0.202962	0.196388	0.198689	0.201976	0.196552	0.189156
1785	0.169105	0.201647	0.196223	0.201647	0.199018	0.193758	0.189156
1786	0.173378	0.203455	0.196223	0.195566	0.197538	0.194416	0.188663
1787	0.171899	0.201812	0.195402	0.201154	0.196881	0.198524	0.190635
1788	0.176665	0.201154	0.195895	0.198031	0.199511	0.196223	0.18932
1789	0.178966	0.199675	0.195566	0.19836	0.197703	0.196717	0.191786
1790	0.180116	0.201319	0.195237	0.199675	0.196717	0.197703	0.191786
1791	0.181924	0.199182	0.196059	0.197538	0.19836	0.200004	0.190635
1792	0.178637	0.190471	0.195566	0.199182	0.192608	0.196059	0.191293
1793	0.184061	0.196717	0.195566	0.197867	0.196717	0.196223	0.191457
1794	0.182746	0.200168	0.195237	0.198196	0.196881	0.198196	0.192443
1795	0.181924	0.199675	0.198031	0.201647	0.19721	0.194087	0.192936
1796	0.18554	0.20099	0.198853	0.197867	0.195237	0.198853	0.191786
1797	0.184718	0.200332	0.196223	0.203291	0.197538	0.191457	0.193429
1798	0.185869	0.203126	0.200661	0.200332	0.197867	0.194909	0.19458
1799	0.18817	0.196717	0.204277	0.200825	0.198196	0.197045	0.189978
1800	0.188663	0.200661	0.198196	0.200661	0.19458	0.198196	0.186526
1801	0.188499	0.199511	0.198853	0.200825	0.199839	0.197538	0.191293
1802	0.190471	0.200332	0.197703	0.199511	0.196881	0.200332	0.1908
1803	0.19195	0.190635	0.196223	0.198524	0.197867	0.196552	0.191293
1804	0.18932	0.196552	0.197538	0.200497	0.198853	0.200004	0.195566
1805	0.19458	0.201319	0.199346	0.189156	0.197374	0.199839	0.190964
1806	0.192279	0.199346	0.193922	0.199018	0.199182	0.195402	0.195895
1807	0.193101	0.20099	0.198196	0.196388	0.200004	0.20099	0.194251
1808	0.194087	0.200497	0.195566	0.199018	0.199675	0.195402	0.19458
1809	0.193101	0.199182	0.198196	0.199346	0.199511	0.195895	0.194416
1810	0.190307	0.199675	0.203784	0.200168	0.202633	0.191786	0.196552
1811	0.197045	0.20214	0.197374	0.19721	0.197538	0.200004	0.194909
1812	0.193594	0.196388	0.19836	0.200497	0.203784	0.196388	0.196388
1813	0.196388	0.198853	0.200497	0.198524	0.20099	0.196223	0.196552
1814	0.195895	0.193429	0.197867	0.198689	0.200661	0.198031	0.19721
1815	0.19721	0.193758	0.199182	0.199346	0.199839	0.196388	0.19458
1816	0.198524	0.198524	0.198524	0.198196	0.200332	0.198031	0.200168
1817	0.195237	0.197045	0.19836	0.201483	0.195402	0.200168	0.195402
1818	0.19721	0.192936	0.200661	0.199346	0.19573	0.198853	0.196552
1819	0.201154	0.198689	0.199511	0.20099	0.195566	0.199675	0.197045
1820	0.197867	0.198524	0.200661	0.196717	0.196717	0.200661	0.201647
1821	0.195895	0.19573	0.203948	0.198689	0.198031	0.200825	0.198031
1822	0.197538	0.199839	0.197703	0.197867	0.197045	0.202633	0.196388
1823	0.195402	0.197374	0.197374	0.198853	0.199018	0.19836	0.197374
1824	0.199839	0.197703	0.19836	0.195237	0.198524	0.196388	0.190471
1825	0.199839	0.194744	0.19721	0.200004	0.200332	0.196552	0.196223
1826	0.197045	0.195566	0.197374	0.197867	0.200497	0.19573	0.196059
1827	0.199018	0.195895	0.195566	0.19573	0.200332	0.197374	0.198196
1828	0.198853	0.194744	0.196388	0.192608	0.198196	0.199018	0.200168
1829	0.196717	0.191293	0.200332	0.200168	0.200168	0.199346	0.20099
1830	0.200497	0.193429	0.197538	0.200661	0.197703	0.200004	0.198196
1831	0.199346	0.195402	0.193758	0.199182	0.201812	0.200497	0.20214
1832	0.19721	0.194416	0.195073	0.201154	0.197374	0.201319	0.199511
1833	0.198689	0.201976	0.19836	0.200497	0.199839	0.200661	0.19721
1834	0.199346	0.198853	0.19573	0.200497	0.202633	0.20214	0.19721
1835	0.199182	0.198689	0.199182	0.199675	0.198853	0.198689	0.199511
1836	0.199182	0.199182	0.197867	0.200825	0.196223	0.20099	0.196059
1837	0.201812	0.200332	0.200168	0.198524	0.198853	0.203126	0.195237
1838	0.198853	0.195402	0.196223	0.197867	0.197045	0.202305	0.201319
1839	0.200168	0.198031	0.198689	0.19836	0.196717	0.204606	0.200497
1840	0.196717	0.193429	0.199346	0.201483	0.197045	0.203784	0.200004
1841	0.204277	0.19573	0.198031	0.201812	0.200332	0.202469	0.197538
1842	0.198524	0.197374	0.197374	0.20099	0.201812	0.201319	0.200661
1843	0.201812	0.195237	0.190471	0.194087	0.196717	0.205592	0.199018
1844	0.197374	0.194087	0.19573	0.198031	0.197045	0.203291	0.200004
1845	0.19836	0.197703	0.198689	0.197703	0.200168	0.202962	0.200497
1846	0.19721	0.194416	0.196717	0.196881	0.198196	0.205099	0.202633
1847	0.196717	0.197045	0.200004	0.196388	0.198524	0.201976	0.200497
1848	0.195895	0.195566	0.205099	0.201647	0.19836	0.201647	0.202469
1849	0.127029	0.196059	0.199346	0.200004	0.197867	0.203784	0.205099
1850	0.009843	0.19721	0.192279	0.199346	0.199018	0.203126	0.008363
1851	0.011322	0.196717	0.203948	0.20362	0.197045	0.203455	0.008363
1852	0.024635	0.197374	0.200004	0.201812	0.198196	0.205099	0.00409
1853	0.029072	0.196717	0.199182	0.200004	0.196388	0.205099	0.013787
1854	0.03729	0.199346	0.193594	0.199675	0.199675	0.206414	0.023156
1855	0.041892	0.197045	0.194416	0.19721	0.198196	0.207235	0.033839
1856	0.050603	0.19836	0.198031	0.199839	0.199839	0.206907	0.034496
1857	0.055863	0.195073	0.196223	0.201319	0.201812	0.204277	0.042385
1858	0.057835	0.199675	0.198524	0.199511	0.199182	0.202798	0.048138
1859	0.068025	0.196388	0.19721	0.197045	0.200497	0.204113	0.054383
1860	0.068354	0.199346	0.199675	0.19721	0.197703	0.203948	0.060958
1861	0.079694	0.199675	0.197045	0.200497	0.198196	0.201976	0.069011
1862	0.077558	0.198853	0.199182	0.198853	0.199182	0.203784	0.074599
1863	0.08709	0.194744	0.198524	0.204606	0.202962	0.203948	0.078708
1864	0.091199	0.196881	0.196881	0.195402	0.198853	0.206249	0.084789
1865	0.092679	0.198689	0.196552	0.196881	0.200825	0.204606	0.089227
1866	0.09991	0.195895	0.196388	0.19836	0.201483	0.2074	0.095308
1867	0.104184	0.199675	0.198524	0.19573	0.202633	0.203126	0.095144
1868	0.107635	0.19836	0.199346	0.198031	0.198196	0.205921	0.103033
1869	0.11158	0.198853	0.200332	0.195566	0.199182	0.208222	0.107964
1870	0.118318	0.196388	0.198853	0.200332	0.200168	0.207071	0.109114
1871	0.120948	0.199018	0.199839	0.196388	0.199511	0.202469	0.112566
1872	0.12177	0.199346	0.197703	0.200332	0.199018	0.207071	0.11799
1873	0.123085	0.200497	0.199346	0.202469	0.200168	0.211344	0.117003
1874	0.130645	0.20099	0.197703	0.201483	0.201812	0.206414	0.119962
1875	0.13196	0.198524	0.202633	0.201976	0.199511	0.206907	0.127687
1876	0.132453	0.200004	0.197045	0.199018	0.200825	0.204441	0.129659
1877	0.134097	0.197374	0.19721	0.197045	0.199018	0.20855	0.129166
1878	0.138534	0.19458	0.197045	0.200332	0.201319	0.204441	0.137548
1879	0.143629	0.197867	0.197867	0.19836	0.199675	0.206742	0.137219
1880	0.138699	0.198031	0.198196	0.199182	0.20214	0.208222	0.139849
1881	0.146095	0.195895	0.201812	0.200825	0.202305	0.206907	0.140178
1882	0.148396	0.198524	0.198524	0.197703	0.200661	0.205592	0.143629
1883	0.147245	0.199839	0.198524	0.20099	0.199675	0.206249	0.14593
1884	0.154148	0.197867	0.199346	0.20099	0.200825	0.208222	0.146259
1885	0.153162	0.197703	0.198524	0.196881	0.198524	0.204277	0.150368
1886	0.154806	0.201647	0.201976	0.199511	0.199839	0.209536	0.151683
1887	0.156613	0.197045	0.198853	0.201812	0.197703	0.210523	0.151354
1888	0.162695	0.20099	0.195566	0.199346	0.200168	0.209536	0.152669
1889	0.16253	0.195237	0.199182	0.201812	0.202305	0.206907	0.155134
1890	0.160065	0.202633	0.200332	0.200332	0.201483	0.209865	0.156942
1891	0.160558	0.199018	0.198853	0.200825	0.202305	0.206907	0.158257
1892	0.045179	0.199675	0.19836	0.197867	0.198524	0.209536	0.158093
1893	0.052082	0.202305	0.19836	0.198196	0.199346	0.207071	0.164174
1894	0.058328	0.19573	0.197703	0.201154	0.196388	0.209208	0.161709
1895	0.064574	0.196881	0.200332	0.196717	0.200168	0.212988	0.162037
1896	0.069833	0.197703	0.19836	0.196881	0.199839	0.2074	0.168776
1897	0.072463	0.197538	0.201647	0.198524	0.201647	0.207564	0.166639
1898	0.078544	0.197703	0.198524	0.200004	0.199346	0.208386	0.165817
1899	0.083639	0.200168	0.199018	0.194909	0.200661	0.208222	0.166475
1900	0.086926	0.196717	0.197538	0.203455	0.202962	0.203948	0.169433
1901	0.096294	0.199839	0.199675	0.199511	0.201647	0.208057	0.170584
1902	0.093993	0.199346	0.197867	0.200497	0.203291	0.203455	0.173378
1903	0.103033	0.199511	0.198524	0.197374	0.201647	0.205921	0.171734
1904	0.106649	0.198689	0.193594	0.19721	0.199839	0.204606	0.172227
1905	0.110593	0.202633	0.194087	0.201483	0.200004	0.205263	0.172227
1906	0.1101	0.199018	0.199511	0.204277	0.201976	0.204441	0.175515
1907	0.114374	0.19836	0.199675	0.201647	0.200004	0.201976	0.171734
1908	0.120784	0.199839	0.195237	0.202469	0.202633	0.202798	0.179459
1909	0.127687	0.200168	0.199839	0.202962	0.201647	0.207728	0.174693
1910	0.125879	0.200661	0.196552	0.200825	0.202305	0.204277	0.177487
1911	0.127358	0.200825	0.195402	0.201976	0.203948	0.204934	0.17913
1912	0.13311	0.201647	0.197374	0.199675	0.202962	0.205263	0.178637
1913	0.134754	0.20099	0.197703	0.201483	0.20362	0.201647	0.181596
1914	0.139685	0.201483	0.200661	0.199018	0.205099	0.207893	0.182417
1915	0.135576	0.197703	0.197045	0.203291	0.199018	0.200825	0.184225
1916	0.145273	0.200825	0.199839	0.195237	0.201812	0.205099	0.180281
1917	0.140835	0.196881	0.198689	0.199511	0.204277	0.201483	0.184225
1918	0.149217	0.201812	0.197867	0.195566	0.203455	0.200332	0.183732
1919	0.144122	0.199018	0.198196	0.196388	0.203126	0.204606	0.188827
1920	0.150039	0.196717	0.200004	0.197045	0.198524	0.203455	0.180938
1921	0.150861	0.20362	0.197867	0.19836	0.204113	0.200825	0.184225
1922	0.151518	0.201976	0.201154	0.198524	0.199675	0.201319	0.185376
1923	0.15612	0.202305	0.199675	0.199182	0.201812	0.200825	0.184883
1924	0.151025	0.202305	0.197374	0.198031	0.199511	0.205592	0.187513
1925	0.158093	0.203455	0.199675	0.199839	0.200497	0.205427	0.187841
1926	0.160558	0.19836	0.200004	0.202798	0.198031	0.205263	0.187184
1927	0.161051	0.199839	0.20099	0.202305	0.200825	0.199182	0.18932
1928	0.159408	0.198524	0.198196	0.20362	0.199018	0.203784	0.188334
1929	0.165817	0.203948	0.201154	0.196059	0.201647	0.201154	0.187184
1930	0.162695	0.199346	0.199839	0.20214	0.198689	0.203455	0.191621
1931	0.16516	0.202798	0.197703	0.200661	0.199346	0.203126	0.186855
1932	0.168118	0.201483	0.199675	0.200825	0.199675	0.203948	0.18554
1933	0.167625	0.198689	0.203126	0.197374	0.200497	0.201812	0.187841
1934	0.16779	0.199182	0.198031	0.199346	0.198031	0.203455	0.191621
1935	0.169762	0.204606	0.199511	0.197538	0.197538	0.203455	0.187677
1936	0.17272	0.203948	0.197045	0.200168	0.199182	0.199018	0.193101
1937	0.167954	0.201319	0.200004	0.200332	0.196223	0.20477	0.191457
1938	0.172063	0.203291	0.198524	0.200661	0.199675	0.204277	0.190964
1939	0.172556	0.203784	0.200497	0.201319	0.199346	0.201812	0.192279
1940	0.176994	0.203455	0.199182	0.199839	0.197867	0.200497	0.191621
1941	0.173871	0.207071	0.200497	0.200497	0.191293	0.203948	0.192443
1942	0.175515	0.203455	0.200004	0.200332	0.197538	0.204113	0.192936
1943	0.178144	0.205099	0.194744	0.205099	0.195566	0.204934	0.191621
1944	0.178966	0.203126	0.202798	0.200825	0.195073	0.20477	0.19195
1945	0.174035	0.203784	0.198689	0.205592	0.198196	0.210029	0.194909
1946	0.180281	0.203948	0.196223	0.200497	0.19836	0.20477	0.189649
1947	0.179623	0.204113	0.201647	0.201976	0.197867	0.202798	0.196717
1948	0.182417	0.201319	0.201154	0.199675	0.193922	0.205592	0.192608
1949	0.181596	0.201976	0.195073	0.198196	0.198853	0.202469	0.1908
1950	0.183239	0.205921	0.199346	0.199675	0.197867	0.205263	0.190964
1951	0.181267	0.202798	0.197045	0.196717	0.199018	0.200825	0.193594
1952	0.180774	0.205263	0.19836	0.199511	0.197045	0.203455	0.192608
1953	0.183404	0.202305	0.19836	0.197703	0.200004	0.201647	0.195402
1954	0.18176	0.203784	0.19721	0.198853	0.197045	0.204113	0.189814
1955	0.184225	0.206907	0.19573	0.201812	0.199675	0.199182	0.194744
1956	0.001789	0.205921	0.198689	0.199675	0.198031	0.202633	0.194087
1957	0.014116	0.205756	0.201483	0.200004	0.200825	0.202305	0.193101
1958	0.001132	0.208222	0.196552	0.201647	0.201319	0.203948	0.199346
1959	0.003597	0.204606	0.198689	0.198524	0.198196	0.203784	0.197538
1960	-0.000676	0.203291	0.199346	0.203455	0.196223	0.202633	0.196059
1961	0.003104	0.206414	0.19836	0.200168	0.199182	0.205263	0.19458
1962	0.003597	0.204606	0.19721	0.197538	0.197703	0.201812	0.197538
1963	0.000146	0.205592	0.200332	0.203291	0.200497	0.205099	0.197045
1964	0.008363	0.200332	0.200004	0.202469	0.198196	0.20362	0.194416
1965	0.000967	0.204606	0.193758	0.198853	0.196552	0.203291	0.196881
1966	-0.003799	0.204277	0.196552	0.200497	0.198196	0.201647	0.19721
1967	0.006391	0.203126	0.197703	0.196059	0.199511	0.204441	0.193922
1968	0.012308	0.201976	0.196881	0.196388	0.201154	0.201976	0.196223
1969	0.013952	0.204113	0.197045	0.197374	0.203784	0.201319	0.199346
1970	-0.001005	0.202469	0.200661	0.19721	0.19836	0.198853	0.197703
1971	0.010829	0.203126	0.197703	0.195237	0.197374	0.203948	0.196717
1972	0.013294	0.200825	0.200497	0.197374	0.199346	0.199675	0.197374
1973	0.017567	0.200497	0.200168	0.19836	0.197374	0.200332	0.198031
1974	0.020855	0.201483	0.196552	0.200332	0.19836	0.200168	0.201319
1975	0.029401	0.196881	0.196059	0.19721	0.197538	0.199675	0.19195
1976	0.035975	0.201812	0.198689	0.199346	0.193922	0.203126	0.192115
1977	0.042385	0.20099	0.197045	0.198853	0.197867	0.200004	0.197867
1978	0.047645	0.201647	0.198853	0.196717	0.196717	0.200332	0.196717
1979	0.054219	0.201319	0.197045	0.200004	0.196059	0.199839	0.19836
1980	0.068682	0.201976	0.198853	0.19836	0.192443	0.203126	0.200004
1981	0.068025	0.200661	0.198853	0.199018	0.197703	0.203291	0.198196
1982	0.076079	0.20214	0.202305	0.199675	0.197703	0.202305	0.194087
1983	0.07953	0.19573	0.196059	0.199346	0.197045	0.198196	0.196223
1984	0.085776	0.201812	0.195895	0.197045	0.191621	0.203455	0.19836
1985	0.087748	0.204934	0.20099	0.199675	0.198196	0.203948	0.203455
1986	0.093665	0.198524	0.198853	0.196388	0.195566	0.202469	0.197538
1987	0.099253	0.20099	0.198689	0.199511	0.19721	0.204934	0.198524
1988	0.101718	0.201483	0.196717	0.200332	0.200332	0.202305	0.195895
1989	0.10632	0.198689	0.199839	0.196552	0.200661	0.199018	0.199675
1990	0.10895	0.194087	0.200168	0.200004	0.199018	0.198524	0.199839
1991	0.121112	0.19836	0.198524	0.197867	0.183568	0.200825	0.199511
1992	0.118811	0.196388	0.198524	0.199511	0.196223	0.202305	0.199018
1993	0.119469	0.195402	0.199839	0.199675	0.200004	0.200825	0.199675
1994	0.125879	0.194416	0.197867	0.196388	0.198689	0.199018	0.20099
1995	0.129659	0.199018	0.202962	0.201647	0.196717	0.201812	0.198524
1996	0.129823	0.196552	0.195895	0.203126	0.195402	0.201319	0.19836
1997	0.134097	0.197867	0.201812	0.197538	0.197538	0.20362	0.201154
1998	0.13574	0.199675	0.201976	0.201319	0.197867	0.201647	0.200661
1999	0.138534	0.200332	0.195895	0.200004	0.198689	0.202962	0.196059
2000	0.141	0.198031	0.197867	0.19836	0.199839	0.199675	0.198689
2001	0.146259	0.195073	0.197045	0.198196	0.193594	0.200004	0.195237
2002	0.147245	0.200497	0.197374	0.19836	0.191621	0.200168	0.198853
2003	0.148396	0.195566	0.195566	0.197538	0.194909	0.199018	0.200825
2004	0.151025	0.197045	0.195073	0.19721	0.200004	0.200168	0.198853
2005	0.152669	0.188334	0.200332	0.198524	0.198689	0.199511	0.19836
2006	0.155134	0.195402	0.200004	0.19721	0.200168	0.198689	0.198524
2007	0.153819	0.193265	0.195073	0.199018	0.200661	0.199675	0.192279
2008	0.153655	0.193265	0.19836	0.197045	0.198689	0.195895	0.197538
2009	0.155956	0.193265	0.199182	0.194087	0.195402	0.195402	0.201319
2010	0.160065	0.197045	0.198689	0.199675	0.19573	0.198031	0.19836
2011	0.160558	0.193594	0.197045	0.197538	0.197045	0.201154	0.201154
2012	0.168612	0.19573	0.200825	0.197374	0.19573	0.195895	0.198853
2013	0.16516	0.19836	0.197703	0.204113	0.196223	0.195402	0.200497
2014	0.170255	0.197374	0.198524	0.199018	0.19458	0.19836	0.196717
2015	0.171734	0.196717	0.195237	0.199675	0.200168	0.197538	0.199346
2016	0.170748	0.196717	0.198524	0.201154	0.196388	0.197867	0.199675
2017	0.1742	0.195566	0.198689	0.197374	0.199675	0.197045	0.199018
2018	0.172556	0.19573	0.199346	0.201483	0.197703	0.196388	0.188663
2019	0.174693	0.193758	0.197867	0.197374	0.202469	0.197045	0.194251
2020	0.173707	0.19573	0.203126	0.197703	0.198853	0.195895	0.196552
2021	0.176829	0.196059	0.199018	0.196388	0.202962	0.195895	0.201483
2022	0.175843	0.191621	0.196223	0.195237	0.200661	0.195237	0.200004
2023	0.181431	0.194416	0.200661	0.195237	0.20099	0.191293	0.201647
2024	0.181267	0.192936	0.199675	0.199346	0.200004	0.191786	0.201976
2025	0.180445	0.193758	0.198524	0.196881	0.196552	0.190142	0.197703
2026	0.184061	0.191786	0.196717	0.199018	0.199182	0.186526	0.20099
2027	0.182582	0.19458	0.201976	0.19721	0.19836	0.190142	0.204441
2028	0.18439	0.201812	0.198196	0.200661	0.196717	0.191786	0.205427
2029	0.185212	0.195566	0.200004	0.199511	0.194909	0.19195	0.195073
2030	0.185869	0.195402	0.199839	0.199182	0.200661	0.192772	0.202633
2031	0.188663	0.200497	0.201483	0.201154	0.19573	0.195237	0.200497
2032	0.189978	0.195402	0.202962	0.202633	0.199346	0.192279	0.197374
2033	0.187677	0.196552	0.200168	0.198524	0.19836	0.196552	0.199182
2034	0.195566	0.198689	0.199511	0.200004	0.195566	0.1908	0.201812
2035	0.186198	0.194087	0.198689	0.199839	0.196388	0.193922	0.199346
2036	0.190471	0.193429	0.199182	0.199675	0.197867	0.195895	0.198853
2037	0.192608	0.193922	0.196717	0.19836	0.197867	0.193265	0.20362
2038	0.190964	0.193594	0.199018	0.198853	0.200332	0.192608	0.203948
2039	0.192772	0.185705	0.199675	0.199839	0.197867	0.190142	0.203784
2040	0.188992	0.19573	0.200168	0.197703	0.198689	0.191786	0.198196
2041	0.193265	0.191128	0.194087	0.198524	0.201319	0.192115	0.203126
2042	0.190471	0.196223	0.198524	0.200004	0.19836	0.192608	0.198031
2043	0.193429	0.192772	0.195402	0.201976	0.20099	0.188827	0.0271
2044	0.192443	0.193594	0.199346	0.197045	0.196881	0.193594	0.011979
2045	0.193594	0.193758	0.198031	0.200004	0.199511	0.190471	0.020033
2046	0.19458	0.197867	0.19836	0.198853	0.196388	0.191457	0.026771
2047	0.195237	0.196059	0.201154	0.199346	0.197045	0.192936	0.034168
2048	0.19836	0.19721	0.198853	0.198196	0.19458	0.195566	0.03992
2049	0.196552	0.195895	0.199346	0.201154	0.20099	0.194251	0.04748
2050	0.19573	0.196717	0.201483	0.202633	0.19458	0.196388	0.053069
2051	0.196388	0.195237	0.198524	0.199675	0.19836	0.195237	0.057835
2052	0.194744	0.198689	0.19836	0.200825	0.200168	0.197703	0.064738
2053	0.198524	0.201976	0.199675	0.198524	0.198689	0.195566	0.072956
2054	0.196223	0.197703	0.193758	0.200497	0.202305	0.199182	0.083803
2055	0.198031	0.19458	0.197703	0.196059	0.199675	0.198031	0.084461
2056	0.197867	0.193594	0.196223	0.199346	0.20099	0.194416	0.091857
2057	0.192115	0.192936	0.191786	0.19721	0.201976	0.193101	0.094322
2058	0.191293	0.190964	0.193429	0.198853	0.203455	0.194087	0.101225
2059	0.197045	0.198524	0.193758	0.192608	0.192772	0.197045	0.105005
2060	0.195073	0.193101	0.198689	0.198524	0.200332	0.193265	0.109936
2061	0.197045	0.187841	0.19836	0.195402	0.196059	0.199839	0.097116
2062	0.154312	0.193922	0.198689	0.197703	0.199675	0.19458	0.096623
2063	0.158257	0.199511	0.198853	0.203126	0.198524	0.197374	0.099253
2064	0.161051	0.198031	0.201319	0.199018	0.198853	0.197538	0.103526
2065	0.159243	0.19721	0.200825	0.201154	0.198689	0.197538	0.105663
2066	0.161709	0.197703	0.199839	0.198853	0.20099	0.199675	0.112073
2067	0.16516	0.196717	0.197374	0.200004	0.200497	0.196552	0.114045
2068	0.166639	0.198853	0.199511	0.198196	0.199675	0.199839	0.043043
2069	0.166311	0.196717	0.198031	0.197045	0.205263	0.200168	0.045179
2070	0.170255	0.195073	0.198524	0.196552	0.199346	0.200332	0.053562
2071	0.169105	0.195402	0.198689	0.199675	0.201976	0.198524	0.06408
2072	0.170255	0.194744	0.200004	0.199018	0.199675	0.198689	0.066217
2073	0.169598	0.19195	0.194087	0.200497	0.200004	0.194744	0.074928
2074	0.172227	0.198031	0.203126	0.198853	0.200168	0.201319	0.07838
2075	0.172392	0.19573	0.199018	0.200004	0.198689	0.200661	0.08594
2076	0.17272	0.196059	0.198031	0.206742	0.198196	0.200825	0.090542
2077	0.171077	0.195895	0.203455	0.196223	0.200661	0.197867	0.100896
2078	0.178309	0.200332	0.195073	0.201319	0.197374	0.199346	0.102869
2079	0.177815	0.197867	0.19721	0.198524	0.201483	0.198524	0.103197
2080	0.18061	0.195073	0.197045	0.200168	0.200661	0.195566	0.109607
2081	0.181924	0.198196	0.202305	0.199018	0.198196	0.199839	0.112566
2082	0.183239	0.195073	0.204934	0.20214	0.198689	0.197045	0.114045
2083	0.18439	0.197045	0.202305	0.199839	0.198853	0.200497	0.118647
2084	0.186198	0.197867	0.198196	0.202633	0.194744	0.200168	0.122263
2085	0.188992	0.19721	0.202469	0.199018	0.196388	0.200168	0.121605
2086	0.187184	0.195895	0.198524	0.201319	0.198689	0.199346	0.127851
2087	0.188992	0.195895	0.199018	0.208386	0.199839	0.203126	0.127851
2088	0.187348	0.196388	0.197045	0.199346	0.201319	0.200497	0.135247
2089	0.185869	0.196388	0.193922	0.198853	0.201976	0.19721	0.135083
2090	0.182746	0.196388	0.196552	0.198689	0.199675	0.194251	0.136398
2091	0.187841	0.194251	0.198031	0.197703	0.20214	0.202798	0.142807
2092	0.188827	0.190964	0.195895	0.198853	0.198524	0.200004	0.143794
2093	0.188334	0.19195	0.19836	0.200168	0.194744	0.19721	0.146588
2094	0.191786	0.19458	0.198689	0.197703	0.193922	0.198524	0.148889
2095	0.188992	0.192936	0.198196	0.202962	0.197374	0.196388	0.146423
2096	0.191621	0.195237	0.198853	0.204606	0.196881	0.197538	0.149875
2097	0.193265	0.196552	0.201483	0.200168	0.195073	0.199511	0.153491
2098	0.192115	0.198031	0.200004	0.196059	0.201483	0.203126	0.153326
2099	0.19195	0.197703	0.197703	0.199182	0.199675	0.204113	0.155134
2100	0.193922	0.198524	0.199839	0.200661	0.199511	0.198031	0.15875
2101	0.192443	0.198031	0.199346	0.200168	0.19836	0.199511	0.159572
2102	0.195566	0.19573	0.199346	0.196717	0.202962	0.201647	0.160887
2103	0.195566	0.197374	0.199511	0.201154	0.19836	0.200168	0.164338
2104	0.200497	0.198853	0.201319	0.199018	0.197538	0.203948	0.167461
2105	0.197538	0.195402	0.192115	0.199675	0.201154	0.19836	0.168118
2106	0.195073	0.197374	0.198031	0.201319	0.199182	0.203126	0.168283
2107	0.194087	0.195073	0.194416	0.201812	0.200497	0.201812	0.167132
2108	0.198524	0.195895	0.197538	0.201483	0.196717	0.203126	0.169269
2109	0.198031	0.195402	0.195237	0.186362	0.20477	0.201319	0.172392
2110	0.195402	0.198524	0.194909	0.198196	0.200825	0.207564	0.172556
2111	0.197867	0.194909	0.199182	0.195566	0.201154	0.197374	0.172227
2112	0.19573	0.195237	0.19721	0.200825	0.202633	0.197867	0.173378
2113	0.198031	0.196388	0.20099	0.19836	0.202798	0.19836	0.17535
2114	0.196223	0.197045	0.200332	0.200004	0.200004	0.198524	0.177322
2115	0.19458	0.199018	0.201976	0.198524	0.200825	0.19721	0.173049
2116	0.194087	0.197374	0.198524	0.197703	0.198524	0.199675	0.180281
2117	0.197538	0.197867	0.200661	0.197538	0.198853	0.201154	0.176501
2118	0.196881	0.195073	0.197374	0.20099	0.203126	0.198524	0.177815
2119	0.200332	0.196223	0.20099	0.198689	0.196717	0.200497	0.17272
2120	0.198689	0.196223	0.198196	0.196717	0.202962	0.198524	0.178802
2121	0.199675	0.20099	0.195073	0.196223	0.20214	0.205099	0.17798
2122	0.197045	0.196552	0.196388	0.201154	0.198689	0.198524	0.181103
2123	0.196717	0.201976	0.19573	0.200168	0.196552	0.200004	0.180116
2124	0.200004	0.196388	0.196388	0.200661	0.200825	0.196059	0.183239
2125	0.199839	0.195402	0.201812	0.199182	0.198196	0.199839	0.183404
2126	0.197374	0.19836	0.198524	0.197045	0.201647	0.194251	0.184225
2127	0.197867	0.200168	0.199675	0.195895	0.196717	0.19573	0.183897
2128	0.01576	0.201812	0.198689	0.199018	0.200332	0.195237	0.182417
2129	0.003597	0.196223	0.198524	0.200004	0.198524	0.199018	0.185047
2130	0.008857	0.19573	0.203126	0.199675	0.197867	0.197045	0.185047
2131	0.014773	0.19836	0.198524	0.201483	0.20214	0.19573	0.186033
2132	0.02447	0.200004	0.203126	0.194087	0.200332	0.197045	0.187348
2133	0.028744	0.198689	0.202305	0.201976	0.199675	0.194744	0.18932
2134	0.034825	0.199346	0.19721	0.196059	0.202305	0.19836	0.187348
2135	0.047645	0.196388	0.199182	0.202962	0.199675	0.196223	0.1908
2136	0.051096	0.198196	0.202469	0.204441	0.197045	0.19836	0.189978
2137	0.058164	0.202305	0.198853	0.204441	0.198524	0.195073	0.188334
2138	0.069669	0.201319	0.200497	0.198853	0.198853	0.197374	0.188499
2139	0.068518	0.198689	0.199839	0.202962	0.198031	0.195895	0.190471
2140	0.077065	0.201319	0.19836	0.202469	0.19721	0.199511	0.19195
2141	0.074928	0.195237	0.19573	0.199346	0.198689	0.192115	0.189156
2142	0.075421	0.196059	0.196388	0.200661	0.200168	0.195073	0.191457
2143	0.08216	0.20099	0.194251	0.199839	0.199675	0.189156	0.189156
2144	0.086433	0.197538	0.196881	0.198031	0.195566	0.191293	0.194416
2145	0.087419	0.19573	0.200497	0.199511	0.201154	0.195237	0.195566
2146	0.034825	0.197045	0.194909	0.202798	0.202469	0.193594	0.194744
2147	0.043371	0.200004	0.204113	0.19721	0.196881	0.19458	0.190635
2148	0.046659	0.201154	0.201319	0.201976	0.200168	0.193922	0.197374
2149	0.058328	0.198853	0.198689	0.199018	0.199511	0.194416	0.192443
2150	0.063094	0.198853	0.195895	0.196388	0.201647	0.191786	0.194416
2151	0.064902	0.198853	0.200168	0.198196	0.198689	0.197867	0.195566
2152	0.075257	0.193265	0.198196	0.200168	0.202633	0.193758	0.195237
2153	0.022005	0.200004	0.195895	0.198031	0.202962	0.193265	0.192772
2154	0.028579	0.200332	0.19836	0.199511	0.201647	0.184718	0.197703
2155	0.042057	0.200168	0.197703	0.200004	0.197703	0.192115	0.194909
2156	0.046494	0.199018	0.197374	0.200497	0.198031	0.193922	0.197374
2157	0.049453	0.200332	0.197867	0.201319	0.199346	0.19195	0.194251
2158	0.004255	0.201647	0.20099	0.199511	0.199018	0.1908	0.198031
2159	0.011158	0.201483	0.195566	0.20099	0.197045	0.19573	0.196552
2160	0.007542	0.20099	0.198031	0.198853	0.200497	0.192443	0.19573
2161	0.013787	0.197374	0.198031	0.201976	0.200168	0.191457	0.197538
2162	0.021512	0.197538	0.196881	0.200661	0.201319	0.194251	0.198196
2163	0.029401	0.199018	0.195566	0.202305	0.201976	0.190635	0.198031
2164	0.034496	0.202469	0.198853	0.197538	0.205263	0.190964	0.195073
2165	0.040249	0.198853	0.196223	0.200825	0.201319	0.185376	0.199839
2166	0.051425	0.202305	0.195566	0.195073	0.200825	0.192443	0.196717
2167	0.056027	0.197374	0.195402	0.201319	0.203291	0.18817	0.199675
2168	0.0603	0.198689	0.198196	0.200661	0.203455	0.191293	0.195895
2169	0.064574	0.206907	0.197867	0.199675	0.200825	0.189156	0.194416
2170	0.068847	0.198196	0.197703	0.201647	0.198853	0.189978	0.19721
2171	0.074599	0.203948	0.198853	0.202962	0.199182	0.189156	0.197538
2172	0.078544	0.202305	0.197045	0.207893	0.194087	0.188827	0.196059
2173	0.084625	0.201647	0.197374	0.201154	0.199182	0.191293	0.196717
2174	0.088405	0.199346	0.194251	0.201976	0.203784	0.188827	0.196059
2175	0.093172	0.206742	0.196717	0.198031	0.201154	0.187841	0.193101
2176	0.098431	0.199675	0.194416	0.204606	0.19836	0.186198	0.197045
2177	0.104348	0.204441	0.199346	0.198524	0.200168	0.187019	0.195402
2178	0.105663	0.205921	0.192936	0.20099	0.197867	0.184061	0.192936
2179	0.112073	0.200332	0.195402	0.201319	0.200497	0.186198	0.192772
2180	0.11273	0.199346	0.195237	0.200825	0.199018	0.184883	0.198689
2181	0.118483	0.201647	0.19458	0.198031	0.199675	0.191457	0.195402
2182	0.122756	0.198524	0.199839	0.199018	0.20362	0.190635	0.197538
2183	0.121112	0.200661	0.197867	0.200661	0.201483	0.190142	0.196223
2184	0.122592	0.199839	0.196388	0.199839	0.204441	0.189156	0.200004
2185	0.127194	0.199511	0.195402	0.200661	0.204441	0.191128	0.194087
2186	0.130974	0.200168	0.197703	0.200497	0.204113	0.188334	0.194909
2187	0.13311	0.201812	0.196717	0.202469	0.200497	0.188006	0.195895
2188	0.13837	0.198031	0.195073	0.202633	0.198031	0.187348	0.195237
2189	0.140671	0.199511	0.194909	0.197045	0.194909	0.188334	0.194416
2190	0.144944	0.200661	0.200004	0.199839	0.199675	0.189485	0.193758
2191	0.14215	0.200332	0.192279	0.203455	0.200004	0.187348	0.194087
2192	0.148396	0.199346	0.191293	0.200332	0.197538	0.18932	0.192608
2193	0.154312	0.197538	0.196881	0.202633	0.196881	0.18817	0.194909
2194	0.15119	0.199839	0.199511	0.200497	0.196552	0.189978	0.192443
2195	0.151354	0.197703	0.195566	0.202305	0.204934	0.188827	0.198524
2196	0.155134	0.199182	0.197045	0.199675	0.205427	0.190142	0.193758
2197	0.158093	0.198853	0.195895	0.200004	0.202469	0.190142	0.195402
2198	0.158586	0.200168	0.202305	0.202798	0.200497	0.19195	0.193429
2199	0.160229	0.196717	0.19195	0.202962	0.204441	0.189156	0.193594
2200	0.160722	0.201976	0.196881	0.205592	0.200661	0.191786	0.191128
2201	0.161215	0.199511	0.19458	0.20214	0.203126	0.194251	0.193429
2202	0.163516	0.200497	0.196223	0.200168	0.201483	0.189978	0.192608
2203	0.165817	0.197703	0.191457	0.200661	0.200168	0.186362	0.193922
2204	0.165817	0.197867	0.193594	0.201647	0.198196	0.193265	0.197867
2205	0.16779	0.199018	0.198031	0.198853	0.201154	0.187677	0.191786
2206	0.165489	0.198689	0.192115	0.200497	0.196059	0.1908	0.191786
2207	0.173707	0.199018	0.196552	0.199182	0.199346	0.193265	0.193594
2208	0.176336	0.20099	0.191457	0.199839	0.198689	0.189978	0.1908
2209	0.179952	0.198524	0.199018	0.20362	0.198524	0.19195	0.189485
2210	0.174364	0.198853	0.193758	0.201483	0.199511	0.18932	0.192115
2211	0.180938	0.201976	0.196388	0.200497	0.199839	0.193101	0.189485
2212	0.177158	0.197538	0.195566	0.199839	0.20099	0.187513	0.191457
2213	0.180116	0.199346	0.198196	0.199511	0.200332	0.193594	0.191293
2214	0.18061	0.197538	0.191128	0.197703	0.201154	0.191128	0.195402
2215	0.17272	0.19836	0.195895	0.19573	0.200004	0.191457	0.191457
2216	0.184883	0.19573	0.196059	0.198031	0.201976	0.193265	0.192279
2217	0.180774	0.197045	0.192772	0.194909	0.201483	0.194251	0.192279
2218	0.179295	0.195566	0.196059	0.195402	0.201647	0.190635	0.194416
2219	0.183568	0.196223	0.194416	0.194744	0.198031	0.193594	0.187513
2220	0.182746	0.199182	0.198196	0.200332	0.198689	0.188663	0.190142
2221	0.181596	0.199511	0.196388	0.192443	0.198853	0.194251	0.193922
2222	0.18439	0.198524	0.19721	0.188499	0.201812	0.192443	0.190471
2223	0.185047	0.197867	0.19573	0.197538	0.198689	0.193429	0.190964
2224	0.187184	0.197703	0.198524	0.193429	0.19836	0.193758	0.191457
2225	0.187019	0.197374	0.196223	0.201154	0.19836	0.189814	0.193594
2226	0.180281	0.200004	0.199018	0.196223	0.196881	0.191786	0.1908
2227	0.186691	0.199018	0.196881	0.199839	0.198524	0.192608	0.192608
2228	0.013294	0.203948	0.197867	0.197703	0.198196	0.193594	0.189814
2229	0.020526	0.200004	0.197374	0.20099	0.199018	0.191621	0.196552
2230	0.029401	0.19836	0.200497	0.199511	0.200004	0.193429	0.195237
2231	0.036304	0.199511	0.198196	0.19836	0.200497	0.191457	0.193758
2232	0.043043	0.196388	0.196223	0.197374	0.197867	0.189156	0.190307
2233	0.052575	0.196059	0.193429	0.199182	0.201319	0.189814	0.194251
2234	0.056191	0.197045	0.195566	0.19836	0.202469	0.194087	0.192115
2235	0.061944	0.195895	0.197538	0.196881	0.20362	0.192772	0.193429
2236	0.067532	0.196388	0.192936	0.201154	0.200332	0.192115	0.193265
2237	0.073449	0.196388	0.200168	0.194744	0.201812	0.191786	0.193594
2238	0.075421	0.193429	0.193594	0.201647	0.200332	0.192936	0.195073
2239	0.085447	0.193922	0.198689	0.19836	0.199018	0.195566	0.193922
2240	0.085283	0.194087	0.197703	0.20099	0.200661	0.191621	0.193265
2241	0.095144	0.198689	0.199511	0.199511	0.195895	0.195237	0.193101
2242	0.095637	0.198524	0.201976	0.197867	0.198689	0.193429	0.191128
2243	0.102047	0.19836	0.196552	0.199675	0.199182	0.193594	0.1908
2244	0.10632	0.193922	0.19836	0.198689	0.199018	0.190635	0.193101
2245	0.113223	0.198524	0.200497	0.199675	0.198031	0.194909	0.191293
2246	0.115031	0.198031	0.197374	0.199839	0.201483	0.194416	0.195237
2247	0.114045	0.196552	0.197045	0.197045	0.198689	0.196717	0.193101
2248	0.125879	0.198196	0.20099	0.201812	0.200168	0.192279	0.190142
2249	0.121605	0.194251	0.19721	0.201976	0.201319	0.193265	0.192772
2250	0.128673	0.197045	0.199346	0.194251	0.200825	0.193594	0.194251
2251	0.130152	0.199511	0.203126	0.198853	0.196223	0.187513	0.193265
2252	0.133768	0.200004	0.199839	0.200168	0.199346	0.190307	0.193101
2253	0.13574	0.196717	0.198524	0.197703	0.198853	0.189485	0.19458
2254	0.140178	0.197045	0.194416	0.196717	0.201647	0.191293	0.199182
2255	0.139356	0.196223	0.196881	0.200332	0.204606	0.191621	0.197374
2256	0.144287	0.196223	0.198689	0.197867	0.199018	0.192772	0.188334
2257	0.147409	0.197538	0.199182	0.200332	0.198689	0.190142	0.197045
2258	0.153326	0.197538	0.198853	0.199839	0.199018	0.192772	0.195237
2259	0.152669	0.196059	0.197538	0.199018	0.196552	0.192772	0.195073
2260	0.153162	0.196881	0.198853	0.201319	0.198689	0.190471	0.194416
2261	0.157107	0.194087	0.199511	0.201319	0.201154	0.193758	0.194251
2262	0.158421	0.200332	0.201154	0.203126	0.198853	0.192772	0.196059
2263	0.160229	0.199511	0.200825	0.199675	0.198031	0.193758	0.192443
2264	0.160065	0.196717	0.201319	0.200825	0.199839	0.195566	0.194087
2265	0.162037	0.19573	0.19836	0.198196	0.201154	0.191786	0.193758
2266	0.163845	0.19836	0.198524	0.197374	0.199182	0.194087	0.195237
2267	0.159243	0.193594	0.200825	0.197703	0.199511	0.193265	0.1908
2268	0.166475	0.195073	0.199511	0.20099	0.194909	0.191457	0.196552
2269	0.166311	0.195073	0.198524	0.192443	0.202305	0.192279	0.191293
2270	0.167297	0.195237	0.198031	0.194251	0.19836	0.188334	0.194744
2271	0.169762	0.196881	0.202469	0.200332	0.19836	0.194416	0.195895
2272	0.16894	0.194744	0.198524	0.205427	0.20214	0.190142	0.19458
2273	0.170419	0.197703	0.201976	0.199839	0.198853	0.191128	0.195073
2274	0.171899	0.19458	0.198689	0.201647	0.196223	0.189485	0.197045
2275	0.171406	0.196881	0.202469	0.202962	0.199018	0.193429	0.19458
2276	0.173707	0.196881	0.201319	0.201319	0.20099	0.189156	0.198524
2277	0.174857	0.202469	0.202962	0.201812	0.198689	0.190142	0.195895
2278	0.177815	0.198524	0.201483	0.200004	0.200332	0.191621	0.192443
2279	0.179952	0.19721	0.200661	0.202305	0.196223	0.19458	0.199839
2280	0.179788	0.193922	0.20099	0.201154	0.199839	0.193594	0.200661
2281	0.178637	0.199511	0.201812	0.198689	0.199839	0.197538	0.195402
2282	0.181596	0.197045	0.200661	0.203291	0.199018	0.194909	0.196717
2283	0.179952	0.19458	0.199675	0.201154	0.197703	0.19721	0.199839
2284	0.183239	0.19836	0.203126	0.201976	0.197538	0.191621	0.19458
2285	0.181431	0.19836	0.200004	0.200497	0.191457	0.193429	0.197045
2286	0.183897	0.196552	0.201154	0.200661	0.197703	0.192772	0.197538
2287	0.182911	0.19573	0.201647	0.199182	0.20099	0.192608	0.197703
2288	0.182746	0.199839	0.204277	0.199182	0.202469	0.18932	0.196059
2289	0.183732	0.196059	0.200004	0.202305	0.19721	0.192608	0.197045
2290	0.185212	0.198853	0.201812	0.198689	0.200168	0.190471	0.199018
2291	0.182911	0.195073	0.20099	0.20099	0.198853	0.18817	0.201319
2292	0.182911	0.198524	0.202305	0.198031	0.198031	0.192115	0.196388
2293	0.184718	0.196388	0.200661	0.202469	0.200332	0.186855	0.19721
2294	0.186198	0.194251	0.204277	0.200661	0.198689	0.19195	0.199018
2295	0.18554	0.195237	0.206578	0.201483	0.197374	0.18932	0.196059
2296	0.186691	0.200497	0.20214	0.201812	0.192772	0.193594	0.196717
2297	0.187677	0.196223	0.204277	0.200825	0.195402	0.188006	0.196717
2298	0.187841	0.197867	0.201976	0.200168	0.196059	0.191128	0.195566
2299	0.188006	0.199018	0.203948	0.20099	0.197867	0.192443	0.192936
2300	0.187841	0.194087	0.204934	0.202305	0.197703	0.191786	0.19573
2301	0.190142	0.196388	0.201483	0.195237	0.198031	0.193101	0.196388
2302	0.190307	0.19721	0.202633	0.198524	0.198031	0.195402	0.199839
2303	0.189814	0.198524	0.20362	0.19836	0.197045	0.194909	0.196059
2304	0.190964	0.197538	0.200004	0.194744	0.202798	0.189156	0.200168
2305	0.18932	0.197374	0.203291	0.201319	0.201483	0.190635	0.19836
2306	0.187019	0.196059	0.198853	0.201812	0.203291	0.189485	0.198689
2307	0.186855	0.199511	0.202962	0.200332	0.199182	0.189978	0.197867
2308	0.190471	0.198524	0.201812	0.199675	0.200004	0.18554	0.200497
2309	0.191293	0.197703	0.198689	0.198689	0.20099	0.190635	0.199346
2310	0.191621	0.204606	0.20477	0.201647	0.201319	0.182746	0.201154
2311	0.19195	0.195895	0.207893	0.201319	0.201483	0.186362	0.201483
2312	0.193594	0.200004	0.203291	0.201319	0.199839	0.186198	0.197538
2313	0.190964	0.200332	0.204113	0.201154	0.197867	0.185376	0.200661
2314	0.192115	0.196717	0.205756	0.19836	0.200004	0.187019	0.199346
2315	0.193265	0.200825	0.203948	0.20362	0.197867	0.186526	0.198853
2316	0.194087	0.199182	0.204606	0.197374	0.197045	0.187841	0.200497
2317	0.189156	0.196881	0.202633	0.20099	0.198031	0.187348	0.197867
2318	0.195566	0.200168	0.20477	0.20099	0.200004	0.187184	0.198853
2319	0.192115	0.198524	0.199346	0.199675	0.201483	0.183732	0.202469
2320	0.195402	0.200168	0.199346	0.201154	0.200497	0.187841	0.193922
2321	0.190471	0.197538	0.200661	0.19836	0.201319	0.18439	0.196881
2322	0.193101	0.196881	0.203784	0.198524	0.200497	0.183732	0.198689
2323	0.192279	0.19573	0.199839	0.203455	0.200004	0.181924	0.20099
2324	0.194251	0.197703	0.202305	0.198031	0.199511	0.18061	0.201319
2325	0.192279	0.196223	0.205099	0.197045	0.203126	0.180281	0.199346
2326	0.193101	0.19573	0.202798	0.201812	0.199182	0.183404	0.199182
2327	0.191621	0.195566	0.202305	0.201483	0.200332	0.179788	0.204277
2328	0.19573	0.195237	0.207235	0.20099	0.200332	0.183075	0.199511
2329	0.19458	0.19836	0.200332	0.201647	0.199018	0.17913	0.198689
2330	0.196388	0.19836	0.203291	0.200497	0.20099	0.178473	0.199182
2331	0.193265	0.199018	0.198689	0.19836	0.198853	0.18554	0.198853
2332	0.191457	0.18554	0.198853	0.204277	0.195402	0.176665	0.198031
2333	0.198524	0.20099	0.203291	0.199511	0.201812	0.182253	0.197703
2334	0.195237	0.196059	0.199346	0.201483	0.197045	0.181431	0.20099
2335	0.19836	0.20099	0.203948	0.199839	0.197374	0.181431	0.195237
2336	0.196717	0.197374	0.202962	0.199839	0.198853	0.178473	0.200004
2337	0.199182	0.196717	0.202469	0.205099	0.19836	0.180938	0.196388
2338	0.196881	0.19836	0.199839	0.200497	0.198689	0.180774	0.200168
2339	0.196881	0.200168	0.20855	0.200004	0.200004	0.178309	0.198689
2340	0.19721	0.198853	0.198689	0.199018	0.197538	0.175186	0.199182
2341	0.194251	0.198853	0.200497	0.202469	0.198524	0.175843	0.202469
2342	0.195073	0.192608	0.20099	0.198031	0.203455	0.176008	0.201976
2343	0.195073	0.190964	0.201976	0.201319	0.197045	0.17535	0.201647
2344	0.19721	0.191293	0.202633	0.199346	0.206742	0.172227	0.201647
2345	0.194087	0.193594	0.201976	0.202305	0.200332	0.174857	0.204934
2346	0.199511	0.196552	0.205592	0.200004	0.197374	0.172063	0.200661
2347	0.194909	0.195402	0.205099	0.201319	0.194251	0.172063	0.200825
2348	0.199018	0.197374	0.200332	0.205099	0.197045	0.174364	0.200004
2349	0.196552	0.192443	0.196717	0.200004	0.200497	0.176665	0.196881
2350	0.199839	0.197045	0.202798	0.201154	0.197538	0.169762	0.196717
2351	0.197867	0.194909	0.199675	0.204441	0.199346	0.170584	0.199675
2352	0.200497	0.197867	0.202798	0.202305	0.199675	0.164503	0.195566
2353	0.19836	0.195895	0.201812	0.20099	0.198853	0.160722	0.199675
2354	0.200004	0.197538	0.202962	0.204606	0.196881	0.169926	0.194909
2355	0.200004	0.194251	0.200825	0.20099	0.197867	0.16138	0.198853
2356	0.203455	0.196059	0.199346	0.19721	0.202633	0.164503	0.201319
2357	0.194416	0.194087	0.201483	0.198524	0.200004	0.163845	0.200497
2358	0.196059	0.196059	0.198689	0.200004	0.199018	0.161873	0.201647
2359	0.201319	0.194251	0.199839	0.203291	0.203126	0.163681	0.201319
2360	0.195402	0.19573	0.200004	0.201812	0.199346	0.162695	0.202798
2361	0.200004	0.19573	0.193758	0.197867	0.202962	0.160229	0.200004
2362	0.197703	0.192772	0.203126	0.201647	0.202469	0.156778	0.20099
2363	0.199675	0.196223	0.201319	0.199675	0.200497	0.158586	0.200004
2364	0.199182	0.196552	0.203291	0.202305	0.198524	0.156778	0.201483
2365	0.198853	0.19573	0.201647	0.200168	0.198689	0.155134	0.200332
2366	0.200661	0.19721	0.20099	0.20099	0.189156	0.152669	0.203455
2367	0.201483	0.19573	0.20099	0.198031	0.204113	0.154312	0.196388
2368	0.202962	0.196881	0.206085	0.201483	0.198853	0.151025	0.205099
2369	0.205263	0.19836	0.202469	0.204113	0.200004	0.153326	0.198689
2370	0.201647	0.196059	0.202469	0.200332	0.201319	0.152011	0.201647
2371	0.200168	0.199346	0.201154	0.197867	0.198524	0.153491	0.199182
2372	0.200497	0.193594	0.195566	0.200497	0.200004	0.149382	0.199018
2373	0.198031	0.198524	0.200661	0.204277	0.199839	0.146916	0.198853
2374	0.200825	0.194416	0.199839	0.201154	0.202305	0.146095	0.198853
2375	0.198031	0.195073	0.199018	0.200004	0.199839	0.14593	0.200004
2376	0.199511	0.192936	0.200004	0.200332	0.201319	0.143629	0.201976
2377	0.199346	0.192443	0.199839	0.199018	0.200497	0.141164	0.204934
2378	0.199511	0.191457	0.200825	0.198689	0.198689	0.13952	0.199018
2379	0.198524	0.193265	0.199675	0.200497	0.200332	0.141493	0.202469
2380	0.203455	0.197538	0.20214	0.20362	0.196552	0.139356	0.198689
2381	0.198689	0.194087	0.199675	0.20214	0.201319	0.141	0.196388
2382	0.199182	0.198031	0.203126	0.200332	0.20099	0.143794	0.199839
2383	0.199346	0.196552	0.20214	0.202305	0.19836	0.132946	0.199182
2384	0.197867	0.197538	0.199182	0.200332	0.200825	0.135411	0.19836
2385	0.200497	0.196552	0.203291	0.206249	0.205756	0.137055	0.196717
2386	0.203126	0.199018	0.201647	0.200004	0.199839	0.136398	0.199675
2387	0.199675	0.194744	0.201812	0.199839	0.20362	0.133932	0.199018
2388	0.202798	0.200004	0.198524	0.201812	0.200497	0.135576	0.199346
2389	0.202798	0.196223	0.199346	0.200168	0.198853	0.132289	0.199018
2390	0.19721	0.196717	0.198853	0.199675	0.195237	0.133275	0.200825
2391	0.199675	0.190307	0.199511	0.205099	0.200497	0.133439	0.20099
2392	0.199182	0.191128	0.199182	0.201483	0.198031	0.13574	0.20362
2393	0.200004	0.193101	0.199675	0.199675	0.199511	0.133275	0.200332
2394	0.19836	0.192115	0.199182	0.200825	0.201319	0.132782	0.201154
2395	0.200332	0.197867	0.200332	0.199346	0.19836	0.132289	0.200497
2396	0.199182	0.194744	0.197538	0.203455	0.197867	0.130809	0.204277
2397	0.20099	0.198196	0.200168	0.194744	0.196552	0.133275	0.199018
2398	0.195895	0.19573	0.199346	0.199346	0.200825	0.128344	0.202469
2399	0.201647	0.195895	0.197045	0.199018	0.203126	0.129659	0.201647
2400	0.201483	0.195237	0.197703	0.198689	0.202305	0.1267	0.197045
2401	0.201812	0.197538	0.199182	0.198689	0.199675	0.131138	0.199511
2402	0.202469	0.196223	0.199511	0.205099	0.199839	0.132946	0.200004
2403	0.205099	0.199675	0.199018	0.204441	0.199346	0.133275	0.195073
2404	0.201976	0.197703	0.204606	0.200168	0.196059	0.137712	0.195566
2405	0.20214	0.197703	0.198524	0.203126	0.199018	0.135247	0.19573
2406	0.202962	0.200004	0.19721	0.200168	0.198853	0.135904	0.199346
2407	0.200661	0.19721	0.197538	0.202633	0.201647	0.137548	0.200332
2408	0.197867	0.19836	0.197045	0.198031	0.200332	0.13196	0.198524
2409	0.198031	0.195237	0.195073	0.201483	0.200332	0.136398	0.202305
2410	0.201319	0.198524	0.196881	0.201976	0.202633	0.139192	0.199675
2411	0.202798	0.192115	0.196552	0.199182	0.199346	0.13574	0.200825
2412	0.201647	0.195566	0.198031	0.200825	0.19836	0.141493	0.199839
2413	0.201483	0.193922	0.195237	0.204277	0.200004	0.137055	0.20362
2414	0.203455	0.198031	0.19836	0.19836	0.202633	0.151518	0.201647
2415	0.20099	0.19573	0.197374	0.19836	0.199839	0.140506	0.202633
2416	0.200825	0.198031	0.199511	0.200004	0.198196	0.147903	0.199839
2417	0.202305	0.198853	0.199182	0.200332	0.198524	0.147081	0.200825
2418	0.205099	0.20099	0.20214	0.205427	0.197867	0.149217	0.197703
2419	0.206742	0.200825	0.201647	0.19195	0.202469	0.154148	0.202305
2420	0.201319	0.201647	0.199182	0.198524	0.197703	0.155463	0.202305
2421	0.201976	0.201812	0.199675	0.199675	0.201976	0.159736	0.20214
2422	0.201319	0.200004	0.198196	0.197703	0.200497	0.158914	0.199182
2423	0.204441	0.199511	0.198853	0.195895	0.201647	0.160394	0.199346
2424	0.201319	0.197703	0.200332	0.20214	0.199675	0.165324	0.199839
2425	0.202962	0.199018	0.195895	0.198031	0.198524	0.167954	0.20099
2426	0.201812	0.197374	0.197867	0.202305	0.200825	0.168118	0.20362
2427	0.204277	0.199511	0.198853	0.19836	0.19836	0.173214	0.199018
2428	0.203126	0.200497	0.197703	0.204277	0.198689	0.174693	0.200168
2429	0.204113	0.195402	0.198031	0.202469	0.199346	0.182911	0.201154
2430	0.208879	0.195073	0.19721	0.199675	0.201647	0.182417	0.201319
2431	0.202469	0.20362	0.202469	0.197703	0.198689	0.183404	0.198689
2432	0.204934	0.198524	0.199182	0.199182	0.204441	0.186362	0.200004
2433	0.204113	0.20099	0.198196	0.200825	0.198853	0.191128	0.199018
2434	0.202305	0.200168	0.199839	0.198031	0.20099	0.187513	0.200825
2435	0.205592	0.199839	0.200497	0.204441	0.199675	0.193594	0.202633
2436	0.206578	0.200004	0.19836	0.198853	0.200497	0.19573	0.202962
2437	0.205263	0.20099	0.198524	0.201154	0.202798	0.195566	0.201483
2438	0.204113	0.202633	0.197538	0.200661	0.200004	0.201976	0.200004
2439	0.206085	0.201319	0.197703	0.204113	0.198689	0.207071	0.201483
2440	0.207564	0.201319	0.197703	0.197703	0.202469	0.207235	0.195073
2441	0.201976	0.195237	0.195566	0.199839	0.201812	0.209865	0.20362
2442	0.205756	0.197045	0.197703	0.199839	0.201154	0.21874	0.198853
2443	0.205921	0.198689	0.196223	0.200004	0.198196	0.211673	0.202305
2444	0.207235	0.199182	0.198196	0.201319	0.199018	0.218412	0.199018
2445	0.206249	0.196552	0.196223	0.202798	0.198853	0.218247	0.202798
2446	0.206249	0.198196	0.197867	0.201154	0.202798	0.222356	0.201647
2447	0.205263	0.201812	0.195566	0.20099	0.19836	0.223178	0.201483
2448	0.206249	0.202798	0.199675	0.197538	0.196717	0.220384	0.19836
2449	0.203126	0.199182	0.200004	0.19836	0.204441	0.223342	0.198689
2450	0.203948	0.201812	0.201647	0.201976	0.200168	0.231232	0.201154
2451	0.207235	0.201319	0.19721	0.186526	0.202962	0.229752	0.198689
2452	0.205921	0.20214	0.199182	0.193758	0.202469	0.232546	0.196552
2453	0.205263	0.206249	0.194744	0.198689	0.198196	0.238628	0.197374
2454	0.207235	0.201647	0.194087	0.199675	0.199182	0.235834	0.201812
2455	0.206742	0.199182	0.200004	0.199018	0.202469	0.237148	0.199346
2456	0.206578	0.202469	0.192772	0.201812	0.198524	0.242243	0.200497
2457	0.209701	0.201483	0.197374	0.200825	0.198031	0.2406	0.203126
2458	0.2074	0.200332	0.196552	0.204113	0.197703	0.240271	0.203126
2459	0.206907	0.201647	0.19721	0.199839	0.194251	0.246188	0.201976
2460	0.206085	0.198031	0.197374	0.203126	0.203126	0.245695	0.199182
2461	0.206742	0.202798	0.200497	0.200661	0.200332	0.250626	0.201154
2462	0.206742	0.202962	0.194416	0.19458	0.199511	0.249639	0.200004
2463	0.205427	0.201154	0.191786	0.198031	0.200168	0.254899	0.198853
2464	0.203948	0.200004	0.19458	0.199346	0.201976	0.249968	0.200825
2465	0.203784	0.201319	0.197045	0.19836	0.198853	0.251776	0.201319
2466	0.207564	0.197538	0.190635	0.196717	0.203291	0.255063	0.200825
2467	0.207564	0.198853	0.195073	0.199018	0.202305	0.254899	0.20099
2468	0.206578	0.199839	0.203455	0.199182	0.201483	0.256707	0.201319
2469	0.207728	0.199675	0.196388	0.197703	0.201154	0.257364	0.199839
2470	0.20099	0.201976	0.201319	0.204441	0.197703	0.2572	0.203291
2471	0.203948	0.201976	0.196552	0.202798	0.20099	0.262459	0.200825
2472	0.203948	0.200661	0.200168	0.202962	0.199182	0.263445	0.198524
2473	0.20477	0.199018	0.19458	0.207564	0.200332	0.263117	0.202962
2474	0.205756	0.201812	0.200004	0.201976	0.199182	0.263445	0.200497
2475	0.203455	0.199018	0.196717	0.203784	0.196223	0.264432	0.20099
2476	0.206578	0.201812	0.197538	0.199675	0.196881	0.266897	0.200661
2477	0.20477	0.197045	0.197374	0.198689	0.200168	0.26739	0.20099
2478	0.205921	0.201319	0.196552	0.202798	0.199182	0.26361	0.204606
2479	0.205921	0.204113	0.197538	0.199018	0.200332	0.263117	0.19721
2480	0.208222	0.199346	0.201483	0.198524	0.200825	0.269198	0.201976
2481	0.204441	0.194251	0.199839	0.199182	0.199346	0.267883	0.196388
2482	0.206578	0.199182	0.198196	0.202305	0.199511	0.271992	0.199346
2483	0.2074	0.201483	0.195895	0.200497	0.202469	0.273964	0.203948
2484	0.203948	0.197867	0.196717	0.201154	0.200661	0.275937	0.204277
2485	0.207235	0.200004	0.199675	0.197538	0.20099	0.272485	0.20099
2486	0.201976	0.198196	0.197538	0.202305	0.203291	0.271663	0.20362
2487	0.209043	0.197867	0.197867	0.199018	0.202469	0.274457	0.201319
2488	0.203126	0.199346	0.192608	0.202633	0.197703	0.273307	0.201319
2489	0.202305	0.195073	0.198689	0.201483	0.200168	0.275279	0.19721
2490	0.205921	0.198031	0.196717	0.200497	0.199018	0.273636	0.200661
2491	0.207893	0.199018	0.200168	0.198524	0.19573	0.273964	0.199018
2492	0.200332	0.191128	0.197867	0.201976	0.196881	0.273307	0.190471
2493	0.203948	0.201647	0.199018	0.200825	0.196881	0.275608	0.197045
2494	0.20477	0.19721	0.19836	0.200497	0.201154	0.273143	0.206907
2495	0.205756	0.201976	0.198196	0.20099	0.196552	0.275444	0.198031
2496	0.20362	0.195895	0.197867	0.199675	0.199018	0.2738	0.199182
2497	0.203784	0.200332	0.196717	0.204606	0.202305	0.274622	0.200497
2498	0.207893	0.200661	0.19836	0.201319	0.199839	0.27002	0.196552
2499	0.204277	0.196881	0.193594	0.198524	0.202469	0.276758	0.200168
