Ladekurvenmessung

Zeit: 2018_05_04 09.00.31

Info: FVA3, v = 0.382, T = 23, F = 20, h = 314.9

Ladewiderstand[Ohm]: 1012700

Störkapazität[pF]: 0.000000

Entladezeit[ms]: 200

Abtastrate[Hz]: 250000

Anzahl der Messwerte: 2500.000000

Verzögerung[ms]: 3

Ladespannung[V]: 0.200000


	Kurve_1	Kurve_2	Kurve_3	Kurve_4	Kurve_5
0	-0.001498	0.001296	0.001789	0.002775	-0.000347
1	-0.000183	0.003268	0.002447	0.00409	0.002118
2	-0.002155	0.000967	0.005076	0.003268	0.001954
3	0.001625	0.003268	0.001789	0.002447	0.00031
4	0.000474	-0.00347	0.002775	0.000639	0.001789
5	0.001296	0.000803	-0.000841	-0.000347	0.003268
6	0.000803	-0.000512	0.001132	0.001296	-0.000841
7	0.000639	0.002775	-0.000347	0.000474	0.002447
8	0.001132	-1.9e-05	0.00146	0.000146	0.00294
9	0.000474	0.003926	-1.9e-05	0.003926	0.000967
10	0.001789	0.001789	0.000639	0.005734	0.002775
11	0.00146	0.001789	-0.001991	0.00294	0.002775
12	0.001132	0.00146	0.000803	0.003433	0.001625
13	-1.9e-05	-0.001169	0.002118	0.003597	0.000474
14	0.001296	0.000474	0.000146	0.004748	-0.000183
15	-0.001827	0.001132	-0.002484	0.00031	0.003104
16	-0.001498	-0.002155	0.001789	0.003761	0.003926
17	-0.000347	-0.000347	0.003597	-1.9e-05	0.00031
18	-1.9e-05	-1.9e-05	0.000639	0.002118	0.002775
19	-0.002813	0.00031	0.003761	-0.001498	0.00146
20	0.00146	0.003104	0.001625	0.000967	0.002282
21	-0.001334	0.003926	0.001789	-0.00232	0.00294
22	-0.001169	0.003268	0.001296	0.00146	0.005405
23	-0.001498	0.002282	-0.000512	0.001625	-0.000512
24	-0.001005	0.000803	0.000146	0.003597	0.003268
25	0.001132	-1.9e-05	0.000146	0.001132	-0.001498
26	-0.000676	0.001789	-0.001169	-0.000183	0.001625
27	-0.001498	0.000639	0.000474	0.002447	0.000967
28	0.000639	0.002282	-0.001662	0.001625	-0.00232
29	-0.001662	0.00146	0.000967	-0.000347	0.003433
30	-0.002648	0.001789	0.000967	0.000967	0.001132
31	0.000474	0.003926	-0.000183	0.002775	0.00146
32	-0.001169	0.003104	0.003104	0.001296	0.000803
33	-0.003963	0.002611	0.001625	0.003268	0.003597
34	-0.003799	0.002282	0.003268	0.001789	-0.000183
35	-1.9e-05	0.001132	-0.001334	0.00294	-0.000183
36	-0.001827	-0.000841	0.002282	0.00031	0.001132
37	-0.000183	-0.000676	-0.001498	-0.002155	0.003104
38	-0.002155	-0.001005	-0.002155	0.000639	-0.000347
39	0.000639	0.003433	-0.000183	-0.001334	-0.002813
40	-0.001334	-0.001334	0.001789	-0.001169	-0.001991
41	-0.002648	0.001132	-0.002484	-0.003635	0.000639
42	-0.001005	0.001296	0.002447	0.000803	-0.002813
43	-0.001662	0.000639	-0.000347	-0.000676	-0.00347
44	-0.00347	0.00409	0.003597	0.00146	0.001625
45	-0.001498	0.001132	0.000639	0.000803	-0.000512
46	0.001954	0.002611	0.000803	0.002282	0.002282
47	-0.001334	0.002118	0.00146	0.003104	0.001954
48	0.001296	0.001954	-0.00232	0.002118	0.004748
49	-0.004128	0.000639	0.00146	0.000146	0.002775
50	0.001625	0.001296	0.000474	0.003104	0.000146
51	-0.002484	-0.000183	0.001625	0.00294	0.001625
52	-0.003306	0.001625	-0.000841	-0.000183	0.003104
53	-0.003306	0.000146	0.003268	0.000639	0.000803
54	-0.002813	0.002611	0.001132	-0.000512	0.002282
55	-0.001827	-0.000512	0.00146	0.000146	0.00294
56	-0.003635	0.001132	0.001132	0.00031	0.00031
57	-0.000676	0.00146	0.000967	0.003104	0.000639
58	-0.001827	0.002282	-0.002977	-0.000512	-0.000183
59	-0.001334	-0.001498	-0.000841	-0.00232	-0.000676
60	-0.002155	0.000146	-0.001827	-0.001498	0.001954
61	0.001296	0.000639	-0.001005	0.000803	-0.000512
62	-0.002648	-0.000512	-0.002813	0.001296	0.00031
63	0.000146	0.003597	-0.002813	0.003268	-0.000183
64	-0.001662	-0.000512	0.000639	0.00146	-0.002484
65	0.00146	-0.000183	-0.000841	0.002775	0.002611
66	-0.001169	-0.00232	-0.000841	0.001954	0.000146
67	0.001296	0.000146	0.000967	0.002447	0.001789
68	0.001625	-0.002155	0.001954	0.004419	-0.000347
69	0.000967	-0.001334	0.004419	-0.002648	0.002118
70	0.00031	-0.004785	0.002447	0.001132	0.000474
71	-0.002155	0.004255	0.002282	-0.000512	0.00146
72	-0.000183	0.000146	0.003104	0.00146	0.001789
73	-0.002648	0.000146	0.001625	0.001132	-0.001498
74	0.000146	0.000967	-0.000512	-0.001662	-0.001662
75	-0.003635	0.000474	0.001296	0.001789	-0.001827
76	0.000967	0.001625	0.000639	0.002775	-0.000347
77	-0.000347	0.000803	-0.000183	0.00294	0.002118
78	-0.001662	0.002282	0.000474	0.000639	-0.000347
79	-0.000841	0.000146	0.001625	0.002282	-0.000841
80	0.001132	0.002611	-0.000676	-0.002813	-0.000347
81	-0.000183	0.002118	0.002282	0.001954	-0.000512
82	0.001132	0.004419	-0.000347	0.000967	-0.001827
83	-0.00232	0.00146	0.00294	0.001132	0.000146
84	-0.001498	0.001296	0.00031	-0.001169	0.001789
85	-0.001498	0.001132	-0.000183	0.001296	0.00146
86	-0.000841	0.001132	0.00031	0.00146	0.000146
87	0.002611	-0.001169	0.002282	-0.001334	0.000967
88	-0.001169	0.001625	-0.003306	-0.001827	0.002447
89	-0.00232	-0.000347	0.003104	-1.9e-05	0.00031
90	-0.001498	-0.001827	0.00409	-0.00232	-0.00232
91	-0.001005	-0.000512	-0.000512	-0.003306	-0.000841
92	-0.003306	-0.000676	0.001789	-0.003142	-0.000841
93	0.001625	0.00146	0.001296	0.001296	-0.000183
94	0.001625	0.001132	-0.002484	-0.000676	0.001132
95	-1.9e-05	-0.002648	-0.002648	0.001296	0.001296
96	0.001954	0.003268	-0.001169	0.001789	0.000146
97	0.001132	0.006227	-0.000841	0.001789	0.002118
98	0.002775	0.003104	0.000639	0.002447	-0.000841
99	0.000639	0.00294	0.000474	0.001296	0.001132
100	-0.001827	0.001954	0.00031	0.003433	-0.002977
101	0.002611	0.001789	0.000474	0.002118	0.001296
102	0.002447	-0.000347	0.00031	0.000146	0.001132
103	-0.002648	0.001789	0.00031	-0.000512	0.001625
104	-0.000347	-0.001005	0.001954	0.000803	0.001132
105	-0.001991	-0.000841	0.001132	-1.9e-05	0.000967
106	-0.001169	0.002282	0.002118	0.001789	0.002447
107	-0.001827	0.001625	-0.001005	-0.001169	0.001296
108	0.00031	0.000803	0.000474	0.003761	0.002118
109	-0.002813	-0.000512	0.002447	0.001789	0.000803
110	0.000803	0.002282	-0.000183	-0.000841	0.003926
111	-0.002648	-0.000183	0.000967	-0.00232	0.000474
112	0.000639	0.000639	-0.001169	0.00031	0.000639
113	0.000146	-0.001005	-0.000676	-0.000512	-0.004128
114	0.000146	0.001954	0.00031	0.000474	-0.001169
115	0.001132	-0.001827	0.000803	0.002118	-0.002648
116	0.006391	0.001296	-0.00232	0.001789	0.000803
117	0.001625	-0.001991	0.000639	0.00031	-0.000347
118	0.001132	0.002282	-0.000347	0.000474	0.00294
119	0.004748	0.001954	0.000639	0.001625	0.001296
120	0.000639	0.000146	0.000803	-0.000183	0.000803
121	-1.9e-05	-0.002648	0.002611	0.002611	0.00146
122	0.000146	-0.001827	0.00294	-0.001334	-0.000347
123	0.000146	-0.000512	0.004748	0.002611	-0.001498
124	-0.001662	-0.000347	0.002282	0.001625	-0.002155
125	0.000967	0.001132	0.001625	-0.000183	0.000146
126	-0.001334	-0.001334	-0.000183	-0.000347	-0.000841
127	0.00294	0.003268	0.001132	0.00294	-0.000347
128	-0.002484	-0.000676	0.00031	0.001625	0.001625
129	-0.001334	0.000967	0.000146	-1.9e-05	0.001132
130	-0.001169	0.004255	0.00146	0.00146	-0.001827
131	0.000967	0.004912	0.000146	0.002447	0.000474
132	0.000803	0.00294	0.002447	0.002775	-0.000676
133	0.001954	0.002775	-1.9e-05	-0.001498	0.000639
134	0.000474	0.001789	0.000967	-0.002155	-0.000841
135	0.000146	0.002118	-0.000676	-0.00347	-1.9e-05
136	0.002775	0.001789	0.000639	0.00146	0.00031
137	0.000639	0.00031	0.001789	-0.000841	-0.000347
138	0.003761	0.001132	0.000967	-0.00232	0.002611
139	-0.001662	-0.001005	0.005405	-0.002977	0.001789
140	0.000474	0.000967	0.001625	0.002282	0.000639
141	-0.001662	0.000639	0.003268	0.005405	-0.001498
142	0.002447	0.000967	0.002447	-0.000183	0.001789
143	-0.001662	-0.001334	0.002611	0.002447	-1.9e-05
144	-0.000512	0.003433	0.000967	0.001296	0.000967
145	0.001132	0.000639	0.003597	-0.000183	-0.000347
146	0.001296	-0.000512	0.000803	-0.000183	0.000146
147	-0.000183	0.003268	0.004419	0.000146	-0.000347
148	-0.000841	0.002611	0.000474	-0.000347	0.001625
149	0.001625	0.000967	0.002282	0.000474	-0.00347
150	-0.001498	0.000639	-0.000183	0.000639	-0.005443
151	-0.001827	0.003104	-0.00347	0.000639	0.002775
152	0.001132	0.00031	0.000146	-0.000183	-0.000183
153	0.002282	-0.00232	0.000639	0.003433	0.000967
154	0.001954	0.000803	0.001132	-0.000676	0.00146
155	0.000803	0.003433	0.00146	0.00146	-0.000183
156	0.000146	-0.000512	0.00294	0.000474	-1.9e-05
157	0.002775	-0.002155	-0.000183	0.001625	0.002775
158	0.001296	-0.001827	0.001954	0.001625	0.00031
159	0.00031	0.001132	-0.000183	0.001296	0.002118
160	-0.000183	-0.002155	0.002282	0.001954	-0.001169
161	0.00146	0.000474	0.00146	0.004583	0.001625
162	0.000967	-0.000183	0.000474	0.004912	0.001132
163	-0.000183	0.000967	-0.004292	0.002118	-0.000512
164	-1.9e-05	-0.001662	-0.001662	-0.000512	-0.001662
165	0.001789	0.000803	-0.000512	-0.001827	-0.001005
166	0.002118	0.000967	-0.001498	0.001789	0.002282
167	0.000967	0.000639	-0.000841	-0.001169	-0.002484
168	0.001132	-0.000841	-0.001498	-0.000183	-0.001827
169	0.000639	-0.000347	0.00031	-0.000512	0.000639
170	0.001954	0.001789	-0.001498	0.000639	0.001132
171	-0.000512	-0.003963	0.000967	0.000474	-0.001334
172	0.001789	0.000639	0.003268	0.002775	-0.000512
173	0.000474	-1.9e-05	0.002775	0.002775	0.004748
174	0.001296	0.001296	0.003268	0.001625	0.002775
175	0.001789	0.001296	0.006227	0.002447	0.000146
176	-1.9e-05	0.001954	0.001625	0.000639	0.005569
177	-1.9e-05	0.000474	0.003268	0.001296	0.000146
178	-1.9e-05	0.002118	0.002611	-0.001005	0.000967
179	0.001132	0.000639	0.001954	0.000146	0.000967
180	0.000639	0.002118	0.000474	0.000474	-0.000512
181	0.001625	0.002611	0.002118	0.00031	0.00031
182	-0.001005	0.000474	-1.9e-05	-0.000841	-0.000183
183	0.00031	0.001296	-0.000841	0.002447	0.000146
184	0.00294	0.003597	-0.000512	0.000146	0.000967
185	0.00294	0.00031	0.000639	-0.001169	0.000803
186	0.000639	0.001625	0.000146	-0.001334	-0.00347
187	0.000803	0.003104	-1.9e-05	0.00294	0.001789
188	0.000803	0.002447	0.006062	0.000474	-0.002648
189	0.001625	0.001132	0.003433	-0.00347	0.001132
190	0.00146	-1.9e-05	0.000146	0.000474	-0.001991
191	0.001296	0.001789	0.001789	-0.001334	0.001132
192	0.001954	0.000474	0.002775	0.001625	-1.9e-05
193	0.000146	0.001625	0.001625	0.002447	-0.003142
194	0.000146	-0.001334	0.002447	0.000967	0.000967
195	0.00031	0.001789	-1.9e-05	0.003433	0.001625
196	0.000474	-0.000183	0.007213	0.002447	0.001954
197	-0.00347	0.000639	-0.00232	-0.000183	-0.000183
198	-0.003142	0.002447	0.000146	-0.001169	-0.001827
199	-0.004128	0.00146	0.001132	-0.005278	-0.001169
200	0.001296	0.001296	-1.9e-05	0.002775	0.000146
201	-0.00347	0.000967	-0.001827	0.001296	-1.9e-05
202	0.003597	-1.9e-05	0.000967	0.001132	0.000474
203	0.002447	0.000474	0.001789	0.001132	-0.001498
204	0.000967	0.003597	-0.001827	0.001296	0.001296
205	0.002118	-0.000183	0.002118	0.00294	-1.9e-05
206	0.001625	0.002611	0.000474	0.003268	0.001132
207	-0.001005	0.002118	0.000967	0.002118	-0.001005
208	0.002447	-0.001498	0.001296	0.002118	0.000474
209	0.002118	0.006062	0.002775	0.002447	0.00146
210	0.003597	0.000474	0.000474	-0.003306	-0.000347
211	0.001296	-0.001662	0.002611	0.000803	0.001625
212	-0.000347	0.001296	-0.001334	-1.9e-05	0.00146
213	0.001954	-0.001827	-0.001005	0.000967	0.003761
214	-0.000347	-1.9e-05	-0.001005	0.001954	-0.000512
215	-0.001827	-0.002648	-0.00232	-0.004785	-0.001498
216	-0.003142	-0.003963	0.00146	0.001132	-0.000512
217	-0.001169	0.001954	-0.000512	0.00146	0.000803
218	-0.002155	0.003761	0.00146	-0.000841	-0.000512
219	-0.000347	0.002611	0.000803	-0.001169	0.001789
220	-0.000347	0.00031	0.001132	0.001296	-0.001005
221	0.001625	0.00409	-0.000347	-0.007086	0.000639
222	0.000639	0.001296	0.006062	-0.000841	-0.001827
223	0.002447	0.003433	0.002447	0.000803	-0.001662
224	0.000967	0.001132	0.002447	0.000146	0.000967
225	0.001296	0.003433	0.000146	0.000474	0.002118
226	0.000803	0.000803	0.003268	0.002282	0.002282
227	0.000474	0.002775	0.001296	0.000146	0.001132
228	0.002282	0.00146	0.002447	0.002611	-0.003635
229	-0.000183	0.000639	0.002282	-0.001005	0.002118
230	0.001954	0.000803	0.001296	0.000803	0.001132
231	0.000639	0.00294	0.00031	0.00031	-0.000841
232	0.001789	0.00031	0.001625	-0.009058	0.002611
233	-0.003142	-0.001498	0.002447	-0.001827	-0.000676
234	-0.000183	-0.000347	-1.9e-05	-0.000347	0.000803
235	-0.002155	-0.001334	0.001789	0.002282	-0.001334
236	-0.002813	0.001954	0.000146	-0.004785	-1.9e-05
237	-0.000183	0.000967	0.00294	-0.000676	-0.004292
238	-0.000512	0.000967	0.002611	-0.000347	-0.000512
239	-0.001827	-0.000676	0.003104	-1.9e-05	-0.00347
240	0.001789	0.003433	0.000639	-0.000676	-0.003142
241	0.000803	0.001954	0.002775	0.000967	-0.001827
242	0.003268	0.001954	0.001625	0.000967	-0.001169
243	0.001296	0.003433	0.002118	-0.003963	-0.002648
244	0.000474	0.00031	0.001954	-0.001498	-1.9e-05
245	0.000803	0.000474	0.001132	0.001132	-0.000183
246	-0.002648	-0.000512	-0.001662	0.000803	-1.9e-05
247	-0.006922	-0.002813	-0.001005	-0.000676	0.001789
248	-0.005936	0.000474	-0.002155	0.002118	-0.005278
249	-0.002977	-0.000183	-0.001169	0.000639	0.005076
250	-0.001005	-0.001334	-0.001005	0.00409	-0.000841
251	-0.001005	0.00146	0.001954	0.000474	0.00146
252	0.000474	-0.000676	0.001954	-0.001334	-0.000512
253	0.003597	0.000639	0.000803	0.000639	0.001625
254	0.003104	0.002775	0.001789	-0.001334	-0.000676
255	0.001789	0.000803	-0.000676	0.00146	-0.001005
256	0.001296	0.000639	0.00146	0.000803	-0.001498
257	0.00146	0.002611	0.000639	-0.000347	-0.001005
258	-0.005771	0.000474	0.000639	0.001625	-0.001662
259	-0.000347	0.005898	-0.000676	0.000639	-0.001498
260	0.001789	0.002611	0.003433	0.003433	0.001789
261	0.000146	0.000639	0.002118	0.001954	-0.000183
262	0.001296	-0.000347	-0.000347	0.002282	0.002282
263	0.001789	-0.001498	0.00146	0.000639	0.000146
264	0.003104	-0.000347	-0.001334	0.001296	0.005405
265	0.001954	-0.001662	0.000639	-0.001991	-0.003306
266	0.004255	-0.002155	0.000639	-0.004292	0.001789
267	0.000474	-0.001005	0.001625	-0.000676	0.000146
268	-0.000347	0.002611	-1.9e-05	-0.000183	0.000803
269	-0.010045	-1.9e-05	0.000803	-0.000676	0.000803
270	-0.001827	0.002611	0.000474	-0.001005	0.000146
271	-0.001005	0.000803	0.001789	-0.001662	-1.9e-05
272	-0.000183	0.001954	0.002118	0.001296	-0.000512
273	0.001625	0.001296	0.003268	0.003433	-0.001662
274	-0.001991	0.00294	0.000803	0.000474	-0.000841
275	0.00409	0.002775	0.000803	0.000146	-0.000183
276	0.00146	0.002447	0.001625	0.004748	-0.004621
277	0.00294	0.002282	-0.000183	-0.000512	-0.001498
278	-0.000183	0.000803	-0.000183	-0.000183	-0.003306
279	0.00294	0.00146	0.000474	0.002118	-0.001005
280	-0.005936	-0.000183	0.000474	-1.9e-05	-0.001005
281	-1.9e-05	-0.001991	0.000474	0.000967	0.00031
282	0.00031	-0.00347	0.002447	0.00146	0.002447
283	-0.001498	-0.001827	0.00031	0.001132	0.00146
284	0.000474	0.000639	0.003597	-0.001005	0.002118
285	-0.003799	0.000639	0.00031	-0.000676	0.001625
286	0.000803	-0.000347	0.00146	-0.000512	0.000803
287	-0.000183	0.00031	0.000967	0.005898	-0.000512
288	0.000639	0.00031	0.005241	-0.002648	-0.001498
289	-0.001991	-0.000183	0.002118	-0.000841	-0.001005
290	0.001789	0.000474	0.00031	0.003597	-0.003963
291	0.000146	0.00409	0.000146	0.00031	-0.002977
292	-0.000183	0.002282	-0.000676	0.001132	-0.000512
293	0.00031	0.002775	0.003104	-0.000512	0.00031
294	0.000967	0.005734	-1.9e-05	0.002282	0.001789
295	0.000639	-0.000676	0.000639	-1.9e-05	-1.9e-05
296	0.002118	-0.003142	0.00031	0.00146	0.002118
297	0.001296	-0.002484	0.000474	0.000474	-0.000183
298	0.001132	-0.001662	-0.000347	0.008035	0.002118
299	-0.001498	-0.001169	0.004583	-1.9e-05	0.000967
300	0.002447	-0.001334	-0.000347	0.00031	0.003268
301	-0.003142	-0.001827	0.001954	-0.001169	-0.000512
302	0.001789	0.000967	0.000803	0.000639	0.001625
303	-0.001498	0.00031	0.001296	0.00146	0.002447
304	-0.002155	0.001954	0.003104	-0.000347	0.000474
305	0.001296	0.000639	0.001132	0.002611	-0.002648
306	-0.00347	0.000639	-0.000183	-1.9e-05	0.000474
307	0.003597	0.000803	-1.9e-05	-0.000347	0.001789
308	0.001132	0.003104	-0.00347	0.001625	-0.000347
309	0.00146	0.004748	0.001625	0.003268	-0.000183
310	0.001954	0.001132	-0.00232	-0.001334	-0.000841
311	0.001789	0.002611	-0.000676	0.000803	0.002611
312	-0.001827	-0.001005	-0.000512	-0.001334	0.000146
313	0.00672	0.00146	-0.001334	0.002775	0.000474
314	0.000967	0.000474	0.001625	0.00294	0.002611
315	0.002118	0.001132	0.000146	0.003104	0.006391
316	-0.000183	-0.000347	0.002118	0.006884	0.002282
317	0.000146	-0.00232	-0.001334	0.002447	0.00294
318	0.003597	-0.00232	0.000474	0.00146	0.002118
319	0.000146	0.000474	0.003104	-0.000512	0.004748
320	0.000967	-0.004456	0.000639	0.002775	0.000803
321	-0.000183	-0.000676	0.000146	0.000146	-0.001334
322	0.00146	0.000967	0.003433	0.000146	-0.003142
323	-0.001827	-1.9e-05	0.00031	-0.001334	-0.001005
324	0.005734	0.004748	0.002282	0.000967	0.000639
325	-0.000183	0.001789	0.000474	-0.001827	-0.001827
326	0.001132	0.003597	0.00031	-0.00347	-0.001991
327	0.000803	-0.001827	0.002447	0.000146	-0.004128
328	0.00146	-1.9e-05	-0.001005	0.002282	0.001789
329	-0.001827	0.00031	0.002118	0.001296	0.000474
330	-0.000347	0.00031	-0.000512	0.001296	0.002447
331	0.00146	-0.001827	-0.001498	0.002118	0.00031
332	-0.001334	0.001296	-0.000841	-0.001334	0.001954
333	0.000967	-1.9e-05	0.001625	0.001132	0.000474
334	-0.000183	-1.9e-05	0.000967	0.001789	0.003268
335	0.002611	-0.000183	0.001954	0.003761	0.004419
336	-0.002484	0.001296	0.000967	0.001296	0.00031
337	-0.002648	0.002611	0.00146	-0.004785	0.002775
338	0.000474	-1.9e-05	0.005076	-0.001498	-0.002484
339	0.001789	-0.000676	0.003104	-0.000183	-1.9e-05
340	0.003433	0.001625	0.000474	-0.002977	-0.001498
341	0.000967	0.002447	0.00146	-0.001005	0.000474
342	0.00146	-0.000183	-0.004785	-0.001005	-0.001498
343	0.000803	0.001132	-0.00232	-0.001498	0.002118
344	0.000146	0.000146	0.002282	-0.001169	-0.000676
345	0.000967	-0.000183	-0.005936	0.002118	0.001296
346	-0.000676	0.000146	0.000146	0.001296	-0.000676
347	-0.002648	0.001132	-0.002484	0.000967	0.002118
348	-0.000676	-0.001662	0.000146	0.000474	0.003104
349	-0.001334	-0.000183	0.001954	0.001954	0.003268
350	-1.9e-05	0.002118	0.000967	0.00294	0.002447
351	-0.001827	-0.000347	-0.000183	-1.9e-05	0.002775
352	0.002775	-0.000676	0.003104	0.002775	0.00294
353	0.00146	-1.9e-05	-0.006922	0.002282	0.00031
354	0.001789	-0.000183	-1.9e-05	0.000967	0.002118
355	0.000474	-0.000347	0.000967	0.000803	0.000474
356	0.000474	0.000967	-0.000512	0.001132	0.001296
357	0.000803	-0.000676	0.001132	-0.000183	-0.002484
358	-0.00347	0.00409	-0.001169	-0.001991	-0.000183
359	-0.003635	0.002282	0.000474	-0.003142	-0.000512
360	-0.001662	-0.000841	-0.001498	-0.001498	0.000967
361	-0.001662	-0.002155	-0.003963	0.000967	-0.000676
362	0.000639	-0.001169	-0.000512	0.000803	0.002118
363	-0.001498	-0.00232	-0.001662	0.000803	0.002775
364	0.002447	-0.002155	-0.011195	-0.000183	-0.000512
365	0.001625	-0.000512	-0.003963	-0.001005	0.000639
366	0.000803	0.000639	-0.001498	-0.000676	0.003761
367	0.001789	-0.005771	-0.002977	0.00409	0.002611
368	0.00146	-0.00347	-0.001334	0.001789	0.002118
369	-0.000183	0.000639	0.001132	0.000803	-0.000512
370	0.000146	0.000639	0.002282	-0.001662	0.000803
371	0.001625	-1.9e-05	0.002775	0.003926	0.000803
372	0.000474	-0.000183	0.003926	0.000639	0.001296
373	-0.000676	0.003761	-0.000183	0.000146	0.001789
374	-0.001827	-0.001498	0.000803	-0.001169	0.00146
375	0.003433	-0.000676	-0.006264	0.002282	0.001132
376	-0.001827	-0.000676	0.00031	-0.002813	0.000146
377	0.000803	-0.00232	-0.002484	-0.000512	-0.000183
378	0.003268	-0.000183	0.000639	0.00146	-0.000512
379	-0.001005	0.000474	0.000146	-1.9e-05	0.005076
380	-0.001498	0.003926	0.00031	0.001954	-0.002977
381	-0.000347	0.007377	-0.000512	-0.000841	0.001625
382	-0.001498	-0.001005	0.00146	0.001625	0.002447
383	0.000146	0.004912	0.001132	0.000639	-0.001662
384	0.000474	0.000474	0.001296	-1.9e-05	0.003433
385	-0.003799	-0.00347	0.001296	-0.003142	0.002611
386	0.005405	0.00146	0.00031	0.003268	-0.000183
387	0.000474	-0.001498	0.001296	-0.005443	0.001625
388	-0.000183	0.000803	-0.000183	0.001132	-0.001005
389	-0.001005	-0.000676	0.004912	-0.001827	-0.004128
390	0.000474	0.001296	-0.000512	-0.000676	0.00146
391	-0.001662	0.000967	0.002118	0.000146	-0.002648
392	0.000803	0.00031	0.000639	0.000146	-0.001498
393	-0.000512	-1.9e-05	0.003926	0.000803	0.000639
394	-0.001005	-0.001334	-0.002155	0.000146	0.001789
395	-0.000512	-0.000183	0.000474	0.001132	-0.001498
396	-0.004128	-0.007579	-0.001005	0.00031	0.003926
397	-0.000676	-0.000347	0.002447	0.001954	0.000474
398	-0.000347	0.003433	-0.000841	-0.000841	0.000967
399	-0.001334	-0.000347	-0.000512	0.00031	-1.9e-05
400	-0.002977	-0.001169	-0.003635	-0.000347	-0.000841
401	0.001132	0.000639	-0.003799	0.001789	0.000639
402	-0.001169	-0.001334	0.001789	-0.000347	-0.002155
403	0.002447	0.001954	-0.000512	0.002611	0.001132
404	0.000803	-0.000676	0.003268	0.001296	0.001625
405	0.002447	0.001789	0.002282	0.001132	0.002282
406	0.000967	-0.002813	0.000967	0.000146	0.000146
407	-0.000676	-0.00988	0.000803	-0.000183	0.003597
408	0.00146	-0.001498	0.005898	0.000639	-0.001498
409	-0.001498	-0.000841	-0.001662	-0.001334	0.001132
410	-1.9e-05	-0.005936	0.000146	-1.9e-05	0.000803
411	0.000639	-0.005114	-0.00347	-0.000676	0.00031
412	0.002118	-0.004785	-0.002155	0.001296	0.00146
413	-0.001169	-0.001334	-0.003306	0.000474	-0.001827
414	0.00146	-0.001334	-0.001334	0.000967	-0.003142
415	-0.002648	-0.000676	-0.001334	0.000639	-0.000676
416	-0.001827	0.001954	-0.001662	0.002611	-0.001498
417	0.002611	-0.001498	-1.9e-05	-0.003306	-0.000347
418	-0.001169	-0.0061	0.001954	-0.000676	0.001789
419	0.000967	-0.001498	0.005569	-0.001662	-0.001827
420	0.002611	0.000639	0.00031	-0.000347	0.000803
421	0.000803	-0.001662	-0.000183	-0.000512	-0.000676
422	0.001296	0.001789	0.001296	0.00031	0.000803
423	0.001789	-0.000512	-0.00232	0.000146	0.000474
424	0.000803	-0.000676	-0.002813	-0.001498	-0.000183
425	-1.9e-05	-0.000676	0.001789	-1.9e-05	0.000146
426	-0.000347	0.000639	0.001296	0.002118	0.001132
427	-0.000183	-0.001498	0.000639	-0.000676	0.001132
428	-0.000676	0.001296	0.001296	0.000474	0.001132
429	0.000474	-0.004785	-0.000512	0.00146	0.00672
430	-0.000512	-0.000676	0.00294	-0.001991	0.001789
431	0.000967	-0.000676	-0.000183	0.000967	0.000474
432	-0.001334	0.000967	0.001954	-0.001334	-0.000512
433	-0.000676	-0.000841	-0.001169	0.001954	-0.00347
434	-0.000347	-0.001498	-0.000347	-1.9e-05	-0.002484
435	-0.000841	0.001625	-0.001169	0.001954	0.000474
436	-0.001169	-1.9e-05	0.001789	-0.001334	0.001132
437	0.000639	0.005076	-0.002155	0.004419	0.000639
438	0.003433	-1.9e-05	-0.001498	-0.000676	-0.00232
439	0.002447	0.002775	-0.000512	-0.003799	-1.9e-05
440	0.003268	-0.000841	0.001296	0.00031	-0.002648
441	-0.001498	-0.001005	0.00146	0.000474	0.00146
442	0.00031	-0.003635	0.000803	-0.001169	-0.001334
443	-1.9e-05	0.002447	0.001296	-0.000676	-0.001334
444	-0.00232	-0.002155	0.001625	-0.000512	0.00031
445	-0.00347	-0.001005	0.001625	-1.9e-05	0.002611
446	-0.00232	-0.001005	-0.000347	0.000967	-0.000841
447	-0.005443	0.002447	-0.000183	-0.001662	-0.004949
448	-0.00232	0.00031	0.00031	0.00146	0.000803
449	-0.001662	0.002118	-0.00347	-0.000841	-0.000183
450	-0.000183	0.000146	-0.002155	0.00031	-0.000183
451	-0.000676	0.004255	-0.000512	0.000803	-0.00232
452	0.000474	0.000967	0.00031	0.00294	0.000639
453	0.001954	0.001625	-0.000676	-0.000183	-0.001005
454	0.001954	0.001625	-0.001991	0.000639	-1.9e-05
455	0.001296	0.00031	-0.001169	0.000639	-0.000183
456	0.001789	0.000474	-0.000347	0.001625	0.001625
457	0.00146	-0.001498	0.001789	0.000474	-0.000347
458	0.001954	0.001296	0.001789	-0.000841	0.00146
459	0.00294	0.001132	0.004912	0.002447	0.001296
460	-0.002977	-0.001005	-0.000183	0.001296	0.002775
461	-0.003963	-0.002813	0.001296	0.002775	0.002118
462	-0.001662	0.002611	0.000146	-0.000676	-1.9e-05
463	0.001132	-0.000183	0.000803	0.002447	0.001296
464	-0.001498	-0.000183	-0.002484	-0.000347	0.001132
465	0.001296	0.001954	-0.00232	0.002447	0.000803
466	-0.001169	0.000474	-0.000676	0.000967	-0.003306
467	0.001296	0.000803	-0.000183	0.002118	-0.002813
468	-0.000183	-0.001005	0.001296	0.000803	-0.00232
469	-0.000676	0.003104	-0.001498	-0.002155	0.000146
470	0.003104	0.000474	0.001296	0.000146	-0.001991
471	-0.000183	0.002118	-0.001169	0.006556	0.000803
472	-1.9e-05	0.00031	-0.004621	0.000474	-0.000676
473	-0.002155	0.007049	0.000639	0.000146	-0.000676
474	0.00409	0.00031	0.001296	0.00409	0.002611
475	-0.000347	-0.000347	-0.001169	0.000639	0.000639
476	0.002611	-0.000512	0.002118	0.003761	-0.001334
477	-0.000183	0.000146	0.001954	0.00031	0.002282
478	0.003433	-1.9e-05	0.002282	0.002447	0.001296
479	-0.001498	-0.004456	0.00146	0.000967	0.004583
480	0.000474	0.000146	-0.001169	0.000803	0.003926
481	-0.001991	0.000639	0.002447	0.000639	0.00031
482	0.000639	0.000146	0.001954	-0.000841	0.001296
483	-1.9e-05	0.001954	-0.000183	0.000474	-0.000841
484	-0.000512	0.004583	0.001625	0.000639	0.00031
485	-0.000183	-0.001005	0.002775	0.000146	-0.002155
486	0.001625	-0.000676	-0.00232	-0.00347	0.000474
487	0.000146	0.000146	0.002775	-0.00232	-0.003635
488	-0.000183	0.002611	-0.004128	-0.005114	-0.00232
489	0.003597	-0.000676	-0.002484	0.000803	-0.000183
490	-1.9e-05	-0.000512	-0.000183	0.002611	-0.001662
491	0.001954	0.001625	-0.000512	-1.9e-05	-0.001498
492	-0.000841	0.000639	-0.000841	0.000146	-1.9e-05
493	0.003597	0.00146	0.00294	0.000639	0.000967
494	-0.003142	-0.001498	0.001789	-0.001169	0.003761
495	-0.001662	0.00294	0.00031	-0.000183	0.000639
496	-0.000183	-0.001991	0.002611	0.002447	0.00031
497	0.000146	-0.000347	-0.001169	-0.000183	0.004255
498	-0.002484	-0.003635	0.001789	-0.000183	0.00031
499	-0.003635	-0.003142	-0.001334	0.000146	-0.000676
500	0.002775	-0.004456	0.000967	-0.000676	0.001789
501	-0.000183	-0.001662	-0.001991	-0.000676	0.002282
502	-0.000183	0.000146	-1.9e-05	-0.001334	0.00031
503	-0.000183	0.002447	-0.000183	-0.000841	0.000146
504	0.000474	-0.001005	0.000967	0.001296	0.000474
505	0.000146	0.001132	-0.000676	-1.9e-05	-0.000183
506	0.001954	0.000967	0.000474	0.000146	-0.001334
507	0.001625	-0.000183	0.000967	0.001132	-0.000347
508	-0.000676	0.000803	0.002118	0.00146	0.001625
509	-0.002484	0.000474	0.001296	-1.9e-05	0.000474
510	0.00146	0.001132	0.000639	0.001625	0.000639
511	0.004583	-0.001498	0.001132	0.001789	0.001625
512	0.002118	-0.003306	0.000146	0.000474	0.004748
513	0.001625	0.004912	-0.000841	-0.001334	0.00031
514	0.000474	0.001625	0.000639	-0.000347	0.000639
515	0.000146	0.000967	0.000803	-0.001005	-0.000512
516	0.00031	0.00031	-0.002484	-0.000183	0.003104
517	-0.000676	-0.001334	-1.9e-05	-0.000841	0.00031
518	0.001296	-0.000676	-0.000676	-0.000676	0.000639
519	0.001296	0.000967	-1.9e-05	-0.000183	0.000639
520	0.000474	0.000639	-0.001169	0.00031	0.00146
521	0.002611	-0.000512	-0.001005	-1.9e-05	-0.000183
522	-0.000676	0.000146	0.00031	0.00031	0.001296
523	-0.000841	-0.00347	0.00031	0.000474	-1.9e-05
524	0.000474	-0.001991	-0.000676	0.000146	0.000474
525	-0.000512	-0.000183	0.000474	-0.000347	0.000803
526	0.003104	0.000146	0.002775	-0.000676	-0.000183
527	0.002282	0.000474	0.002118	-0.000183	-0.0061
528	-0.000347	0.00031	-0.000512	-0.000676	-0.001498
529	0.002611	-1.9e-05	-0.000676	-0.000183	0.001296
530	-0.001334	-0.000676	0.002447	-0.000183	-0.004949
531	0.002447	0.000803	0.000146	-1.9e-05	0.000967
532	0.000639	-0.001991	0.001625	0.000146	-0.000676
533	0.001625	0.000967	-0.001334	-0.000347	0.003268
534	-0.001334	-0.002813	0.002282	-1.9e-05	0.002447
535	0.001132	-1.9e-05	-0.001334	-0.000347	0.000967
536	0.002611	0.000967	0.000474	-0.000183	-0.000347
537	0.000803	-0.001005	-0.000676	-0.000183	-0.00232
538	0.004255	-0.000183	0.003104	-0.000183	-0.012017
539	0.00031	0.000967	-0.000347	-0.000512	-0.002155
540	-0.000676	0.001132	0.000803	-0.000183	-0.001991
541	0.001954	-1.9e-05	-0.000347	-0.000512	-0.002484
542	0.002447	0.000639	-0.000676	0.000146	-0.000183
543	0.001296	-0.001498	0.000639	-1.9e-05	-0.003142
544	0.003761	0.001296	0.00031	0.000474	0.001954
545	0.001132	-0.001005	0.000474	0.000146	-0.000347
546	0.001954	0.001132	-0.001827	-1.9e-05	0.001132
547	0.003268	-0.000347	0.003597	-0.000183	0.000639
548	-0.001662	0.00146	0.000474	-0.000183	0.002118
549	-0.000676	-0.001334	0.000474	-0.000512	-0.007908
550	-0.000347	0.001296	0.000639	-0.000512	0.000967
551	0.00146	-0.001827	0.000474	-0.000183	-0.000841
552	-0.001334	-0.001169	0.003268	0.000146	0.000639
553	0.00031	-0.000512	0.001132	-1.9e-05	0.001789
554	-0.000347	-0.002977	-0.000841	-1.9e-05	-0.001334
555	0.003597	0.002611	0.000803	0.000146	-0.000841
556	0.000803	0.003433	0.000146	0.000146	-0.003635
557	-0.00232	-0.000183	-0.002484	0.00031	0.002447
558	-0.001169	0.002118	0.000803	0.000146	-0.000183
559	0.000967	0.001132	0.000146	-0.000183	0.002282
560	0.002611	-0.000183	0.00031	-0.000676	-0.004292
561	-0.001991	0.004748	-0.000512	0.000474	-0.002155
562	0.00031	-0.001991	0.002447	-0.000347	-0.000512
563	0.001296	0.000639	-0.000676	-1.9e-05	-0.001334
564	0.001789	-1.9e-05	0.001296	-1.9e-05	0.00031
565	-0.000183	-0.001991	-0.003963	0.000146	0.000803
566	0.003597	0.000146	-0.001498	-0.000183	0.000639
567	-0.001662	-0.001662	-0.002813	0.000967	0.002118
568	0.002282	-0.000676	-0.000347	0.000146	0.000803
569	-0.000183	-0.001827	0.002282	-0.000183	-0.001827
570	0.001296	-0.002648	0.001789	-1.9e-05	-0.001827
571	-0.002648	-0.000512	0.001296	-0.000676	-0.002813
572	-0.000676	0.002611	-1.9e-05	-0.000841	-0.001827
573	-0.001005	0.00294	0.003268	-0.001991	-0.003635
574	0.000474	0.001625	0.000639	-0.002484	-0.001334
575	0.000146	0.000474	-0.000676	-0.00232	-0.002977
576	0.002447	0.001132	-0.001169	-0.001005	-1.9e-05
577	0.001296	-0.000347	0.00146	-0.001498	-0.001169
578	-1.9e-05	0.000803	-0.001662	0.000146	-0.001991
579	0.000146	0.001132	-0.000676	-0.000512	0.00031
580	-0.000676	0.001625	0.000146	-0.001005	-0.001169
581	0.002282	0.001132	0.001954	-0.000183	0.000474
582	-0.001498	0.000639	-0.000512	-0.000676	0.008528
583	0.000803	0.000474	0.003268	0.000803	-0.000676
584	-0.000183	-0.000183	0.00031	-0.003142	0.001789
585	0.001296	-0.001991	-0.000347	-0.001169	0.001132
586	-0.002977	-0.001169	0.000967	-0.001169	-0.001827
587	-0.005114	0.000967	-0.000512	-0.001334	0.001789
588	0.001625	-0.001005	0.001296	-0.000841	-0.004785
589	0.000803	-0.000841	-0.001005	-0.002977	0.000474
590	-0.003963	0.001789	-0.000347	-0.005607	-0.000512
591	-0.002977	-0.001498	0.000639	-0.003635	-0.005443
592	-0.001498	0.000639	0.00409	-0.003142	-0.002648
593	-0.000183	0.002447	0.00031	-0.000347	0.000474
594	-1.9e-05	-0.000183	0.001132	0.001625	-0.005278
595	0.001132	0.00146	-0.001005	0.001296	-0.002813
596	-0.001498	-0.001169	-0.001169	0.00031	-0.001169
597	-0.002155	0.000474	-0.001005	-0.000512	0.000474
598	0.002447	-0.001005	-0.001498	0.002282	-1.9e-05
599	-0.00232	0.000803	-0.001005	0.001132	0.001296
600	-0.000676	-0.003142	0.00031	0.001789	0.001625
601	-0.001169	0.000639	-0.001498	-0.000841	0.001296
602	0.002447	-0.001662	0.004255	0.002447	0.00294
603	-0.001169	0.003104	0.004583	0.002118	0.00031
604	-0.000183	0.00409	-0.001498	0.000803	0.003597
605	-0.001498	-0.000347	0.002447	-0.000676	-0.001991
606	0.00146	0.004255	0.000474	0.001296	0.001296
607	-0.000512	-0.000512	-0.004292	0.000639	-0.001498
608	0.002447	0.002118	-0.001334	-0.001334	-0.001991
609	0.001296	0.000474	0.000967	-0.000183	-0.00232
610	0.000146	0.00031	-0.003799	-0.001498	-0.002484
611	0.002282	-0.00347	-0.001169	-0.000841	0.002447
612	0.000474	0.00031	-0.003306	-0.000183	-0.000676
613	0.000639	0.001625	-0.001991	0.00146	-0.002155
614	0.002282	-1.9e-05	-0.002648	-0.000512	0.00031
615	0.001789	-0.001005	-0.003306	0.00294	0.002447
616	0.000146	0.000474	-0.001169	-1.9e-05	0.00031
617	0.002611	-0.000512	0.001789	-0.000183	0.000146
618	0.000639	0.000146	-0.001991	-0.000183	-0.000183
619	0.002611	0.000146	0.000146	0.000967	0.000967
620	-0.000347	-0.000183	0.001132	-0.000183	-1.9e-05
621	0.000639	0.001789	-0.003142	0.000803	0.000146
622	-0.001498	-0.000676	-0.000183	0.000639	-0.001005
623	-1.9e-05	-0.000676	-0.002484	-0.000347	0.00031
624	-0.001827	-0.001334	0.001132	0.000639	-0.001662
625	-0.001498	-0.003635	-0.000676	-0.000183	-0.001662
626	0.00031	-0.000183	0.000474	0.001625	-0.001334
627	-0.001005	0.001789	-0.001334	-0.000676	-0.002977
628	0.002447	-0.001169	-0.001005	0.003433	-1.9e-05
629	-0.001005	0.002118	-0.001334	-0.001991	-0.001334
630	-0.000676	-0.000676	-0.001498	-0.000183	0.000146
631	-0.000183	0.001132	-0.001334	-1.9e-05	-0.001334
632	0.002775	0.003268	-0.000183	-0.001827	0.00031
633	-0.001827	-1.9e-05	-0.000676	-0.000841	-0.000183
634	0.000639	0.000803	-0.000347	0.000146	0.001625
635	-0.000183	-0.001334	0.001132	-0.000347	0.000639
636	0.001132	0.000967	0.001296	0.000639	0.00146
637	-1.9e-05	-0.000183	0.001625	0.000639	0.000146
638	-0.001827	0.003597	0.000967	0.000146	0.001789
639	-0.001005	-0.002977	-0.001169	0.002282	-0.004621
640	-0.002484	0.001296	-0.003142	-0.001827	-0.002648
641	0.001132	-0.001169	0.000146	0.002118	0.003926
642	-0.003799	-0.000183	-0.000841	0.000967	0.000639
643	-0.000676	0.000146	0.000474	0.001625	-0.000347
644	-0.008565	-0.000183	-0.001169	0.000474	0.00031
645	-0.001005	-1.9e-05	-0.001498	-0.000512	-0.001169
646	-0.001334	0.002775	-0.002813	-0.001827	-0.003142
647	-0.003142	0.000639	0.000803	0.000474	-0.000347
648	-0.002813	-0.000347	-0.001991	0.000639	0.002447
649	0.000474	0.002118	-0.001005	0.00031	-0.001169
650	0.001789	-0.002813	0.002118	0.002447	-0.000841
651	0.001132	0.00146	-0.001334	0.002775	0.000146
652	-0.001662	-0.001991	0.001296	0.001132	-0.000512
653	0.000967	-0.000841	-0.002484	0.000803	0.000474
654	0.002447	-0.004128	0.001296	0.00146	-0.001169
655	-0.000676	0.000803	-0.000512	0.00146	0.003104
656	-0.000512	-0.000183	-0.000183	0.002447	0.000146
657	0.001625	0.001132	-0.000841	0.000474	0.000474
658	0.002118	0.001954	0.001132	0.002447	-1.9e-05
659	0.000146	-0.001005	0.000474	0.000146	0.001789
660	0.000146	0.000146	-0.001005	0.001954	-0.001334
661	-1.9e-05	-0.002155	-0.001005	-0.002155	-1.9e-05
662	0.004419	-0.001169	-0.004456	-1.9e-05	-0.001498
663	-0.001662	0.000474	-0.001005	-0.001827	-0.000841
664	0.000803	-0.00347	-0.004292	0.000146	0.003104
665	-0.000512	-0.001662	-0.003306	0.00146	-0.003306
666	-0.001005	-0.000183	-0.001334	0.000803	0.002447
667	-0.001827	0.000803	0.000803	-0.00347	-0.000841
668	0.00031	0.002775	-0.000347	-1.9e-05	-0.002155
669	-0.003306	-0.001005	0.00146	0.000803	0.003268
670	0.000474	0.000803	0.002118	0.001625	0.00146
671	-0.000676	0.006556	0.003104	0.00146	0.000803
672	-0.002648	0.00031	0.001132	0.00031	0.005241
673	0.003597	-0.000512	0.005241	0.001296	0.00031
674	0.000967	0.002282	0.000146	-0.000347	-0.002155
675	-0.000347	-0.000676	0.00031	0.00146	0.000967
676	-0.000183	0.003597	0.000967	0.000639	-0.00347
677	-0.000841	-0.001005	0.000639	-0.000347	0.001132
678	-0.00347	0.00146	-0.001827	-0.002813	-1.9e-05
679	-0.000347	0.001954	-1.9e-05	0.000967	0.000803
680	-0.000347	-0.000347	0.00146	-0.000512	-0.000183
681	-0.001169	-1.9e-05	-0.001334	-0.000512	0.00146
682	-0.001827	-0.000841	-0.002484	-0.001827	-0.002484
683	-0.001005	-0.002155	-0.001498	-0.003963	0.000474
684	-0.001827	-0.000512	-0.001005	-0.000347	-0.002155
685	0.00294	0.001132	-1.9e-05	0.00031	-0.000347
686	0.003597	-0.000676	-0.000676	-0.001662	-0.001662
687	0.001132	0.000803	-0.000841	-0.001334	-0.003799
688	0.001789	-0.000183	0.000474	0.002118	-0.001991
689	0.001132	0.001132	-1.9e-05	0.000146	0.002118
690	0.00409	-1.9e-05	0.006062	0.003597	-0.001005
691	0.000803	0.000146	0.001296	0.003433	0.000474
692	0.002447	0.000639	0.001789	0.002282	-0.000183
693	-0.001005	-0.001334	0.001954	-0.000512	-0.002813
694	0.000474	0.000146	-0.003799	0.00146	-0.000512
695	-0.002648	-0.000841	-0.001662	0.001296	-0.002648
696	-0.000512	0.00031	-0.001169	-0.000841	0.000803
697	-0.002648	-0.001334	-0.001827	-0.000841	0.000803
698	-0.001334	-0.000676	-0.001334	0.001132	-0.001334
699	-0.001169	-0.000676	0.000146	0.00031	-0.000841
700	-1.9e-05	0.001789	-0.003142	-0.001498	0.000803
701	-0.003306	0.000146	-1.9e-05	0.002611	-0.001662
702	-0.000841	0.001789	-0.001334	0.001132	-0.000347
703	0.003597	0.003104	0.002282	0.002118	0.000474
704	-0.001334	0.00146	-0.002484	0.00146	-0.003142
705	0.002611	0.00146	-0.002648	0.002447	-0.000841
706	-0.000676	0.003761	0.001789	0.000146	0.000146
707	0.004255	0.001296	0.001789	0.002118	-1.9e-05
708	-0.001827	0.000146	0.000474	0.001789	0.000474
709	-0.001005	0.000967	0.001789	0.002447	0.000146
710	0.000639	-0.001662	-1.9e-05	0.001296	-1.9e-05
711	-0.000512	-0.000183	-0.002155	-0.000676	0.000967
712	-0.004456	-0.003963	-0.001991	0.000146	-1.9e-05
713	-0.000347	-0.000512	-0.001662	0.003926	0.000474
714	-0.002484	-0.003963	0.001132	0.000967	-0.000183
715	-0.002648	-0.001334	-0.000676	-0.000676	-0.000183
716	-0.001334	-0.003635	0.00146	0.00146	-0.000183
717	0.00031	0.001296	-0.004949	-0.000841	-0.000512
718	0.001296	0.00031	0.000803	-0.002648	-0.001662
719	-0.001498	0.001132	-0.00347	0.002282	0.001296
720	0.003104	0.000803	0.001789	0.000146	-0.002813
721	0.000639	0.000639	0.002118	0.00146	-0.001827
722	0.000474	0.00031	0.000967	0.000639	-0.00232
723	0.00146	-0.005114	0.002282	0.000639	0.001296
724	0.001954	-1.9e-05	0.001789	0.003104	-0.00347
725	0.000803	-0.003635	0.001954	-0.000183	-0.000347
726	0.000803	-0.00347	-0.000183	0.001954	-0.000841
727	-0.000347	-0.00232	0.003761	0.001296	0.001296
728	-0.001334	0.003597	-0.001662	0.000967	0.000474
729	0.000474	-0.004621	0.002118	0.000474	-0.000347
730	-0.001005	0.001132	-0.00232	0.000146	0.001132
731	-0.001498	0.00031	-0.000347	-0.000841	-0.001169
732	-0.000676	-0.001662	-0.000183	-0.001498	0.00146
733	0.000803	0.000639	-0.001334	-0.003142	-0.000183
734	-0.003635	0.001132	0.000146	-0.001991	0.001132
735	-0.001169	-0.000841	0.000803	0.001132	-0.000676
736	-0.000183	0.002282	-0.001827	-0.001662	-0.002484
737	-0.001169	0.000474	-0.000347	-0.000183	-0.003635
738	-0.000512	-0.001169	0.000803	0.000967	-0.003963
739	0.00146	0.001954	-0.000183	0.001296	0.000967
740	0.000639	0.001789	0.001625	0.002447	0.000146
741	0.004912	-0.001991	0.002775	-1.9e-05	-0.003306
742	0.001625	-0.000183	-0.000841	-0.001662	-0.001498
743	0.001954	0.000146	-0.003306	0.00031	0.003926
744	0.000967	-0.001991	-0.000841	0.000474	0.002775
745	-0.003635	-0.000676	-0.004785	0.00146	0.00294
746	-0.003963	-0.002155	0.003104	-0.000512	0.001132
747	-0.001169	-0.001005	-1.9e-05	0.001625	0.004583
748	-0.004128	-0.001662	0.001625	0.001296	-0.000841
749	-0.004292	-0.001334	0.00031	0.00294	0.000474
750	-1.9e-05	-0.000841	-0.000841	0.000474	-0.000841
751	0.003268	0.003597	0.003104	0.001296	0.005569
752	0.01313	0.011322	0.012965	0.015102	0.00935
753	0.020362	0.018554	0.018389	0.020033	0.017239
754	0.027265	0.023813	0.026278	0.027429	0.028086
755	0.034003	0.03236	0.032688	0.034168	0.033346
756	0.043043	0.041235	0.041892	0.043371	0.04255
757	0.044193	0.047809	0.048631	0.047316	0.047973
758	0.055041	0.054055	0.053069	0.053562	0.056356
759	0.05389	0.059972	0.060136	0.057671	0.059314
760	0.067203	0.06556	0.065231	0.067039	0.065231
761	0.073613	0.068847	0.071641	0.071148	0.071148
762	0.077065	0.072463	0.074435	0.075914	0.077229
763	0.080681	0.078215	0.080023	0.081995	0.081667
764	0.090049	0.086597	0.082488	0.084625	0.088077
765	0.091528	0.087419	0.084296	0.091035	0.092021
766	0.094815	0.093829	0.09235	0.093993	0.096788
767	0.100568	0.09876	0.097774	0.097774	0.100075
768	0.102376	0.10517	0.10139	0.099582	0.104348
769	0.107799	0.110593	0.108293	0.107306	0.109279
770	0.108621	0.113059	0.11158	0.108457	0.110758
771	0.115195	0.115195	0.114702	0.117496	0.113059
772	0.118811	0.118483	0.11914	0.116346	0.114702
773	0.124071	0.126865	0.120948	0.120455	0.120948
774	0.124071	0.126536	0.126043	0.124399	0.122427
775	0.131631	0.131302	0.127029	0.128837	0.126536
776	0.129659	0.132289	0.128837	0.130809	0.130974
777	0.13574	0.137055	0.136233	0.132782	0.137219
778	0.137384	0.136562	0.138205	0.137219	0.13574
779	0.137219	0.141328	0.137548	0.13837	0.142479
780	0.141821	0.140506	0.143465	0.141986	0.13952
781	0.139849	0.145108	0.142643	0.142807	0.145766
782	0.145437	0.145602	0.147245	0.146259	0.147903
783	0.145766	0.148889	0.147409	0.14593	0.147903
784	0.15234	0.14971	0.151025	0.148724	0.148889
785	0.150697	0.153984	0.152669	0.151354	0.153655
786	0.155134	0.158421	0.154148	0.154312	0.153162
787	0.15497	0.155463	0.156613	0.153819	0.155792
788	0.160229	0.157764	0.153655	0.155792	0.156613
789	0.1576	0.161544	0.162366	0.154806	0.157107
790	0.159079	0.163352	0.159736	0.159736	0.157271
791	0.166804	0.165653	0.166146	0.162037	0.158914
792	0.165324	0.164338	0.162366	0.160394	0.161051
793	0.169598	0.164503	0.166804	0.166968	0.163845
794	0.167954	0.169762	0.168447	0.16516	0.163845
795	0.169926	0.166804	0.164338	0.167625	0.167461
796	0.169105	0.169105	0.167132	0.167625	0.170913
797	0.174364	0.169926	0.171406	0.16779	0.170419
798	0.170748	0.171077	0.168612	0.171241	0.1742
799	0.169269	0.171077	0.172885	0.17272	0.176665
800	0.173049	0.174528	0.175021	0.171899	0.175515
801	0.173049	0.177651	0.175515	0.17535	0.176336
802	0.173049	0.177158	0.176336	0.173542	0.174693
803	0.175843	0.180445	0.177651	0.177651	0.176336
804	0.176994	0.178309	0.162366	0.176829	0.17913
805	0.180116	0.180774	0.147245	0.175186	0.178802
806	0.177158	0.178637	0.120126	0.17798	0.178309
807	0.179459	0.181596	0.099253	0.176336	0.183732
808	0.183239	0.17913	0.081009	0.178966	0.180116
809	0.182746	0.181267	0.070655	0.180445	0.181596
810	0.182911	0.182417	0.065231	0.179952	0.182746
811	0.182253	0.185869	0.063094	0.183075	0.185705
812	0.185705	0.183075	0.071477	0.184718	0.185047
813	0.185705	0.184225	0.074599	0.184718	0.186855
814	0.185705	0.185047	0.081338	0.185212	0.187513
815	0.183732	0.183404	0.08216	0.185869	0.188006
816	0.18932	0.184225	0.082653	0.187184	0.188334
817	0.184554	0.18439	0.073449	0.182911	0.187513
818	0.185869	0.18932	0.066217	0.185705	0.187184
819	0.189649	0.186362	0.060629	0.185869	0.184883
820	0.188006	0.187677	0.062108	0.18932	0.188827
821	0.188006	0.190307	0.052904	0.185376	0.189156
822	0.189156	0.192772	0.049288	0.186691	0.191128
823	0.190142	0.194416	0.045344	0.189156	0.187184
824	0.189814	0.191786	0.047973	0.188499	0.190142
825	0.191786	0.190635	0.048138	0.190471	0.188499
826	0.192443	0.193265	0.050439	0.192443	0.190307
827	0.192608	0.188827	0.045508	0.189978	0.1908
828	0.190964	0.191128	0.044686	0.190142	0.191293
829	0.192279	0.192936	0.031702	0.193101	0.194416
830	0.194087	0.190307	0.021512	0.19195	0.192115
831	0.193101	0.191786	0.025128	0.193429	0.193594
832	0.190635	0.195237	0.020855	0.189485	0.194416
833	0.190964	0.194251	0.007049	0.192279	0.195895
834	0.19721	0.192936	0.005898	0.192608	0.193265
835	0.196552	0.19458	0.005898	0.193429	0.195073
836	0.192443	0.194744	0.008857	0.19195	0.189156
837	0.196388	0.195402	0.013294	0.194251	0.196059
838	0.195895	0.193594	0.013623	0.189649	0.193429
839	0.191786	0.196223	0.017239	0.191786	0.191621
840	0.194909	0.193758	0.022991	0.192772	0.196059
841	0.194909	0.196059	0.021841	0.191621	0.193101
842	0.19721	0.194251	0.025128	0.193594	0.192279
843	0.19458	0.201319	0.026936	0.200168	0.192443
844	0.192936	0.195895	0.03236	0.197867	0.198196
845	0.194087	0.195895	0.035318	0.197045	0.198031
846	0.197703	0.197045	0.023977	0.199346	0.199675
847	0.193101	0.196552	0.015102	0.19573	0.196388
848	0.196717	0.195895	0.004748	0.200825	0.197703
849	0.196223	0.193594	0.002447	0.196717	0.195895
850	0.198031	0.197538	0.004419	0.198524	0.19721
851	0.197703	0.195402	0.004912	0.196881	0.195895
852	0.199511	0.198689	0.003926	0.197374	0.197374
853	0.196717	0.195566	0.006227	0.196388	0.196388
854	0.198524	0.199182	0.000639	0.195237	0.198853
855	0.19573	0.198689	0.006391	0.197045	0.197538
856	0.196223	0.20099	0.006556	0.198524	0.197867
857	0.194909	0.197374	0.011158	0.198196	0.198524
858	0.197045	0.198524	0.006884	0.196881	0.197703
859	0.198031	0.196717	0.011815	0.199182	0.196717
860	0.197374	0.19573	0.003761	0.196388	0.195895
861	0.197867	0.19573	0.004583	0.197703	0.196717
862	0.197703	0.197703	0.008035	0.197703	0.197867
863	0.200825	0.198196	0.012965	0.200004	0.198196
864	0.19458	0.193758	0.015266	0.19721	0.19836
865	0.19836	0.197703	0.009843	0.20099	0.200661
866	0.197538	0.199346	0.008363	0.198196	0.197374
867	0.200004	0.198196	0.005898	0.197703	0.199182
868	0.19836	0.198689	0.008528	0.200661	0.201812
869	0.196881	0.199511	0.006062	0.197374	0.203126
870	0.200004	0.196881	0.005076	0.198689	0.197703
871	0.198524	0.199675	0.004748	0.196552	0.198196
872	0.198031	0.198524	0.009678	0.197867	0.199018
873	0.198031	0.196223	0.006556	0.197374	0.201483
874	0.203291	0.197374	0.003926	0.198031	0.197374
875	0.196223	0.197867	0.005569	0.198689	0.198196
876	0.198524	0.199511	0.002282	0.199511	0.198031
877	0.196881	0.197538	0.001296	0.197703	0.199018
878	0.199182	0.201483	0.000803	0.201647	0.198853
879	0.19721	0.20099	0.001132	0.19836	0.198689
880	0.199839	0.203291	0.000803	0.200168	0.198853
881	0.201483	0.199839	0.000967	0.200332	0.19721
882	0.199346	0.201812	0.001625	0.197703	0.199675
883	0.193758	0.199511	0.001296	0.193922	0.198031
884	0.200825	0.199511	0.000474	0.196059	0.200825
885	0.201483	0.200497	0.001954	0.200332	0.196223
886	0.19721	0.198524	0.001296	0.194416	0.198524
887	0.19836	0.197703	0.005405	0.196881	0.199182
888	0.198853	0.199675	0.002775	0.199839	0.19836
889	0.198853	0.19836	0.001296	0.200497	0.20099
890	0.197867	0.19836	0.002447	0.198689	0.19721
891	0.197867	0.199675	-0.001005	0.200497	0.199675
892	0.19721	0.198524	0.004255	0.199018	0.19721
893	0.197045	0.200168	-0.000183	0.204441	0.197867
894	0.197045	0.201647	-0.000841	0.197045	0.200004
895	0.198031	0.199182	0.00031	0.199018	0.202305
896	0.198031	0.199839	0.003761	0.199511	0.195895
897	0.196059	0.200332	0.001789	0.200332	0.200661
898	0.197703	0.199346	0.003761	0.201483	0.195402
899	0.200661	0.201319	0.003104	0.202798	0.198031
900	0.200168	0.201154	0.000967	0.201154	0.200497
901	0.201319	0.199018	0.000146	0.199675	0.20099
902	0.201812	0.198196	0.00409	0.199839	0.199346
903	0.200332	0.200332	0.00294	0.199675	0.200497
904	0.201647	0.19836	0.00294	0.198689	0.199346
905	0.198853	0.198196	0.002611	0.197045	0.200497
906	0.199839	0.198853	0.007706	0.201319	0.200661
907	0.197538	0.199346	0.009678	0.200004	0.198689
908	0.201319	0.200004	0.005569	0.201154	0.199511
909	0.198196	0.200497	0.002775	0.199511	0.199675
910	0.198853	0.199346	0.003433	0.20099	0.199346
911	0.198031	0.197374	0.003433	0.198524	0.198031
912	0.200497	0.198031	0.002775	0.200004	0.200825
913	0.199018	0.200168	0.005734	0.198524	0.197374
914	0.200825	0.197867	-0.001498	0.199182	0.199182
915	0.200497	0.196059	0.00146	0.198853	0.197045
916	0.205099	0.201154	0.002282	0.201483	0.196717
917	0.201976	0.200661	0.003433	0.200168	0.198031
918	0.202798	0.201812	0.002611	0.200825	0.200332
919	0.201812	0.200332	0.002118	0.202305	0.199675
920	0.199346	0.200661	0.003104	0.198853	0.200661
921	0.201319	0.198031	0.010007	0.201483	0.200825
922	0.198853	0.195566	0.010664	0.19836	0.199675
923	0.201976	0.197703	0.008199	0.201647	0.203291
924	0.199675	0.199018	0.002447	0.198524	0.20214
925	0.200497	0.198031	0.006062	0.199018	0.199182
926	0.199182	0.19836	0.005734	0.198524	0.199182
927	0.199839	0.201812	0.003926	0.20099	0.200497
928	0.199346	0.202305	0.004912	0.198853	0.198524
929	0.19836	0.201319	0.00409	0.199018	0.198689
930	0.200497	0.198689	0.002282	0.200004	0.19836
931	0.199511	0.203126	0.003926	0.200332	0.201154
932	0.200332	0.200661	0.001132	0.201976	0.197703
933	0.198031	0.203291	0.004912	0.195402	0.198524
934	0.202305	0.200332	0.001625	0.196059	0.200661
935	0.201976	0.202469	0.004255	0.198524	0.199346
936	0.203455	0.199182	0.006391	0.198853	0.197867
937	0.198853	0.199182	0.002447	0.196717	0.198689
938	0.202305	0.198524	0.003926	0.201483	0.200004
939	0.19836	0.200825	0.003597	0.198853	0.200661
940	0.200332	0.199018	0.010336	0.200497	0.201154
941	0.197538	0.199018	0.016088	0.203126	0.196552
942	0.200661	0.198853	0.01954	0.202962	0.203455
943	0.198196	0.199182	0.024142	0.197703	0.200497
944	0.196717	0.200497	0.030059	0.198853	0.198196
945	0.199511	0.19721	0.023484	0.198196	0.197045
946	0.201976	0.201976	0.018389	0.200168	0.194744
947	0.196717	0.199018	0.021183	0.195895	0.197374
948	0.195895	0.200497	0.015595	0.199018	0.197867
949	0.198524	0.199675	0.024142	0.199839	0.19836
950	0.198031	0.203455	0.005076	0.200332	0.199182
951	0.201647	0.201812	0.00787	0.201483	0.19836
952	0.199839	0.200168	0.008692	0.202305	0.200661
953	0.201647	0.200004	0.009514	0.201319	0.200168
954	0.199346	0.200332	0.009678	0.199675	0.200661
955	0.200825	0.197703	0.009678	0.200825	0.200004
956	0.20099	0.199839	0.009185	0.198689	0.198524
957	0.202305	0.198689	0.008363	0.201154	0.202633
958	0.201812	0.200332	0.009514	0.199511	0.19836
959	0.200661	0.197703	0.00409	0.196717	0.201154
960	0.200168	0.199675	0.002282	0.201319	0.199182
961	0.200004	0.197045	0.005734	0.199675	0.199839
962	0.197538	0.197045	0.008528	0.199018	0.197867
963	0.198524	0.199182	0.006391	0.198853	0.200004
964	0.198524	0.198031	0.008035	0.201647	0.198853
965	0.198689	0.199018	0.005569	0.198689	0.200004
966	0.200825	0.196881	0.002611	0.201319	0.19836
967	0.199839	0.201154	-0.001005	0.199675	0.197538
968	0.200004	0.200661	0.00146	0.20214	0.199675
969	0.199182	0.200497	0.001625	0.197374	0.198196
970	0.201319	0.200168	0.003104	0.200497	0.198853
971	0.198689	0.19573	0.005241	0.200168	0.198031
972	0.200661	0.199675	0.006391	0.200497	0.19836
973	0.197538	0.200332	0.002118	0.200497	0.196223
974	0.200004	0.198524	0.004255	0.20099	0.202469
975	0.200497	0.197538	0.004419	0.202305	0.200168
976	0.198853	0.202962	0.001625	0.199839	0.200332
977	0.198853	0.19721	0.00146	0.199675	0.199346
978	0.200168	0.200497	0.00031	0.199675	0.197538
979	0.199675	0.194416	0.001296	0.198689	0.201647
980	0.197867	0.198196	0.000146	0.197867	0.199018
981	0.201647	0.198689	-0.000183	0.19836	0.197045
982	0.199839	0.197703	-0.000347	0.198031	0.200497
983	0.201154	0.200497	0.001296	0.199511	0.19721
984	0.19721	0.201319	-1.9e-05	0.194087	0.197867
985	0.201319	0.199346	0.000146	0.19836	0.199511
986	0.197538	0.201812	0.000803	0.199675	0.200168
987	0.198031	0.200004	0.000639	0.198031	0.198853
988	0.197703	0.198031	-0.000347	0.197374	0.199511
989	0.201647	0.201483	0.000967	0.201154	0.20214
990	0.196388	0.200825	0.000474	0.198689	0.198031
991	0.196223	0.198196	-0.000841	0.198689	0.199018
992	0.202798	0.198196	-0.000512	0.200825	0.198853
993	0.200332	0.200332	-1.9e-05	0.200825	0.20099
994	0.198031	0.197045	0.000474	0.196059	0.199511
995	0.195237	0.199182	0.000146	0.19721	0.19836
996	0.197538	0.195895	0.00031	0.199675	0.203126
997	0.196881	0.198524	-1.9e-05	0.200825	0.20362
998	0.196223	0.198853	-0.000512	0.199182	0.200004
999	0.195402	0.199182	-0.000512	0.19836	0.200825
1000	0.199511	0.197703	-0.000347	0.201154	0.200004
1001	0.199675	0.202305	-0.000841	0.193758	0.199675
1002	0.200497	0.198031	-0.000347	0.199675	0.19836
1003	0.198524	0.198524	0.000146	0.199511	0.197374
1004	0.197867	0.201319	0.000146	0.198689	0.198853
1005	0.198196	0.197867	0.000146	0.19836	0.199018
1006	0.198853	0.199675	-1.9e-05	0.199511	0.199511
1007	0.196388	0.196881	0.000967	0.199018	0.200497
1008	0.201976	0.199346	-1.9e-05	0.20099	0.200825
1009	0.199839	0.195402	0.000146	0.199675	0.198853
1010	0.199018	0.197538	-0.000183	0.199675	0.201483
1011	0.200332	0.197374	-0.000347	0.200168	0.20099
1012	0.200168	0.199675	-1.9e-05	0.193429	0.201319
1013	0.200004	0.195566	-0.000512	0.197538	0.197538
1014	0.198524	0.196388	-0.000183	0.197867	0.199675
1015	0.200332	0.199675	0.000146	0.198031	0.200168
1016	0.194087	0.200661	-1.9e-05	0.199839	0.201154
1017	0.19721	0.199675	0.000639	0.199675	0.199675
1018	0.196223	0.200825	0.000146	0.196881	0.199346
1019	0.197867	0.19836	-1.9e-05	0.198689	0.200168
1020	0.196388	0.197867	-0.000512	0.197703	0.197538
1021	0.199182	0.201647	-0.000183	0.199511	0.200004
1022	0.203948	0.201319	-0.000347	0.199675	0.197867
1023	0.198689	0.204113	-1.9e-05	0.193429	0.196223
1024	0.198196	0.198689	-0.000347	0.198524	0.198524
1025	0.200825	0.200825	0.00031	0.200168	0.199511
1026	0.200168	0.200004	-1.9e-05	0.20214	0.197703
1027	0.197045	0.199839	0.000146	0.198524	0.201154
1028	0.19836	0.199839	0.000474	0.20099	0.198689
1029	0.199182	0.202633	0.00031	0.197867	0.200497
1030	0.19721	0.200825	0.000146	0.200168	0.200004
1031	0.196881	0.199018	-0.000347	0.199675	0.199511
1032	0.200497	0.200332	-1.9e-05	0.19836	0.200497
1033	0.19836	0.200497	-0.000512	0.200825	0.199018
1034	0.200497	0.200004	-0.000183	0.191293	0.198689
1035	0.199018	0.198031	-0.000347	0.193594	0.199346
1036	0.198853	0.200004	-1.9e-05	0.19721	0.201154
1037	0.20099	0.199018	0.000474	0.196059	0.19573
1038	0.195073	0.200497	0.000474	0.196059	0.197045
1039	0.196717	0.199182	0.000146	0.198689	0.197538
1040	0.20099	0.203126	0.000967	0.201154	0.19573
1041	0.197374	0.203291	0.000146	0.200825	0.197374
1042	0.201319	0.198689	0.000146	0.200004	0.196388
1043	0.202305	0.200661	0.00031	0.20099	0.197538
1044	0.197538	0.198689	-0.000512	0.199675	0.202305
1045	0.202305	0.198853	0.001132	0.196223	0.199675
1046	0.196223	0.197374	-0.000841	0.202305	0.199346
1047	0.198524	0.197538	0.003433	0.20099	0.202798
1048	0.19721	0.198196	0.006227	0.201812	0.197867
1049	0.18932	0.197703	0.005405	0.20099	0.199839
1050	0.194251	0.196223	0.009021	0.196388	0.19836
1051	0.200497	0.200497	0.017732	0.200168	0.20099
1052	0.197867	0.198524	0.026771	0.197703	0.199675
1053	0.198524	0.199346	0.031538	0.200332	0.201812
1054	0.198524	0.199346	0.038441	0.201319	0.199511
1055	0.199675	0.200004	0.044029	0.200497	0.201154
1056	0.198689	0.200661	0.052247	0.200168	0.198524
1057	0.197045	0.198031	0.055041	0.199675	0.197703
1058	0.201812	0.199675	0.062108	0.200825	0.199839
1059	0.194416	0.200661	0.069176	0.198689	0.199839
1060	0.193594	0.198524	0.074271	0.199511	0.19836
1061	0.197703	0.199346	0.077722	0.199511	0.19836
1062	0.201319	0.197538	0.084789	0.200332	0.201812
1063	0.199018	0.197703	0.092186	0.199675	0.199675
1064	0.200168	0.197538	0.092679	0.201647	0.200825
1065	0.200332	0.196552	0.095473	0.199346	0.197538
1066	0.199182	0.197374	0.100403	0.199018	0.200332
1067	0.19836	0.197374	0.105005	0.199839	0.199346
1068	0.198524	0.19721	0.108128	0.196223	0.199182
1069	0.19836	0.198524	0.109772	0.196552	0.199675
1070	0.199675	0.19573	0.115195	0.196552	0.196881
1071	0.194416	0.203291	0.120948	0.200825	0.197374
1072	0.199182	0.201483	0.121605	0.198196	0.19721
1073	0.199511	0.203126	0.12933	0.200168	0.195895
1074	0.19721	0.202962	0.130974	0.199675	0.196881
1075	0.199182	0.199511	0.131467	0.200168	0.19836
1076	0.19836	0.200168	0.135904	0.199675	0.198196
1077	0.198196	0.200004	0.140506	0.199675	0.200004
1078	0.200497	0.199675	0.136069	0.20477	0.200497
1079	0.200661	0.199018	0.141657	0.199511	0.200497
1080	0.192443	0.199346	0.144615	0.198524	0.200004
1081	0.192443	0.196717	0.147409	0.200168	0.20099
1082	0.189156	0.196881	0.150861	0.197538	0.198524
1083	0.186855	0.199182	0.150532	0.201154	0.199511
1084	0.181431	0.19721	0.15497	0.201319	0.199182
1085	0.164174	0.199675	0.154806	0.198689	0.200332
1086	0.14856	0.197703	0.157107	0.197045	0.196388
1087	0.001625	0.199346	0.157764	0.197538	0.197867
1088	0.010993	0.196388	0.160558	0.196059	0.200004
1089	0.001132	0.199675	0.153984	0.200661	0.192608
1090	0.003268	0.199182	0.163188	0.198524	0.19573
1091	-0.000512	0.20099	0.160887	0.198196	0.196059
1092	-0.000841	0.198524	0.164338	0.197538	0.197538
1093	0.004583	0.199675	0.166146	0.19836	0.199182
1094	0.004419	0.199346	0.169433	0.199182	0.201319
1095	0.000803	0.199511	0.169105	0.195237	0.199346
1096	0.000639	0.199182	0.172885	0.203784	0.199018
1097	0.00031	0.197867	0.173707	0.197867	0.198853
1098	-1.9e-05	0.201812	0.171406	0.185705	0.197703
1099	-0.000183	0.197703	0.176172	0.134754	0.201812
1100	-0.001005	0.198196	0.166146	0.134918	0.201647
1101	-0.000676	0.198853	0.176665	0.132617	0.19836
1102	-0.000676	0.198196	0.177158	0.026771	0.200661
1103	-0.000347	0.197703	0.178473	0.031045	0.200004
1104	0.006391	0.197374	0.178637	0.034332	0.200004
1105	0.00031	0.198853	0.179295	0.041235	0.197045
1106	-0.000512	0.203455	0.181596	0.027758	0.199182
1107	0.001132	0.199182	0.182911	0.02332	0.197867
1108	0.000967	0.199675	0.181103	0.027429	0.198196
1109	0.001625	0.199182	0.182911	0.029401	0.198689
1110	-1.9e-05	0.197374	0.182253	0.03351	0.20214
1111	-0.000512	0.198524	0.174693	0.041564	0.19836
1112	-0.000183	0.196717	0.180445	0.044522	0.198524
1113	-1.9e-05	0.198031	0.17798	0.046823	0.199839
1114	-0.000347	0.195895	0.183568	0.041399	0.200168
1115	-0.001827	0.19836	0.181431	0.028744	0.200497
1116	-0.000676	0.199182	0.184883	0.02332	0.194744
1117	0.000639	0.200168	0.186526	0.022169	0.201483
1118	0.000474	0.198524	0.189156	0.026936	0.201483
1119	-0.000512	0.199675	0.190307	0.030552	0.199018
1120	-1.9e-05	0.19836	0.188499	0.032853	0.199346
1121	0.00031	0.201319	0.191786	0.030387	0.200004
1122	0.000146	0.20099	0.188827	0.028908	0.198524
1123	-0.000183	0.199839	0.186691	0.027265	0.196388
1124	-0.000347	0.200168	0.191293	0.034825	0.195237
1125	-0.000183	0.197538	0.190471	0.036304	0.196881
1126	-0.011359	0.198853	0.189156	0.04107	0.198524
1127	-0.000183	0.200825	0.190964	0.038605	0.196059
1128	0.00146	0.200497	0.190471	0.028086	0.198524
1129	0.006062	0.198031	0.193758	0.021512	0.200497
1130	0.011979	0.200332	0.1908	0.012308	0.199675
1131	0.019047	0.195073	0.194416	0.006227	0.199018
1132	0.026443	0.197703	0.192608	0.007213	0.202469
1133	0.035154	0.199018	0.196881	0.009021	0.198853
1134	0.039263	0.200497	0.191128	0.012637	0.200004
1135	0.051096	0.196717	0.193922	0.016253	0.200004
1136	0.050932	0.197867	0.193758	0.018225	0.19836
1137	0.0603	0.198689	0.194416	0.02069	0.198853
1138	0.064574	0.198689	0.194744	0.021841	0.197867
1139	0.070162	0.199675	0.195402	0.002775	0.194909
1140	0.075421	0.199182	0.196059	0.001954	0.195895
1141	0.083146	0.200497	0.19458	0.004419	0.197867
1142	0.086269	0.198853	0.193758	0.005569	0.199018
1143	0.089227	0.200004	0.194087	0.006062	0.200168
1144	0.093665	0.198524	0.200168	0.006884	0.200332
1145	0.09876	0.19836	0.190964	0.004912	0.199675
1146	0.102211	0.194909	0.193922	0.004748	0.19836
1147	0.104019	0.197374	0.192443	0.00031	0.200661
1148	0.108457	0.197538	0.192443	0.000474	0.201483
1149	0.111087	0.198689	0.193758	0.000146	0.20477
1150	0.120784	0.200497	0.197045	0.003268	0.200497
1151	0.121277	0.200168	0.196717	0.005734	0.20099
1152	0.125714	0.197703	0.198853	0.008035	0.20099
1153	0.127687	0.199182	0.195895	0.005405	0.200168
1154	0.130809	0.197045	0.196881	0.002775	0.20214
1155	0.134425	0.196552	0.201154	0.00294	0.198853
1156	0.138699	0.199839	0.196059	0.003597	0.200004
1157	0.136069	0.199346	0.196223	0.005569	0.199018
1158	0.13952	0.199511	0.194251	0.007377	0.199018
1159	0.141493	0.198524	0.196223	0.007213	0.199675
1160	0.144451	0.197374	0.195237	0.005241	0.199346
1161	0.143958	0.196388	0.196717	0.00672	0.198031
1162	0.149875	0.198196	0.192443	0.003926	0.200497
1163	0.15234	0.198853	0.193758	0.004912	0.199346
1164	0.154148	0.197374	0.195237	0.007213	0.201812
1165	0.154477	0.196223	0.196388	0.002118	0.202469
1166	0.158257	0.198196	0.196388	0.011486	0.200168
1167	0.160229	0.198853	0.195237	0.008363	0.202469
1168	0.160229	0.19836	0.195566	0.009843	0.199511
1169	0.16516	0.19836	0.203291	0.010007	0.200004
1170	0.164338	0.198031	0.199511	0.009514	0.199675
1171	0.162859	0.20099	0.198689	0.006556	0.199018
1172	0.167954	0.20099	0.198031	0.004419	0.196388
1173	0.169105	0.202305	0.199182	0.005076	0.197538
1174	0.166968	0.200168	0.199182	0.00672	0.196552
1175	0.171899	0.200661	0.195895	0.007213	0.197703
1176	0.169269	0.198524	0.197703	0.004419	0.199346
1177	0.170913	0.198031	0.199346	0.006391	0.199839
1178	0.176829	0.19836	0.193429	0.001296	0.19721
1179	0.175186	0.197703	0.197538	0.00294	0.200004
1180	0.176665	0.199511	0.197703	0.002611	0.19836
1181	0.17798	0.198524	0.196059	0.003761	0.199839
1182	0.177487	0.19836	0.198524	0.005241	0.199018
1183	0.177487	0.200332	0.194909	0.003104	0.199839
1184	0.180445	0.200004	0.201483	0.000146	0.199346
1185	0.179295	0.19836	0.198031	-1.9e-05	0.197538
1186	0.181103	0.203784	0.199346	0.002611	0.198853
1187	0.179623	0.19836	0.199018	0.001789	0.199182
1188	0.183897	0.197538	0.199346	0.003761	0.196388
1189	0.183075	0.202633	0.199839	0.00409	0.197703
1190	0.182911	0.197867	0.196059	0.004255	0.197045
1191	0.184554	0.19721	0.201154	0.003433	0.194087
1192	0.184554	0.199839	0.197703	0.002775	0.199346
1193	0.18554	0.196881	0.199346	0.00409	0.19836
1194	0.182253	0.199839	0.196388	0.000967	0.201812
1195	0.183075	0.199839	0.198689	0.003104	0.198689
1196	0.185047	0.19836	0.197703	0.002775	0.200004
1197	0.186691	0.195895	0.199018	0.001625	0.198031
1198	0.183897	0.196552	0.194416	0.002447	0.201154
1199	0.186855	0.197045	0.198031	0.000967	0.199182
1200	0.189156	0.19836	0.196552	0.007706	0.198031
1201	0.190142	0.199675	0.197045	0.005241	0.19836
1202	0.188992	0.197703	0.198524	0.00294	0.199511
1203	0.192443	0.199182	0.198853	0.006227	0.202633
1204	0.187348	0.197703	0.199182	0.001789	0.199675
1205	0.192115	0.201319	0.197538	0.002118	0.200004
1206	0.190635	0.202469	0.197867	0.001954	0.198524
1207	0.194909	0.19836	0.197045	0.00294	0.20099
1208	0.1908	0.195237	0.202305	0.000474	0.199839
1209	0.190142	0.192772	0.197867	0.002118	0.20099
1210	0.192279	0.194087	0.198689	0.000474	0.199182
1211	0.191621	0.196881	0.194909	0.001789	0.199182
1212	0.192608	0.19573	0.193758	0.002611	0.19721
1213	0.192608	0.197703	0.196881	0.002775	0.198031
1214	0.19458	0.19836	0.196552	0.003433	0.199675
1215	0.1908	0.199511	0.195566	0.000474	0.20214
1216	0.193922	0.200168	0.197867	0.00409	0.198853
1217	0.193594	0.200004	0.200004	-0.001169	0.197703
1218	0.194251	0.200004	0.200168	0.00409	0.199018
1219	0.191128	0.199839	0.200497	-0.000347	0.200004
1220	0.193922	0.192115	0.197703	0.00294	0.199346
1221	0.192936	0.198524	0.197703	0.003761	0.198031
1222	0.19721	0.200004	0.197045	0.001954	0.20099
1223	0.192115	0.199675	0.199346	0.005405	0.196717
1224	0.196552	0.199182	0.19573	0.003104	0.197538
1225	0.195402	0.198196	0.201154	0.001625	0.198853
1226	0.194251	0.200004	0.199511	0.002775	0.200661
1227	0.191128	0.198031	0.197045	0.000803	0.199675
1228	0.196717	0.199182	0.198853	0.001789	0.200661
1229	0.194744	0.199182	0.200004	0.002447	0.200825
1230	0.193429	0.199675	0.19721	0.001132	0.197867
1231	0.195895	0.193429	0.197867	0.001954	0.197703
1232	0.195073	0.200661	0.199018	0.005076	0.198031
1233	0.196552	0.201976	0.19721	0.00031	0.199511
1234	0.195237	0.199675	0.199675	0.003597	0.197538
1235	0.197538	0.19721	0.196388	0.003597	0.198524
1236	0.198524	0.190142	0.201154	0.001296	0.200168
1237	0.19836	0.191621	0.198524	0.003761	0.200825
1238	0.196223	0.179623	0.198031	0.00294	0.197538
1239	0.197703	0.091528	0.193429	0.000967	0.202798
1240	0.19573	0.091035	0.200168	0.000967	0.19573
1241	0.194416	0.082488	0.196388	0.000967	0.199346
1242	0.193429	0.078873	0.200004	-0.000512	0.195402
1243	0.197703	0.087912	0.200661	-0.001005	0.195237
1244	0.195402	0.088898	0.198524	0.000146	0.201154
1245	0.194087	0.092843	0.197703	-0.000347	0.198031
1246	0.19573	0.077229	0.197703	0.000474	0.198524
1247	0.195237	0.036304	0.199839	0.00031	0.201647
1248	0.196881	0.018554	0.196223	0.00146	0.199018
1249	0.194909	0.012965	0.194087	0.000146	0.197703
1250	0.199346	0.006391	0.197045	0.003597	0.196388
1251	0.196717	0.008857	0.196717	-0.000183	0.195895
1252	0.19836	0.009021	0.198031	0.00146	0.200168
1253	0.19721	0.005569	0.199839	-0.000347	0.197703
1254	0.19721	0.005898	0.198689	-0.001498	0.196059
1255	0.198031	0.007049	0.197867	-0.000841	0.199182
1256	0.197867	0.010007	0.198524	0.00031	0.199018
1257	0.199839	0.002118	0.199839	0.000639	0.198689
1258	0.201647	0.002611	0.197867	-1.9e-05	0.20099
1259	0.198524	0.006556	0.200661	0.00031	0.200332
1260	0.198196	0.010171	0.196388	-1.9e-05	0.199018
1261	0.200332	0.009843	0.200168	-0.000841	0.20099
1262	0.198031	0.006884	0.195402	-0.000347	0.197045
1263	0.19721	0.009185	0.200332	0.00031	0.197045
1264	0.196223	0.013459	0.19573	-0.000512	0.196717
1265	0.199839	0.008692	0.196552	-0.000347	0.197374
1266	0.197045	0.005076	0.197703	0.000474	0.196881
1267	0.197374	0.005241	0.199018	0.000803	0.198031
1268	0.198853	0.005405	0.199018	0.000146	0.196223
1269	0.200332	0.004748	0.198853	0.002118	0.200168
1270	0.197045	0.003761	0.197703	-0.000183	0.198524
1271	0.196223	0.010829	0.197045	0.001954	0.198196
1272	0.200497	0.014609	0.201154	0.00031	0.196717
1273	0.199346	0.018718	0.201647	0.001132	0.196881
1274	0.199839	0.011158	0.200497	0.000803	0.197374
1275	0.19721	0.016417	0.199675	-0.000347	0.197703
1276	0.196223	0.005076	0.200332	0.000803	0.198524
1277	0.195237	0.009021	0.198689	-1.9e-05	0.198031
1278	0.196388	0.009021	0.199346	0.001296	0.19836
1279	0.197045	0.008035	0.20099	-0.000841	0.197867
1280	0.201319	0.005405	0.197867	0.002611	0.200004
1281	0.196223	0.003761	0.198689	-0.000676	0.201812
1282	0.197045	0.005569	0.199675	0.001789	0.200332
1283	0.197703	0.005076	0.198524	-0.000347	0.197538
1284	0.199182	0.001296	0.198689	0.001132	0.201812
1285	0.197374	0.002447	0.200332	-0.000841	0.195566
1286	0.198853	0.006884	0.197867	0.00294	0.195895
1287	0.200332	-0.000347	0.198689	0.001954	0.196552
1288	0.199675	0.004255	0.197045	0.002118	0.199346
1289	0.19836	0.003761	0.199018	0.003433	0.197867
1290	0.201319	0.002775	0.198524	0.001296	0.19721
1291	0.202962	0.000967	0.201154	0.00031	0.199182
1292	0.196717	0.002282	0.196552	-1.9e-05	0.201319
1293	0.200168	0.001296	0.200332	0.000474	0.198689
1294	0.198853	0.002282	0.201812	-1.9e-05	0.200168
1295	0.198524	0.001789	0.201483	-0.001005	0.202305
1296	0.196717	0.001954	0.19836	-0.000676	0.197374
1297	0.194744	0.003597	0.200004	-0.000183	0.197703
1298	0.198196	0.000474	0.199839	-0.000512	0.196388
1299	0.19836	0.001954	0.196388	-1.9e-05	0.20214
1300	0.195895	0.001625	0.199675	-0.001169	0.194744
1301	0.197867	0.002775	0.198196	0.000474	0.199182
1302	0.199018	0.004419	0.198689	0.000639	0.199346
1303	0.19836	0.00146	0.197538	0.000474	0.202798
1304	0.201483	0.001954	0.199675	0.000474	0.19836
1305	0.198524	0.004583	0.197867	-1.9e-05	0.19836
1306	0.198853	0.005898	0.199511	0.000146	0.198524
1307	0.194744	0.00935	0.199018	0.000146	0.198689
1308	0.197045	0.008692	0.197045	-0.000183	0.19836
1309	0.197374	0.002118	0.201483	0.000803	0.200004
1310	0.200497	0.001625	0.200497	0.002118	0.199182
1311	0.198689	0.002611	0.199346	0.002282	0.200661
1312	0.200332	0.002611	0.194251	0.00031	0.201154
1313	0.200004	0.007213	0.201154	0.00031	0.199018
1314	0.197538	0.011651	0.198853	0.001296	0.202469
1315	0.198031	0.006556	0.19836	-0.000183	0.200168
1316	0.200168	0.004748	0.197703	0.000639	0.199018
1317	0.198031	0.001625	0.199675	-0.000183	0.198689
1318	0.197374	0.002611	0.199346	-0.000676	0.193758
1319	0.198689	0.002118	0.196223	-0.000512	0.195402
1320	0.198196	0.00146	0.200168	-0.000183	0.199018
1321	0.200004	0.003433	0.202469	0.000474	0.195895
1322	0.199839	0.000146	0.199346	0.000803	0.196552
1323	0.201812	0.001789	0.199839	-1.9e-05	0.19573
1324	0.200497	0.002447	0.199511	0.000803	0.199346
1325	0.200497	0.001625	0.200661	0.001296	0.200332
1326	0.196388	0.003268	0.197867	0.000146	0.198031
1327	0.196881	0.001296	0.20099	0.000474	0.200004
1328	0.197045	0.001296	0.200004	-0.000183	0.200004
1329	0.197703	0.000639	0.200661	0.002118	0.191128
1330	0.196881	0.002611	0.200004	-0.000183	0.197703
1331	0.198689	0.002282	0.199675	-1.9e-05	0.199511
1332	0.196388	0.000803	0.200332	0.000474	0.198196
1333	0.197867	0.002118	0.197867	0.000146	0.198524
1334	0.197867	-0.003142	0.199675	0.000639	0.199018
1335	0.198853	0.002118	0.197703	0.002611	0.196717
1336	0.198196	0.000967	0.199839	0.002447	0.194909
1337	0.196223	0.001789	0.199511	0.001296	0.19721
1338	0.198853	0.001789	0.200004	0.006884	0.196223
1339	0.197045	0.002611	0.200332	0.013623	0.198196
1340	0.198196	0.002611	0.200661	0.018882	0.190142
1341	0.196717	0.005405	0.199511	0.029566	0.195566
1342	0.199182	0.002447	0.200004	0.038276	0.200332
1343	0.195566	0.001954	0.198524	0.044851	0.198524
1344	0.197045	0.000639	0.19836	0.052411	0.199346
1345	0.198031	0.004419	0.199675	0.056684	0.197538
1346	0.199511	0.003597	0.198196	0.06556	0.200004
1347	0.196717	0.000146	0.202469	0.067532	0.199018
1348	0.194416	0.001296	0.193265	0.071641	0.199675
1349	0.198853	0.002447	0.197374	0.077886	0.197538
1350	0.198031	0.00294	0.199675	0.08216	0.197867
1351	0.198689	-0.000841	0.19836	0.084789	0.193265
1352	0.19836	0.004748	0.196223	0.091364	0.198524
1353	0.20099	0.000803	0.198031	0.096952	0.197374
1354	0.196388	0.00409	0.198689	0.090706	0.200168
1355	0.200497	0.00294	0.197045	0.091857	0.198031
1356	0.197045	0.007377	0.197867	0.093829	0.194416
1357	0.200332	0.00672	0.198853	0.098595	0.197867
1358	0.20214	0.009185	0.197374	0.103033	0.199511
1359	0.197374	0.00672	0.197703	0.107306	0.200004
1360	0.197374	0.004583	0.199675	0.107964	0.197703
1361	0.199675	0.00672	0.199182	0.113059	0.201976
1362	0.200004	0.011815	0.194744	0.114702	0.197538
1363	0.197867	0.019375	0.193758	0.119797	0.197045
1364	0.20099	0.020855	0.199675	0.124893	0.198031
1365	0.200004	0.0271	0.196388	0.1267	0.200661
1366	0.200825	0.0271	0.196717	0.129166	0.19721
1367	0.198853	0.022169	0.196388	0.130316	0.200332
1368	0.201154	0.009843	0.198524	0.13574	0.198196
1369	0.19836	0.004912	0.196223	0.136562	0.199346
1370	0.199839	0.009678	0.200168	0.138863	0.197867
1371	0.197867	0.009678	0.199018	0.140671	0.196388
1372	0.201319	0.006391	0.199346	0.147245	0.198689
1373	0.202633	0.002447	0.198853	0.147738	0.200168
1374	0.201483	0.002611	0.196388	0.149217	0.198196
1375	0.200497	0.001132	0.201976	0.151847	0.197045
1376	0.200497	0.001625	0.197374	0.153162	0.199182
1377	0.200168	0.001789	0.19721	0.155134	0.197703
1378	0.200825	0.004748	0.199346	0.156449	0.196552
1379	0.199511	0.001296	0.199839	0.159736	0.198031
1380	0.198853	0.003268	0.19836	0.161215	0.200497
1381	0.200004	0.003104	0.199839	0.162695	0.19836
1382	0.197867	0.002775	0.199182	0.159736	0.198524
1383	0.200004	0.001625	0.200497	0.164831	0.202305
1384	0.198689	-0.000841	0.199675	0.163845	0.201483
1385	0.200332	0.000803	0.200004	0.164667	0.197867
1386	0.198196	0.002447	0.199018	0.165982	0.196552
1387	0.198689	0.002118	0.198196	0.16894	0.197538
1388	0.199182	0.005076	0.198524	0.171734	0.198196
1389	0.197374	0.006062	0.199182	0.174364	0.194416
1390	0.195566	0.002282	0.196881	0.172885	0.196552
1391	0.199346	0.001296	0.197867	0.175843	0.198689
1392	0.199675	0.003104	0.198031	0.176172	0.19573
1393	0.198853	0.000967	0.198196	0.177815	0.198689
1394	0.198524	-0.000183	0.201812	0.178966	0.196059
1395	0.198524	0.001954	0.199511	0.17798	0.203784
1396	0.19836	0.000967	0.199839	0.17913	0.198031
1397	0.197867	0.002447	0.199182	0.17798	0.200332
1398	0.198853	-0.001169	0.197703	0.181924	0.197867
1399	0.198031	0.001132	0.199346	0.179623	0.199839
1400	0.200661	-0.001334	0.197045	0.181267	0.199675
1401	0.199511	0.002447	0.198031	0.181267	0.198853
1402	0.198524	0.001296	0.199018	0.182746	0.201812
1403	0.199675	0.001789	0.199511	0.184061	0.198031
1404	0.19721	0.002447	0.200168	0.182746	0.197374
1405	0.198689	0.001296	0.198853	0.183897	0.198196
1406	0.199346	0.006062	0.198689	0.186526	0.20214
1407	0.196388	0.005898	0.200168	0.182746	0.195402
1408	0.202962	0.003597	0.199018	0.186198	0.197045
1409	0.19721	0.003433	0.201319	0.18439	0.195402
1410	0.202633	0.004419	0.195237	0.183732	0.19573
1411	0.202305	0.004583	0.197703	0.190964	0.196717
1412	0.200168	0.000803	0.195895	0.191128	0.195073
1413	0.200332	0.000967	0.193594	0.189156	0.194909
1414	0.199018	0.001625	0.195237	0.186526	0.197867
1415	0.200825	0.000803	0.19836	0.187184	0.195073
1416	0.199675	0.000639	0.197703	0.189978	0.194909
1417	0.200497	-0.001498	0.200661	0.189485	0.195895
1418	0.200004	0.002447	0.200168	0.188006	0.191128
1419	0.198196	0.001296	0.200168	0.190471	0.192443
1420	0.200004	0.000639	0.198853	0.188006	0.175843
1421	0.199675	0.000967	0.200004	0.189649	0.151683
1422	0.19836	0.001296	0.200825	0.189156	0.134754
1423	0.199675	0.000803	0.199511	0.191128	0.104184
1424	0.193758	0.000146	0.194909	0.190635	0.083475
1425	0.193429	0.001132	0.19573	0.189485	0.067368
1426	0.198689	0.00146	0.20099	0.191786	0.055041
1427	0.196059	0.00146	0.197374	0.190307	0.046166
1428	0.200497	-0.000512	0.200497	0.192772	0.030716
1429	0.197374	-1.9e-05	0.199346	0.192936	0.008035
1430	0.200004	-0.000183	0.198031	0.193594	0.002282
1431	0.199182	0.000146	0.19573	0.191457	0.002282
1432	0.199018	-1.9e-05	0.200332	0.192443	0.000803
1433	0.198031	0.000474	0.199018	0.189814	0.001789
1434	0.206085	0.000146	0.200332	0.193101	0.000146
1435	0.203126	0.000474	0.198031	0.192443	0.001132
1436	0.201319	-0.000347	0.196552	0.190964	0.000803
1437	0.198689	-1.9e-05	0.198853	0.192443	-1.9e-05
1438	0.200661	-0.000347	0.198031	0.190964	0.000474
1439	0.198196	-0.000347	0.200332	0.192608	0.001296
1440	0.198196	-0.000512	0.200004	0.190635	-0.000512
1441	0.196717	0.000639	0.199839	0.192936	0.000803
1442	0.197045	-0.000512	0.198853	0.189978	0.001625
1443	0.196223	0.000146	0.200004	0.198196	-0.000347
1444	0.197538	0.000474	0.197538	0.190142	0.00146
1445	0.198689	0.000146	0.200332	0.19573	-0.000183
1446	0.196059	0.00031	0.195402	0.194909	0.000146
1447	0.197867	-0.000183	0.196388	0.192115	0.000639
1448	0.198853	-0.000512	0.197374	0.194416	0.00031
1449	0.200825	-0.000512	0.198524	0.195895	0.000639
1450	0.198031	-0.000512	0.197538	0.19458	0.000803
1451	0.198196	-0.000841	0.201812	0.195402	0.00031
1452	0.199511	0.000474	0.200825	0.196388	0.00031
1453	0.20099	-0.000183	0.199182	0.195237	0.000803
1454	0.199511	0.00031	0.199675	0.195402	-0.000841
1455	0.199511	-1.9e-05	0.199018	0.19458	0.00294
1456	0.199511	-0.000183	0.20099	0.197045	-0.000841
1457	0.200004	-1.9e-05	0.197703	0.194909	0.002447
1458	0.196717	0.000146	0.199346	0.19721	-0.000512
1459	0.19721	-0.000347	0.200004	0.197538	0.006391
1460	0.195566	-0.000183	0.199018	0.199182	0.013623
1461	0.19721	-0.000183	0.19573	0.193594	0.02447
1462	0.200661	-0.000347	0.19573	0.196717	0.026936
1463	0.196388	0.000146	0.199675	0.19836	0.036469
1464	0.196717	0.000474	0.194416	0.19195	0.042714
1465	0.19836	0.000146	0.195566	0.194744	0.047973
1466	0.200661	0.000146	0.196717	0.193594	0.057835
1467	0.19721	0.000639	0.201319	0.195237	0.062437
1468	0.198689	0.000146	0.197867	0.198524	0.06671
1469	0.200497	-0.000347	0.200497	0.195073	0.075257
1470	0.20099	-0.000347	0.199511	0.199018	0.077393
1471	0.200004	-0.000347	0.202798	0.199182	0.080681
1472	0.199018	-1.9e-05	0.200497	0.196717	0.092021
1473	0.198853	0.002282	0.200004	0.198524	0.086269
1474	0.198689	0.004912	0.198689	0.198853	0.095966
1475	0.199346	0.007049	0.202305	0.195566	0.100403
1476	0.197867	0.008857	0.201976	0.196388	0.102376
1477	0.199511	0.015431	0.199675	0.196717	0.10632
1478	0.195895	0.024635	0.197374	0.195895	0.112237
1479	0.200497	0.031702	0.200497	0.19836	0.114045
1480	0.197538	0.038934	0.197538	0.194087	0.118647
1481	0.196717	0.045672	0.19836	0.196552	0.123413
1482	0.199018	0.050932	0.199839	0.193265	0.125057
1483	0.200332	0.05652	0.199182	0.197045	0.130481
1484	0.198196	0.065395	0.198689	0.196881	0.129988
1485	0.195073	0.067861	0.201647	0.198853	0.133275
1486	0.199018	0.074764	0.198196	0.19721	0.134097
1487	0.198031	0.08216	0.200004	0.19836	0.139192
1488	0.199511	0.084789	0.197867	0.201647	0.140835
1489	0.197867	0.088405	0.199018	0.19836	0.145602
1490	0.200168	0.092021	0.20099	0.199018	0.147574
1491	0.19836	0.100403	0.198689	0.197045	0.149546
1492	0.194744	0.100568	0.200825	0.196717	0.15234
1493	0.197045	0.104841	0.199511	0.19573	0.153819
1494	0.199675	0.10895	0.199511	0.198524	0.155627
1495	0.195073	0.112237	0.198196	0.196059	0.1576
1496	0.198689	0.115031	0.199018	0.200825	0.158421
1497	0.196881	0.119469	0.197374	0.198689	0.160229
1498	0.199018	0.121277	0.19721	0.200004	0.160722
1499	0.19836	0.125057	0.198689	0.196717	0.163352
1500	0.20099	0.129495	0.19721	0.197374	0.165324
1501	0.197867	0.130645	0.198853	0.199018	0.165324
1502	0.201319	0.135576	0.199018	0.199182	0.167461
1503	0.200661	0.137877	0.200168	0.199182	0.168118
1504	0.199182	0.139192	0.199182	0.199675	0.166639
1505	0.198196	0.140013	0.200004	0.199182	0.170748
1506	0.198196	0.143794	0.198524	0.197867	0.170255
1507	0.199511	0.144122	0.200497	0.201483	0.172227
1508	0.200168	0.14971	0.199511	0.194744	0.172392
1509	0.199839	0.148231	0.199511	0.199182	0.174693
1510	0.198031	0.15119	0.199839	0.19573	0.171406
1511	0.201154	0.154148	0.19458	0.198196	0.176008
1512	0.196059	0.154641	0.200004	0.192608	0.178802
1513	0.200004	0.155299	0.19836	0.196717	0.178309
1514	0.203126	0.159079	0.200661	0.196717	0.179788
1515	0.195895	0.161873	0.197045	0.19721	0.181103
1516	0.195402	0.163188	0.197703	0.197867	0.179788
1517	0.196717	0.164831	0.19721	0.198689	0.182911
1518	0.199018	0.164174	0.199511	0.20214	0.181596
1519	0.198031	0.168612	0.198524	0.196059	0.183075
1520	0.199839	0.167954	0.199511	0.200332	0.182417
1521	0.200825	0.171406	0.197867	0.197867	0.183568
1522	0.200168	0.171077	0.200661	0.196388	0.183075
1523	0.199346	0.173871	0.199018	0.200168	0.185047
1524	0.198853	0.171077	0.203948	0.199018	0.188663
1525	0.196223	0.174035	0.201647	0.196059	0.187677
1526	0.200661	0.174035	0.202633	0.200661	0.186691
1527	0.19836	0.174035	0.200332	0.197538	0.187513
1528	0.197538	0.177815	0.199346	0.200168	0.187184
1529	0.197703	0.175843	0.200825	0.198689	0.18817
1530	0.198689	0.180445	0.197703	0.198524	0.191128
1531	0.196881	0.176829	0.198689	0.194909	0.187513
1532	0.197867	0.178802	0.197703	0.194251	0.192115
1533	0.19836	0.182911	0.200661	0.198689	0.186362
1534	0.19458	0.181267	0.197703	0.196059	0.192443
1535	0.199839	0.182253	0.201319	0.196717	0.189156
1536	0.200661	0.187841	0.199839	0.198853	0.189814
1537	0.200825	0.185212	0.200004	0.199346	0.188334
1538	0.199182	0.186855	0.200332	0.198689	0.190964
1539	0.200661	0.186198	0.20099	0.201812	0.18932
1540	0.199182	0.18554	0.201319	0.200825	0.188992
1541	0.200661	0.188827	0.200004	0.203291	0.191786
1542	0.19836	0.186691	0.197867	0.20214	0.195402
1543	0.201154	0.186033	0.201154	0.200825	0.193922
1544	0.199182	0.189156	0.200332	0.19836	0.193101
1545	0.197538	0.183239	0.198031	0.200332	0.196552
1546	0.195402	0.187184	0.198524	0.196223	0.193758
1547	0.196552	0.189814	0.20099	0.198524	0.196881
1548	0.198031	0.188499	0.200004	0.198853	0.194416
1549	0.196059	0.189814	0.199675	0.198031	0.196717
1550	0.19573	0.189485	0.199182	0.197374	0.193429
1551	0.198031	0.188663	0.198853	0.198853	0.195402
1552	0.200332	0.191128	0.200497	0.198196	0.192608
1553	0.199018	0.190964	0.197703	0.199675	0.194744
1554	0.199675	0.192115	0.198689	0.197374	0.192115
1555	0.200004	0.194909	0.19836	0.196223	0.19458
1556	0.200332	0.193101	0.197374	0.200497	0.198689
1557	0.198031	0.193265	0.199018	0.19573	0.195566
1558	0.201647	0.191128	0.198031	0.200497	0.198031
1559	0.198689	0.193594	0.199839	0.194909	0.196059
1560	0.199839	0.193101	0.199018	0.199182	0.198524
1561	0.198524	0.192443	0.199346	0.19836	0.196388
1562	0.195073	0.190964	0.197538	0.200661	0.197703
1563	0.199018	0.189485	0.197045	0.200168	0.19573
1564	0.200004	0.195073	0.199839	0.200004	0.197703
1565	0.201319	0.193922	0.198031	0.197045	0.194087
1566	0.200825	0.192772	0.197045	0.198689	0.196881
1567	0.19836	0.190471	0.19721	0.198689	0.199182
1568	0.199675	0.196388	0.19573	0.196059	0.197374
1569	0.199675	0.194744	0.20099	0.200168	0.195895
1570	0.196717	0.196552	0.199018	0.198196	0.195566
1571	0.200004	0.195402	0.199346	0.198031	0.200004
1572	0.195073	0.195566	0.200004	0.199346	0.196717
1573	0.201812	0.197867	0.198853	0.201647	0.196223
1574	0.198524	0.198196	0.199182	0.197538	0.196717
1575	0.200332	0.196717	0.200004	0.20099	0.197867
1576	0.199346	0.194251	0.201647	0.19836	0.197867
1577	0.20099	0.196388	0.19836	0.200004	0.197703
1578	0.198689	0.194416	0.200004	0.197045	0.198853
1579	0.196388	0.196717	0.19721	0.197538	0.201976
1580	0.198524	0.194744	0.200497	0.197374	0.19573
1581	0.197703	0.197374	0.200825	0.199182	0.199018
1582	0.196388	0.194909	0.20099	0.196552	0.200004
1583	0.197867	0.196717	0.197703	0.19721	0.196059
1584	0.200004	0.195895	0.199675	0.198031	0.196059
1585	0.197703	0.196717	0.198853	0.193922	0.197867
1586	0.20099	0.197045	0.199511	0.196881	0.193758
1587	0.196552	0.19721	0.198031	0.194744	0.195073
1588	0.200661	0.192772	0.200661	0.194416	0.196717
1589	0.196388	0.192936	0.200168	0.164996	0.195237
1590	0.201319	0.199018	0.199182	0.113552	0.19721
1591	0.199182	0.194744	0.198524	0.117825	0.194744
1592	0.198853	0.19721	0.200497	0.12292	0.195237
1593	0.196717	0.197374	0.199511	0.125879	0.197538
1594	0.196388	0.198031	0.199675	0.126865	0.198196
1595	0.199018	0.195402	0.200497	0.127029	0.196717
1596	0.198689	0.197703	0.200168	0.117661	0.200497
1597	0.197867	0.19573	0.200497	0.118811	0.199182
1598	0.195566	0.197703	0.19836	0.121277	0.199182
1599	0.200825	0.196881	0.199018	0.12555	0.197867
1600	0.198853	0.193101	0.199018	0.128015	0.199675
1601	0.200004	0.199018	0.197703	0.131467	0.198524
1602	0.197538	0.197045	0.199182	0.133275	0.198524
1603	0.200004	0.199018	0.199018	0.138863	0.197374
1604	0.196223	0.199182	0.197867	0.13952	0.199018
1605	0.19836	0.197538	0.199018	0.140506	0.198524
1606	0.199346	0.197538	0.199675	0.14593	0.197374
1607	0.200332	0.199182	0.197374	0.147081	0.201319
1608	0.200168	0.193594	0.199182	0.143629	0.19836
1609	0.199675	0.196717	0.198196	0.15234	0.198853
1610	0.200332	0.196059	0.198689	0.154641	0.196881
1611	0.200661	0.195073	0.194251	0.156778	0.200497
1612	0.201483	0.196388	0.196717	0.156613	0.200004
1613	0.197538	0.19573	0.198524	0.157928	0.20099
1614	0.200825	0.200004	0.19458	0.156942	0.198689
1615	0.197703	0.197374	0.19721	0.159901	0.200332
1616	0.200825	0.198196	0.199346	0.163188	0.199346
1617	0.19836	0.195895	0.201319	0.161709	0.198689
1618	0.200497	0.197538	0.198853	0.166639	0.199346
1619	0.196881	0.196717	0.199018	0.16516	0.199018
1620	0.201976	0.199511	0.201154	0.167625	0.197538
1621	0.19836	0.199511	0.200332	0.169598	0.194251
1622	0.19721	0.196552	0.197045	0.172392	0.199182
1623	0.199018	0.199839	0.196881	0.171734	0.19721
1624	0.196223	0.199182	0.200004	0.174035	0.200332
1625	0.200497	0.197703	0.199018	0.175515	0.198853
1626	0.200168	0.200497	0.19836	0.175515	0.199182
1627	0.197374	0.199182	0.198196	0.179623	0.199182
1628	0.199675	0.199346	0.198853	0.177158	0.199675
1629	0.200661	0.191621	0.199346	0.179623	0.200004
1630	0.198031	0.195402	0.197374	0.178802	0.202962
1631	0.199839	0.196388	0.200661	0.180774	0.201976
1632	0.200497	0.196223	0.19573	0.177815	0.19836
1633	0.201483	0.194909	0.199182	0.183568	0.200004
1634	0.197703	0.199675	0.19721	0.180116	0.19836
1635	0.19836	0.198196	0.200497	0.180938	0.201319
1636	0.197045	0.199018	0.199511	0.180938	0.200004
1637	0.201319	0.200168	0.199346	0.182746	0.199839
1638	0.200168	0.199018	0.198524	0.18554	0.195073
1639	0.197045	0.199182	0.202305	0.185047	0.200332
1640	0.199346	0.198689	0.20099	0.187677	0.197538
1641	0.197703	0.200497	0.197703	0.185047	0.197045
1642	0.19573	0.196881	0.200004	0.185376	0.196552
1643	0.199839	0.199675	0.19836	0.189156	0.198689
1644	0.198524	0.197374	0.200332	0.189978	0.199346
1645	0.195237	0.199839	0.19573	0.188006	0.202305
1646	0.197045	0.197703	0.19721	0.192115	0.197045
1647	0.197538	0.199018	0.19721	0.18932	0.199839
1648	0.201647	0.196059	0.200168	0.192279	0.201154
1649	0.197374	0.199675	0.200825	0.190635	0.198689
1650	0.200661	0.203784	0.201483	0.189814	0.199511
1651	0.199346	0.199839	0.199346	0.191457	0.198689
1652	0.198853	0.200332	0.19836	0.190964	0.200168
1653	0.199182	0.19836	0.19836	0.1908	0.200004
1654	0.200332	0.200004	0.198689	0.192115	0.199346
1655	0.198031	0.194744	0.195566	0.19195	0.199018
1656	0.19836	0.202633	0.196717	0.193101	0.199511
1657	0.199346	0.196223	0.200168	0.1908	0.199018
1658	0.200825	0.19721	0.196881	0.194416	0.200497
1659	0.200825	0.195566	0.199511	0.195566	0.199675
1660	0.196388	0.200497	0.196881	0.196881	0.199511
1661	0.200004	0.197045	0.197867	0.1908	0.200004
1662	0.198524	0.196717	0.196552	0.195237	0.199839
1663	0.202469	0.199018	0.199511	0.193265	0.201976
1664	0.198524	0.198524	0.199346	0.194744	0.200332
1665	0.199511	0.199346	0.19721	0.197703	0.200168
1666	0.195895	0.19836	0.197703	0.198853	0.199182
1667	0.197374	0.197703	0.200332	0.196223	0.196552
1668	0.197374	0.19836	0.201647	0.197045	0.199511
1669	0.198196	0.198031	0.198689	0.194416	0.20099
1670	0.198689	0.197867	0.198853	0.193594	0.19836
1671	0.199675	0.203291	0.197045	0.193758	0.198853
1672	0.196388	0.196552	0.200497	0.193101	0.200332
1673	0.200168	0.198689	0.199182	0.193758	0.199346
1674	0.199018	0.198853	0.199182	0.19573	0.197045
1675	0.196388	0.199346	0.197538	0.194909	0.199839
1676	0.19836	0.200004	0.200004	0.196552	0.196223
1677	0.195073	0.198031	0.198031	0.196881	0.197045
1678	0.198524	0.200004	0.19458	0.199018	0.200825
1679	0.198031	0.204113	0.196717	0.196552	0.200332
1680	0.200168	0.202962	0.200168	0.19458	0.199182
1681	0.198196	0.199018	0.196388	0.192772	0.199346
1682	0.199018	0.203291	0.198524	0.192279	0.200004
1683	0.200497	0.198689	0.199675	0.19458	0.200004
1684	0.198689	0.199346	0.197703	0.194909	0.199511
1685	0.198853	0.198196	0.19836	0.193429	0.19836
1686	0.198031	0.199018	0.197867	0.196552	0.198524
1687	0.200168	0.198524	0.199346	0.195402	0.196552
1688	0.19573	0.200004	0.198524	0.198853	0.199182
1689	0.198524	0.200004	0.19836	0.198031	0.19836
1690	0.197374	0.199346	0.198689	0.199182	0.199675
1691	0.19573	0.198689	0.200168	0.195073	0.198689
1692	0.195566	0.197703	0.198196	0.19458	0.199182
1693	0.199839	0.200825	0.200332	0.18932	0.198524
1694	0.197045	0.199018	0.199839	0.194909	0.199018
1695	0.199346	0.199182	0.199346	0.196223	0.202305
1696	0.197703	0.198853	0.20099	0.197703	0.202305
1697	0.19836	0.199346	0.200004	0.198853	0.204934
1698	0.198196	0.200825	0.198524	0.197867	0.199346
1699	0.199346	0.198524	0.200332	0.201812	0.201319
1700	0.200332	0.197703	0.198689	0.198689	0.200004
1701	0.197703	0.199675	0.198853	0.199511	0.199511
1702	0.201812	0.199018	0.198689	0.199346	0.198196
1703	0.199182	0.198196	0.199182	0.199182	0.202798
1704	0.200497	0.199346	0.200004	0.189978	0.198524
1705	0.199511	0.19836	0.199346	0.196059	0.199346
1706	0.20099	0.197374	0.198524	0.197703	0.198689
1707	0.197374	0.199018	0.199839	0.196388	0.200332
1708	0.199675	0.197045	0.199018	0.201812	0.197867
1709	0.196388	0.196059	0.197045	0.199346	0.199675
1710	0.199346	0.19573	0.198853	0.202962	0.199346
1711	0.198196	0.19721	0.19721	0.199346	0.200004
1712	0.197045	0.198196	0.19573	0.201154	0.19836
1713	0.198196	0.197045	0.195073	0.198524	0.199182
1714	0.199182	0.199511	0.197374	0.201154	0.200661
1715	0.203784	0.200168	0.200004	0.192936	0.201154
1716	0.199511	0.200168	0.199675	0.199346	0.198689
1717	0.198689	0.196552	0.198524	0.196059	0.204606
1718	0.199839	0.198689	0.199839	0.200004	0.20099
1719	0.200661	0.198853	0.200497	0.198853	0.201483
1720	0.198524	0.199018	0.197867	0.197045	0.200661
1721	0.198689	0.196717	0.201319	0.201154	0.198196
1722	0.196223	0.199511	0.199018	0.147245	0.20099
1723	0.200332	0.19836	0.200168	0.14971	0.198031
1724	0.197374	0.198031	0.199182	0.150697	0.199018
1725	0.200497	0.198031	0.199675	0.153984	0.199511
1726	0.199182	0.200497	0.198031	0.155627	0.197374
1727	0.198853	0.200332	0.199346	0.156778	0.198031
1728	0.196717	0.198853	0.195402	0.158586	0.199182
1729	0.197703	0.195566	0.20099	0.160558	0.198196
1730	0.198853	0.199675	0.199346	0.160394	0.199018
1731	0.197538	0.200332	0.200825	0.162366	0.196388
1732	0.19573	0.196881	0.200004	0.164831	0.19836
1733	0.196717	0.201319	0.200332	0.168118	0.200004
1734	0.200497	0.199182	0.200497	0.167297	0.198524
1735	0.19573	0.198524	0.200168	0.169269	0.199839
1736	0.200497	0.19836	0.198689	0.169762	0.197703
1737	0.19721	0.201483	0.19836	0.173871	0.197703
1738	0.20099	0.19721	0.202305	0.171406	0.195895
1739	0.19721	0.199839	0.19721	0.173871	0.197045
1740	0.201483	0.197867	0.20099	0.175515	0.198524
1741	0.200004	0.198031	0.199511	0.177322	0.198689
1742	0.195566	0.19836	0.200825	0.174364	0.198196
1743	0.195895	0.197045	0.200332	0.175679	0.199511
1744	0.198031	0.197867	0.200004	0.179459	0.197703
1745	0.195895	0.198689	0.199182	0.179788	0.19458
1746	0.195073	0.199018	0.196059	0.180445	0.196552
1747	0.197538	0.199346	0.200332	0.184061	0.197045
1748	0.199839	0.198524	0.197703	0.186691	0.200332
1749	0.199839	0.195237	0.200332	0.182089	0.197374
1750	0.198853	0.204277	0.195895	0.181431	0.200168
1751	0.200497	0.199182	0.198031	0.183568	0.199675
1752	0.192936	0.19836	0.199018	0.187677	0.199675
1753	0.199018	0.199346	0.197045	0.186198	0.197538
1754	0.199182	0.197703	0.199182	0.185047	0.201319
1755	0.197867	0.196881	0.204113	0.188499	0.199839
1756	0.197703	0.199511	0.197703	0.187184	0.199511
1757	0.198524	0.19836	0.199018	0.190964	0.200004
1758	0.20099	0.196223	0.201647	0.188006	0.200497
1759	0.199018	0.196059	0.201154	0.194087	0.196388
1760	0.19721	0.192772	0.199018	0.187348	0.198853
1761	0.199182	0.198196	0.198031	0.190142	0.19836
1762	0.199511	0.197867	0.197045	0.18932	0.196881
1763	0.1908	0.195895	0.195402	0.189156	0.19836
1764	0.197045	0.197374	0.199018	0.191128	0.195566
1765	0.198196	0.197867	0.193265	0.189485	0.204441
1766	0.201812	0.20214	0.196881	0.186855	0.202305
1767	0.200004	0.199018	0.198196	0.191621	0.197045
1768	0.200332	0.197374	0.197538	0.190142	0.195237
1769	0.198689	0.199182	0.198853	0.188663	0.197867
1770	0.202305	0.197867	0.199675	0.195895	0.196223
1771	0.198196	0.198031	0.19721	0.19195	0.197703
1772	0.19836	0.196223	0.199839	0.192443	0.199182
1773	0.19836	0.197538	0.199839	0.193101	0.199018
1774	0.191786	0.198031	0.200004	0.194087	0.19836
1775	0.196388	0.197374	0.199018	0.191786	0.19573
1776	0.196059	0.198689	0.199839	0.195237	0.200825
1777	0.198196	0.19573	0.200825	0.193758	0.199839
1778	0.197374	0.200168	0.199018	0.194744	0.199675
1779	0.19721	0.198524	0.200168	0.192443	0.197538
1780	0.198031	0.196059	0.198196	0.194416	0.200004
1781	0.197374	0.196881	0.199346	0.193265	0.195895
1782	0.197703	0.196059	0.196881	0.190964	0.19836
1783	0.20214	0.197538	0.198524	0.195566	0.198524
1784	0.198689	0.198689	0.196717	0.193758	0.199511
1785	0.191293	0.198196	0.20099	0.19573	0.19836
1786	0.198524	0.198689	0.197703	0.195566	0.194251
1787	0.202305	0.19836	0.199839	0.196881	0.19721
1788	0.199346	0.198853	0.199182	0.196717	0.198689
1789	0.201319	0.200825	0.200497	0.19836	0.198031
1790	0.197703	0.199018	0.199182	0.195402	0.19836
1791	0.203948	0.197867	0.199018	0.198196	0.199346
1792	0.198031	0.19573	0.201319	0.195895	0.196388
1793	0.197538	0.197867	0.197374	0.193758	0.201154
1794	0.199018	0.196223	0.19721	0.193594	0.199839
1795	0.197867	0.199346	0.195895	0.196552	0.200497
1796	0.193758	0.197538	0.197538	0.195566	0.196717
1797	0.193922	0.19836	0.197374	0.194087	0.195073
1798	0.199511	0.196388	0.198853	0.196388	0.198689
1799	0.194744	0.203126	0.199182	0.197538	0.199182
1800	0.197538	0.196223	0.200168	0.197538	0.196552
1801	0.197538	0.197538	0.197045	0.198031	0.199182
1802	0.199018	0.199346	0.198196	0.198853	0.199346
1803	0.19836	0.197045	0.197374	0.194251	0.200825
1804	0.199346	0.19836	0.19836	0.19836	0.199182
1805	0.199675	0.197867	0.200332	0.197374	0.198689
1806	0.200168	0.200168	0.199018	0.196881	0.198196
1807	0.201976	0.198031	0.19721	0.196388	0.197538
1808	0.199346	0.200661	0.194909	0.202305	0.199346
1809	0.198196	0.196717	0.200332	0.195895	0.198524
1810	0.19721	0.196881	0.19721	0.196388	0.200825
1811	0.199346	0.197045	0.194416	0.198031	0.196881
1812	0.195566	0.19836	0.198689	0.196717	0.199511
1813	0.200168	0.194087	0.196717	0.196223	0.201647
1814	0.197045	0.195566	0.195895	0.197045	0.200332
1815	0.197703	0.19721	0.196223	0.195237	0.197045
1816	0.195566	0.198524	0.196552	0.19573	0.19458
1817	0.198689	0.197374	0.199839	0.199182	0.196881
1818	0.204113	0.198524	0.197867	0.196388	0.198031
1819	0.196881	0.199839	0.200004	0.197045	0.199511
1820	0.198853	0.198853	0.202962	0.197867	0.200332
1821	0.198853	0.198031	0.200332	0.198853	0.200004
1822	0.197538	0.199839	0.200332	0.196552	0.199511
1823	0.200004	0.199182	0.200661	0.200168	0.199018
1824	0.198524	0.198031	0.200661	0.197703	0.199675
1825	0.198853	0.197703	0.196717	0.200332	0.198524
1826	0.198689	0.19836	0.199182	0.195895	0.197538
1827	0.19836	0.198689	0.199346	0.198196	0.200825
1828	0.196717	0.19573	0.199675	0.197703	0.197538
1829	0.202469	0.200497	0.198689	0.196717	0.200004
1830	0.196059	0.199675	0.199018	0.196388	0.19836
1831	0.199018	0.200825	0.199018	0.197045	0.197374
1832	0.200004	0.197867	0.198853	0.198524	0.19836
1833	0.199511	0.199018	0.197867	0.196717	0.199018
1834	0.198853	0.198524	0.199018	0.19573	0.19836
1835	0.198196	0.196388	0.197538	0.194251	0.199018
1836	0.199511	0.197538	0.193101	0.200332	0.197374
1837	0.197703	0.200004	0.197045	0.194744	0.194744
1838	0.199511	0.198196	0.197538	0.196717	0.196552
1839	0.193265	0.197867	0.20099	0.195073	0.197374
1840	0.199346	0.199182	0.203948	0.19836	0.19836
1841	0.194251	0.19836	0.202305	0.197703	0.193429
1842	0.19573	0.200332	0.204277	0.198524	0.19836
1843	0.198524	0.197538	0.203126	0.199182	0.19721
1844	0.196388	0.198689	0.197703	0.19836	0.197703
1845	0.19721	0.196881	0.199346	0.198031	0.199018
1846	0.196223	0.194744	0.199018	0.197045	0.200332
1847	0.200497	0.196552	0.187677	0.198853	0.201154
1848	0.200661	0.20099	0.193594	0.197703	0.196059
1849	0.19836	0.198853	0.199346	0.19721	0.197703
1850	0.198524	0.195895	0.195402	0.196881	0.197538
1851	0.196881	0.202962	0.197867	0.199511	0.196388
1852	0.19458	0.200825	0.197538	0.196388	0.19836
1853	0.200332	0.200497	0.198031	0.195566	0.199839
1854	0.198196	0.20099	0.199182	0.197538	0.198031
1855	0.19836	0.20099	0.198031	0.200004	0.199511
1856	0.199018	0.199346	0.199182	0.199018	0.198853
1857	0.199182	0.190307	0.197867	0.197867	0.200332
1858	0.200332	0.195895	0.188827	0.20362	0.197703
1859	0.199675	0.198853	0.197703	0.197538	0.197867
1860	0.204441	0.19573	0.196881	0.197703	0.200004
1861	0.197538	0.196717	0.193758	0.195073	0.199018
1862	0.200661	0.19573	0.199346	0.202633	0.199018
1863	0.197703	0.20099	0.198689	0.195402	0.200168
1864	0.199182	0.199675	0.19721	0.194744	0.198196
1865	0.195073	0.197538	0.198031	0.197374	0.199018
1866	0.198031	0.198853	0.199018	0.199675	0.198524
1867	0.195073	0.198196	0.198524	0.19836	0.202633
1868	0.197867	0.190471	0.197374	0.199018	0.196881
1869	0.195073	0.196881	0.187184	0.196059	0.195566
1870	0.198196	0.198853	0.198524	0.196059	0.197867
1871	0.197867	0.199675	0.199182	0.19721	0.196059
1872	0.197374	0.199675	0.200168	0.198524	0.198196
1873	0.201154	0.199182	0.199182	0.198031	0.195237
1874	0.199839	0.20099	0.199511	0.197867	0.199675
1875	0.197374	0.200332	0.198524	0.197538	0.197374
1876	0.197045	0.199839	0.198853	0.20099	0.199675
1877	0.199839	0.19836	0.20099	0.197374	0.199839
1878	0.19836	0.20099	0.196881	0.196552	0.200004
1879	0.19836	0.191128	0.199675	0.198689	0.20099
1880	0.199018	0.195895	0.197045	0.195566	0.198689
1881	0.202305	0.200332	0.197703	0.196881	0.200332
1882	0.200332	0.198689	0.198853	0.196388	0.197374
1883	0.199346	0.19836	0.197867	0.197867	0.199018
1884	0.200004	0.198689	0.197374	0.192279	0.197538
1885	0.197703	0.199346	0.198031	0.19836	0.195402
1886	0.197703	0.198853	0.19836	0.195895	0.197703
1887	0.197374	0.199346	0.199018	0.198196	0.199511
1888	0.19721	0.199182	0.19836	0.198031	0.195402
1889	0.197867	0.199839	0.199511	0.196717	0.197703
1890	0.19836	0.196552	0.201154	0.199018	0.198689
1891	0.198689	0.199346	0.200004	0.200825	0.198853
1892	0.198031	0.197703	0.198689	0.200004	0.200004
1893	0.199018	0.197867	0.199018	0.197703	0.200497
1894	0.198524	0.19836	0.197703	0.199018	0.199182
1895	0.197045	0.19836	0.197703	0.197703	0.201483
1896	0.198853	0.198689	0.198853	0.199675	0.199018
1897	0.198853	0.19721	0.197867	0.196717	0.200497
1898	0.200825	0.195566	0.198196	0.20099	0.202305
1899	0.198689	0.195895	0.199346	0.199675	0.198196
1900	0.197867	0.199511	0.197374	0.199018	0.199675
1901	0.197045	0.198196	0.198524	0.198196	0.200168
1902	0.199182	0.195566	0.207893	0.201154	0.199182
1903	0.200332	0.195895	0.19573	0.196717	0.197703
1904	0.19458	0.197867	0.198196	0.197374	0.198853
1905	0.200497	0.197045	0.197703	0.198524	0.196881
1906	0.199182	0.200332	0.197374	0.199346	0.198031
1907	0.198196	0.199511	0.199675	0.199182	0.197045
1908	0.198196	0.196223	0.196717	0.199675	0.197867
1909	0.19458	0.19836	0.199839	0.198196	0.199182
1910	0.202633	0.199675	0.198031	0.197703	0.19836
1911	0.200332	0.198853	0.196059	0.201154	0.19836
1912	0.197538	0.20362	0.197374	0.197703	0.200497
1913	0.201319	0.195402	0.200825	0.199511	0.199675
1914	0.198196	0.19836	0.196223	0.196717	0.198524
1915	0.200004	0.197867	0.196388	0.198524	0.203455
1916	0.199018	0.198524	0.197374	0.196717	0.200661
1917	0.197045	0.198689	0.199018	0.195237	0.201154
1918	0.196223	0.198524	0.195566	0.196059	0.195895
1919	0.19721	0.200825	0.198853	0.195402	0.19836
1920	0.198196	0.198196	0.19721	0.194744	0.20099
1921	0.198031	0.199346	0.195402	0.196223	0.196717
1922	0.198524	0.199511	0.197538	0.199018	0.196717
1923	0.197374	0.205592	0.197538	0.196717	0.199182
1924	0.200168	0.197538	0.20214	0.201483	0.19573
1925	0.198524	0.198689	0.197538	0.196388	0.196717
1926	0.197374	0.200168	0.195895	0.198853	0.19721
1927	0.196717	0.198689	0.19836	0.195895	0.19721
1928	0.198689	0.198689	0.198196	0.197045	0.19836
1929	0.19573	0.197703	0.19836	0.198031	0.19836
1930	0.199839	0.198524	0.199675	0.19721	0.197867
1931	0.198031	0.193594	0.19836	0.196388	0.200661
1932	0.198853	0.200004	0.199839	0.201154	0.200168
1933	0.196717	0.199839	0.199018	0.20099	0.196881
1934	0.19573	0.198853	0.198524	0.197374	0.200497
1935	0.200168	0.198031	0.198196	0.198524	0.195566
1936	0.197703	0.199182	0.197703	0.198689	0.196223
1937	0.197374	0.197703	0.199839	0.198196	0.196552
1938	0.197703	0.198689	0.19836	0.19836	0.195402
1939	0.196388	0.200168	0.195895	0.199346	0.195237
1940	0.198689	0.198853	0.193922	0.196552	0.197703
1941	0.197867	0.199839	0.194909	0.197867	0.196717
1942	0.193265	0.201154	0.199346	0.199182	0.195237
1943	0.196059	0.198524	0.197703	0.198031	0.201319
1944	0.196059	0.197867	0.197374	0.198031	0.19836
1945	0.194909	0.200168	0.199346	0.201319	0.201154
1946	0.196881	0.196059	0.199182	0.198853	0.19836
1947	0.19836	0.195895	0.199018	0.199018	0.195895
1948	0.198689	0.198524	0.19836	0.199675	0.198689
1949	0.199182	0.200497	0.19836	0.199346	0.200332
1950	0.198689	0.200825	0.199839	0.200004	0.197867
1951	0.19721	0.198689	0.198689	0.199018	0.201647
1952	0.199346	0.202305	0.198524	0.19836	0.200825
1953	0.197045	0.201319	0.198853	0.199018	0.197867
1954	0.198853	0.198031	0.20099	0.199511	0.198689
1955	0.198031	0.199675	0.199182	0.199182	0.198031
1956	0.19836	0.200004	0.198031	0.200332	0.198689
1957	0.19836	0.198689	0.19721	0.199182	0.198524
1958	0.199675	0.199018	0.199018	0.201812	0.19721
1959	0.194744	0.197538	0.197703	0.197538	0.197045
1960	0.19721	0.196717	0.198524	0.197538	0.19836
1961	0.203948	0.19836	0.19721	0.199675	0.197703
1962	0.196552	0.197867	0.19458	0.199511	0.199018
1963	0.19721	0.196552	0.194251	0.198031	0.198689
1964	0.199346	0.201154	0.199839	0.199675	0.202633
1965	0.19836	0.198524	0.19721	0.199511	0.198689
1966	0.20099	0.199182	0.196881	0.19836	0.19836
1967	0.198689	0.198524	0.199346	0.199346	0.199018
1968	0.19836	0.200332	0.200661	0.195895	0.19836
1969	0.200497	0.198031	0.201812	0.200497	0.200497
1970	0.198689	0.197867	0.200168	0.197045	0.195895
1971	0.19836	0.198689	0.203126	0.199839	0.197045
1972	0.200661	0.196717	0.198853	0.199018	0.19836
1973	0.198031	0.199182	0.197703	0.203126	0.199675
1974	0.196881	0.198853	0.197374	0.194909	0.198524
1975	0.198853	0.202305	0.198853	0.199346	0.198196
1976	0.196059	0.200332	0.196059	0.198524	0.198853
1977	0.198524	0.199346	0.199018	0.200004	0.199182
1978	0.194744	0.201154	0.199511	0.198524	0.197703
1979	0.197538	0.200168	0.201154	0.200497	0.197045
1980	0.199839	0.198031	0.199182	0.198196	0.197538
1981	0.19836	0.202305	0.197703	0.197703	0.199018
1982	0.196388	0.198196	0.197867	0.196388	0.19836
1983	0.197867	0.19836	0.201154	0.199839	0.201154
1984	0.200004	0.197867	0.201154	0.19836	0.198524
1985	0.193922	0.200661	0.197045	0.195895	0.199018
1986	0.198689	0.200497	0.200661	0.201319	0.196552
1987	0.19836	0.198031	0.200497	0.199511	0.196717
1988	0.198689	0.198524	0.199675	0.199511	0.19721
1989	0.19721	0.201647	0.198524	0.198031	0.196717
1990	0.198196	0.196059	0.202962	0.20099	0.195237
1991	0.192443	0.198031	0.198524	0.197703	0.197045
1992	0.196552	0.198524	0.200661	0.199675	0.199182
1993	0.195073	0.198524	0.19721	0.196552	0.19573
1994	0.197538	0.197867	0.197703	0.19721	0.199511
1995	0.195237	0.195402	0.197867	0.197867	0.198689
1996	0.194087	0.201976	0.195237	0.196388	0.199018
1997	0.196881	0.201976	0.201319	0.200661	0.196717
1998	0.198031	0.201647	0.195895	0.199346	0.192279
1999	0.198524	0.199182	0.199018	0.199839	0.198031
2000	0.196881	0.201647	0.197867	0.198853	0.197867
2001	0.200497	0.198689	0.201483	0.19836	0.196881
2002	0.198031	0.198524	0.198031	0.197045	0.199675
2003	0.200332	0.196223	0.200332	0.200332	0.198689
2004	0.19836	0.196717	0.199839	0.19836	0.199018
2005	0.198524	0.198031	0.199675	0.199182	0.200332
2006	0.197867	0.199839	0.198689	0.199675	0.19836
2007	0.200004	0.196059	0.197374	0.199346	0.199346
2008	0.200332	0.193429	0.199018	0.199511	0.198524
2009	0.198031	0.197867	0.199018	0.201154	0.200004
2010	0.196552	0.195895	0.196059	0.196388	0.19836
2011	0.195402	0.197374	0.196059	0.20099	0.197374
2012	0.196717	0.196881	0.199675	0.199018	0.200497
2013	0.199182	0.200497	0.195895	0.196552	0.20099
2014	0.198031	0.19836	0.197703	0.19836	0.195895
2015	0.197867	0.199675	0.198031	0.198031	0.196717
2016	0.200661	0.199346	0.200004	0.19721	0.198689
2017	0.19836	0.19836	0.198689	0.19721	0.199511
2018	0.199182	0.200825	0.197374	0.195895	0.197703
2019	0.197703	0.200168	0.197867	0.200332	0.197374
2020	0.200825	0.199182	0.199018	0.200168	0.196552
2021	0.197867	0.19836	0.200825	0.197374	0.19836
2022	0.198689	0.199018	0.201483	0.197538	0.19836
2023	0.197374	0.196552	0.201976	0.197045	0.193758
2024	0.19721	0.19836	0.19836	0.19721	0.199511
2025	0.198196	0.193101	0.200332	0.196881	0.200004
2026	0.196881	0.198031	0.197703	0.192772	0.198853
2027	0.19721	0.196552	0.198031	0.0105	0.201319
2028	0.196388	0.195566	0.197703	0.015431	0.197703
2029	0.197703	0.199182	0.199182	0.029566	0.198689
2030	0.195073	0.200661	0.19573	0.033839	0.197374
2031	0.197538	0.200168	0.198524	0.037455	0.198689
2032	0.196881	0.201976	0.199346	0.041892	0.199346
2033	0.193922	0.199675	0.19721	0.053726	0.19573
2034	0.197867	0.199511	0.198196	0.057013	0.198689
2035	0.198853	0.199839	0.198524	0.065067	0.199182
2036	0.19721	0.19836	0.197374	0.071148	0.196223
2037	0.199182	0.199018	0.199018	0.076079	0.197374
2038	0.20099	0.198196	0.199675	0.081995	0.199182
2039	0.198689	0.199675	0.199182	0.086762	0.200661
2040	0.20099	0.196717	0.200661	0.090706	0.195566
2041	0.196881	0.199511	0.196717	0.097774	0.200497
2042	0.200497	0.198031	0.197538	0.097445	0.20099
2043	0.19721	0.196717	0.196552	0.102704	0.200168
2044	0.19573	0.198196	0.198196	0.105992	0.199511
2045	0.197867	0.196388	0.19721	0.1101	0.197045
2046	0.198196	0.201319	0.194909	0.114045	0.198689
2047	0.195073	0.198689	0.195402	0.116182	0.199182
2048	0.199511	0.197045	0.199675	0.122098	0.197867
2049	0.201483	0.201319	0.195895	0.124893	0.197538
2050	0.199018	0.197703	0.197538	0.127851	0.19836
2051	0.197867	0.200168	0.196881	0.130316	0.197538
2052	0.200004	0.197045	0.199018	0.135083	0.199839
2053	0.20099	0.198196	0.198689	0.135411	0.198524
2054	0.200004	0.198853	0.19836	0.140342	0.200332
2055	0.198853	0.200168	0.198689	0.141328	0.19573
2056	0.200332	0.198031	0.199346	0.145766	0.199839
2057	0.199018	0.19721	0.199182	0.145766	0.199346
2058	0.200497	0.199182	0.195566	0.150204	0.199839
2059	0.199675	0.196223	0.198853	0.151518	0.196717
2060	0.19836	0.197374	0.195237	0.153326	0.200497
2061	0.197538	0.193922	0.197045	0.156449	0.198689
2062	0.197867	0.199511	0.196388	0.154641	0.197538
2063	0.200825	0.193594	0.196552	0.158914	0.194909
2064	0.193922	0.196881	0.194087	0.157764	0.199346
2065	0.199839	0.198031	0.198031	0.160722	0.193922
2066	0.197374	0.201647	0.195566	0.161709	0.196223
2067	0.199675	0.198689	0.201647	0.164338	0.198031
2068	0.19836	0.198689	0.203455	0.162859	0.197374
2069	0.199511	0.200004	0.197045	0.166968	0.199018
2070	0.199511	0.197867	0.200332	0.170091	0.19836
2071	0.198689	0.200497	0.197703	0.169598	0.203291
2072	0.199346	0.197703	0.198524	0.169433	0.201483
2073	0.199018	0.199839	0.197867	0.172227	0.200825
2074	0.200168	0.199511	0.200825	0.173542	0.199511
2075	0.196717	0.195402	0.19836	0.173214	0.201319
2076	0.197538	0.198196	0.200661	0.175515	0.193429
2077	0.196388	0.19836	0.198853	0.175515	0.198689
2078	0.199675	0.196881	0.200661	0.178637	0.199018
2079	0.197045	0.198689	0.199018	0.176336	0.19836
2080	0.198853	0.197867	0.19836	0.176829	0.199511
2081	0.195237	0.200497	0.196717	0.176665	0.198196
2082	0.200332	0.200825	0.199182	0.177651	0.198853
2083	0.194744	0.199018	0.197374	0.176665	0.199018
2084	0.199182	0.201319	0.197374	0.176172	0.195402
2085	0.196881	0.200168	0.198524	0.180116	0.199182
2086	0.197045	0.201154	0.197045	0.18061	0.196881
2087	0.19836	0.19836	0.200168	0.182582	0.188334
2088	0.199839	0.200332	0.195073	0.185869	0.19573
2089	0.198853	0.199839	0.199182	0.185376	0.196881
2090	0.197703	0.19836	0.197045	0.184718	0.199018
2091	0.197867	0.197538	0.199675	0.187184	0.195402
2092	0.198689	0.197703	0.199346	0.180938	0.200825
2093	0.20099	0.198031	0.198853	0.187184	0.198524
2094	0.194416	0.195895	0.199018	0.186691	0.201647
2095	0.198524	0.197374	0.19836	0.186362	0.199182
2096	0.199675	0.198689	0.20099	0.189156	0.198853
2097	0.19721	0.195073	0.197538	0.18932	0.200332
2098	0.197703	0.196881	0.198031	0.18817	0.19195
2099	0.19836	0.197703	0.198689	0.189156	0.197538
2100	0.197538	0.197374	0.191457	0.189156	0.197538
2101	0.198853	0.19721	0.198689	0.18817	0.199018
2102	0.198524	0.19573	0.198689	0.188827	0.195895
2103	0.198524	0.202798	0.196059	0.18932	0.19836
2104	0.201976	0.201319	0.199675	0.191786	0.200004
2105	0.196717	0.199346	0.197045	0.191128	0.200332
2106	0.197045	0.199675	0.198524	0.191293	0.198524
2107	0.196388	0.198196	0.198689	0.192936	0.200168
2108	0.199675	0.197538	0.200497	0.192279	0.199182
2109	0.195566	0.195566	0.199675	0.189156	0.194744
2110	0.200004	0.199182	0.199346	0.186033	0.199675
2111	0.198524	0.19721	0.19573	0.183897	0.19836
2112	0.200004	0.194087	0.19721	0.186691	0.200497
2113	0.198853	0.195073	0.198524	0.187677	0.199182
2114	0.199346	0.199346	0.197045	0.184883	0.196717
2115	0.199675	0.195402	0.196388	0.184225	0.203126
2116	0.199839	0.198524	0.196717	0.187677	0.201319
2117	0.192936	0.199018	0.194744	0.184061	0.198196
2118	0.197703	0.199018	0.19721	0.189485	0.199839
2119	0.198196	0.198689	0.198689	0.187677	0.196388
2120	0.196881	0.199839	0.197703	0.188992	0.199839
2121	0.198853	0.198031	0.199839	0.187184	0.191786
2122	0.199346	0.198689	0.193922	0.188663	0.196223
2123	0.197045	0.199675	0.196717	0.188827	0.195073
2124	0.199018	0.20099	0.199018	0.188827	0.198031
2125	0.199018	0.199511	0.198689	0.1908	0.197703
2126	0.199018	0.199182	0.197374	0.1908	0.199018
2127	0.19836	0.197703	0.201154	0.192279	0.199346
2128	0.197703	0.199346	0.197703	0.189156	0.199018
2129	0.198853	0.198853	0.199839	0.19195	0.199346
2130	0.199346	0.197374	0.200332	0.19458	0.198196
2131	0.200332	0.20099	0.199018	0.193265	0.20362
2132	0.198524	0.201483	0.199346	0.190307	0.196881
2133	0.200004	0.201154	0.199675	0.191786	0.197045
2134	0.197374	0.197045	0.197867	0.1908	0.196059
2135	0.197703	0.200332	0.197538	0.191128	0.196223
2136	0.19836	0.200825	0.198031	0.193429	0.195402
2137	0.197374	0.199182	0.194251	0.193922	0.199346
2138	0.196059	0.198853	0.196388	0.192443	0.197045
2139	0.196552	0.202469	0.19721	0.191786	0.197703
2140	0.200661	0.198689	0.199018	0.194909	0.200332
2141	0.195073	0.20099	0.195895	0.193594	0.19721
2142	0.19836	0.198689	0.198196	0.196388	0.205099
2143	0.198853	0.200004	0.194251	0.196223	0.19836
2144	0.197867	0.19836	0.200661	0.197703	0.197867
2145	0.195237	0.198196	0.198196	0.008363	0.198689
2146	0.198524	0.19721	0.198196	0.019047	0.199018
2147	0.199346	0.19573	0.199018	0.02595	0.201154
2148	0.198689	0.196059	0.198689	0.033346	0.200661
2149	0.198031	0.196388	0.198853	0.03729	0.200661
2150	0.198689	0.201647	0.196552	0.0437	0.200661
2151	0.199018	0.196552	0.200004	0.053397	0.198031
2152	0.19573	0.19721	0.198524	0.057506	0.199839
2153	0.199182	0.200168	0.194744	0.064902	0.199346
2154	0.19721	0.202633	0.197867	0.069176	0.198031
2155	0.199839	0.196223	0.19836	0.077558	0.197538
2156	0.19573	0.199346	0.197867	0.077886	0.19721
2157	0.197374	0.197703	0.196552	0.084625	0.198196
2158	0.199018	0.199346	0.197867	0.090213	0.198524
2159	0.19721	0.196881	0.201154	0.089556	0.199839
2160	0.199182	0.197538	0.198524	0.097116	0.197867
2161	0.200661	0.200168	0.198853	0.104348	0.19721
2162	0.198524	0.193594	0.198196	0.10517	0.198689
2163	0.199675	0.197374	0.198524	0.11158	0.197867
2164	0.199511	0.195895	0.200004	0.114867	0.203126
2165	0.199675	0.200497	0.198524	0.117168	0.20099
2166	0.195566	0.198853	0.197703	0.120291	0.196881
2167	0.196388	0.19836	0.196717	0.121605	0.200825
2168	0.197045	0.196717	0.19836	0.124728	0.196552
2169	0.197703	0.197867	0.198689	0.127687	0.197867
2170	0.198689	0.200497	0.198853	0.133439	0.198031
2171	0.196223	0.197374	0.198031	0.130645	0.197045
2172	0.200004	0.196881	0.20099	0.136233	0.194251
2173	0.197045	0.19836	0.196223	0.140342	0.199511
2174	0.198031	0.199182	0.198853	0.143629	0.198524
2175	0.196059	0.199182	0.199018	0.145108	0.199511
2176	0.198853	0.199018	0.197703	0.148724	0.198196
2177	0.199018	0.198853	0.199018	0.149053	0.198031
2178	0.199182	0.199182	0.200004	0.153326	0.197867
2179	0.199511	0.19836	0.19836	0.154477	0.19721
2180	0.198524	0.200004	0.198689	0.15497	0.198853
2181	0.201976	0.199018	0.200661	0.157764	0.195402
2182	0.199018	0.200168	0.198689	0.1576	0.200497
2183	0.202798	0.199675	0.198853	0.159572	0.197867
2184	0.198853	0.200497	0.198689	0.158421	0.198853
2185	0.199839	0.198196	0.199346	0.162695	0.197374
2186	0.199182	0.199182	0.19836	0.16401	0.198524
2187	0.197374	0.199018	0.200004	0.166804	0.196059
2188	0.197538	0.197538	0.19721	0.16516	0.195566
2189	0.199346	0.200661	0.201976	0.169105	0.19721
2190	0.197703	0.199346	0.197538	0.001296	0.19836
2191	0.197374	0.200332	0.198031	0.012965	0.193101
2192	0.196388	0.199675	0.199346	0.021019	0.190307
2193	0.195566	0.19836	0.197374	0.031538	0.193922
2194	0.192936	0.199346	0.201812	0.034661	0.191293
2195	0.198031	0.200825	0.201483	0.040413	0.190471
2196	0.193922	0.197045	0.197703	0.050274	0.192279
2197	0.197374	0.197045	0.200168	0.055205	0.194744
2198	0.199839	0.19836	0.199018	0.062108	0.193922
2199	0.19836	0.198524	0.199018	0.065888	0.197538
2200	0.199839	0.195895	0.196881	0.071477	0.191457
2201	0.200168	0.198689	0.198689	0.076079	0.194416
2202	0.198031	0.196552	0.199346	0.081831	0.194251
2203	0.198196	0.19721	0.198853	0.085447	0.192608
2204	0.198689	0.195073	0.199182	0.092186	0.193429
2205	0.200661	0.197374	0.196223	0.092021	0.193265
2206	0.20099	0.199511	0.198689	0.100075	0.193429
2207	0.196388	0.19573	0.19836	0.100896	0.193265
2208	0.198196	0.197374	0.19721	0.111087	0.195566
2209	0.198689	0.199839	0.198031	0.114374	0.191621
2210	0.198524	0.19836	0.193758	0.115689	0.195402
2211	0.200497	0.19458	0.196552	0.117332	0.193594
2212	0.198689	0.199675	0.199346	0.125221	0.196717
2213	0.199511	0.196881	0.190471	0.123578	0.193594
2214	0.197867	0.201483	0.197867	0.126865	0.197538
2215	0.199182	0.198689	0.201976	0.130974	0.197045
2216	0.196059	0.199346	0.198031	0.131138	0.197538
2217	0.199018	0.197703	0.20362	0.136069	0.199675
2218	0.196881	0.198853	0.19836	0.139685	0.195895
2219	0.198853	0.197703	0.201319	0.141	0.196552
2220	0.19721	0.199511	0.201154	0.142807	0.193101
2221	0.198853	0.199182	0.202469	0.147738	0.19721
2222	0.197045	0.193594	0.199675	0.146588	0.199839
2223	0.198524	0.197703	0.198853	0.152011	0.198689
2224	0.197867	0.198853	0.198689	0.150039	0.196388
2225	0.197045	0.197867	0.197374	0.151518	0.176336
2226	0.197703	0.199018	0.199018	0.157107	0.066875
2227	0.196552	0.200004	0.197703	0.152669	0.037455
2228	0.198196	0.198853	0.199675	0.15875	0.016746
2229	0.197538	0.20099	0.199346	0.160722	0.003926
2230	0.198196	0.197703	0.19836	0.162037	0.001625
2231	0.19573	0.201647	0.197867	0.161051	0.002447
2232	0.197703	0.197703	0.199346	0.167132	0.000474
2233	0.200004	0.200168	0.19836	0.165324	0.002775
2234	0.200497	0.199839	0.200004	0.166804	0.000803
2235	0.197374	0.197867	0.19836	0.166475	0.001954
2236	0.201154	0.196881	0.200004	0.169762	0.001296
2237	0.197703	0.196552	0.199839	0.171077	0.001296
2238	0.19836	0.199675	0.201319	0.170913	-0.001005
2239	0.196717	0.199346	0.202633	0.173049	0.000967
2240	0.196717	0.199346	0.199346	0.174528	0.009021
2241	0.197045	0.198031	0.199839	0.175186	0.017896
2242	0.195402	0.199675	0.198524	0.173214	0.025292
2243	0.195895	0.197538	0.19836	0.17798	0.03088
2244	0.193101	0.198853	0.199346	0.176336	0.040742
2245	0.200168	0.199346	0.19721	0.178802	0.045672
2246	0.199182	0.199675	0.194909	0.178802	0.053233
2247	0.20214	0.197045	0.198524	0.181924	0.058492
2248	0.198524	0.196388	0.195895	0.17798	0.068189
2249	0.199346	0.199675	0.19836	0.182253	0.072134
2250	0.199018	0.19721	0.201319	0.184883	0.077229
2251	0.200168	0.198689	0.20214	0.185047	0.083803
2252	0.200168	0.199018	0.197703	0.183568	0.08709
2253	0.198031	0.198689	0.200004	0.18554	0.090213
2254	0.198031	0.197538	0.200004	0.186526	0.095144
2255	0.201483	0.19836	0.197538	0.184718	0.102376
2256	0.197703	0.198689	0.200661	0.18439	0.099417
2257	0.199018	0.199511	0.198524	0.184554	0.107799
2258	0.20214	0.195402	0.196881	0.182582	0.107471
2259	0.197703	0.199511	0.197703	0.185869	0.114374
2260	0.197374	0.196388	0.196717	0.18817	0.11536
2261	0.196059	0.198524	0.195073	0.188006	0.120455
2262	0.199018	0.197703	0.200004	0.18817	0.122427
2263	0.199346	0.200004	0.194416	0.188006	0.127522
2264	0.197374	0.200497	0.197703	0.185376	0.130152
2265	0.199511	0.199346	0.193594	0.1908	0.134261
2266	0.200004	0.198689	0.199182	0.190635	0.135411
2267	0.200004	0.19721	0.199018	0.188334	0.139192
2268	0.20099	0.198524	0.199511	0.189978	0.140178
2269	0.203291	0.199182	0.200168	0.188334	0.141328
2270	0.200004	0.200661	0.201319	0.1908	0.147409
2271	0.198524	0.201319	0.198853	0.191457	0.146095
2272	0.198524	0.200497	0.199839	0.191128	0.153162
2273	0.19836	0.197703	0.203126	0.194087	0.147903
2274	0.19721	0.200168	0.198031	0.194744	0.154641
2275	0.196552	0.197867	0.201483	0.192279	0.150697
2276	0.197867	0.198853	0.201319	0.194087	0.155956
2277	0.198031	0.198524	0.197703	0.1908	0.155792
2278	0.196881	0.198524	0.196552	0.187677	0.163352
2279	0.199182	0.202305	0.198689	0.18932	0.159408
2280	0.199182	0.199182	0.19721	0.188992	0.160394
2281	0.198524	0.19836	0.19836	0.189814	0.164338
2282	0.197374	0.202962	0.19836	0.189649	0.165489
2283	0.194251	0.201154	0.198689	0.191621	0.166475
2284	0.19573	0.200004	0.199018	0.193594	0.166804
2285	0.198031	0.200332	0.199839	0.195566	0.169105
2286	0.196059	0.198196	0.200168	0.194416	0.169598
2287	0.199346	0.198853	0.200825	0.196388	0.170913
2288	0.199839	0.198031	0.204113	0.194744	0.171734
2289	0.198031	0.201319	0.199346	0.194251	0.173049
2290	0.197703	0.19836	0.199675	0.193429	0.176336
2291	0.198031	0.197374	0.20099	0.193429	0.174035
2292	0.19721	0.19721	0.200661	0.194087	0.177322
2293	0.196552	0.198031	0.197867	0.193758	0.177815
2294	0.196059	0.19836	0.197045	0.195895	0.178473
2295	0.197703	0.197703	0.195237	0.194744	0.180281
2296	0.199839	0.201812	0.196223	0.197045	0.181103
2297	0.193429	0.19573	0.196388	0.194416	0.182911
2298	0.201647	0.197538	0.196059	0.197703	0.183404
2299	0.197867	0.199182	0.198524	0.19573	0.182089
2300	0.199018	0.199346	0.198031	0.195073	0.183239
2301	0.199182	0.197867	0.198689	0.197703	0.183404
2302	0.197703	0.199839	0.199346	0.196881	0.185869
2303	0.196881	0.197867	0.199018	0.195895	0.185047
2304	0.197703	0.198689	0.197538	0.197867	0.187841
2305	0.199839	0.200168	0.200168	0.197374	0.184883
2306	0.197538	0.20099	0.201647	0.196552	0.187184
2307	0.199675	0.200825	0.200661	0.197374	0.187513
2308	0.196388	0.199346	0.195402	0.198031	0.188827
2309	0.200661	0.196552	0.200168	0.197867	0.187677
2310	0.197045	0.198031	0.196223	0.189814	0.190307
2311	0.199182	0.196059	0.19573	0.195073	0.187348
2312	0.198689	0.196059	0.196552	0.194744	0.186526
2313	0.201154	0.199182	0.200661	0.19573	0.190635
2314	0.196717	0.195895	0.195237	0.194251	0.190471
2315	0.19836	0.19721	0.19458	0.196059	0.194087
2316	0.200497	0.197045	0.197045	0.196717	0.189978
2317	0.198031	0.200497	0.199346	0.195895	0.193758
2318	0.199511	0.198031	0.199675	0.197374	0.191786
2319	0.19721	0.200332	0.199511	0.198031	0.191293
2320	0.196059	0.20099	0.200332	0.20099	0.192279
2321	0.199182	0.201319	0.198524	0.198853	0.192443
2322	0.200168	0.198196	0.203291	0.199018	0.191457
2323	0.198031	0.199346	0.200168	0.196881	0.192279
2324	0.200825	0.198524	0.204113	0.201812	0.18932
2325	0.197374	0.199182	0.199346	0.19458	0.195073
2326	0.199018	0.197867	0.198524	0.198196	0.19458
2327	0.197867	0.19836	0.198196	0.194909	0.19458
2328	0.198031	0.19836	0.200168	0.19573	0.193922
2329	0.19573	0.19836	0.197538	0.195566	0.193922
2330	0.199018	0.201319	0.198853	0.196552	0.191621
2331	0.198689	0.199839	0.200661	0.194909	0.195073
2332	0.197867	0.199346	0.198031	0.19458	0.195895
2333	0.20099	0.198689	0.197703	0.193594	0.190142
2334	0.196552	0.200332	0.19721	0.196881	0.192608
2335	0.200004	0.198689	0.199675	0.195895	0.194416
2336	0.199182	0.200168	0.198031	0.194909	0.193922
2337	0.198853	0.202305	0.200497	0.196223	0.196223
2338	0.19836	0.198689	0.201976	0.199511	0.19573
2339	0.200497	0.203948	0.201483	0.197867	0.194909
2340	0.194744	0.199675	0.19721	0.19836	0.198524
2341	0.197374	0.199675	0.202305	0.202798	0.195237
2342	0.198196	0.198031	0.201812	0.197538	0.196881
2343	0.200497	0.196717	0.198689	0.199018	0.195895
2344	0.195895	0.197538	0.197703	0.197045	0.196717
2345	0.19573	0.198524	0.19836	0.197867	0.196717
2346	0.199346	0.197045	0.200825	0.19721	0.195402
2347	0.197703	0.199182	0.201483	0.199182	0.197538
2348	0.196223	0.201647	0.195237	0.196059	0.197045
2349	0.197045	0.199346	0.199018	0.197374	0.194744
2350	0.197538	0.199511	0.199182	0.200332	0.192772
2351	0.197703	0.199675	0.197538	0.201319	0.198689
2352	0.194251	0.201319	0.200497	0.199839	0.195237
2353	0.19721	0.199346	0.200332	0.198524	0.19573
2354	0.195895	0.199018	0.197703	0.199346	0.195895
2355	0.197538	0.199675	0.198196	0.199346	0.197045
2356	0.200004	0.200004	0.199511	0.199511	0.196881
2357	0.198031	0.199346	0.198031	0.195895	0.197867
2358	0.200332	0.196552	0.199182	0.200497	0.197867
2359	0.198196	0.196059	0.197045	0.199675	0.198689
2360	0.198031	0.19458	0.200661	0.198853	0.199018
2361	0.198689	0.196717	0.197045	0.199018	0.195073
2362	0.199182	0.198196	0.196552	0.196552	0.201976
2363	0.196223	0.197703	0.198524	0.196881	0.195402
2364	0.197867	0.19721	0.201647	0.197045	0.195237
2365	0.197538	0.197045	0.196717	0.198853	0.199675
2366	0.195566	0.199182	0.19573	0.195566	0.200168
2367	0.198853	0.197867	0.199346	0.197045	0.196059
2368	0.194744	0.196717	0.19721	0.195566	0.197374
2369	0.201812	0.198524	0.198853	0.198689	0.19573
2370	0.198196	0.202962	0.192772	0.200497	0.199511
2371	0.199511	0.200497	0.200661	0.199182	0.193101
2372	0.197045	0.200168	0.203948	0.198031	0.198689
2373	0.200497	0.201647	0.201812	0.199346	0.19836
2374	0.197045	0.200332	0.198031	0.197867	0.197867
2375	0.201812	0.199511	0.201647	0.199018	0.200661
2376	0.199018	0.198853	0.198196	0.197703	0.200168
2377	0.198031	0.197867	0.19836	0.197703	0.200497
2378	0.199511	0.198031	0.199018	0.19836	0.198689
2379	0.197867	0.199346	0.198853	0.199675	0.19836
2380	0.199018	0.19458	0.199182	0.195895	0.197867
2381	0.197538	0.198524	0.195566	0.199839	0.198689
2382	0.196059	0.196223	0.200004	0.19458	0.198689
2383	0.200004	0.196388	0.198524	0.194087	0.19836
2384	0.200661	0.19836	0.198031	0.195566	0.194416
2385	0.196388	0.199839	0.198853	0.19573	0.195566
2386	0.20214	0.200332	0.201976	0.195073	0.195073
2387	0.199182	0.200332	0.198524	0.197045	0.200332
2388	0.198689	0.199675	0.200825	0.198524	0.197703
2389	0.198524	0.20099	0.199346	0.19721	0.194087
2390	0.198524	0.200004	0.198196	0.197703	0.198031
2391	0.196059	0.19836	0.200168	0.199839	0.199018
2392	0.196717	0.199182	0.198689	0.199675	0.201976
2393	0.199511	0.197867	0.199182	0.196717	0.199675
2394	0.199182	0.20099	0.198689	0.199675	0.198853
2395	0.195237	0.196552	0.20099	0.198853	0.198853
2396	0.198031	0.201154	0.200004	0.198524	0.199182
2397	0.196059	0.199839	0.200332	0.196717	0.197703
2398	0.196881	0.199675	0.198031	0.197867	0.19573
2399	0.199675	0.198524	0.19836	0.19721	0.196717
2400	0.196223	0.199346	0.198689	0.19721	0.197538
2401	0.199018	0.198524	0.19836	0.197703	0.194087
2402	0.197538	0.195566	0.197374	0.197538	0.198031
2403	0.198689	0.199018	0.199675	0.200661	0.197867
2404	0.19721	0.202305	0.19721	0.195566	0.19721
2405	0.199346	0.197045	0.198853	0.196881	0.198524
2406	0.198524	0.201319	0.196881	0.197538	0.19721
2407	0.198524	0.199839	0.198031	0.197538	0.199018
2408	0.200004	0.193594	0.200332	0.197045	0.198689
2409	0.202305	0.196223	0.194744	0.198196	0.199675
2410	0.197374	0.194909	0.197538	0.197703	0.19721
2411	0.200332	0.196059	0.198689	0.197374	0.199346
2412	0.199018	0.19721	0.198196	0.201319	0.197703
2413	0.198853	0.197374	0.196223	0.196717	0.200497
2414	0.198853	0.198196	0.199182	0.196059	0.198524
2415	0.196388	0.198853	0.199675	0.193594	0.198853
2416	0.200004	0.197703	0.200168	0.196059	0.197538
2417	0.198689	0.197538	0.198689	0.195237	0.197867
2418	0.198689	0.200825	0.20099	0.192772	0.194416
2419	0.199018	0.19573	0.199511	0.191457	0.198524
2420	0.199675	0.19721	0.199511	0.193101	0.193922
2421	0.197703	0.200332	0.199675	0.1908	0.19836
2422	0.197374	0.197703	0.198196	0.192115	0.199182
2423	0.198031	0.199346	0.19836	0.192772	0.195402
2424	0.198196	0.199018	0.199182	0.195402	0.200661
2425	0.199018	0.198689	0.197703	0.194744	0.20099
2426	0.197703	0.200497	0.198853	0.195073	0.199182
2427	0.198689	0.198524	0.202798	0.193758	0.201976
2428	0.199018	0.200332	0.198524	0.194744	0.200497
2429	0.199675	0.19721	0.201319	0.189978	0.197538
2430	0.198524	0.197374	0.201976	0.189649	0.200004
2431	0.19836	0.194416	0.200168	0.192772	0.197867
2432	0.198853	0.197045	0.19836	0.192279	0.199839
2433	0.197374	0.196717	0.200004	0.195073	0.199675
2434	0.192279	0.197703	0.198689	0.188663	0.198524
2435	0.198031	0.195566	0.199346	0.193594	0.193265
2436	0.197045	0.200168	0.197045	0.197703	0.194416
2437	0.196717	0.200497	0.200825	0.19721	0.198031
2438	0.197045	0.199839	0.202305	0.193265	0.19721
2439	0.196552	0.199346	0.199346	0.194251	0.199018
2440	0.19721	0.199675	0.198689	0.185212	0.196223
2441	0.197538	0.200825	0.198853	0.193265	0.199018
2442	0.196552	0.196717	0.19836	0.195073	0.198031
2443	0.197867	0.200168	0.199182	0.19573	0.198853
2444	0.194087	0.197538	0.19836	0.19458	0.199346
2445	0.196552	0.198524	0.197867	0.196059	0.199839
2446	0.200004	0.195237	0.200825	0.199182	0.198031
2447	0.195402	0.196059	0.195402	0.196388	0.199182
2448	0.197538	0.198689	0.198196	0.195895	0.198689
2449	0.197867	0.199839	0.197045	0.19836	0.197703
2450	0.201154	0.19721	0.200661	0.196717	0.201812
2451	0.205427	0.200004	0.198031	0.185869	0.197703
2452	0.199182	0.19836	0.198689	0.195402	0.19836
2453	0.199018	0.198853	0.197867	0.193594	0.197538
2454	0.199675	0.199839	0.198196	0.196388	0.19721
2455	0.18932	0.198031	0.197867	0.193922	0.19721
2456	0.196059	0.19836	0.19721	0.196552	0.197867
2457	0.197867	0.196059	0.19836	0.197045	0.19836
2458	0.197538	0.19721	0.197045	0.199182	0.200004
2459	0.198524	0.196881	0.198031	0.197867	0.197703
2460	0.19836	0.201976	0.196388	0.197703	0.197867
2461	0.200332	0.199018	0.198196	0.197867	0.198689
2462	0.200825	0.198524	0.19458	0.192936	0.200332
2463	0.200661	0.198524	0.195895	0.197045	0.200168
2464	0.197374	0.198196	0.198196	0.195895	0.201812
2465	0.20477	0.196881	0.200332	0.195895	0.19836
2466	0.190307	0.198689	0.199018	0.193265	0.197703
2467	0.19836	0.197703	0.201812	0.19836	0.199182
2468	0.199675	0.199018	0.199839	0.199675	0.197538
2469	0.198689	0.19836	0.198689	0.196717	0.198524
2470	0.197867	0.197374	0.199182	0.195237	0.198031
2471	0.200168	0.200004	0.200497	0.197538	0.196717
2472	0.198853	0.197867	0.199675	0.196059	0.197703
2473	0.200168	0.198689	0.199675	0.196223	0.196717
2474	0.198689	0.197867	0.198689	0.19573	0.197703
2475	0.196223	0.198853	0.197538	0.19573	0.201976
2476	0.199018	0.199018	0.199675	0.198689	0.197703
2477	0.188663	0.20099	0.194744	0.196223	0.196223
2478	0.197538	0.198853	0.199839	0.195237	0.194251
2479	0.197867	0.198853	0.199018	0.195895	0.199182
2480	0.200332	0.199182	0.200497	0.200168	0.198853
2481	0.197703	0.201647	0.197538	0.196552	0.199018
2482	0.202962	0.200825	0.201154	0.196717	0.197703
2483	0.202962	0.19836	0.198524	0.195402	0.198196
2484	0.203948	0.199839	0.200168	0.203455	0.196223
2485	0.200497	0.198524	0.20099	0.196059	0.193594
2486	0.199675	0.199346	0.196059	0.197703	0.19573
2487	0.200004	0.197538	0.201483	0.196717	0.195073
2488	0.19458	0.199346	0.199675	0.200332	0.19721
2489	0.196223	0.199346	0.199675	0.196388	0.19721
2490	0.19573	0.196881	0.199346	0.196552	0.200168
2491	0.197538	0.199839	0.199018	0.199839	0.197538
2492	0.195073	0.200332	0.198689	0.196717	0.199182
2493	0.198196	0.198031	0.198524	0.197374	0.19836
2494	0.197703	0.201483	0.197374	0.19836	0.198524
2495	0.20099	0.196881	0.198524	0.205099	0.198524
2496	0.200332	0.199182	0.196059	0.196223	0.196388
2497	0.19836	0.197538	0.197867	0.198524	0.201319
2498	0.199018	0.19573	0.196059	0.196059	0.201154
2499	0.203784	0.19836	0.197867	0.197538	0.200332
