Ladekurvenmessung

Zeit: 2018_05_04 09.55.20

Info: FVA3, v = 0.248, T = 23, F = 20, h = 198.9

Ladewiderstand[Ohm]: 1012700

Störkapazität[pF]: 0.000000

Entladezeit[ms]: 200

Abtastrate[Hz]: 250000

Anzahl der Messwerte: 2500.000000

Verzögerung[ms]: 3

Ladespannung[V]: 0.200000


	Kurve_1	Kurve_2	Kurve_3	Kurve_4	Kurve_5	Kurve_6
0	-0.003635	-0.002155	-0.000347	-0.003142	-0.002813	0.00146
1	-0.003963	-0.000347	0.000146	-0.006264	0.00787	0.00409
2	-0.001991	0.001132	-0.000512	-0.004456	-1.9e-05	0.001625
3	-0.003142	0.001625	0.000146	-0.004785	0.002447	0.001789
4	-0.000347	0.002447	-0.002648	-0.001005	0.001296	0.001132
5	0.001789	0.000639	0.003926	-0.001169	0.001789	-0.000512
6	-0.000347	0.002611	0.00294	-0.002484	0.00146	-0.000512
7	-0.001005	0.001296	0.003104	-0.000512	-0.000183	-0.002155
8	0.000146	-0.000347	-0.000183	-0.000183	0.000474	-0.000676
9	-0.001005	0.000474	-0.00725	0.001954	-0.002648	-0.00232
10	0.000639	-0.008894	0.004583	-0.000183	-0.000676	-0.000347
11	0.000146	-0.001169	0.000474	0.000967	-0.001827	-0.001334
12	-0.000676	-0.000841	-0.000841	0.001954	0.000146	-0.000676
13	-0.001169	0.00031	0.003926	0.000146	-0.000676	0.000803
14	-0.002155	-0.002155	-0.001334	-0.001827	0.000803	0.000146
15	0.00409	0.002447	-0.001827	0.001625	0.002775	-0.004621
16	0.000474	-1.9e-05	0.000474	-0.001334	0.006227	0.000474
17	-0.001169	-0.001169	-0.000512	0.000967	-0.001334	-0.001498
18	-0.001334	0.00146	0.000967	-0.001991	0.000967	-0.001991
19	-0.001169	0.00146	-0.003142	-0.001169	0.002611	-0.000512
20	-0.002977	-0.001662	-0.00988	0.000146	0.000803	0.000803
21	-0.004128	-0.004949	-0.002648	-0.003963	-0.001169	-0.001827
22	-0.005771	-0.00347	-0.001334	0.000967	-0.000841	-0.001662
23	-0.001498	-0.001005	-0.001334	-0.001662	0.00146	0.000474
24	-0.001005	-1.9e-05	0.002447	0.000639	0.000146	-0.003306
25	-0.00232	-0.000512	-0.000183	0.001789	0.004419	-0.003142
26	0.00031	0.000639	-1.9e-05	0.002282	-0.000841	-0.004621
27	0.003761	0.00146	0.001296	-0.00347	-0.003142	-0.000841
28	-0.001169	0.002118	0.00146	0.003926	-0.004456	-1.9e-05
29	-0.000512	0.001296	-0.003306	0.002118	-1.9e-05	-0.001498
30	0.000474	0.000639	0.001789	0.002611	-0.003963	-0.001498
31	-0.000512	-0.001498	-0.005278	0.001625	-0.000676	0.000803
32	-0.001498	-0.001827	-0.00232	-0.000183	-0.002484	-0.001662
33	-0.003799	-0.003963	0.00031	-0.001334	-0.002648	-0.003799
34	-0.001662	-0.002155	-0.000512	-0.001662	-0.000512	0.002118
35	-0.005771	-0.001334	0.003268	-0.003963	-0.001334	0.00031
36	-0.002155	0.000639	0.00031	-0.003142	0.000474	-0.001334
37	-0.002155	0.00031	0.001625	-0.002484	-0.001662	-0.002155
38	0.001789	0.005076	0.003104	-0.002977	0.00031	0.002118
39	-0.004292	0.000146	0.00031	0.00031	-0.001005	-1.9e-05
40	0.000474	0.002118	-0.002155	-0.001498	-0.00232	-0.001498
41	-0.002484	0.001954	-0.000676	-0.002648	-0.001334	-0.001498
42	0.001132	-0.000183	-0.003799	0.001296	-0.002484	-0.000347
43	-0.000347	0.001132	-0.003799	-1.9e-05	-0.001334	-0.00347
44	0.00031	0.000967	-1.9e-05	-0.001169	-0.002648	0.000967
45	-0.002155	0.000967	-0.00232	0.00031	-0.001169	-0.001991
46	-0.002484	-0.001334	-0.000676	-0.007415	-0.002155	-0.000676
47	-0.001005	-0.000676	-0.000183	0.000803	-0.005114	0.002611
48	-0.003142	-0.002648	0.001132	0.000146	-0.000676	-0.00347
49	0.001954	0.003104	0.002118	-0.001005	-0.001827	0.000803
50	-0.003306	-0.000676	0.003597	-0.000183	-0.001827	0.003104
51	-1.9e-05	-0.001169	-0.003306	0.000146	-0.000512	-0.000676
52	-0.006264	0.000146	-0.001169	-0.002484	-0.001169	0.000967
53	-0.002977	-0.000183	-0.001334	-1.9e-05	-0.001005	0.002447
54	-0.005607	-0.000512	-0.000347	-0.001991	-0.000841	-0.001169
55	-0.004292	-0.00232	0.00294	-0.003306	-0.001662	0.002118
56	-0.00347	-0.002813	0.000803	-0.00347	0.001789	-0.001169
57	-0.002977	-0.001498	-0.001827	-0.005278	-0.001991	-0.001827
58	-0.002155	-0.001334	0.000967	-0.000183	-0.001169	-0.002484
59	-0.000512	-0.000347	0.00031	-0.002484	0.000639	-0.001005
60	0.003926	0.003104	-0.001662	0.001132	-0.000676	-0.002648
61	0.000639	-1.9e-05	-0.002484	-0.000512	-0.001005	-0.001498
62	0.000474	0.000967	-0.00347	0.000639	-0.000347	-0.006593
63	-0.000676	0.000803	-0.000512	0.002282	-0.000347	-0.002977
64	-0.001334	-0.003306	-0.002648	-0.001169	-0.001991	-0.001169
65	-0.000183	-0.009223	-0.001498	0.00031	-0.000183	-0.000841
66	-0.003306	-0.005607	-0.002155	-0.000347	-0.002648	0.000803
67	-0.001827	-0.003963	-0.001005	-0.000676	0.001789	-0.000347
68	-0.001991	-0.004949	-0.005771	-0.004128	-0.002813	-0.000347
69	-0.007579	-0.005443	-0.000512	-0.002813	-1.9e-05	-0.001827
70	-0.000347	-0.00725	-0.000183	0.001296	0.001954	-0.000512
71	-0.00347	-0.001005	0.000474	-0.002977	0.000803	0.000967
72	-0.002155	0.000146	-0.001334	-0.000841	-0.002813	-0.001662
73	0.002447	-0.001334	0.000146	-0.001005	0.005734	-0.005278
74	0.003761	-0.004292	-0.001334	-0.0061	-0.000676	-0.001334
75	0.001954	0.000146	-0.000347	-0.00232	0.000146	-0.001498
76	0.001789	-0.001498	-0.002648	-0.00232	-0.000676	-0.002484
77	-0.000347	0.00294	-0.003142	-0.001005	-0.004949	-0.004128
78	-0.002484	-0.003963	-0.001827	0.000639	-0.001005	-0.001334
79	0.00031	0.000146	-0.003306	-0.000512	-0.000841	-0.003142
80	-0.000841	-0.001334	0.000803	0.000639	-0.001991	-0.001662
81	-0.002813	-0.001334	-0.000676	0.002447	-0.001334	0.00146
82	-0.001827	0.000639	0.001625	0.001789	0.00031	0.000474
83	-0.001334	-0.000183	-0.002155	0.000146	-0.004456	0.003268
84	-0.002155	-0.000512	0.001296	-0.002484	-0.002977	-0.001827
85	-0.001169	-0.001169	-0.001991	-0.002155	-0.002484	0.001296
86	-0.002813	-1.9e-05	-0.000183	-0.00232	-0.003306	0.000803
87	0.001296	-0.001991	-0.001827	-0.00347	0.001625	0.000474
88	-0.003799	-1.9e-05	0.001789	-0.001827	0.000146	-0.002813
89	-0.002484	-0.001498	0.003268	-0.004128	0.000803	0.000803
90	-0.00232	0.000967	0.000146	-0.003142	-0.000676	-0.000676
91	-0.001827	-0.000841	-0.000512	-0.002648	0.000639	0.000803
92	-0.000183	-0.000676	0.001296	-0.000841	0.000474	-0.002813
93	0.001789	-0.001991	0.001954	-0.002155	0.000967	0.000639
94	0.000146	0.004583	-0.002813	-0.001005	-0.000347	-0.001662
95	-0.001334	-0.000183	-0.001005	-0.00232	0.001954	-0.002648
96	0.001789	-0.000183	-0.002484	-0.000676	-0.002155	0.000803
97	-0.003142	-0.000512	-0.000347	0.000146	-0.002648	-0.002484
98	0.000803	-0.004785	-0.002484	-1.9e-05	-0.001827	0.000146
99	-0.004456	-0.004128	-0.001498	-0.000183	-0.001662	-0.000183
100	0.000474	-1.9e-05	-0.004456	-0.001991	-0.00347	-0.001005
101	-0.000841	-0.004128	0.00031	-0.004949	-0.005936	0.000146
102	-0.000183	0.001132	-0.002484	-0.001334	-0.001991	-0.001991
103	-0.002648	-0.000841	0.001296	-0.004785	-0.003142	0.001132
104	-0.003799	-1.9e-05	0.003926	-0.002648	-0.000841	-0.001005
105	-0.001991	0.002118	0.003761	-0.003799	-0.002484	-0.002977
106	-0.003635	-0.001827	-0.000676	-0.004456	-0.000183	-1.9e-05
107	-0.001334	-0.000676	-0.000841	-0.000676	-0.000676	-0.000841
108	-0.000347	-0.000676	-0.000676	-0.002977	0.000967	-0.000183
109	0.000474	0.001625	-0.003799	-0.002155	-0.000183	-0.001169
110	-0.000512	-0.000512	-0.002484	-0.000676	0.000967	-0.001662
111	-0.001169	0.000967	0.000967	-0.001334	0.001296	-0.001498
112	-0.000512	-0.000841	0.001625	-0.002648	-1.9e-05	-0.003635
113	-0.000347	-0.000347	-0.002648	0.003104	0.001132	-0.000347
114	-0.002648	-0.001005	-0.001169	0.001296	-0.000183	-0.000183
115	-0.001498	-1.9e-05	-0.001662	0.00146	-0.005114	-0.000841
116	-0.001498	0.001954	-0.002813	-1.9e-05	-0.005114	-0.002484
117	-0.000676	-0.003963	-0.001991	-0.000183	-0.001991	0.000639
118	-0.001334	-0.001662	-0.002648	-0.001169	-0.002648	-0.00232
119	0.001132	-0.000512	-0.001334	-0.004621	-0.000512	-0.000676
120	0.001625	-0.000183	-0.000183	-0.002155	-0.002813	-0.003142
121	-0.000512	-0.001005	-0.000841	-0.001334	0.00031	-0.000676
122	-0.002977	0.000474	0.000474	-0.000512	-0.000676	-0.002155
123	-0.003142	-0.002648	-0.000841	-0.002155	-0.000676	-0.001005
124	-0.004785	-0.002155	-0.000512	-0.000841	-0.000676	-0.000512
125	-0.004621	-0.001169	-0.00232	-0.002977	0.001954	0.001132
126	-0.002648	-0.000512	0.00031	-0.007908	-0.001005	0.00031
127	-0.002648	0.00294	0.000474	-0.000676	-0.001005	-0.00347
128	-0.000676	0.000803	-0.002813	-0.000676	-0.002155	0.003597
129	-0.004621	-0.000347	0.001132	-0.003799	0.004583	-0.001498
130	-0.001498	0.001296	-0.001827	-0.002484	0.001625	-0.001498
131	0.002118	-0.001991	0.000146	-0.000347	-0.001827	-0.001991
132	-0.001991	-0.000183	-0.00232	0.000146	-0.001169	0.000803
133	-0.002155	-0.001169	0.001625	0.000474	-0.001991	0.000146
134	-0.001827	-0.003799	-0.001169	-0.002813	-0.00232	-0.000676
135	-0.00232	0.002118	-0.000347	0.00146	-0.001991	-0.00232
136	-0.00232	-0.001498	0.000967	-0.002648	-0.001991	-0.001991
137	-0.003963	0.000803	0.002611	-0.000512	0.00031	-0.001498
138	-0.001827	-0.000841	0.001296	-0.000512	0.002118	-0.003306
139	-0.001662	0.001132	0.003433	0.001132	-0.001005	-0.001334
140	-0.003142	-0.000183	0.002775	-0.003963	-0.001498	0.000474
141	-0.001827	-0.001005	-0.002155	-0.004292	-0.001005	-0.000347
142	-0.001827	0.001625	0.001296	-0.000676	0.002118	-0.000347
143	-0.000347	0.001789	-0.000841	-0.001991	-0.000512	0.000803
144	-0.00347	-0.002484	-0.001498	-0.002484	0.002611	-1.9e-05
145	-0.001991	0.001296	-0.00232	-0.003635	-0.001991	-0.001498
146	-0.003635	-0.001005	-0.000676	0.002775	0.001625	-0.000512
147	-0.001005	-0.000183	-0.002484	0.002447	-0.000347	-0.001334
148	-0.000347	-0.000841	-0.000676	-0.001169	-0.004621	-0.000183
149	-0.002813	-0.004621	-0.00232	-0.001334	-0.001334	-0.001169
150	-0.001991	0.002118	-0.000512	0.000803	-0.007415	-0.00347
151	-0.004621	-0.002484	-0.001005	-0.003963	-0.003963	0.003597
152	-0.006593	-0.000347	-0.001334	-0.003142	-0.004949	-0.005114
153	-0.002484	-0.000841	-0.000512	-0.006264	-0.002648	-0.001827
154	-0.003306	0.001625	-0.001827	-0.000841	-0.002813	-0.004621
155	-0.004785	-0.002648	-0.000183	-0.001169	-0.000841	-0.000512
156	-0.00347	-0.000512	-0.000347	-0.004621	-0.001005	-0.001498
157	-0.002813	-0.003142	-0.001827	-0.001334	-0.000512	-0.001169
158	-0.001005	-0.001334	-0.003142	-0.000347	-0.001005	0.00146
159	-0.004292	-0.000512	-0.001005	-0.003142	0.002282	-0.001827
160	0.000639	-0.001169	-0.000841	0.00146	-0.000676	-0.000841
161	-0.002484	-1.9e-05	-0.000183	-0.001498	0.000803	-0.002484
162	-0.002484	0.00031	0.000803	-0.003142	-0.002648	0.000639
163	-0.00232	-0.001005	-0.002813	0.000967	0.000146	-0.000512
164	-0.000676	0.000474	-0.002155	-0.002484	0.000146	0.000803
165	-0.001334	0.007049	-0.002484	-0.000676	-0.001498	-0.000512
166	-0.001827	-0.001169	-0.005114	-0.002155	-0.000512	0.000146
167	-0.000841	0.002611	-0.002813	-0.001169	-0.004456	-0.004128
168	0.001296	0.000967	-0.00347	0.002118	-0.001169	-0.001169
169	0.004419	-0.001662	-0.002648	0.007049	-0.001498	-0.001169
170	-0.006264	-0.001498	-0.001662	-0.002155	-0.000512	-0.002977
171	-0.001827	-0.001991	-0.002648	0.003104	-0.00232	-0.003142
172	-0.00232	-0.004292	-0.001169	0.00031	-0.000183	-0.004949
173	-0.001991	-0.004292	0.00146	0.000474	-0.003142	-0.000676
174	0.00031	-0.003799	0.000146	-0.000347	0.002282	-0.00232
175	0.006227	-0.00232	0.001296	-0.001005	-0.000841	-0.002155
176	-0.003142	-0.000841	0.000146	0.000803	-0.002484	-0.001991
177	-0.000512	-0.001005	-0.001498	-0.002155	0.000639	0.001789
178	-0.00232	-0.001005	0.002447	-0.000347	0.00031	-0.001991
179	-0.003142	-0.000512	0.001296	-0.004292	0.004748	0.00146
180	-0.001169	-0.000183	0.00031	-0.001334	-0.000841	-0.000183
181	-0.003142	-1.9e-05	-0.00347	-0.004949	-0.000676	0.001625
182	-0.00232	0.000967	-0.003963	0.00031	-0.000512	0.00031
183	0.001296	0.000146	0.00031	-0.005443	-0.001498	-0.004621
184	-0.001662	0.000803	0.001625	0.003761	-0.003142	-0.003963
185	0.000967	0.003104	-0.000347	-0.002813	0.004255	0.002447
186	-0.000512	-0.000512	0.002447	-0.001498	-0.005771	-0.003142
187	-0.002155	0.001296	0.000146	-0.001005	0.001789	-0.002813
188	-0.000347	-0.002155	-0.002648	-0.000512	-0.002813	-0.005114
189	-0.004621	-0.002813	-0.002155	-0.001005	-0.000183	-0.004456
190	-1.9e-05	0.002282	-0.000841	-0.000841	-0.001498	-0.001991
191	-0.004621	-0.001991	0.000474	-0.000676	-0.001662	-0.001991
192	-0.000347	-0.001827	-0.001991	-0.003963	-0.000183	-0.001991
193	-0.002648	-0.000183	0.004419	-0.002813	-0.00232	-0.000841
194	-0.001991	-0.000183	-0.002155	-0.001662	0.000474	0.002118
195	-0.002484	-0.001827	0.00031	-0.00232	-0.001005	-0.001169
196	-0.00347	0.001132	0.003104	0.000146	-0.001827	0.002118
197	0.000146	-0.000512	0.000967	0.000474	-0.002977	-0.002155
198	-0.000841	0.003597	-0.000512	-0.00232	-0.002155	0.00031
199	0.000639	-0.000512	-0.001334	-0.000841	-0.001991	0.000146
200	0.000474	-0.001498	-1.9e-05	-0.001991	0.001625	-0.002484
201	0.000803	-0.001169	0.000146	-0.000676	0.00031	-0.000676
202	0.000803	0.000639	0.000803	-0.00347	0.000474	-0.002813
203	-0.005771	-0.001662	-0.000841	-0.001991	0.000967	-0.001498
204	-0.001827	-0.001169	-0.000676	0.00146	-1.9e-05	-0.002484
205	-0.000183	0.002611	-0.001827	0.00146	-0.001662	-0.001169
206	-0.005443	-0.000676	-0.000183	-0.00232	-0.001498	0.00031
207	-0.00347	-0.001991	-0.001827	-0.001498	-0.000183	-1.9e-05
208	0.000146	0.00031	0.002118	0.000639	-0.001498	-0.001662
209	-0.004128	-0.000676	-1.9e-05	-0.001169	-0.000512	-0.000183
210	-0.005771	-0.001991	0.003268	-0.000183	0.000967	0.003268
211	-0.001991	-0.002484	0.000146	-0.001498	0.000639	0.000967
212	-0.002977	0.000474	-1.9e-05	-0.001662	-0.001991	0.000803
213	-0.001991	-0.002155	-0.004128	-0.00232	-0.000512	0.000803
214	-0.004292	0.00294	-1.9e-05	-0.001005	-0.000512	0.00146
215	-0.000183	0.002118	-0.001498	-0.001498	-0.000347	0.00031
216	-0.001662	0.003104	0.00031	-0.001334	0.002775	-0.001005
217	0.000474	-0.000676	0.000146	0.000146	0.003268	-0.001498
218	-0.001334	-0.002813	-1.9e-05	-0.004456	-0.000676	-0.003635
219	-0.004785	0.000803	-0.001005	0.000146	0.001625	-0.001498
220	-0.000676	0.001296	-0.002648	-0.000183	-0.000676	-0.001662
221	-0.003799	-0.004456	0.00031	-0.002155	0.000474	-0.002155
222	-0.001005	-0.00347	-0.000183	-0.001827	0.000803	-0.003963
223	0.000967	-0.001334	-0.000512	-1.9e-05	-0.001662	-0.003963
224	0.001954	-0.003306	-0.000676	0.003433	-0.000183	-0.001662
225	-0.005443	-0.001498	-0.000183	-0.001991	0.000639	-0.003963
226	-0.002977	-0.002977	0.00031	0.00146	-0.000841	-0.001498
227	-0.002648	0.000146	0.004419	0.002775	-0.004621	-0.000841
228	-0.00232	-0.001827	0.00031	-0.00347	-0.001005	0.000639
229	-0.002813	0.000146	0.001296	-0.002648	0.001132	-0.000676
230	-0.00232	-0.000841	0.00409	-0.004128	-0.001991	0.001954
231	-0.001005	-0.000347	-0.002648	-0.003306	-0.001498	0.000639
232	-0.003306	-0.00232	-0.002484	-0.00347	0.000146	0.00031
233	0.000146	0.000803	-0.001498	-0.00347	-0.001334	0.000146
234	-0.000676	0.00031	-0.001005	-0.003799	-0.001169	0.000146
235	0.000146	0.002447	-0.001334	0.000146	-0.001662	-0.002648
236	-0.00347	-0.001005	-0.001827	-0.001005	-0.001334	-0.000676
237	0.000967	0.00031	-0.001169	0.000967	-0.000183	0.000803
238	-0.003306	0.000639	-0.001498	0.000803	-0.00347	-0.003799
239	0.00146	0.00031	-0.005771	-0.003963	-0.000841	-0.001662
240	-0.000347	-0.001005	0.00031	0.001789	-0.000676	-0.002813
241	-0.002648	-0.004949	0.000967	-0.004128	-0.002155	-0.000183
242	-0.000676	-0.001334	-0.002155	0.003761	-0.002484	-0.001334
243	-0.004292	-0.004128	-0.000183	-0.003963	0.000967	-0.001334
244	-0.004292	-0.000347	0.000474	-0.002648	-0.002648	-0.002648
245	0.001132	-0.00232	0.000474	0.000474	-0.003635	-0.000512
246	-0.001827	-0.002648	0.001296	0.001954	-0.006593	-0.001662
247	-0.009551	-0.001005	-0.000347	0.000803	0.001296	0.00146
248	-0.002155	0.002282	-0.000512	0.000639	-0.001991	-0.00232
249	-0.004128	0.000639	0.003597	-0.001991	0.000803	-0.001169
250	-0.000183	-0.000512	-0.002484	-0.001169	-0.001334	0.000146
251	-0.002813	0.001296	0.000639	-0.000512	0.000803	-0.001991
252	0.003597	0.002447	-0.000347	-0.003142	0.000803	0.00031
253	-0.004785	0.001789	-0.000841	0.000474	-0.002977	-1.9e-05
254	-0.002813	-0.001169	-0.002648	-0.000183	0.00146	-0.001334
255	-0.002155	-0.000841	-0.006429	-0.002155	-1.9e-05	-0.00232
256	0.000146	-0.001005	-0.002977	-0.003306	0.001132	-0.001169
257	-0.004785	-0.001005	-0.002484	-0.001169	-0.000183	-0.001334
258	-0.00347	-0.003799	-0.003799	-0.002484	0.000474	0.001625
259	-0.000512	-0.000841	-0.000347	0.000803	-0.00347	0.002282
260	0.000639	-0.001334	-0.000183	-0.001991	0.002282	-0.000676
261	-0.002484	0.000639	0.000474	-0.000841	-0.001334	-0.000676
262	0.000967	-0.00347	-0.001662	-0.001169	-0.001005	0.00031
263	-0.002155	0.003268	0.003761	-0.001991	-0.002484	-0.000347
264	-0.003142	0.003268	0.004255	-0.001662	-0.001662	-0.001827
265	-0.000676	0.001296	0.00031	-0.000512	-0.001498	-0.002484
266	-0.002155	-0.000512	-0.000347	-0.003635	-1.9e-05	-0.00232
267	-0.000512	0.000474	0.000146	-0.001991	0.000474	-0.000841
268	-0.003799	0.00031	0.000474	0.000967	0.002775	-0.001169
269	-0.0061	-0.002648	-0.00725	-0.001169	0.003926	0.000967
270	-0.000676	-0.002648	-0.000841	0.00031	0.000639	-0.00347
271	-0.000183	-0.001498	-0.004128	0.000146	0.002118	-0.001169
272	-0.000512	0.002611	0.001132	-0.003142	0.000803	-0.003142
273	0.002282	-0.000676	-0.001498	-0.003635	0.001789	-0.002648
274	-0.001991	0.001625	0.002447	0.000967	-1.9e-05	-0.002155
275	-0.005278	0.002118	-0.000347	-0.000676	-0.001169	-0.000841
276	-0.002484	-1.9e-05	-0.000676	-0.002648	-1.9e-05	-0.005114
277	-0.002484	-0.000841	0.002118	-0.002155	0.000146	-0.003306
278	-0.002484	-0.000841	0.00294	0.002611	-0.001334	-0.001334
279	-0.001827	-0.000841	0.000803	-0.004128	0.00294	-0.000183
280	-0.002484	-0.000347	0.00146	-0.004949	-0.003635	-0.002155
281	-0.000512	-0.003799	0.00409	-0.001662	-0.005278	-0.000676
282	0.00031	0.000803	-0.000183	-0.002813	-0.002155	-0.002484
283	-0.005771	0.000639	0.003268	-0.004621	-0.001334	-0.000183
284	-0.001334	0.000146	0.000474	-0.002813	-0.000512	-0.000347
285	0.002282	0.000146	0.00409	-0.001662	-0.000512	-0.000676
286	-0.002648	0.002282	0.000474	-0.002977	-0.002484	0.000474
287	-0.002155	0.00031	-0.001498	-0.000183	0.002282	-0.003635
288	0.000146	-0.000676	-0.002813	-0.00232	0.001625	-0.000841
289	-0.002484	0.000967	-0.002648	-1.9e-05	-0.001498	0.002611
290	-0.000183	-0.000183	-0.001991	-0.000512	0.002447	0.001789
291	-0.002813	-0.002648	-0.002977	-0.000183	-0.001498	0.000474
292	-0.001498	-0.003306	0.000146	-0.001827	-0.00232	-1.9e-05
293	0.00031	0.000639	0.000639	0.00294	0.00031	-0.00232
294	-0.002484	-0.000512	0.000803	-0.005936	-0.003142	-0.00232
295	-0.000512	0.000474	0.000639	0.000474	-0.001991	-1.9e-05
296	0.002447	-0.000347	0.002775	0.002775	0.00146	-0.001827
297	-0.000183	0.00031	-0.00232	-0.000183	-0.005936	-1.9e-05
298	-0.001169	0.001789	0.003761	-0.004785	0.000639	-0.001498
299	-0.001334	0.000146	-0.000676	0.001132	-0.003963	-0.001334
300	-0.001991	0.00146	0.002611	0.00031	-0.002484	0.00031
301	-0.001662	-0.000841	-1.9e-05	-0.003635	-0.000347	-0.000512
302	-0.005443	0.001954	-0.003963	-0.003306	-0.000347	-0.000347
303	0.000803	-0.003306	0.002775	-0.004621	0.001954	0.001132
304	0.001132	-0.001005	0.000967	-0.000512	-0.000183	-0.001827
305	-0.002648	0.001132	-0.004621	-0.009058	0.002611	0.00031
306	-0.00232	-0.000512	-0.000512	-0.001991	-0.001169	-0.000347
307	-1.9e-05	0.00031	-0.002813	-0.001827	0.000474	0.00031
308	-0.004292	0.000474	-0.000347	-0.00232	0.00031	-0.004621
309	0.00031	-0.001005	-0.001827	-0.001498	0.00146	-0.004621
310	0.001296	0.001296	-0.00232	-0.000512	0.001296	-0.00725
311	-0.002813	0.000474	0.001625	-0.000841	0.00031	-0.00347
312	0.00031	-0.001991	-0.001005	0.00031	0.002447	-0.000512
313	-0.001005	-0.000512	0.001132	0.001296	0.000639	-0.003142
314	0.000146	0.003268	0.001296	-0.001498	-0.001169	-0.000183
315	-0.001005	0.001789	-0.001662	0.001789	-0.000183	-0.002648
316	0.00031	-0.000512	-0.001005	-0.002484	-0.000512	-0.000512
317	-0.002977	0.00146	-0.000512	-0.000512	-0.003799	-0.001498
318	-0.000676	-0.004621	-0.002977	-0.001991	-0.001498	0.00031
319	-0.00347	0.000639	-0.000512	-0.001662	-0.001662	-0.000183
320	-0.001169	-0.003799	-0.000183	-0.000512	-0.001169	0.003597
321	-0.001334	-0.002648	-0.001827	0.005076	0.000803	0.000967
322	-0.001991	-0.001334	0.00146	-0.000183	0.001132	-0.001005
323	-0.000512	-0.000183	0.000803	-0.000347	-0.001005	-0.000676
324	-0.002648	-0.003142	-0.002484	-0.001334	0.001132	-0.002155
325	0.000146	-0.001005	0.002775	-0.000676	-0.001662	-0.003142
326	0.001625	-0.000512	-0.001827	-0.001662	-0.000347	-0.004128
327	0.002611	0.001625	-0.001498	-0.001005	-0.001662	-0.001498
328	-0.002813	0.001789	0.002447	0.000146	-0.000512	-0.003635
329	0.001625	0.000639	-0.000841	-0.002813	-0.000183	-0.001498
330	-0.000347	0.000474	-1.9e-05	0.001296	-0.003963	-0.003963
331	0.000803	-0.000841	0.001296	-0.003142	-0.005278	0.001625
332	-0.001169	-0.000347	0.001625	0.000803	-0.003142	-0.002648
333	-0.000512	-0.001991	0.002282	-0.001827	0.00146	-0.001005
334	-0.002484	0.000474	0.003433	-0.004621	-0.001334	-0.001334
335	-1.9e-05	-0.000347	-0.002484	-0.001005	-0.000183	0.000474
336	-0.001827	-0.001498	0.001625	-0.001334	-0.000183	-0.000512
337	-0.002977	-0.000512	0.000803	-0.001827	0.000146	-0.000183
338	-0.001991	-0.001005	-0.002155	-0.000512	-0.000183	0.000967
339	-0.001334	0.001296	-0.000183	-0.000841	0.004748	-0.001662
340	-0.001498	0.004583	-0.001169	-0.003635	0.00146	-0.001498
341	-0.001169	0.000474	0.000967	-0.002155	0.00294	-0.001498
342	-0.000512	0.001296	-0.002484	-0.002648	0.002118	-0.000183
343	-0.00232	0.00031	0.001954	-0.001169	0.00294	0.000639
344	0.001132	0.000967	-0.002484	-0.000183	0.00294	-0.00232
345	-0.002155	0.001789	0.000803	-0.00232	0.003597	-0.003142
346	0.001132	0.000146	-0.000512	0.000639	-0.004128	0.000474
347	0.002282	-0.001169	0.000803	0.003104	-0.002484	-0.003306
348	0.001625	0.002447	0.000967	-0.000676	-0.001498	-0.002648
349	0.000474	0.002282	-0.000347	-0.001662	0.002611	-0.001169
350	-0.000676	0.001625	-0.000512	0.000146	-0.001005	-0.000512
351	0.00146	0.000803	-0.000512	-0.002484	-0.005114	-0.00232
352	-0.002813	-0.001991	-0.001169	-0.003799	-0.000512	-1.9e-05
353	-0.000841	-0.002155	-0.000512	0.000146	-0.001005	0.000639
354	-0.001334	-0.00232	-0.000183	-0.001334	0.003104	0.000639
355	-0.002813	0.002118	-0.002155	-0.005278	-0.001991	-0.000347
356	-0.003306	-0.004621	-0.001169	-0.007415	0.000474	-0.003799
357	-0.001334	0.00031	-0.002648	-0.000841	-0.000841	0.000639
358	-0.000183	-0.001169	0.005569	0.003433	-0.000512	-0.004949
359	0.002775	0.000146	-0.001498	-0.001662	-1.9e-05	-0.000347
360	-0.001827	0.004255	-0.000512	-0.000676	0.000146	0.00031
361	-0.001498	0.003268	-0.000183	-0.000676	0.002118	0.001789
362	0.002775	-0.000347	0.00031	-0.000183	-0.000841	-0.000841
363	0.000639	0.00146	-0.000676	0.000474	-0.000676	-0.001498
364	0.001625	0.001789	-0.004292	0.002447	-1.9e-05	-0.001827
365	0.000146	0.002282	-0.006264	-0.000841	0.000639	-0.001005
366	0.002118	0.00294	-0.003635	0.001625	-0.000512	-0.002977
367	-0.001991	0.00146	-0.003799	-0.000183	0.002775	-0.000347
368	-0.002648	-0.00232	-0.002484	0.001625	0.001296	-0.002813
369	0.001625	-0.0061	-0.000512	-0.001169	0.001954	0.001296
370	0.000474	0.001132	0.001296	0.00672	-0.001827	-0.001991
371	-0.000183	-0.003306	0.001789	0.002447	-0.001169	-0.001498
372	0.000146	-0.001498	-0.000183	0.002611	-0.001334	-0.002484
373	-0.001498	-0.002813	0.003597	0.001132	-0.001169	-0.001005
374	-0.001005	-0.003306	-0.002977	0.000803	0.000474	-0.001827
375	0.001132	-0.002813	-0.000183	0.001132	0.000474	-0.002484
376	0.005405	0.000803	0.000967	-0.001991	-0.000347	-0.004949
377	0.000146	0.000146	-0.001991	0.00031	0.002118	-0.003635
378	0.000803	0.000639	-0.001662	0.001132	0.001954	0.001296
379	0.000474	0.000803	-0.002977	-0.001991	-0.001169	-0.002977
380	0.00294	-0.00232	-0.001827	0.00031	0.000474	-0.000676
381	0.001132	0.00146	-0.000512	0.002775	-0.002813	-0.003963
382	0.001789	0.00031	0.000146	-0.000841	-0.004621	0.000967
383	0.002611	0.000967	-0.002977	0.002118	-0.000347	-0.001498
384	0.001132	-0.001662	0.001789	-0.00232	0.001625	-0.001498
385	-0.002484	0.000146	-0.001498	0.00146	-0.001827	-0.002155
386	-0.000512	-0.003142	-0.001991	-1.9e-05	0.000967	-0.000347
387	-0.003142	-0.000183	-0.000512	-0.002648	-0.000841	0.000146
388	-0.002648	-0.003963	0.000803	-0.000183	-0.001662	-0.003306
389	-0.001662	-0.002155	-0.001662	-0.004621	-0.001498	-0.001169
390	-0.002977	-0.001827	0.005569	0.000474	0.00031	-0.002648
391	0.001132	-1.9e-05	0.00031	-0.001827	-0.000841	0.00031
392	-0.002648	0.000639	0.003597	-0.000183	0.00409	-0.006593
393	0.000474	0.00146	0.000474	-0.00232	0.004255	-0.000676
394	-0.002155	0.000474	-0.000183	0.001132	0.002447	-0.002155
395	-0.002484	0.002447	0.000803	-0.001827	0.002282	0.000146
396	-0.002813	0.001789	0.000967	-0.005771	-0.002484	-0.001498
397	0.001132	-0.001005	-0.001498	-0.000347	0.001132	-0.000841
398	0.000803	0.00294	-0.001827	0.000639	-0.000676	-0.003142
399	-0.001991	0.00146	-0.001498	-0.000841	-0.000183	-0.002648
400	0.000803	-0.001005	-0.002484	0.002611	-0.000676	-0.001498
401	-0.000841	-0.001334	-0.000676	-0.001169	-0.001498	-0.003799
402	0.000474	-0.000512	-0.000347	-0.000841	-0.000512	-0.000841
403	-0.001169	-0.002813	0.00031	0.002447	-0.003142	-0.002648
404	0.000146	-0.001498	0.000639	-0.003306	-0.002813	-0.000512
405	-0.001991	-0.002155	0.003761	-0.003635	-0.003635	0.000967
406	0.000803	-0.002813	-0.002484	-0.003635	0.000146	-0.000512
407	-0.002977	-0.000347	-0.000183	0.000803	-0.002648	0.001132
408	-0.001662	-0.001662	-0.001005	-0.000676	0.001296	0.00294
409	-0.000183	0.000803	0.000474	-0.001991	0.002447	-0.001662
410	-0.000676	-0.000183	0.000474	-0.001005	-1.9e-05	-0.003963
411	0.00031	-0.001169	0.000803	0.003104	-0.000512	-0.003306
412	-0.000512	-0.002648	-0.000183	-0.002977	0.005076	-0.002484
413	0.002282	0.000146	-0.003142	0.000967	-0.002155	-0.001334
414	0.002118	-0.000183	-1.9e-05	0.00146	0.003926	-1.9e-05
415	0.000803	0.007049	-0.005936	-0.001991	-0.001169	-0.001827
416	0.001296	-0.003142	0.00031	0.000474	0.000803	-0.000512
417	0.000474	0.003433	-0.001991	0.002611	0.00294	-0.002155
418	-0.002484	0.000146	-0.003799	-0.001827	-0.000676	-0.001991
419	0.001296	-0.002484	-0.002977	-0.001991	-0.002155	0.001789
420	0.003268	-0.004128	0.001954	0.000474	0.001954	-0.004621
421	-0.000347	-0.002813	-0.004456	-0.001169	-0.00347	-0.001169
422	0.000474	-0.002648	-0.000676	-0.000512	-0.000841	-0.001334
423	0.000967	-0.001334	-0.001498	-0.000841	0.009185	-0.00232
424	-0.001662	-0.001334	0.002611	0.000146	-0.001169	-0.005114
425	0.00146	0.000803	0.000967	0.000967	0.002447	-0.002813
426	-0.000841	0.002447	0.001789	0.000474	0.001296	-0.002484
427	-0.004292	0.00031	0.002118	-0.000512	0.000474	0.002282
428	-0.001827	0.001789	-0.000183	0.001625	0.000146	-0.002484
429	-0.000512	0.000146	-0.004128	-0.000347	0.001954	0.001789
430	-0.000183	0.001296	-0.003142	0.003433	-0.000183	0.002775
431	0.001625	-0.000676	-0.000676	0.001132	-0.000512	-0.001169
432	0.000474	0.002611	-0.002813	0.002282	-0.000512	-0.001991
433	-0.000183	-0.001991	-0.002155	-0.000183	0.001296	-0.002484
434	0.002282	0.001625	-0.000841	0.001132	0.005076	-0.001169
435	-0.000841	-0.000676	0.001132	-0.002977	-0.002484	-0.002155
436	0.000967	-0.001169	-0.001498	-0.002484	-0.000841	-0.002977
437	-0.001334	0.001954	0.000146	-0.003963	-0.001662	-0.002977
438	0.000803	-0.00232	0.001789	-0.004621	-0.002155	-0.000183
439	-0.001169	-0.003635	0.002118	-0.002484	-0.001827	0.001789
440	-0.001498	-0.00232	-0.000512	-0.003799	-0.00232	0.000803
441	-0.001991	-0.001498	0.00409	-0.002813	-0.003142	-0.000676
442	0.000967	-0.002155	0.000967	-0.00347	0.002447	-0.001005
443	-0.002648	0.001789	0.001132	-0.002813	-0.001005	-0.002155
444	0.00146	-0.001005	0.001296	-0.007579	0.001625	0.000967
445	0.002775	-1.9e-05	-0.000183	-0.001169	0.006227	-0.002155
446	-1.9e-05	-0.000841	0.003433	-0.008401	0.001132	0.000639
447	0.00146	0.004583	-0.002484	-0.003799	-0.001334	-0.000347
448	0.00146	-0.000347	0.000474	-0.002813	0.001132	-0.001169
449	-0.001005	0.000803	-0.002977	-0.004621	0.000146	-0.000183
450	0.000639	-0.00232	-1.9e-05	-0.000676	-0.001334	-0.000841
451	0.000146	-0.000841	-0.002484	0.002282	-0.004128	-0.000183
452	-0.000676	-0.000676	-0.000512	-0.003306	-0.000347	-0.000841
453	0.003268	-0.000841	-0.001334	-0.00347	0.001789	-0.001334
454	0.001132	-0.001498	0.000146	-0.000347	-0.001498	-0.002977
455	0.002447	-0.001334	0.002282	-0.002977	-0.001334	-0.001169
456	-0.002484	-0.001498	0.00146	0.001132	0.002282	0.000639
457	-0.001827	-0.001662	0.000639	-0.001169	0.001625	0.001296
458	-0.001005	0.000146	0.002775	-0.001498	-0.003142	-0.001662
459	-0.000841	-0.001662	-0.001005	-0.003306	0.003597	0.00146
460	-0.003799	0.001625	0.000146	0.000146	-0.003306	-0.004292
461	-0.002977	-0.001334	0.003268	-0.003142	0.001625	0.00146
462	-0.000183	-0.000512	-0.00347	0.001954	-0.002813	0.005241
463	0.000146	-0.000676	-0.000347	-0.005936	0.000967	-0.000841
464	-0.000512	-0.002813	-0.001498	-0.001827	0.001789	0.000803
465	-0.001827	0.001789	-0.000347	-0.000676	0.002447	-0.002648
466	-0.000183	0.001625	-0.001662	-0.001991	-0.002484	0.001625
467	-0.002648	-0.001662	0.004255	0.001132	0.001132	-0.002484
468	0.001296	-0.004128	-0.001169	-0.00232	-0.001334	-0.000512
469	0.002447	-0.000183	-0.004949	-0.004456	-0.001991	-0.001991
470	0.004748	0.001132	-0.001498	-0.003306	-0.001005	-1.9e-05
471	-0.001662	-0.001169	-0.001991	-0.000676	-0.001334	-0.002977
472	0.002118	-0.005936	0.001625	-0.00232	0.002282	-0.000183
473	0.001296	0.001132	-0.000676	-0.004621	-0.003963	-0.004785
474	-0.002813	-0.003306	0.001954	-0.002155	0.003926	-0.004456
475	0.001789	0.005405	-1.9e-05	0.000146	0.001296	-0.004456
476	0.000639	0.000146	0.000803	0.00031	0.002118	-0.003635
477	-0.003142	-0.000347	0.003268	0.000967	-0.003635	-0.000841
478	0.001296	-0.000512	0.002447	-0.001991	-0.003142	-0.000183
479	0.00146	0.001132	-0.001498	-0.000347	-0.002155	-0.000183
480	-0.000676	-0.001991	0.000803	0.003268	0.000474	-0.000841
481	0.002282	-1.9e-05	-0.001827	-0.001991	-0.001991	-1.9e-05
482	-0.001498	-1.9e-05	-0.000512	0.000146	-1.9e-05	0.000803
483	0.001954	0.001132	-0.000841	0.000967	-0.001334	0.001625
484	-0.001169	0.001296	-0.002155	0.000639	-0.002813	0.003926
485	-0.000512	-0.000841	-0.001334	-0.001005	0.003268	-0.001005
486	-0.001662	0.00031	0.001132	-0.002484	-0.004621	-0.000841
487	0.000474	-0.000183	-0.003635	-1.9e-05	0.003104	0.000803
488	0.000639	0.000474	-0.002155	0.000474	-0.00232	-0.001991
489	-0.000183	-1.9e-05	0.003433	-0.001827	-0.007086	-0.001169
490	0.000967	-0.000347	0.000474	0.001132	-0.002813	-0.001005
491	-0.000676	-0.000676	0.001296	0.001132	-0.000512	0.000474
492	-1.9e-05	-0.000183	-1.9e-05	-0.000676	0.000803	-0.001827
493	0.001296	-0.00232	0.000146	-0.000347	0.001789	0.002775
494	0.000803	0.000803	-0.002813	-0.000347	0.000474	-0.000841
495	0.000639	-0.000183	0.001132	-0.001662	-0.006593	-0.000512
496	-0.001169	-0.002484	-0.002648	-0.000512	-0.000841	0.000474
497	-0.000183	0.000639	-0.000512	-0.004949	-0.000512	-0.001169
498	-0.000676	-0.001662	-0.000512	-0.001169	-0.001662	0.000803
499	-0.000512	-0.002155	-0.001005	-0.001334	-0.000841	-0.000676
500	-0.000347	-0.000183	-0.000512	-0.004785	-0.011195	0.000474
501	-0.003142	-0.001662	0.000474	-0.000676	-0.005278	-0.001334
502	-0.000512	0.00031	0.000146	0.002282	-0.002155	-0.000841
503	-0.000347	0.002118	-0.001169	-0.003306	-0.001662	0.000474
504	0.001625	-0.001005	-0.004456	-0.003635	0.001625	-0.002155
505	-0.002813	0.000639	-0.000347	-0.001498	-0.000841	-0.002484
506	0.000803	-0.002648	0.002282	-0.000512	-0.001498	-0.002813
507	0.001954	0.001132	-0.000676	0.00294	-0.000841	-0.003799
508	-1.9e-05	-0.000841	0.001789	-0.005114	0.00294	-0.006264
509	0.000474	-0.000676	-0.000183	0.000146	-0.000183	-0.001991
510	0.000803	-0.001498	0.000967	-0.000676	-0.000841	-0.006264
511	-0.000676	-0.000512	-0.002155	-0.001005	-0.009387	0.002447
512	-0.002648	-0.003142	0.000146	-0.000676	-0.003142	-0.00347
513	-0.000676	-0.002155	-0.001005	0.006556	0.00031	-0.004456
514	-0.002813	-0.00347	-0.001005	-0.00232	-0.004785	-0.001334
515	0.001625	-0.004785	-0.001991	-0.001827	-0.000347	0.004583
516	-0.002155	-0.000676	0.001954	-0.001169	0.000146	-0.003963
517	-0.000512	-0.001005	-0.001005	-0.001991	-0.00232	0.002282
518	-0.005114	-0.001662	-0.004785	0.003268	0.00031	-0.000183
519	0.004419	-0.001991	-0.00232	-0.004292	0.002118	-0.000841
520	0.00146	0.001625	-0.000347	0.002775	-0.001662	-0.001334
521	0.001625	-0.00232	-0.000676	-0.001991	-0.000512	-0.000512
522	0.000639	0.000474	-0.003963	0.001625	-0.007744	-0.003635
523	0.001296	-0.003635	0.00146	-0.000676	-0.002484	-0.003963
524	0.001625	-0.001662	-0.00232	0.007706	0.005569	-0.004128
525	0.000639	0.004419	0.00031	-0.002813	-0.001827	-0.002813
526	0.001954	0.004748	-0.002977	0.001296	0.001132	-0.001991
527	-0.001498	-0.00347	-0.000676	0.000146	0.000967	-0.003142
528	0.003104	-0.003635	-0.004292	-0.000183	-0.002813	-0.001169
529	0.00031	-0.002155	0.001789	0.001625	-0.000512	0.002611
530	-1.9e-05	-0.004785	0.000474	0.00146	-0.000183	0.000146
531	-0.003799	0.000639	0.000146	-0.002648	-0.001334	-0.001662
532	0.000639	-0.00232	-0.001334	-0.000183	-0.002648	0.001789
533	-0.00232	-0.000841	-0.000841	-0.000183	-0.006264	-0.003306
534	0.000803	0.000474	0.00031	-0.005771	-0.002813	0.000639
535	0.000967	0.00294	0.00031	0.00409	-0.002155	-0.001827
536	-0.002155	-0.000512	-0.000841	-0.004456	0.00031	-0.000347
537	0.000146	0.005898	-0.001498	-0.002155	-0.001991	0.000474
538	0.002447	0.001296	0.002611	0.000474	0.001132	-0.001991
539	-0.000676	0.003433	-0.002155	-0.000183	0.000639	-0.000347
540	-1.9e-05	0.000474	-0.000512	-0.000512	0.000639	-0.002813
541	0.002118	0.000474	-0.001662	-0.001005	0.002447	-0.00232
542	-0.00347	-0.000183	-0.001827	0.000803	0.00031	-0.001005
543	0.000474	0.001954	-0.006264	0.001132	0.000146	-0.001169
544	-0.001662	-0.001827	-0.002648	0.000967	-0.000841	-0.000512
545	0.000639	-0.001991	-0.000183	0.003104	0.001625	0.001625
546	-0.001005	-0.00232	0.001625	0.003761	-0.001169	-0.000512
547	0.000146	-0.000512	-0.000841	-0.002813	-0.000676	-1.9e-05
548	-0.001662	-0.003963	0.001132	-0.000841	-0.004292	-0.002977
549	0.001789	-0.002155	-0.000512	-0.001169	-0.001334	0.001954
550	-0.001498	0.001954	-0.000512	-0.002484	-0.002977	0.000803
551	-0.002484	-0.001662	-1.9e-05	-0.006429	-0.000183	0.001789
552	-0.002155	0.000146	-0.003799	-0.003142	-0.002484	-0.002484
553	0.00031	-0.001005	-0.001005	-0.000676	-0.000512	-0.001169
554	0.001625	0.000803	-0.000676	-0.005607	0.000146	-0.000841
555	-0.000676	-0.000841	-0.007086	-0.000183	0.002118	-0.002155
556	0.000803	0.000967	0.000474	-0.002977	-0.000512	-0.004785
557	0.00146	0.000474	0.002282	-0.002813	0.001789	-0.005771
558	0.002282	0.000146	-0.001498	-0.002484	0.000639	-0.001662
559	-0.000512	0.002447	-0.001169	0.000146	-1.9e-05	-0.003142
560	0.00409	-0.000512	0.000474	-0.003799	-0.000347	-0.001334
561	-0.002484	-0.000512	-0.002155	-0.003142	0.000146	-0.001498
562	-1.9e-05	-0.003306	-0.001169	-0.003963	0.000967	-0.000512
563	0.000474	-0.000183	-1.9e-05	-0.003799	-0.001498	-0.002977
564	0.00031	-0.002977	-0.002813	-0.004292	0.000639	0.000967
565	-0.000841	-0.004292	-0.001498	-0.003799	-0.002648	0.000146
566	-0.001169	-0.003635	-0.001827	-0.004785	0.00146	0.000146
567	-0.001169	-0.001005	-0.000841	-0.002155	-0.005278	0.000803
568	-0.001991	-0.00347	-0.004785	-0.009058	-0.002813	-0.001334
569	0.000639	-0.000183	-0.004785	-0.00347	-0.000512	-1.9e-05
570	-0.000676	-0.002648	-0.000676	-0.003635	-0.002977	-0.00232
571	0.004583	0.00146	-0.001334	-0.00232	0.003104	0.000803
572	0.000146	0.000146	-0.001498	-0.0061	0.004419	-0.003635
573	-0.001334	0.001132	-0.001662	-0.00347	0.003268	-0.002155
574	-0.000676	0.000146	-0.002155	-0.002813	0.004912	-0.003142
575	-0.001169	0.002775	-0.005114	-0.005114	0.001789	-0.000676
576	0.001132	0.000146	-0.004621	-0.000183	0.00031	-0.001005
577	-0.000183	-0.005607	-0.003799	-0.002155	0.002118	0.000474
578	-0.000183	-0.002155	-0.001662	0.000967	-0.001498	-0.001334
579	0.002447	-0.001334	-0.002155	-0.013825	-0.001991	0.000146
580	-0.003142	-0.001991	-0.001827	-0.003306	-0.002155	-0.000183
581	-0.000841	0.004419	0.000967	-0.005278	-0.001498	0.000639
582	-0.002977	0.001789	-1.9e-05	-0.002155	-0.004128	0.002282
583	0.000474	-0.001662	-0.00232	-0.004621	-0.000676	0.002447
584	-0.00232	0.000803	-0.000841	-0.004456	-0.000676	-0.000183
585	-0.002977	-0.000512	-0.000512	-0.005443	-0.001334	-0.000183
586	-0.000347	-0.00232	-0.002813	-0.002813	-0.00232	-0.005114
587	-0.003142	0.00031	0.002775	-0.002155	-0.000183	0.00031
588	-0.002813	0.000803	-0.003306	-0.003799	0.002775	0.001132
589	0.001954	-0.001169	-0.00232	-0.002648	-0.002155	-0.001005
590	-0.001169	0.003761	-0.002484	-0.010209	-0.00232	-0.003635
591	-0.000183	0.00031	-0.004128	-0.00347	-0.002813	-0.003142
592	0.000474	-1.9e-05	-0.004949	-0.001498	-0.001169	0.002447
593	-0.005278	0.00294	0.00031	-0.001169	-0.004949	0.000967
594	-0.001005	-0.002813	-0.005771	-0.001005	0.000146	-0.002155
595	-0.001827	0.001132	-0.001662	-0.000676	-0.004949	-0.000512
596	0.000146	-0.001498	-0.001334	-0.001827	-0.004621	-0.001662
597	-0.000676	-0.001334	-0.002155	0.004255	-0.003799	-0.001991
598	-0.002648	-0.002155	0.002118	-0.001662	-0.004292	0.000639
599	-0.003799	0.002282	-0.001991	0.000146	-0.004785	0.000146
600	-1.9e-05	0.002282	-0.001005	0.000146	-0.00347	-1.9e-05
601	-0.000676	0.000146	-0.001498	-0.010373	-0.004785	-0.003635
602	-0.00232	-0.000512	-0.000183	-0.007415	-0.001498	0.002447
603	0.002775	-0.000512	0.000146	-0.003306	-0.001169	0.000967
604	-0.001991	-0.000841	0.000967	-0.00347	0.001296	0.001132
605	0.000639	0.00031	-0.00347	-0.004785	0.000474	-0.003635
606	-0.002648	-0.000183	-0.0061	-0.003306	0.000967	0.000639
607	-0.00347	0.001296	-0.003142	-0.002977	0.000967	0.00031
608	0.000967	-0.002484	-0.001662	-0.00347	-0.000512	-0.001827
609	-0.000183	0.000803	-0.004456	0.001132	0.003433	-0.000347
610	-0.001827	0.001789	-0.001662	0.000639	-1.9e-05	-0.000183
611	0.00294	-0.00232	-0.002648	0.001954	-0.001662	0.000474
612	0.00031	0.001789	-0.002648	-0.005936	-0.001662	-0.004456
613	0.000967	-0.000183	0.000803	-0.004621	0.000146	0.004419
614	0.000967	0.002118	0.001296	-0.000183	-0.000347	0.002775
615	-0.000347	0.002118	-0.003306	-0.00347	-1.9e-05	0.00031
616	-0.001005	-0.001662	-0.002648	-0.002155	-0.001005	-0.000841
617	-0.001991	-0.00347	-0.000676	-0.000841	0.00146	0.006227
618	-0.004128	-0.003142	-0.006429	-0.000512	-0.002155	-0.002484
619	-0.004128	-0.002977	-0.001991	-0.00232	-0.001498	0.00031
620	-0.000183	0.000146	-0.001662	-0.000512	-0.003963	-0.002155
621	-0.00347	0.000146	0.000803	-0.000676	-0.003306	-0.002484
622	0.000803	-0.001662	-0.001662	-0.002813	-0.000841	0.000639
623	-0.001169	0.002611	0.000639	-0.002484	-0.001662	-0.00347
624	0.001132	0.000639	0.000474	-0.005278	0.00031	-0.000676
625	-0.0061	0.001296	-0.00232	0.001296	-0.005443	0.001296
626	0.003597	0.000146	-0.006429	-0.000512	-0.001498	0.000967
627	-0.002813	-0.000676	-0.001991	-0.001991	-0.000183	0.000639
628	0.000146	-0.000183	-0.001498	-0.003799	0.002611	0.005405
629	-0.003963	0.004583	-0.002813	-0.00347	0.000474	-0.001991
630	-0.004292	-0.001498	-0.002155	-0.001991	-0.002155	0.000639
631	-0.000183	0.00146	-0.002977	-0.001005	-0.002155	-0.001334
632	-0.001498	0.000639	-0.000841	0.002118	-0.000347	-0.001169
633	0.001954	-0.002813	-0.000512	-0.000347	-0.001991	0.001625
634	-0.001005	-0.001334	0.00031	-0.003142	-0.000183	-0.001169
635	0.000146	-0.001991	-0.001498	-0.001498	-0.001005	0.001132
636	-0.002484	-0.005771	0.001954	-0.000183	-0.001169	0.002775
637	0.001132	0.00294	-1.9e-05	-0.000347	-0.001498	0.001789
638	-0.002813	-0.000841	-0.004128	-0.001334	-0.000512	-0.000512
639	-0.00347	-0.001498	-0.003963	-0.001991	0.003104	0.009514
640	-0.001005	0.002118	-0.000512	-0.000512	0.000967	-0.002813
641	-0.001827	-0.000676	-0.002648	-0.001827	-0.002648	-0.003142
642	0.00146	0.000146	0.000639	0.002282	0.000639	-0.001169
643	-0.000512	0.000639	-0.00232	-0.001005	0.002282	-0.001991
644	0.001954	0.000803	-0.002155	-0.000183	-0.002813	0.002118
645	0.001132	-0.000183	0.001954	0.00031	0.004419	0.000639
646	-0.000841	0.001625	-0.002484	-0.006922	-0.001005	0.002775
647	0.002447	0.001132	-0.001827	-0.000676	0.004419	0.003597
648	0.00146	0.005076	-1.9e-05	-0.000183	-0.003799	-0.00347
649	-0.002155	0.002282	-0.002155	-0.000676	-0.000347	-0.001169
650	-0.000841	0.000803	-0.002977	0.002118	0.001789	0.00409
651	-0.001662	0.000803	-0.000676	0.001132	-0.002484	-0.001662
652	-0.001334	-0.000347	-0.000512	0.001132	-0.000841	-0.001169
653	0.000803	-0.001662	-0.000347	-0.000676	-0.003306	-0.000347
654	-0.001827	-0.001827	-0.00347	-0.001334	-1.9e-05	0.002775
655	-0.002155	-0.001498	0.000803	-0.001005	0.000146	-0.001662
656	-0.001169	-0.002813	0.000146	-0.001005	0.00031	0.00146
657	-0.004949	0.003268	-0.003799	-0.000347	0.00031	0.003104
658	-0.002155	-0.001827	-0.000183	-0.002648	-1.9e-05	0.002118
659	0.000474	0.001625	0.000474	-0.00232	-0.000347	-0.000347
660	-0.003306	0.001789	-0.005607	-0.000676	0.001789	0.000146
661	-0.001827	0.001132	-0.004128	0.002118	0.001296	0.004255
662	0.000146	-0.00232	-0.00232	-1.9e-05	0.002118	-0.00232
663	-0.001827	0.002282	-0.001498	0.007377	-0.000676	-0.000347
664	0.000967	0.000967	-0.001169	-1.9e-05	0.001132	-0.004292
665	0.000474	0.003433	-0.004292	-0.00232	0.001132	-0.004621
666	-0.000183	-0.000183	0.000967	-0.002813	0.000803	-0.002484
667	0.00146	0.000967	-0.001334	-0.000183	0.000146	-0.000676
668	0.000474	0.000967	-0.004128	0.002611	-0.001169	-0.002155
669	-0.005114	0.001789	0.001789	-0.000512	0.000803	0.002282
670	-0.000347	-0.001334	0.006884	0.000639	0.002447	-0.001498
671	-0.001662	-0.004128	-0.003799	-0.001498	0.002775	-0.000841
672	-0.00347	-0.001498	0.001789	0.000474	0.000803	-0.005443
673	-0.002155	-0.001498	-0.002648	0.000146	0.001132	-0.002648
674	-0.00232	-0.002155	0.002282	0.000803	0.002118	-0.001005
675	-0.002484	-0.001169	0.001132	-0.004621	-0.001827	-0.000183
676	0.00031	-0.001169	-0.000512	0.000146	-0.000676	-0.001662
677	-0.001334	-0.000841	0.001132	-0.001498	0.004419	0.002282
678	0.000146	0.004912	-0.000512	-0.000183	-0.002813	0.00146
679	-0.003142	0.004748	-0.001498	-0.00232	-0.001005	0.002611
680	-0.001662	0.003104	-1.9e-05	0.00294	0.002282	-0.001827
681	0.002447	0.000146	0.001132	0.000639	0.00146	0.000803
682	0.00294	0.00409	-0.004292	-0.001991	0.002775	-0.00232
683	-0.003306	0.000474	0.001132	0.002775	0.00031	-0.011359
684	0.002611	0.00409	-0.00232	0.000967	0.001954	-0.003635
685	-0.001169	-0.001662	-0.001498	0.001789	-0.001334	-0.002977
686	-0.001334	-0.001662	-0.001662	-0.001498	-0.000512	0.000803
687	-0.001662	0.000639	-0.001662	0.001625	-0.001005	-0.001005
688	-0.000347	-0.00232	0.000474	-0.003306	0.001296	-0.001334
689	-0.003306	-1.9e-05	0.002118	0.000474	-0.001334	0.000639
690	-0.000183	-0.001005	-0.001991	-0.001991	0.00031	0.001789
691	-0.002484	0.001296	0.00146	-0.001169	0.000639	-0.002813
692	-1.9e-05	-0.002155	0.000967	-0.001827	0.002611	0.000803
693	-0.000841	-0.001169	-0.003963	-0.000841	0.000146	0.000967
694	-0.002484	0.000967	0.001132	-0.001662	0.002775	-0.012181
695	-0.000841	0.001789	-0.000183	-1.9e-05	0.003268	-0.001005
696	-0.001827	-0.001662	0.000146	0.000639	0.005569	-0.001169
697	0.000146	0.001789	-0.001662	-0.003306	-0.001662	0.000146
698	-0.003142	0.001954	0.000146	-0.000676	0.001132	-0.001005
699	0.001132	0.000474	0.000146	0.00031	0.003433	-0.000183
700	-0.000183	0.00294	0.000803	-0.001005	-0.003142	0.001296
701	0.004583	0.001954	-0.003142	-0.004292	0.000639	0.001954
702	0.001132	0.00031	-0.001662	0.000967	-0.001662	0.000803
703	-1.9e-05	-0.000183	-0.002155	-0.005443	-0.000183	0.001132
704	-0.001991	-0.001169	-0.002648	-1.9e-05	0.00409	0.003104
705	-0.005771	-0.001498	0.000967	-0.000841	-0.001991	-0.011524
706	-0.003142	0.00031	0.002775	0.001954	-0.002484	0.000803
707	-0.003306	-0.003635	0.004419	0.001789	0.001625	0.004419
708	-0.002977	0.002118	-0.001498	-1.9e-05	-0.001005	0.001625
709	-0.004128	-0.001991	0.003761	-0.001334	-1.9e-05	0.003761
710	0.000146	-0.000183	0.003104	0.004583	0.000146	0.004419
711	-0.000676	0.00031	0.001625	-1.9e-05	0.000146	0.004748
712	0.000474	0.001789	-0.001005	-0.002648	0.000474	0.005076
713	-0.000347	0.002118	0.001625	-1.9e-05	0.000146	0.002447
714	0.002447	0.000474	-0.001991	0.00031	0.000967	0.005241
715	-0.002484	-1.9e-05	-0.00232	-0.001498	0.00294	-0.001005
716	-1.9e-05	0.003268	-0.003635	-0.00232	0.002611	-0.001498
717	-0.001169	0.002447	-0.000841	-0.001169	-1.9e-05	0.002447
718	0.001296	0.000146	-0.004785	0.004419	0.001296	0.004583
719	-0.001991	0.001132	0.001132	0.00146	-0.000347	0.003761
720	-0.00232	-0.001662	-0.001169	-0.000347	0.000146	0.00409
721	-0.000512	0.000146	-0.00232	0.000803	0.003597	0.002447
722	-0.002648	-1.9e-05	-1.9e-05	0.000967	0.00294	0.00409
723	-0.001169	-0.002484	0.000639	0.00031	-0.002155	0.003597
724	-0.001334	-0.002155	0.003268	0.000474	0.000803	0.005241
725	0.003433	0.002282	0.000146	0.000803	0.002611	0.00409
726	-0.004128	0.001789	0.005405	-0.002155	0.001625	0.005405
727	-0.001169	-0.000347	-0.000512	-0.000512	0.001296	0.002775
728	-0.002977	0.003104	0.001296	0.002282	0.00146	0.003104
729	-0.000676	0.003104	-0.000841	-0.000512	0.001789	0.008692
730	-0.001005	0.00146	0.000639	0.002775	0.000474	0.003761
731	0.002118	0.002611	-0.000183	0.000639	0.000474	0.008363
732	0.002447	0.001132	0.001296	0.002447	0.00146	0.002118
733	0.00146	0.002118	-0.000347	-0.000347	0.000474	0.008035
734	0.001132	0.006391	-0.000841	-0.000512	0.00146	0.008363
735	0.001625	0.001789	-0.00232	0.000639	0.002611	0.004748
736	0.003268	0.002447	-0.000512	0.000146	-0.002813	0.005898
737	-0.002155	0.002611	0.001132	0.001296	0.003597	0.008528
738	0.000639	-0.000512	-0.000183	0.00146	-0.001991	0.003761
739	-0.004128	-0.000512	-0.000676	0.000474	0.002118	0.002447
740	-0.002977	0.000803	-0.000841	0.002447	0.000803	0.003433
741	-0.001991	-0.000841	0.000146	-0.000183	0.001789	-0.000841
742	-0.001991	0.001132	-0.001334	-0.000183	-0.00347	0.003926
743	-0.001005	-0.001991	0.002447	-0.000347	-0.000347	0.00146
744	0.001954	0.001132	-0.000183	0.003104	-0.000676	0.006391
745	-0.002484	0.003433	0.002282	-0.000676	-0.001827	0.005076
746	0.001296	-0.000347	0.001296	-0.002155	-0.002648	0.005734
747	0.002775	0.000474	-1.9e-05	0.004583	-0.001334	0.003104
748	-0.001334	0.00031	-0.000183	0.000474	0.001789	0.004748
749	-0.001334	-0.000183	-0.000841	-1.9e-05	-0.002484	0.002447
750	-0.001005	0.000803	-0.002648	0.001789	-1.9e-05	0.003268
751	0.005898	0.006227	0.001789	0.006556	0.004419	0.007049
752	0.008363	0.008857	0.010007	0.008528	0.011979	0.016253
753	0.01691	0.020197	0.014938	0.020033	0.01576	0.021183
754	0.025128	0.024306	0.022663	0.025292	0.02973	0.030716
755	0.034332	0.034496	0.028415	0.034661	0.031702	0.03729
756	0.038112	0.040084	0.030552	0.040906	0.039098	0.041892
757	0.051918	0.047152	0.038934	0.045672	0.04633	0.051096
758	0.056356	0.052247	0.037619	0.051754	0.050932	0.054548
759	0.057835	0.060465	0.039263	0.058328	0.058985	0.063423
760	0.065395	0.062766	0.049781	0.061286	0.063587	0.065231
761	0.074599	0.069011	0.041892	0.070819	0.06934	0.066053
762	0.073613	0.075914	0.043043	0.078051	0.077558	0.077065
763	0.083968	0.081831	0.049288	0.080845	0.080187	0.083475
764	0.083639	0.083475	0.052411	0.085611	0.08594	0.082982
765	0.090706	0.088898	0.056684	0.088405	0.091199	0.092186
766	0.096788	0.090871	0.060136	0.095144	0.093336	0.105334
767	0.100239	0.095801	0.064902	0.097445	0.100403	0.103526
768	0.108293	0.100403	0.067861	0.101554	0.101718	0.104184
769	0.109114	0.10517	0.073613	0.105827	0.109114	0.107964
770	0.109607	0.109114	0.074271	0.11158	0.108128	0.109443
771	0.116017	0.109443	0.077558	0.113552	0.112237	0.114538
772	0.118811	0.117661	0.065395	0.116017	0.116346	0.113388
773	0.119469	0.121441	0.078544	0.124399	0.116675	0.118976
774	0.125714	0.12555	0.075421	0.125879	0.121277	0.123085
775	0.126865	0.126043	0.077229	0.127358	0.123578	0.12555
776	0.132617	0.128837	0.084789	0.128673	0.130974	0.129823
777	0.132946	0.133768	0.091035	0.13196	0.131467	0.134425
778	0.137548	0.133439	0.094322	0.133932	0.135247	0.136398
779	0.137055	0.136726	0.098102	0.133275	0.137712	0.140342
780	0.135411	0.138534	0.100732	0.140178	0.140506	0.144615
781	0.141986	0.142643	0.105334	0.140835	0.140835	0.146095
782	0.149053	0.143794	0.106485	0.142807	0.144287	0.147738
783	0.147081	0.14593	0.111415	0.149053	0.149053	0.148067
784	0.14856	0.150039	0.11273	0.147574	0.149217	0.152011
785	0.15234	0.151025	0.116839	0.150697	0.150861	0.152998
786	0.148889	0.153655	0.120784	0.152505	0.154148	0.151354
787	0.155627	0.1576	0.121441	0.154641	0.15612	0.156942
788	0.158914	0.158257	0.126536	0.151518	0.152669	0.157928
789	0.157107	0.158914	0.127358	0.157271	0.159736	0.16138
790	0.156285	0.160394	0.133275	0.157107	0.159243	0.158421
791	0.151847	0.161544	0.134261	0.160558	0.1576	0.159408
792	0.159901	0.164338	0.136726	0.165489	0.161873	0.160394
793	0.166804	0.163516	0.140835	0.165489	0.162859	0.166146
794	0.166146	0.164667	0.142972	0.166146	0.166146	0.162695
795	0.169598	0.167297	0.14593	0.16894	0.166804	0.166968
796	0.165982	0.167625	0.149217	0.169269	0.169269	0.168612
797	0.169598	0.167461	0.151354	0.169105	0.17157	0.170255
798	0.172885	0.171899	0.148724	0.170091	0.170913	0.17157
799	0.172556	0.174035	0.153491	0.169269	0.170913	0.175515
800	0.173871	0.176008	0.152505	0.176008	0.172063	0.176994
801	0.171734	0.172063	0.156613	0.171406	0.173378	0.177651
802	0.160722	0.177158	0.15612	0.16894	0.1742	0.175843
803	0.169762	0.176008	0.159736	0.169598	0.178144	0.176665
804	0.175843	0.176994	0.160722	0.171406	0.177651	0.178144
805	0.174693	0.177651	0.162859	0.175186	0.178637	0.175679
806	0.179788	0.18176	0.16253	0.174035	0.177815	0.176008
807	0.181924	0.179788	0.166804	0.180938	0.17798	0.181267
808	0.18061	0.178802	0.165489	0.181103	0.178966	0.179623
809	0.18061	0.18176	0.167625	0.182089	0.184554	0.178966
810	0.185212	0.181596	0.169433	0.181596	0.179952	0.182417
811	0.183897	0.177487	0.172556	0.186691	0.181924	0.185212
812	0.184061	0.181924	0.166475	0.182746	0.183404	0.183239
813	0.17798	0.178966	0.172556	0.187184	0.179295	0.183897
814	0.181267	0.178966	0.169598	0.184883	0.18817	0.184225
815	0.184883	0.181267	0.171406	0.185705	0.183404	0.185376
816	0.184061	0.175515	0.171734	0.185869	0.18554	0.1908
817	0.185869	0.177487	0.174528	0.182089	0.186033	0.184061
818	0.187019	0.175021	0.176665	0.187677	0.189156	0.184554
819	0.188334	0.181596	0.17535	0.186362	0.186033	0.187841
820	0.190635	0.175515	0.178637	0.186526	0.190307	0.184883
821	0.191128	0.177651	0.178966	0.186855	0.188663	0.187841
822	0.18932	0.18061	0.180938	0.192936	0.189978	0.189649
823	0.191621	0.184225	0.182417	0.195402	0.190471	0.186691
824	0.184225	0.184225	0.184554	0.19195	0.185869	0.18439
825	0.189814	0.185047	0.180281	0.190142	0.187184	0.191457
826	0.190142	0.18439	0.182746	0.191621	0.187841	0.187677
827	0.191786	0.185212	0.183404	0.19195	0.193429	0.188992
828	0.192608	0.184225	0.183568	0.190635	0.188663	0.188006
829	0.190635	0.18817	0.187348	0.193429	0.194251	0.191128
830	0.191621	0.187677	0.184554	0.193265	0.192443	0.193922
831	0.192608	0.183897	0.185376	0.190307	0.194087	0.193429
832	0.194251	0.188499	0.189485	0.194909	0.188992	0.193922
833	0.18817	0.184883	0.190964	0.193265	0.191786	0.19458
834	0.190307	0.186198	0.189156	0.193101	0.193101	0.194087
835	0.189978	0.186526	0.191293	0.193265	0.191128	0.193265
836	0.189814	0.191293	0.190142	0.189978	0.192772	0.193758
837	0.190471	0.184883	0.188663	0.192115	0.192279	0.193758
838	0.19573	0.190471	0.187513	0.193265	0.193758	0.196388
839	0.191293	0.188499	0.190964	0.193101	0.193922	0.193101
840	0.193594	0.185869	0.188827	0.194087	0.196388	0.19195
841	0.194416	0.189156	0.190471	0.195566	0.188663	0.192608
842	0.196223	0.185047	0.190307	0.193265	0.195073	0.196717
843	0.195895	0.188006	0.191786	0.19836	0.192936	0.195895
844	0.196388	0.186033	0.191786	0.196388	0.195073	0.195073
845	0.196388	0.186691	0.193429	0.19721	0.19721	0.193594
846	0.193265	0.188992	0.197703	0.194087	0.194909	0.194909
847	0.196388	0.195073	0.188663	0.197045	0.195402	0.195402
848	0.194087	0.181596	0.190635	0.201154	0.188827	0.194744
849	0.195402	0.186198	0.192936	0.196388	0.192936	0.199839
850	0.19458	0.184883	0.194251	0.196059	0.192936	0.195402
851	0.197374	0.18439	0.191293	0.195073	0.193101	0.196881
852	0.1908	0.185869	0.19458	0.194909	0.193594	0.197374
853	0.198853	0.182582	0.19458	0.198524	0.197045	0.197045
854	0.194251	0.186198	0.195073	0.199346	0.196388	0.195895
855	0.192772	0.188827	0.195073	0.195895	0.197538	0.196059
856	0.193758	0.187677	0.195895	0.196552	0.196552	0.192443
857	0.195237	0.191786	0.202305	0.19458	0.198524	0.195237
858	0.195402	0.196717	0.193429	0.192936	0.196717	0.196388
859	0.199346	0.186362	0.193758	0.196881	0.198689	0.19573
860	0.197374	0.189649	0.195402	0.198031	0.19836	0.197045
861	0.195402	0.18817	0.196059	0.196717	0.19836	0.197867
862	0.197867	0.18932	0.195566	0.199018	0.199675	0.196717
863	0.201319	0.186198	0.197374	0.19836	0.198031	0.197538
864	0.197867	0.182746	0.195073	0.198689	0.197703	0.198524
865	0.198196	0.186855	0.196059	0.198689	0.199182	0.196552
866	0.198031	0.188663	0.193101	0.199675	0.196223	0.19721
867	0.195895	0.186855	0.196881	0.198524	0.195237	0.19573
868	0.198689	0.183404	0.198689	0.196388	0.19195	0.195073
869	0.190307	0.187184	0.193429	0.195895	0.193265	0.19836
870	0.196552	0.176829	0.197538	0.197538	0.197374	0.196717
871	0.196223	0.177815	0.195895	0.198689	0.19836	0.196717
872	0.196223	0.181103	0.198853	0.189814	0.198196	0.197045
873	0.196717	0.181267	0.197703	0.194909	0.200168	0.196059
874	0.199018	0.181924	0.194087	0.195237	0.199675	0.195895
875	0.198524	0.185869	0.197867	0.200332	0.196059	0.193101
876	0.199675	0.18554	0.197867	0.196881	0.199182	0.196552
877	0.200825	0.186691	0.195402	0.201647	0.201319	0.198524
878	0.197374	0.186033	0.197045	0.199182	0.196881	0.197703
879	0.199346	0.187019	0.193265	0.198524	0.198853	0.197374
880	0.197538	0.187348	0.195073	0.200004	0.199018	0.194251
881	0.199346	0.185705	0.198689	0.201483	0.195402	0.199675
882	0.197703	0.184883	0.200497	0.200825	0.196717	0.198196
883	0.19458	0.187677	0.195237	0.19721	0.198196	0.199018
884	0.197045	0.187513	0.196059	0.198196	0.197867	0.198196
885	0.199182	0.188499	0.196388	0.19836	0.197538	0.198689
886	0.198689	0.189485	0.197867	0.195895	0.197703	0.197538
887	0.199675	0.190635	0.200332	0.196881	0.199675	0.199675
888	0.202305	0.19195	0.199182	0.201812	0.197045	0.195566
889	0.196881	0.190142	0.198524	0.195566	0.200168	0.20099
890	0.199511	0.189978	0.192608	0.199511	0.194416	0.201483
891	0.199018	0.185705	0.196881	0.195895	0.197374	0.202469
892	0.19836	0.18932	0.196881	0.198524	0.198031	0.202633
893	0.199675	0.189649	0.199018	0.199346	0.200332	0.201483
894	0.199511	0.192279	0.193758	0.198031	0.197703	0.199346
895	0.198853	0.191293	0.198524	0.200004	0.201647	0.197703
896	0.201812	0.193922	0.193922	0.199675	0.201154	0.198853
897	0.197703	0.192936	0.198689	0.201483	0.204441	0.19573
898	0.201647	0.193922	0.196223	0.201319	0.193265	0.199182
899	0.198853	0.193101	0.196059	0.20099	0.195566	0.199511
900	0.198196	0.194416	0.197374	0.199839	0.199182	0.199839
901	0.200661	0.192772	0.187841	0.197867	0.196717	0.199675
902	0.20099	0.183897	0.195237	0.195073	0.199182	0.199675
903	0.193758	0.192279	0.19836	0.192115	0.192772	0.197867
904	0.195237	0.194251	0.196223	0.197867	0.200004	0.202962
905	0.19721	0.19573	0.200661	0.198689	0.198196	0.195895
906	0.200004	0.19195	0.200168	0.197374	0.201647	0.199182
907	0.199182	0.196388	0.198689	0.201976	0.199511	0.19573
908	0.200497	0.19573	0.201483	0.199675	0.200661	0.196881
909	0.200661	0.199018	0.198853	0.197703	0.200661	0.200004
910	0.199346	0.195402	0.198689	0.202798	0.201154	0.19573
911	0.203784	0.199018	0.198196	0.201483	0.200497	0.200825
912	0.203455	0.194909	0.183075	0.19836	0.201154	0.199018
913	0.200168	0.185869	0.195895	0.201319	0.202469	0.198524
914	0.195895	0.193758	0.199346	0.200168	0.19836	0.199018
915	0.201319	0.195073	0.194251	0.20099	0.200661	0.201483
916	0.199018	0.196059	0.196388	0.199675	0.198524	0.19721
917	0.199018	0.196059	0.195237	0.199511	0.201976	0.199182
918	0.200661	0.197045	0.198031	0.204441	0.196388	0.194744
919	0.206907	0.196552	0.197045	0.197374	0.197374	0.201976
920	0.199018	0.196059	0.196717	0.199346	0.199839	0.196881
921	0.197045	0.18817	0.19836	0.201647	0.198689	0.196388
922	0.198031	0.190307	0.199675	0.196059	0.198196	0.199346
923	0.198853	0.192115	0.191786	0.204113	0.199839	0.199346
924	0.197538	0.185376	0.196717	0.201319	0.200825	0.198524
925	0.197045	0.181267	0.197703	0.19836	0.197703	0.19836
926	0.199675	0.160394	0.197045	0.199675	0.198853	0.201483
927	0.199675	0.02447	0.197703	0.197867	0.199839	0.19721
928	0.201154	0.007377	0.195073	0.199346	0.200825	0.199018
929	0.197703	-0.000183	0.200825	0.201154	0.201812	0.199346
930	0.202469	0.003433	0.198853	0.200004	0.200825	0.198524
931	0.199018	0.002775	0.199018	0.200332	0.198853	0.198689
932	0.203126	-0.000183	0.194251	0.202962	0.199018	0.196881
933	0.195237	-0.000512	0.199182	0.198031	0.198524	0.197703
934	0.20099	-0.000183	0.193922	0.197703	0.202469	0.199839
935	0.202962	-0.002977	0.195237	0.20099	0.197867	0.200004
936	0.199675	-0.000512	0.198689	0.198853	0.198031	0.199839
937	0.200004	0.00031	0.197867	0.199839	0.198524	0.200497
938	0.204606	0.000474	0.199675	0.197867	0.200004	0.199018
939	0.197867	0.000639	0.19836	0.200332	0.20099	0.201154
940	0.199675	0.000803	0.20099	0.198689	0.196552	0.201483
941	0.203784	0.000639	0.198853	0.200332	0.196717	0.199511
942	0.198853	0.00031	0.199675	0.198524	0.200168	0.201154
943	0.201647	-1.9e-05	0.199018	0.198689	0.200332	0.20099
944	0.198853	-0.000347	0.196881	0.200661	0.201319	0.199839
945	0.199346	-0.000512	0.200332	0.197867	0.202305	0.200332
946	0.199018	-0.000841	0.195237	0.199839	0.201319	0.200497
947	0.199511	-0.000183	0.194909	0.201154	0.200004	0.199839
948	0.198031	0.00031	0.197867	0.19836	0.199018	0.200332
949	0.198524	0.000146	0.197045	0.197703	0.202633	0.200004
950	0.198524	0.00031	0.197538	0.198689	0.201976	0.19721
951	0.196717	0.000474	0.199182	0.19836	0.202633	0.200332
952	0.198689	0.00031	0.199018	0.20362	0.199511	0.19721
953	0.196388	-1.9e-05	0.199839	0.197867	0.197538	0.196881
954	0.195237	-1.9e-05	0.198031	0.193922	0.19836	0.196717
955	0.199018	-0.000183	0.200332	0.183239	0.199346	0.199346
956	0.196717	-0.000183	0.199675	0.001132	0.200332	0.20362
957	0.199182	-0.000676	0.199511	-1.9e-05	0.200825	0.199675
958	0.198031	-1.9e-05	0.19836	0.011486	0.197703	0.19836
959	0.197538	0.000146	0.198524	0.018718	0.201483	0.201154
960	0.198524	0.00146	0.196388	0.022169	0.20099	0.200168
961	0.192608	0.000146	0.20099	0.031702	0.20099	0.200332
962	0.202305	0.000967	0.197045	0.034989	0.201812	0.200825
963	0.202469	0.000967	0.19458	0.044358	0.199675	0.198689
964	0.197703	0.000639	0.196223	0.047809	0.200332	0.200497
965	0.201319	0.000146	0.19721	0.056027	0.198524	0.196881
966	0.200332	-0.000183	0.195402	0.060958	0.201483	0.200825
967	0.199346	-0.000347	0.196717	0.06934	0.20362	0.199511
968	0.203455	-0.000512	0.196388	0.07197	0.203291	0.198689
969	0.20099	-0.004128	0.197045	0.079694	0.198853	0.200825
970	0.200332	0.00672	0.201154	0.082324	0.201976	0.197374
971	0.200004	0.014938	0.198689	0.086597	0.200168	0.198689
972	0.198524	0.020855	0.199018	0.099417	0.202305	0.198031
973	0.201483	0.025457	0.201154	0.095801	0.198524	0.198196
974	0.201812	0.031702	0.203455	0.098924	0.204441	0.197867
975	0.197867	0.04107	0.198031	0.103033	0.198689	0.200332
976	0.198689	0.043371	0.199346	0.109772	0.19721	0.200004
977	0.205427	0.05011	0.199018	0.108457	0.200168	0.202798
978	0.19721	0.061615	0.19721	0.117661	0.199182	0.198689
979	0.202798	0.064245	0.197867	0.117003	0.198196	0.202633
980	0.199346	0.070162	0.198689	0.121277	0.196881	0.198524
981	0.200332	0.074435	0.194909	0.121934	0.200825	0.200497
982	0.199346	0.080681	0.199018	0.126043	0.196717	0.199675
983	0.199346	0.083639	0.198524	0.130809	0.20099	0.199346
984	0.201976	0.090871	0.194251	0.132946	0.20214	0.197703
985	0.202633	0.093829	0.198031	0.136726	0.202633	0.198689
986	0.200497	0.099746	0.201812	0.139192	0.198853	0.199675
987	0.201154	0.102376	0.198853	0.143629	0.200004	0.196881
988	0.201319	0.106156	0.198524	0.142314	0.201154	0.199182
989	0.198524	0.107964	0.200168	0.149053	0.199346	0.196388
990	0.201319	0.112401	0.196717	0.147574	0.196717	0.195073
991	0.19836	0.117825	0.199839	0.148067	0.197538	0.200004
992	0.201812	0.12292	0.197867	0.15119	0.201319	0.199182
993	0.197867	0.119962	0.200661	0.152505	0.199675	0.197867
994	0.199182	0.127522	0.198853	0.15497	0.201154	0.200497
995	0.207235	0.128508	0.201319	0.157435	0.199511	0.19836
996	0.205099	0.133932	0.201319	0.155792	0.201812	0.200661
997	0.202798	0.135904	0.199018	0.16138	0.195895	0.200661
998	0.200332	0.139192	0.200497	0.161215	0.200332	0.19836
999	0.201976	0.141821	0.195566	0.161709	0.199839	0.200168
1000	0.200497	0.141657	0.201812	0.163516	0.203455	0.19836
1001	0.201154	0.145273	0.199346	0.159079	0.19458	0.200332
1002	0.197867	0.145273	0.198853	0.166146	0.198853	0.19836
1003	0.20099	0.148724	0.198689	0.168283	0.201812	0.197867
1004	0.195895	0.150697	0.201319	0.170091	0.198031	0.198524
1005	0.198689	0.152833	0.199839	0.168776	0.201154	0.198031
1006	0.201647	0.152505	0.200825	0.17157	0.199346	0.196881
1007	0.203291	0.161051	0.200332	0.172392	0.201812	0.202469
1008	0.201483	0.15875	0.20099	0.171734	0.199182	0.200332
1009	0.197045	0.159243	0.199346	0.173542	0.200168	0.19836
1010	0.199511	0.16253	0.200661	0.178144	0.197867	0.201483
1011	0.201154	0.162366	0.199018	0.176172	0.199182	0.200168
1012	0.199018	0.166639	0.200332	0.177158	0.198689	0.200825
1013	0.201647	0.160558	0.201812	0.175515	0.198524	0.20099
1014	0.20099	0.168118	0.193429	0.178637	0.199839	0.199346
1015	0.196552	0.169269	0.198689	0.178802	0.199182	0.199675
1016	0.200332	0.169598	0.197867	0.182417	0.197703	0.199018
1017	0.201483	0.168776	0.20099	0.182417	0.204934	0.199675
1018	0.202798	0.174857	0.199675	0.183239	0.202305	0.199511
1019	0.200004	0.171406	0.203126	0.184718	0.201812	0.199675
1020	0.202798	0.171899	0.200168	0.185705	0.202469	0.197538
1021	0.199511	0.174364	0.201319	0.186526	0.199018	0.198524
1022	0.201812	0.179459	0.197867	0.181103	0.200168	0.198689
1023	0.201647	0.179295	0.196552	0.187677	0.200168	0.197867
1024	0.199346	0.178966	0.198853	0.186691	0.200825	0.200332
1025	0.197867	0.179459	0.199346	0.193101	0.199018	0.197867
1026	0.194909	0.178966	0.200825	0.185376	0.197538	0.201812
1027	0.196059	0.182089	0.198196	0.188827	0.196059	0.201319
1028	0.200661	0.179952	0.201154	0.188334	0.199675	0.200332
1029	0.199182	0.186198	0.201154	0.187677	0.196881	0.201483
1030	0.196717	0.184883	0.201976	0.183075	0.199018	0.20099
1031	0.200332	0.185212	0.200661	0.190471	0.19836	0.19836
1032	0.198853	0.18817	0.203455	0.186198	0.199182	0.199675
1033	0.201483	0.187677	0.199839	0.188334	0.201483	0.201647
1034	0.200332	0.184225	0.202305	0.187677	0.203126	0.198689
1035	0.199346	0.189485	0.203291	0.187677	0.199018	0.200825
1036	0.200004	0.186691	0.200825	0.18932	0.200497	0.200004
1037	0.20099	0.188663	0.198853	0.188663	0.202305	0.198196
1038	0.199675	0.187677	0.201812	0.1908	0.199346	0.197045
1039	0.20362	0.187677	0.199511	0.189485	0.202798	0.199182
1040	0.201976	0.192936	0.199675	0.19195	0.199346	0.199511
1041	0.198689	0.189485	0.199182	0.1908	0.19573	0.199511
1042	0.199839	0.187184	0.19836	0.192279	0.19721	0.196223
1043	0.20214	0.185869	0.202962	0.189485	0.197867	0.200332
1044	0.200168	0.191457	0.198524	0.191621	0.196059	0.196881
1045	0.203948	0.189485	0.200497	0.190635	0.197703	0.200825
1046	0.20099	0.193758	0.199675	0.187513	0.198689	0.198524
1047	0.198031	0.191621	0.199346	0.192608	0.198196	0.199182
1048	0.201647	0.191786	0.198689	0.192279	0.201647	0.19836
1049	0.195073	0.19195	0.201319	0.193429	0.196552	0.200661
1050	0.199675	0.191457	0.201154	0.192772	0.199346	0.199346
1051	0.198031	0.196388	0.202469	0.192608	0.194744	0.198524
1052	0.197045	0.196059	0.200497	0.187677	0.197045	0.199839
1053	0.199018	0.192608	0.201319	0.161709	0.19836	0.197703
1054	0.200661	0.195237	0.197045	0.154312	0.200168	0.200825
1055	0.198524	0.194744	0.20362	0.146423	0.200004	0.199346
1056	0.202469	0.192443	0.195402	0.149217	0.201976	0.197703
1057	0.198031	0.196717	0.198031	0.153162	0.200825	0.192772
1058	0.201319	0.19195	0.197867	0.154148	0.20099	0.197703
1059	0.201154	0.195073	0.199346	0.156449	0.198853	0.197538
1060	0.199511	0.194416	0.202962	0.156778	0.200168	0.196552
1061	0.200332	0.194087	0.202798	0.1576	0.196717	0.198031
1062	0.199675	0.196717	0.202962	0.159243	0.199018	0.199182
1063	0.199839	0.198853	0.203784	0.161215	0.197703	0.200661
1064	0.201319	0.195073	0.20362	0.16138	0.198689	0.196388
1065	0.201154	0.196717	0.197703	0.162695	0.196552	0.200661
1066	0.194744	0.193922	0.203455	0.163188	0.197867	0.19836
1067	0.201976	0.197045	0.200332	0.16516	0.198853	0.200332
1068	0.197045	0.195895	0.198689	0.166639	0.198689	0.199675
1069	0.198031	0.201483	0.198524	0.16516	0.198853	0.201976
1070	0.199346	0.197538	0.197867	0.168118	0.202798	0.197045
1071	0.199511	0.19721	0.197867	0.166475	0.203455	0.196552
1072	0.199018	0.195895	0.200004	0.166311	0.198196	0.195402
1073	0.199675	0.199182	0.198853	0.168776	0.203126	0.19721
1074	0.198853	0.200825	0.199018	0.170584	0.198689	0.192936
1075	0.200661	0.195402	0.198524	0.168283	0.19721	0.196717
1076	0.200497	0.197703	0.19836	0.169269	0.195566	0.202469
1077	0.199018	0.197703	0.200825	0.170255	0.198689	0.200497
1078	0.200004	0.198524	0.199675	0.172392	0.197538	0.199675
1079	0.198524	0.196223	0.196388	0.169926	0.199018	0.199346
1080	0.20099	0.198853	0.201976	0.174857	0.199182	0.199018
1081	0.200004	0.196223	0.205592	0.171241	0.198689	0.199018
1082	0.199018	0.197538	0.199182	0.171241	0.200004	0.199511
1083	0.196388	0.196552	0.20362	0.170091	0.197538	0.197867
1084	0.198853	0.199675	0.204277	0.170091	0.201154	0.201319
1085	0.198031	0.199675	0.199018	0.175843	0.199839	0.198196
1086	0.197374	0.198689	0.198689	0.172063	0.200332	0.20099
1087	0.200004	0.199018	0.198853	0.172227	0.198524	0.200168
1088	0.201647	0.194744	0.197374	0.173378	0.201976	0.201483
1089	0.198031	0.201976	0.201647	0.174035	0.199675	0.201976
1090	0.199018	0.195237	0.196552	0.174857	0.199018	0.198689
1091	0.198196	0.195566	0.197867	0.177651	0.19573	0.199511
1092	0.200825	0.197045	0.19721	0.177322	0.199675	0.197538
1093	0.199511	0.201154	0.19721	0.181103	0.198524	0.199182
1094	0.196717	0.197045	0.201976	0.179295	0.198031	0.196717
1095	0.198689	0.200332	0.198524	0.182253	0.200168	0.199018
1096	0.195402	0.197703	0.199675	0.181924	0.197538	0.198031
1097	0.19573	0.198853	0.198524	0.183568	0.19836	0.203455
1098	0.196552	0.196717	0.200168	0.182253	0.197538	0.201812
1099	0.196059	0.19836	0.198853	0.179623	0.198853	0.19721
1100	0.196552	0.19836	0.20362	0.181267	0.195402	0.199839
1101	0.200497	0.199018	0.19836	0.181267	0.19836	0.200497
1102	0.193429	0.199182	0.197045	0.183404	0.197703	0.199675
1103	0.194744	0.200825	0.199511	0.182582	0.198196	0.200168
1104	0.201647	0.196552	0.196881	0.183897	0.19836	0.197867
1105	0.199182	0.198196	0.199346	0.184718	0.205099	0.201976
1106	0.200332	0.199675	0.199346	0.1908	0.199018	0.199018
1107	0.203948	0.197374	0.199018	0.186691	0.200004	0.200661
1108	0.198031	0.19836	0.196881	0.188499	0.197867	0.198689
1109	0.200661	0.200825	0.196717	0.185705	0.197045	0.200332
1110	0.199839	0.199018	0.194744	0.19458	0.199018	0.19836
1111	0.197703	0.198524	0.201647	0.186033	0.197538	0.198853
1112	0.198689	0.202633	0.194744	0.191786	0.197867	0.197867
1113	0.19836	0.196388	0.198031	0.189978	0.19721	0.19836
1114	0.199018	0.200004	0.197703	0.18817	0.203948	0.200168
1115	0.19721	0.196881	0.20099	0.193101	0.196717	0.198031
1116	0.201483	0.198524	0.197538	0.190471	0.199182	0.199675
1117	0.193594	0.197538	0.19836	0.191786	0.199182	0.199675
1118	0.195402	0.194087	0.20099	0.189485	0.198031	0.200168
1119	0.192936	0.198853	0.199839	0.192279	0.199018	0.198689
1120	0.193594	0.198524	0.19836	0.187513	0.197538	0.200825
1121	0.193101	0.195566	0.197703	0.192115	0.201154	0.194744
1122	0.193429	0.197867	0.200825	0.191786	0.198031	0.197374
1123	0.19195	0.198031	0.197045	0.192279	0.199018	0.196223
1124	0.193101	0.197374	0.199018	0.191293	0.203126	0.194416
1125	0.192608	0.19721	0.198853	0.193101	0.196881	0.191457
1126	0.180938	0.199018	0.199675	0.198524	0.19836	0.197867
1127	0.169105	0.20099	0.19721	0.195895	0.200825	0.199675
1128	0.137548	0.201483	0.200332	0.02973	0.198031	0.196881
1129	0.118154	0.199346	0.20099	0.026278	0.197703	0.199511
1130	0.111087	0.19836	0.200004	0.035318	0.197867	0.197538
1131	0.109772	0.198853	0.198031	0.036962	0.198524	0.200497
1132	0.106978	0.198196	0.198853	0.049781	0.197045	0.199511
1133	0.1101	0.198689	0.20099	0.051425	0.196881	0.200004
1134	0.108786	0.20214	0.195402	0.045672	0.19573	0.200497
1135	0.094322	0.198524	0.196388	0.05389	0.196223	0.204277
1136	0.089227	0.199182	0.198689	0.056356	0.197374	0.198524
1137	0.080352	0.199018	0.199182	0.062766	0.200497	0.199182
1138	0.076079	0.199182	0.198031	0.069669	0.195073	0.19836
1139	0.06671	0.197374	0.199018	0.072956	0.18439	0.197374
1140	0.055698	0.198689	0.19836	0.07953	0.178309	0.200004
1141	0.044522	0.201976	0.199675	0.08216	0.178802	0.19836
1142	0.037455	0.20214	0.200661	0.089885	0.176994	0.200332
1143	0.033839	0.196717	0.200004	0.09498	0.172063	0.197538
1144	0.031538	0.198196	0.19836	0.098924	0.16894	0.199839
1145	0.026936	0.200661	0.195895	0.10254	0.168447	0.198853
1146	0.02973	0.198196	0.197374	0.107306	0.17272	0.20099
1147	0.023484	0.198853	0.198524	0.110593	0.172556	0.198196
1148	0.02973	0.199182	0.198031	0.114538	0.169598	0.200168
1149	0.020362	0.199182	0.198031	0.118154	0.172227	0.197538
1150	0.021183	0.19836	0.199511	0.115195	0.17272	0.198524
1151	0.024635	0.19836	0.198689	0.120948	0.169926	0.199675
1152	0.026607	0.197045	0.197045	0.124399	0.178144	0.199182
1153	0.027429	0.200497	0.199839	0.129001	0.175186	0.199018
1154	0.033017	0.198853	0.200168	0.126207	0.174693	0.202633
1155	0.042878	0.200332	0.200497	0.134425	0.177322	0.198524
1156	0.048795	0.199346	0.199675	0.133603	0.176665	0.199839
1157	0.050932	0.200497	0.200497	0.135247	0.182582	0.202469
1158	0.042221	0.199182	0.201976	0.141164	0.180774	0.197374
1159	0.050603	0.202962	0.197045	0.144451	0.18176	0.203455
1160	0.057013	0.200004	0.200332	0.147245	0.182417	0.199675
1161	0.06293	0.199675	0.197374	0.150532	0.18439	0.200332
1162	0.067696	0.200004	0.200825	0.149053	0.184718	0.198689
1163	0.072791	0.199018	0.19573	0.154641	0.184718	0.199839
1164	0.077065	0.200661	0.198853	0.155792	0.188992	0.197703
1165	0.074271	0.199346	0.197045	0.156449	0.18817	0.200825
1166	0.077722	0.197374	0.197703	0.161709	0.184554	0.19836
1167	0.082982	0.204441	0.197703	0.158586	0.187513	0.199346
1168	0.083146	0.19573	0.199182	0.163352	0.18554	0.197703
1169	0.08857	0.192772	0.19721	0.16138	0.188006	0.196388
1170	0.085118	0.200332	0.196059	0.166968	0.185212	0.19573
1171	0.090706	0.196388	0.199675	0.165982	0.186691	0.197703
1172	0.093336	0.199182	0.19721	0.168612	0.18554	0.196388
1173	0.095308	0.198524	0.201812	0.168776	0.185705	0.199346
1174	0.095966	0.200497	0.198689	0.171077	0.188499	0.198524
1175	0.095637	0.199675	0.199675	0.170913	0.189978	0.202305
1176	0.093665	0.199839	0.200497	0.173542	0.190307	0.203291
1177	0.086597	0.200332	0.201483	0.173378	0.188334	0.199675
1178	0.08972	0.203126	0.197538	0.173378	0.189978	0.201976
1179	0.089227	0.199182	0.199018	0.176665	0.187841	0.200661
1180	0.085118	0.201647	0.19836	0.175186	0.188006	0.19573
1181	0.084954	0.198853	0.193922	0.179295	0.18817	0.198853
1182	0.085611	0.199675	0.196717	0.178637	0.19195	0.198689
1183	0.078051	0.200661	0.197045	0.181431	0.189978	0.19836
1184	0.072956	0.196388	0.19836	0.179952	0.186855	0.200661
1185	0.071312	0.200168	0.197374	0.183239	0.186855	0.197374
1186	0.067696	0.199018	0.205921	0.180116	0.18554	0.198524
1187	0.069997	0.200168	0.198689	0.181596	0.186691	0.201647
1188	0.067532	0.198524	0.201812	0.18061	0.187019	0.198524
1189	0.060465	0.201647	0.197867	0.182089	0.185869	0.199182
1190	0.051589	0.203126	0.198689	0.18439	0.185869	0.19836
1191	0.050439	0.202305	0.197867	0.182582	0.12818	0.199511
1192	0.045508	0.201812	0.201154	0.182746	0.130316	0.198031
1193	0.05537	0.200661	0.200168	0.186526	0.131302	0.20099
1194	0.056027	0.20099	0.198524	0.187348	0.113388	0.199839
1195	0.056356	0.206414	0.198689	0.187513	0.113552	0.199182
1196	0.05915	0.203455	0.19836	0.187677	0.113552	0.198689
1197	0.057013	0.203455	0.199346	0.190471	0.116346	0.20099
1198	0.054383	0.20214	0.198196	0.190635	0.115031	0.200004
1199	0.05652	0.200661	0.198689	0.190142	0.049453	0.200661
1200	0.06293	0.199511	0.197045	0.191457	0.044522	0.198853
1201	0.060465	0.199018	0.200004	0.188006	0.048795	0.198853
1202	0.057835	0.200497	0.197045	0.189814	0.053233	0.199839
1203	0.054548	0.197538	0.199018	0.191786	0.057835	0.19836
1204	0.0603	0.199511	0.197703	0.188006	0.016088	0.200332
1205	0.063587	0.198524	0.200332	0.184061	0.021512	0.19836
1206	0.06671	0.199675	0.199182	0.189814	0.028251	0.200825
1207	0.068025	0.200661	0.197867	0.191786	0.01954	0.196059
1208	0.077558	0.201647	0.202469	0.190471	0.027593	0.209208
1209	0.077393	0.200004	0.201976	0.192936	0.034332	0.20099
1210	0.08331	0.201154	0.200661	0.192608	0.041892	0.201154
1211	0.086104	0.200332	0.199675	0.193922	0.042714	0.201976
1212	0.089391	0.200497	0.199182	0.191293	0.052575	0.199675
1213	0.086597	0.200825	0.196059	0.194416	0.057013	0.199018
1214	0.096623	0.200497	0.191293	0.191293	0.062601	0.200825
1215	0.097774	0.200168	0.19836	0.197538	0.062108	0.200497
1216	0.098595	0.195402	0.195895	0.194251	0.070819	0.19836
1217	0.105663	0.202633	0.192608	0.198689	0.071148	0.198524
1218	0.107142	0.198524	0.199018	0.191786	0.072956	0.196388
1219	0.109772	0.200332	0.202962	0.198031	0.076407	0.19836
1220	0.108293	0.198031	0.198689	0.197374	0.079694	0.200004
1221	0.115524	0.20099	0.198689	0.193265	0.073942	0.198689
1222	0.117661	0.197703	0.19836	0.199839	0.07953	0.194416
1223	0.122263	0.202962	0.19836	0.196881	0.071641	0.193429
1224	0.119962	0.200004	0.203455	0.195402	0.062601	0.19721
1225	0.123413	0.197703	0.198524	0.195895	0.04748	0.197703
1226	0.11536	0.201154	0.201154	0.194744	0.038605	0.199018
1227	0.110758	0.201483	0.199675	0.1908	0.043207	0.20099
1228	0.114538	0.201319	0.200661	0.196388	0.04107	0.199839
1229	0.117332	0.200497	0.198689	0.194087	0.041235	0.199018
1230	0.122263	0.204113	0.195073	0.000967	0.044522	0.202469
1231	0.123413	0.200004	0.198196	0.000803	0.044358	0.199839
1232	0.127194	0.198196	0.19721	0.000474	0.038112	0.198524
1233	0.126207	0.201483	0.197538	0.000146	0.02447	0.197867
1234	0.129495	0.200332	0.197703	0.000639	0.018061	0.206742
1235	0.131467	0.199511	0.202633	0.000146	0.012965	0.203784
1236	0.135411	0.200332	0.195895	-1.9e-05	0.011322	0.202633
1237	0.135904	0.19721	0.195237	-0.000183	0.009514	0.201483
1238	0.135083	0.202305	0.196059	-0.000347	0.007706	0.198031
1239	0.138041	0.198689	0.199018	-0.000512	0.005241	0.200332
1240	0.141821	0.206085	0.198524	-0.000512	0.005898	0.201812
1241	0.141164	0.201154	0.201976	0.000146	0.002282	0.201976
1242	0.144615	0.200825	0.200332	0.000474	0.008528	0.199346
1243	0.145437	0.201647	0.201483	0.00031	0.004912	0.200332
1244	0.143794	0.201319	0.202798	0.00031	0.005241	0.200168
1245	0.143958	0.20214	0.198031	0.000474	0.008035	0.20099
1246	0.147738	0.197538	0.200332	0.000474	0.007377	0.201812
1247	0.148724	0.202305	0.196717	-1.9e-05	0.006062	0.201319
1248	0.145437	0.198524	0.199182	-1.9e-05	0.007377	0.198031
1249	0.144615	0.20099	0.197045	-0.000512	0.007706	0.201154
1250	0.148067	0.19836	0.199018	-0.000347	0.010171	0.200004
1251	0.148231	0.200332	0.197374	-0.000347	0.011486	0.199675
1252	0.135411	0.200497	0.199346	0.000146	0.012637	0.200825
1253	0.101225	0.20099	0.198524	0.000474	0.009843	0.199839
1254	0.088405	0.199839	0.198524	0.000146	0.009678	0.197538
1255	0.094651	0.200825	0.197538	0.00031	0.012472	0.199675
1256	0.094815	0.196552	0.197538	0.00031	0.015431	0.199675
1257	0.079201	0.199511	0.197374	0.00031	0.019047	0.19836
1258	0.078873	0.200497	0.196881	-1.9e-05	0.014609	0.200332
1259	0.082653	0.199346	0.199182	-0.000347	0.020526	0.201647
1260	0.076243	0.202469	0.196881	-0.000512	0.014445	0.200332
1261	0.068847	0.198031	0.202469	-0.000676	0.013294	0.199675
1262	0.059643	0.20099	0.198031	-0.000512	0.016417	0.200168
1263	0.060136	0.201154	0.199675	-1.9e-05	0.014116	0.196717
1264	0.05011	0.200825	0.191457	0.000146	0.01428	0.196388
1265	0.043043	0.201483	0.196059	0.00031	0.015102	0.198689
1266	0.046494	0.19836	0.197374	0.000146	0.012144	0.199018
1267	0.048467	0.198524	0.195402	0.000474	0.01428	0.198689
1268	0.053233	0.200004	0.194744	0.000146	0.021841	0.200004
1269	0.04107	0.199346	0.197045	-0.000183	0.023484	0.197045
1270	0.04107	0.200661	0.19836	-0.000347	0.025457	0.198031
1271	0.038276	0.199675	0.198031	-0.000512	0.028251	0.198689
1272	0.044029	0.201976	0.199018	-0.000512	0.026114	0.200004
1273	0.044522	0.200661	0.200661	-0.000183	0.020033	0.194909
1274	0.047152	0.202633	0.199839	-0.000183	0.016253	0.198031
1275	0.049453	0.201976	0.200497	0.00031	0.008692	0.200168
1276	0.043536	0.198853	0.200168	0.000146	0.011158	0.199675
1277	0.045179	0.201647	0.198689	0.000146	0.010336	0.201483
1278	0.046494	0.203126	0.20099	0.000639	0.008035	0.203126
1279	0.049781	0.198196	0.194744	0.000146	0.004583	0.200497
1280	0.057671	0.196552	0.197045	-1.9e-05	0.010007	0.19836
1281	0.057835	0.201483	0.19836	-0.000183	0.008199	0.201976
1282	0.066546	0.19836	0.196881	-0.000183	0.011486	0.200332
1283	0.072956	0.203948	0.200168	-0.000347	0.010829	0.205099
1284	0.074764	0.200004	0.198031	-0.000347	0.017896	0.205427
1285	0.081831	0.202962	0.19836	-1.9e-05	0.016088	0.202633
1286	0.082982	0.202962	0.19721	0.000146	0.0105	0.199182
1287	0.089391	0.201976	0.195895	0.000146	0.012472	0.201976
1288	0.091857	0.201812	0.200004	0.00031	0.008363	0.199346
1289	0.096623	0.201319	0.199018	0.00031	0.010171	0.201647
1290	0.101061	0.202633	0.197538	0.000146	0.008528	0.197867
1291	0.102869	0.199346	0.200332	-0.000183	0.007542	0.199511
1292	0.107306	0.200661	0.199346	-0.000347	0.001789	0.200168
1293	0.108621	0.201812	0.19721	-0.000512	0.009843	0.20099
1294	0.111415	0.199018	0.204113	-0.000676	0.005076	0.199182
1295	0.114702	0.19721	0.19836	-0.000512	0.007706	0.203291
1296	0.121605	0.197867	0.197703	-1.9e-05	0.009514	0.200825
1297	0.119962	0.201976	0.200661	0.000146	0.0105	0.20099
1298	0.130645	0.199839	0.199511	0.000146	0.01428	0.200168
1299	0.127194	0.200168	0.196881	0.00031	0.011486	0.200661
1300	0.127522	0.201976	0.198031	0.000474	0.013952	0.204277
1301	0.130974	0.199182	0.199675	-1.9e-05	0.013294	0.199675
1302	0.132453	0.201483	0.195237	-0.000183	0.01576	0.200497
1303	0.135411	0.202305	0.201154	-0.000183	0.011322	0.198689
1304	0.140671	0.200004	0.195402	-0.000183	0.013623	0.201319
1305	0.141657	0.19721	0.200497	-0.000676	0.017239	0.197867
1306	0.143794	0.199511	0.20099	-0.000347	0.024964	0.199839
1307	0.145273	0.201812	0.198196	-1.9e-05	0.029237	0.199839
1308	0.143958	0.200332	0.200004	-1.9e-05	0.031538	0.199511
1309	0.141164	0.201154	0.198524	0.000474	0.034003	0.200661
1310	0.14478	0.199346	0.198031	0.00031	0.040577	0.200004
1311	0.145437	0.199839	0.195237	0.00031	0.04633	0.204606
1312	0.14478	0.199018	0.19836	0.000146	0.049617	0.197374
1313	0.147081	0.200825	0.193922	-1.9e-05	0.053069	0.201483
1314	0.145766	0.200168	0.198196	-0.000347	0.054219	0.199018
1315	0.149382	0.202633	0.192608	-0.000347	0.003926	0.199839
1316	0.146752	0.198689	0.198031	-0.000347	0.001132	0.201154
1317	0.128344	0.199346	0.199182	-0.000347	0.005569	0.200825
1318	0.128837	0.200004	0.196059	-1.9e-05	0.004419	0.200168
1319	0.118154	0.200004	0.197538	-1.9e-05	0.004583	0.201976
1320	0.107964	0.20099	0.197045	0.00031	0.001789	0.201647
1321	0.105992	0.197867	0.198031	0.000474	0.000639	0.200332
1322	0.107142	0.20099	0.196223	0.00031	-0.000183	0.200825
1323	0.10254	0.202633	0.199018	0.000146	-0.001334	0.196881
1324	0.105663	0.203784	0.196388	-1.9e-05	-0.001169	0.197703
1325	0.100075	0.201483	0.200004	-0.000347	0.00031	0.19836
1326	0.085283	0.202633	0.195237	-0.000183	-0.000676	0.201647
1327	0.089556	0.198196	0.196388	-0.000512	0.001132	0.200332
1328	0.094158	0.201319	0.199511	-0.000347	-1.9e-05	0.198524
1329	0.087912	0.201319	0.197867	-0.000183	0.00031	0.201319
1330	0.088405	0.201812	0.193101	0.000146	0.004748	0.201154
1331	0.081831	0.198196	0.200004	0.00031	0.001954	0.201319
1332	0.082488	0.206249	0.200168	0.00031	0.006227	0.201319
1333	0.081502	0.202633	0.199511	0.00031	0.009514	0.197045
1334	0.076079	0.199182	0.197045	0.00031	0.014116	0.194416
1335	0.072134	0.205263	0.19573	-0.000183	0.013623	0.195073
1336	0.065888	0.201154	0.203126	-0.000183	0.00787	0.201319
1337	0.060465	0.198689	0.196881	-0.000183	0.001789	0.200168
1338	0.060465	0.199839	0.203126	-0.000676	0.002611	0.199346
1339	0.056684	0.20362	0.199839	-0.000183	0.0105	0.200825
1340	0.052411	0.200661	0.19836	-1.9e-05	0.015266	0.20099
1341	0.049288	0.200168	0.199018	0.000146	0.021183	0.200168
1342	0.048302	0.199839	0.200661	0.00031	0.025457	0.200825
1343	0.04255	0.202798	0.19573	0.00031	0.026443	0.201647
1344	0.035154	0.196881	0.19721	0.000474	0.034825	0.197374
1345	0.035647	0.201319	0.196881	0.00031	0.036469	0.199839
1346	0.036633	0.200661	0.198689	-0.000183	0.041728	0.200825
1347	0.041399	0.205756	0.197045	-0.000347	0.049946	0.198524
1348	0.0437	0.201647	0.19836	-0.000512	0.043371	0.199182
1349	0.030716	0.196717	0.200332	-0.000512	0.049781	0.200661
1350	0.032524	0.203126	0.197703	-0.000512	0.051754	0.197867
1351	0.041399	0.201483	0.199675	-1.9e-05	0.048302	0.202962
1352	0.040249	0.200661	0.198031	0.00031	0.051589	0.20362
1353	0.041892	0.199346	0.200661	0.000146	0.043536	0.202305
1354	0.044029	0.201812	0.198524	0.000146	0.021841	0.200661
1355	0.03729	0.199346	0.198853	0.000146	0.021183	0.198524
1356	0.037619	0.201483	0.20099	0.00031	0.01691	0.199018
1357	0.038934	0.199018	0.200661	-0.000347	0.013787	0.201647
1358	0.045179	0.202305	0.197374	-0.000347	0.009185	0.20099
1359	0.044358	0.20099	0.200497	-0.000347	0.004255	0.200497
1360	0.048302	0.198196	0.197703	-0.000512	0.001954	0.19836
1361	0.043207	0.201154	0.198524	-0.000347	-0.000676	0.198524
1362	0.039756	0.20099	0.19573	-0.000183	-0.000183	0.203126
1363	0.037455	0.199018	0.196552	0.000146	-0.000676	0.200497
1364	0.037455	0.198031	0.198689	0.000474	0.000639	0.201812
1365	0.037619	0.202305	0.194909	0.00031	0.00031	0.202633
1366	0.041235	0.200825	0.198196	0.00031	0.001789	0.201647
1367	0.041728	0.203784	0.197703	0.00031	-0.000183	0.197867
1368	0.041564	0.19836	0.200004	-0.000183	0.00031	0.201483
1369	0.034496	0.19836	0.201647	-0.000347	-0.000512	0.197538
1370	0.030059	0.200825	0.199182	-0.000347	0.000639	0.198524
1371	0.030387	0.201154	0.199346	-0.000512	-1.9e-05	0.199182
1372	0.024306	0.200168	0.201483	-0.000512	0.001132	0.197045
1373	0.026278	0.204606	0.199018	0.000146	0.001132	0.200168
1374	0.022498	0.203948	0.200168	-1.9e-05	0.00031	0.199182
1375	0.015431	0.203455	0.196223	0.00031	0.001132	0.201976
1376	0.015266	0.200332	0.199839	0.000474	0.000803	0.199511
1377	0.00935	0.202962	0.196059	0.00031	0.001132	0.199018
1378	0.015102	0.200332	0.198853	0.000146	-0.001498	0.199346
1379	0.01313	0.199346	0.200168	-1.9e-05	0.000474	0.200661
1380	0.014609	0.200497	0.19836	-0.000512	-0.000512	0.198524
1381	0.012801	0.200004	0.202305	-0.000512	-0.001169	0.198031
1382	0.013952	0.200661	0.201976	-0.000347	0.00031	0.201154
1383	0.014445	0.201483	0.201483	-0.000676	0.000803	0.202305
1384	0.015266	0.203291	0.201647	-0.000183	0.000146	0.206085
1385	0.01691	0.199675	0.20362	0.000146	0.000803	0.203784
1386	0.018718	0.202633	0.199346	0.000146	0.000639	0.202305
1387	0.01691	0.200332	0.200825	0.000474	0.001132	0.200661
1388	0.026114	0.202633	0.201319	0.00031	0.000639	0.20362
1389	0.030059	0.199675	0.197374	0.000146	0.000639	0.19836
1390	0.034989	0.200825	0.195895	-0.000183	0.00031	0.201154
1391	0.02973	0.197045	0.20477	-1.9e-05	-0.000347	0.202798
1392	0.033674	0.198524	0.194416	-0.000512	0.001296	0.19836
1393	0.035975	0.204277	0.199346	-0.000512	-0.000183	0.199511
1394	0.047645	0.202469	0.199839	-0.000512	-0.000512	0.200497
1395	0.049124	0.200332	0.197374	0.000146	0.001789	0.199346
1396	0.05274	0.203784	0.199018	0.000146	-1.9e-05	0.200332
1397	0.057506	0.197867	0.197703	0.00031	0.000803	0.199511
1398	0.057177	0.198689	0.200332	0.000146	0.000474	0.199511
1399	0.060629	0.199675	0.199675	0.00031	0.001789	0.201483
1400	0.057177	0.200168	0.199675	0.000146	0.001132	0.196881
1401	0.065724	0.19836	0.200332	-1.9e-05	-0.000512	0.202469
1402	0.067696	0.199839	0.201319	-0.000347	0.000967	0.200168
1403	0.070655	0.20099	0.200497	-0.000512	0.006062	0.200004
1404	0.067039	0.199018	0.201319	-0.000347	0.000639	0.200168
1405	0.063916	0.204277	0.195402	-0.000347	0.004255	0.201483
1406	0.061451	0.196717	0.201647	-0.000183	0.005569	0.200004
1407	0.061286	0.203126	0.19836	0.000146	0.004583	0.201647
1408	0.064245	0.201319	0.199675	0.000146	0.001789	0.199839
1409	0.069176	0.203948	0.19836	0.00031	0.00672	0.205099
1410	0.071477	0.201812	0.198689	0.000146	0.014116	0.200825
1411	0.080187	0.199018	0.197867	0.000146	0.014445	0.19836
1412	0.084954	0.201647	0.19836	-1.9e-05	0.017239	0.197703
1413	0.088241	0.199018	0.201647	-0.000512	0.024306	0.198196
1414	0.091035	0.199018	0.197045	-0.000512	0.035318	0.196388
1415	0.099417	0.198524	0.198524	-0.000512	0.034003	0.196717
1416	0.102704	0.201154	0.199018	-0.000183	0.040084	0.197538
1417	0.105005	0.19836	0.200332	-0.000183	0.05011	0.196388
1418	0.109936	0.200004	0.198689	-1.9e-05	0.053069	0.197703
1419	0.112566	0.19836	0.20099	0.000146	0.058985	0.197538
1420	0.114538	0.200497	0.198689	0.00031	0.063916	0.200332
1421	0.114702	0.198524	0.201647	0.000474	0.071312	0.201154
1422	0.124235	0.199675	0.201976	0.000146	0.077229	0.197703
1423	0.12177	0.199346	0.201483	-0.000183	0.081502	0.196881
1424	0.127029	0.202469	0.199675	-0.000183	0.090378	0.204113
1425	0.130809	0.204277	0.200168	-0.000183	0.095801	0.198853
1426	0.135411	0.201812	0.200168	-0.000512	0.093665	0.201812
1427	0.134754	0.204277	0.200004	-0.000512	0.097774	0.201154
1428	0.140671	0.201319	0.199839	0.000146	0.103855	0.200497
1429	0.143301	0.201647	0.198689	0.000146	0.107142	0.200825
1430	0.145766	0.201319	0.201483	-1.9e-05	0.110758	0.201647
1431	0.146588	0.202469	0.200497	0.000146	0.114867	0.20099
1432	0.148396	0.200497	0.203291	0.000146	0.117003	0.20214
1433	0.15234	0.201154	0.20099	0.000146	0.11799	0.197867
1434	0.151025	0.199675	0.201319	-0.000183	0.125057	0.199839
1435	0.155299	0.201976	0.199839	-0.000183	0.126372	0.197867
1436	0.15497	0.199346	0.203948	-0.000512	0.132453	0.198524
1437	0.158914	0.201154	0.197703	-0.000676	0.130974	0.200497
1438	0.161051	0.203126	0.199839	-0.000347	0.13196	0.199511
1439	0.163188	0.200661	0.194251	0.000146	0.139192	0.203291
1440	0.162366	0.197703	0.199675	-1.9e-05	0.140342	0.200825
1441	0.167132	0.200497	0.140671	0.000146	0.141493	0.202798
1442	0.165489	0.199511	0.111744	0.00031	0.145437	0.200168
1443	0.168283	0.200661	0.114867	0.000146	0.152011	0.201647
1444	0.173707	0.202798	0.117332	0.00031	0.14971	0.199346
1445	0.172063	0.200004	0.120126	-0.000183	0.15234	0.199346
1446	0.172227	0.203291	0.124728	-0.000183	0.15497	0.200332
1447	0.173214	0.199182	0.130152	-0.000347	0.15875	0.200497
1448	0.175843	0.199346	0.130152	-0.000347	0.153162	0.200825
1449	0.176665	0.200661	0.135247	-0.000512	0.154148	0.196717
1450	0.178309	0.20099	0.137219	-0.000183	0.158093	0.200004
1451	0.168612	0.198853	0.141328	0.00031	0.161873	0.199346
1452	0.177651	0.198853	0.142479	0.00031	0.159736	0.198196
1453	0.176172	0.199839	0.148231	0.000146	0.162037	0.199018
1454	0.177651	0.200332	0.148889	0.00031	0.162859	0.201319
1455	0.17798	0.201319	0.149053	0.00031	0.168118	0.19573
1456	0.179623	0.199511	0.150697	-1.9e-05	0.168118	0.201483
1457	0.178144	0.201647	0.153162	-0.000347	0.167625	0.200332
1458	0.180281	0.203291	0.15497	-0.000347	0.165982	0.201154
1459	0.184225	0.200661	0.155627	-0.000512	0.167132	0.200332
1460	0.186362	0.201647	0.160722	-0.000676	0.172556	0.19836
1461	0.186691	0.205921	0.158914	-0.000183	0.173378	0.200332
1462	0.185212	0.200825	0.162037	0.000146	0.176829	0.201647
1463	0.187184	0.202469	0.162037	0.000146	0.175515	0.199675
1464	0.186033	0.202633	0.162859	0.00031	0.179295	0.20099
1465	0.18817	0.199018	0.161544	0.00031	0.180774	0.201319
1466	0.184225	0.19836	0.165324	0.00031	0.179295	0.198196
1467	0.190471	0.199346	0.163845	-1.9e-05	0.182089	0.198031
1468	0.186033	0.199018	0.166311	-0.000183	0.179623	0.195895
1469	0.191128	0.200004	0.169926	-0.000347	0.176665	0.197538
1470	0.193594	0.197538	0.173214	-0.000347	0.179952	0.197538
1471	0.19195	0.198853	0.170913	-0.000512	0.182089	0.198031
1472	0.189485	0.19573	0.173871	-0.000183	0.182582	0.196552
1473	0.192443	0.193265	0.175021	-1.9e-05	0.187513	0.19836
1474	0.189485	0.056027	0.176336	0.00031	0.182253	0.199675
1475	0.188499	0.047152	0.176829	0.000146	0.18554	0.198031
1476	0.191786	0.028086	0.176829	0.00031	0.185212	0.200004
1477	0.1908	0.034661	0.180445	0.00031	0.187348	0.197867
1478	0.189156	0.009514	0.179295	-1.9e-05	0.187677	0.197538
1479	0.1908	0.012965	0.18176	-0.000183	0.191457	0.198689
1480	0.191786	0.020197	0.181103	-0.000347	0.181924	0.19721
1481	0.192936	0.002775	0.185047	-0.000183	0.186855	0.194251
1482	0.194416	0.007377	0.183568	-0.000347	0.192443	0.190471
1483	0.193594	0.009514	0.184554	-0.000183	0.190471	0.150204
1484	0.193265	0.014938	0.184718	0.000146	0.188006	0.035811
1485	0.193429	0.011322	0.184554	0.000146	0.189156	-0.000183
1486	0.195566	0.003104	0.181431	0.000146	0.189156	0.000146
1487	0.196223	-1.9e-05	0.181924	0.000146	0.193265	-0.001169
1488	0.19721	0.003597	0.187184	0.000146	0.188663	-1.9e-05
1489	0.192936	0.011486	0.189156	-1.9e-05	0.193429	-1.9e-05
1490	0.195237	0.017074	0.190964	-0.000347	0.191128	0.000146
1491	0.193758	0.026771	0.18817	-0.000347	0.182911	0.00031
1492	0.196552	0.031702	0.190635	-0.000512	0.190635	0.000474
1493	0.198524	0.040906	0.186855	-0.000841	0.192115	0.00031
1494	0.193922	0.049288	0.167132	-1.9e-05	0.194251	-1.9e-05
1495	0.194744	0.056684	0.165653	-1.9e-05	0.193758	-0.000347
1496	0.196388	0.059314	0.170584	0.000146	0.194416	0.000474
1497	0.19458	0.071312	0.166804	0.00031	0.194416	0.010336
1498	0.191457	0.071148	0.172392	0.000146	0.189649	0.010993
1499	0.193922	0.080681	0.166639	0.00031	0.194087	0.008035
1500	0.193101	0.082488	0.175515	-0.000183	0.19195	0.012801
1501	0.191128	0.086104	0.172392	-0.000347	0.192608	0.003926
1502	0.19458	0.091199	0.168118	-0.000512	0.184554	-1.9e-05
1503	0.20099	0.094487	0.179623	-0.000512	0.192936	0.000639
1504	0.197703	0.096459	0.178966	-0.000512	0.195402	0.000146
1505	0.19573	0.102376	0.178144	-0.000183	0.194087	0.000474
1506	0.197867	0.107471	0.176008	-1.9e-05	0.191293	-0.000512
1507	0.198689	0.109936	0.182417	0.000146	0.199511	-1.9e-05
1508	0.193758	0.119469	0.178966	0.000146	0.197374	-0.000183
1509	0.195402	0.116675	0.18061	0.000474	0.197703	0.003433
1510	0.19721	0.120291	0.178309	0.000146	0.193429	0.00146
1511	0.195073	0.123742	0.183239	-1.9e-05	0.19721	-1.9e-05
1512	0.198853	0.130974	0.178802	-0.000183	0.198524	0.000146
1513	0.19721	0.130974	0.181596	-0.000512	0.191786	0.00031
1514	0.200004	0.138041	0.182417	-0.000512	0.19573	0.000474
1515	0.199675	0.138863	0.181596	-0.000676	0.197374	0.000474
1516	0.198853	0.137712	0.182253	-0.000183	0.19836	-0.000512
1517	0.19836	0.141	0.184225	-1.9e-05	0.192936	-0.000183
1518	0.202633	0.145273	0.186691	0.00031	0.193429	-0.000347
1519	0.197374	0.144451	0.185376	0.00031	0.196388	-0.000512
1520	0.201319	0.145273	0.185869	0.000146	0.201154	0.005898
1521	0.200168	0.147903	0.187841	0.00031	0.198196	0.003268
1522	0.195237	0.150697	0.191457	-1.9e-05	0.199346	0.004255
1523	0.200004	0.154806	0.188006	-0.000347	0.196552	0.010007
1524	0.19836	0.157764	0.189649	-0.000347	0.19573	0.010171
1525	0.198853	0.160887	0.189814	-0.000512	0.195402	0.001789
1526	0.197374	0.160722	0.191621	-0.000512	0.196388	0.001132
1527	0.198524	0.164338	0.190142	-1.9e-05	0.197703	0.000474
1528	0.195895	0.163023	0.191621	0.000146	0.198031	0.000474
1529	0.200497	0.164996	0.194251	0.00031	0.199018	0.005405
1530	0.194744	0.166475	0.187348	0.000146	0.198853	0.000803
1531	0.197374	0.168283	0.193922	0.000146	0.200661	0.002447
1532	0.196552	0.169433	0.193758	0.00031	0.199346	0.004912
1533	0.199675	0.170584	0.191128	0.000146	0.200497	0.009185
1534	0.199675	0.171899	0.194087	-0.000347	0.198853	0.013623
1535	0.200004	0.172885	0.191457	-0.000512	0.199675	0.002447
1536	0.199839	0.172063	0.193265	-0.000512	0.196552	0.007377
1537	0.198524	0.175679	0.195237	-0.000347	0.200004	0.008035
1538	0.200004	0.178144	0.193101	-1.9e-05	0.19836	0.018718
1539	0.200168	0.174857	0.190964	0.000146	0.199346	0.026607
1540	0.20214	0.175843	0.197538	0.000146	0.198689	0.032195
1541	0.197703	0.175186	0.194251	0.00031	0.20099	0.038112
1542	0.199018	0.178144	0.192443	0.00031	0.198031	0.037619
1543	0.201812	0.177487	0.195073	0.000146	0.199675	0.045179
1544	0.194251	0.182089	0.193101	0.000146	0.199346	0.05274
1545	0.195895	0.179295	0.198196	-0.000512	0.196717	0.055863
1546	0.199182	0.182253	0.194416	-1.9e-05	0.201976	0.060465
1547	0.197374	0.183404	0.197538	-0.000512	0.198853	0.063259
1548	0.196223	0.186526	0.196388	-1.9e-05	0.202305	0.064738
1549	0.196388	0.18554	0.195402	-1.9e-05	0.203455	0.06934
1550	0.201319	0.18554	0.195566	0.000146	0.201812	0.069833
1551	0.201647	0.186362	0.197867	0.000146	0.198689	0.071148
1552	0.203126	0.181924	0.191293	0.00031	0.203126	0.069176
1553	0.200497	0.188006	0.194251	0.00031	0.200168	0.055698
1554	0.198524	0.183568	0.195895	0.00031	0.200168	0.067368
1555	0.202962	0.1908	0.194744	-1.9e-05	0.200497	0.068847
1556	0.199839	0.188499	0.197703	-0.000347	0.199018	0.058985
1557	0.200825	0.189814	0.193101	-0.000347	0.200332	0.046987
1558	0.20099	0.187513	0.176172	-0.000512	0.198689	0.011158
1559	0.200004	0.192936	0.162859	0.000474	0.196717	0.003926
1560	0.199675	0.189814	0.165324	-0.000347	0.201154	0.00294
1561	0.199675	0.191128	0.166311	-1.9e-05	0.200332	0.011979
1562	0.200004	0.190635	0.167625	0.000146	0.196881	0.00787
1563	0.19836	0.194251	0.165324	0.000639	0.198689	0.015595
1564	0.198524	0.190964	0.16401	0.000474	0.204113	0.008363
1565	0.197538	0.191786	0.168776	0.000146	0.200661	0.010664
1566	0.198689	0.191293	0.168447	0.00031	0.200332	0.008857
1567	0.201812	0.19721	0.170748	-0.000183	0.20214	0.013952
1568	0.196717	0.191293	0.171734	-1.9e-05	0.205099	0.017403
1569	0.197703	0.1908	0.176008	-1.9e-05	0.200004	0.005569
1570	0.201154	0.19721	0.175021	-0.000841	0.199675	0.010664
1571	0.200497	0.195566	0.176829	-0.001005	0.202798	0.016417
1572	0.201647	0.195237	0.174693	0.000474	0.200332	0.028251
1573	0.200332	0.196881	0.179295	-1.9e-05	0.199675	0.031538
1574	0.199182	0.200332	0.177487	0.000967	0.202962	0.039591
1575	0.196388	0.193429	0.17913	0.000146	0.20099	0.039591
1576	0.200661	0.199511	0.181103	0.000639	0.200497	0.050439
1577	0.20099	0.195073	0.182911	0.009185	0.200825	0.005241
1578	0.197867	0.195402	0.181596	0.016581	0.200497	0.013952
1579	0.196059	0.196388	0.180774	0.022827	0.200004	0.00031
1580	0.198031	0.19573	0.182253	0.026936	0.201319	0.000639
1581	0.198524	0.19836	0.185376	0.025128	0.19836	0.005898
1582	0.198689	0.197703	0.184883	0.037619	0.200497	0.019375
1583	0.197538	0.19836	0.184225	0.04896	0.199182	0.021512
1584	0.200332	0.197045	0.186526	0.052904	0.20099	0.021841
1585	0.199018	0.200004	0.184883	0.059478	0.203126	0.022334
1586	0.199675	0.195895	0.187348	0.060793	0.202633	0.021676
1587	0.199839	0.19836	0.184554	0.069669	0.200825	0.03236
1588	0.199839	0.19836	0.188334	0.079694	0.200497	0.039263
1589	0.201154	0.199839	0.185869	0.080845	0.201647	0.044193
1590	0.197538	0.195895	0.187841	0.088405	0.199839	0.047152
1591	0.202469	0.19721	0.185047	0.091857	0.20099	0.052904
1592	0.199839	0.197867	0.185869	0.08594	0.198689	0.051754
1593	0.199018	0.197703	0.189156	0.097445	0.200825	0.059807
1594	0.195402	0.19721	0.187184	0.10632	0.199018	0.061451
1595	0.199018	0.199675	0.191128	0.108128	0.202305	0.063259
1596	0.196717	0.202633	0.192936	0.112566	0.199511	0.067368
1597	0.196388	0.19721	0.192936	0.115689	0.206249	0.069011
1598	0.199018	0.198853	0.190635	0.118483	0.193101	0.069997
1599	0.197538	0.196881	0.188334	0.12177	0.195895	0.076736
1600	0.197867	0.195237	0.190142	0.126207	0.196717	0.076079
1601	0.195895	0.196717	0.191457	0.123906	0.199675	0.077229
1602	0.202633	0.200661	0.1908	0.129988	0.198689	0.080516
1603	0.194909	0.197538	0.193429	0.1267	0.201483	0.081338
1604	0.198524	0.200332	0.191128	0.130152	0.199346	0.087748
1605	0.200661	0.199511	0.192936	0.135576	0.20099	0.082653
1606	0.201647	0.199839	0.193594	0.141328	0.202305	0.085447
1607	0.197538	0.204441	0.192936	0.143465	0.202633	0.087255
1608	0.201812	0.197703	0.192115	0.146259	0.204441	0.085611
1609	0.197374	0.197374	0.193265	0.151683	0.201154	0.080681
1610	0.202305	0.200004	0.193594	0.150532	0.201976	0.084625
1611	0.201319	0.198689	0.194087	0.155299	0.200332	0.08331
1612	0.199018	0.195073	0.194087	0.154312	0.201319	0.081831
1613	0.200661	0.199675	0.1908	0.156613	0.198031	0.083639
1614	0.20099	0.196388	0.19195	0.155299	0.199018	0.078708
1615	0.200332	0.19836	0.193429	0.158914	0.201812	0.008528
1616	0.200332	0.198689	0.192443	0.159079	0.200661	-0.001169
1617	0.201647	0.199018	0.194087	0.162366	0.199511	-0.000183
1618	0.19836	0.20099	0.195073	0.162366	0.200825	0.000474
1619	0.198689	0.197374	0.192772	0.164831	0.208222	0.00409
1620	0.196388	0.200661	0.198524	0.171077	0.200497	0.00146
1621	0.200004	0.201812	0.193758	0.170091	0.201154	0.000967
1622	0.19836	0.201647	0.197045	0.173378	0.203455	0.002118
1623	0.196552	0.20477	0.193922	0.174528	0.204113	0.011651
1624	0.200661	0.200332	0.19573	0.176994	0.202962	0.010664
1625	0.20099	0.200825	0.195402	0.175021	0.201812	0.014609
1626	0.200168	0.200004	0.194416	0.176008	0.199511	0.021019
1627	0.20099	0.202469	0.196552	0.17535	0.202305	0.023649
1628	0.200168	0.200004	0.197867	0.178802	0.200825	0.020855
1629	0.196388	0.199839	0.195402	0.175679	0.204606	0.026771
1630	0.197374	0.198524	0.191621	0.179952	0.200168	0.028086
1631	0.198689	0.198524	0.193758	0.181431	0.202469	-0.000183
1632	0.198524	0.204113	0.194909	0.181924	0.201154	0.006227
1633	0.200168	0.197703	0.198524	0.183732	0.200004	0.005405
1634	0.195237	0.200332	0.192279	0.181267	0.20099	0.007377
1635	0.19836	0.200332	0.197703	0.183239	0.199839	0.005898
1636	0.201647	0.201812	0.19721	0.180774	0.20099	0.002447
1637	0.198031	0.20099	0.196552	0.184061	0.199511	0.00031
1638	0.200004	0.202633	0.19721	0.183897	0.200332	0.000146
1639	0.204934	0.205099	0.197538	0.185705	0.20099	-0.000841
1640	0.199018	0.204113	0.197045	0.184718	0.204277	-0.000347
1641	0.198524	0.199511	0.191457	0.183732	0.200661	-0.000676
1642	0.201976	0.200661	0.193265	0.184225	0.203784	-0.000347
1643	0.199346	0.20099	0.198196	0.189814	0.200497	-1.9e-05
1644	0.196059	0.198689	0.196717	0.188827	0.202469	0.000474
1645	0.198196	0.20099	0.195566	0.18932	0.200825	0.000474
1646	0.200497	0.201647	0.197045	0.189156	0.199839	0.000474
1647	0.19836	0.202633	0.195237	0.191786	0.199511	-1.9e-05
1648	0.200004	0.19836	0.19573	0.188827	0.201483	0.002118
1649	0.197045	0.200332	0.196223	0.189649	0.199839	-1.9e-05
1650	0.202633	0.199839	0.199839	0.190471	0.194087	0.000146
1651	0.197538	0.199675	0.196881	0.189814	0.196881	0.002611
1652	0.196552	0.201976	0.197867	0.18817	0.196388	-0.001005
1653	0.19573	0.202305	0.196717	0.190471	0.198853	-0.001005
1654	0.193922	0.20099	0.19836	0.190471	0.201812	0.000146
1655	0.199346	0.203126	0.201154	0.194251	0.200004	0.000474
1656	0.19721	0.199018	0.196552	0.194416	0.199346	0.000146
1657	0.202305	0.202633	0.196388	0.192772	0.204277	0.000639
1658	0.200497	0.203455	0.19836	0.191293	0.199839	-1.9e-05
1659	0.201647	0.199839	0.195895	0.189649	0.200661	-0.000841
1660	0.201483	0.202469	0.197045	0.193758	0.20099	-0.001169
1661	0.206414	0.203126	0.197374	0.194744	0.202633	0.000803
1662	0.198524	0.201319	0.192936	0.198031	0.201483	-0.000841
1663	0.199675	0.199182	0.198196	0.194251	0.198689	-0.000512
1664	0.201483	0.201154	0.197867	0.197538	0.201154	-0.000676
1665	0.200004	0.198031	0.198689	0.200168	0.201483	-0.000512
1666	0.199018	0.201319	0.195895	0.194416	0.198196	-1.9e-05
1667	0.199675	0.199182	0.196059	0.195895	0.197538	0.00031
1668	0.204441	0.197538	0.196881	0.193758	0.20477	0.000803
1669	0.199018	0.201483	0.19721	0.195566	0.197045	0.000146
1670	0.201812	0.201976	0.196881	0.192608	0.199675	0.001789
1671	0.198853	0.199182	0.198031	0.193758	0.199675	0.00031
1672	0.201976	0.201647	0.199018	0.194416	0.199511	0.001954
1673	0.197374	0.202962	0.19836	0.197045	0.200004	0.00031
1674	0.202305	0.198689	0.197045	0.194087	0.201812	0.00146
1675	0.199839	0.20362	0.19836	0.199018	0.202633	-0.001169
1676	0.200332	0.199018	0.195073	0.19836	0.202962	0.000474
1677	0.200825	0.20362	0.197374	0.197867	0.200661	-0.000183
1678	0.000146	0.200332	0.19836	0.195402	0.202798	0.000639
1679	-0.000512	0.201483	0.195895	0.19836	0.204113	-0.00232
1680	0.001132	0.201154	0.199839	0.198196	0.201154	0.001132
1681	0.010829	0.200004	0.192608	0.197374	0.200332	0.000967
1682	0.016581	0.200825	0.196552	0.199182	0.201647	-0.001334
1683	0.022827	0.202962	0.200168	0.199511	0.197867	0.000967
1684	0.030716	0.204277	0.195402	0.201483	0.200497	-0.002484
1685	0.039591	0.199675	0.199675	0.197045	0.199346	-0.000183
1686	0.044358	0.200004	0.199839	0.198689	0.197703	-0.003142
1687	0.052082	0.200332	0.197538	0.201647	0.188006	0.000967
1688	0.05652	0.202798	0.19836	0.199511	0.167461	-0.001169
1689	0.062766	0.204934	0.19836	0.196388	0.153655	0.000474
1690	0.068682	0.205756	0.196388	0.199018	0.143794	0.00146
1691	0.075257	0.202798	0.188006	0.197374	0.133275	0.000967
1692	0.083146	0.204441	0.186526	0.19458	0.097281	0.001954
1693	0.085283	0.201812	0.19195	0.196881	0.02069	0.000639
1694	0.081502	0.204113	0.189485	0.197703	0.004912	-1.9e-05
1695	0.092021	0.207071	0.187019	0.199018	0.005898	-0.000347
1696	0.100896	0.198031	0.187019	0.199511	0.003926	-0.000841
1697	0.098924	0.200661	0.187348	0.201647	0.001296	-0.000676
1698	0.108128	0.201154	0.188006	0.203126	0.003104	0.000803
1699	0.108128	0.199675	0.184554	0.200168	0.004255	-0.000183
1700	0.109607	0.201647	0.188006	0.198524	0.005241	0.002447
1701	0.115689	0.199182	0.193265	0.197374	0.002282	0.00031
1702	0.119797	0.2074	0.191128	0.197867	0.004583	0.001789
1703	0.120455	0.202798	0.191128	0.200004	0.000967	0.003268
1704	0.124893	0.203455	0.191293	0.196717	0.003926	0.001132
1705	0.122263	0.203291	0.194909	0.199346	0.003433	-0.000512
1706	0.130809	0.207564	0.190471	0.19721	0.000639	0.001789
1707	0.136891	0.201483	0.189156	0.200332	0.001625	-0.000183
1708	0.139356	0.201812	0.192115	0.199675	0.002775	0.001625
1709	0.140342	0.20362	0.18932	0.201483	0.000803	0.002611
1710	0.143794	0.20362	0.187184	0.199018	0.006062	0.002282
1711	0.14593	0.205756	0.186855	0.199675	0.001625	0.001625
1712	0.146588	0.200825	0.184225	0.200661	0.004255	0.000639
1713	0.151518	0.203455	0.185705	0.201812	0.003433	0.000967
1714	0.152176	0.203291	0.184554	0.20099	0.001132	0.000146
1715	0.154477	0.203291	0.181267	0.199018	0.00294	-0.000347
1716	0.143465	0.195566	0.187184	0.200332	0.003268	-0.001334
1717	0.156613	0.203948	0.178966	0.19836	0.005405	0.000474
1718	0.159736	0.197703	0.179788	0.201812	-0.000183	-0.000676
1719	0.159901	0.199346	0.180445	0.199675	0.003268	0.000146
1720	0.16138	0.199511	0.178144	0.202305	0.003104	0.000639
1721	0.16253	0.199675	0.17913	0.19836	0.002118	0.000146
1722	0.161873	0.200332	0.176172	0.196223	0.000146	0.000639
1723	0.168283	0.19836	0.178473	0.196388	0.000967	0.003268
1724	0.165817	0.20214	0.174035	0.199839	0.001954	0.003926
1725	0.168776	0.202633	0.173707	0.200497	0.001296	0.001954
1726	0.172392	0.201976	0.170091	0.198524	-1.9e-05	0.00146
1727	0.160722	0.201812	0.176008	0.199346	0.001132	-0.000183
1728	0.168776	0.202798	0.167461	0.199839	0.000474	0.001132
1729	0.170913	0.20214	0.157764	0.200332	0.000474	-0.000183
1730	0.175186	0.202305	0.15612	0.202469	-0.000347	0.002282
1731	0.174528	0.202798	0.1576	0.198853	-0.000183	-0.000183
1732	0.180116	0.202469	0.151683	0.199018	-0.000183	-0.000512
1733	0.176008	0.201154	0.149875	0.202469	-0.000183	-0.000676
1734	0.180116	0.201154	0.15234	0.199511	-0.000512	0.000474
1735	0.178966	0.201647	0.150532	0.19836	-1.9e-05	-0.000841
1736	0.180774	0.201319	0.150532	0.199511	0.00031	0.000803
1737	0.180281	0.202305	0.152176	0.202798	0.000146	0.001296
1738	0.1742	0.199839	0.155956	0.197703	0.000639	-0.001498
1739	0.180116	0.201154	0.150861	0.202633	0.000146	0.003104
1740	0.181596	0.199346	0.152505	0.199675	0.000474	0.002118
1741	0.183568	0.202962	0.151847	0.200332	-0.000512	0.002447
1742	0.181596	0.202633	0.152505	0.198524	-1.9e-05	0.003433
1743	0.18932	0.203291	0.155463	0.199839	-0.000512	0.004583
1744	0.183732	0.199182	0.151025	0.199675	-0.000347	0.001296
1745	0.186033	0.202962	0.153819	0.199675	-0.000183	0.003926
1746	0.186198	0.204441	0.149546	0.201647	0.00031	0.001625
1747	0.185869	0.201812	0.148067	0.200497	0.00031	0.005076
1748	0.085283	0.202633	0.141164	0.200004	0.00031	0.005405
1749	-0.000183	0.20099	0.135247	0.200661	0.000474	0.012965
1750	0.006391	0.192772	0.13952	0.200004	0.000146	0.018554
1751	0.016581	0.200168	0.137384	0.196223	0.000146	0.026443
1752	0.024635	0.202469	0.135247	0.204606	-1.9e-05	0.031373
1753	0.032688	0.201154	0.136233	0.195566	-0.000183	0.037126
1754	0.040742	0.199511	0.134261	0.196223	-0.000676	0.044193
1755	0.049781	0.200004	0.119797	0.200825	-0.000512	0.048302
1756	0.05389	0.201976	0.123578	0.201812	-0.000676	0.056684
1757	0.057671	0.20099	0.122592	0.199182	-1.9e-05	0.056684
1758	0.06556	0.201812	0.122427	0.201483	0.00031	0.059972
1759	0.066875	0.200497	0.126372	0.199839	0.000474	0.038441
1760	0.074599	0.205592	0.12292	0.199346	-1.9e-05	0.038112
1761	0.076243	0.193101	0.127522	0.200168	0.000474	0.019211
1762	0.082324	0.202305	0.129001	0.199018	0.00031	0.000146
1763	0.090542	0.202305	0.132946	0.201483	-0.000183	0.001296
1764	0.093829	0.201483	0.134261	0.198031	-1.9e-05	0.002775
1765	0.096788	0.200332	0.137384	0.20099	-0.000676	-0.000347
1766	0.10139	0.198689	0.13837	0.199839	-0.000676	-0.000676
1767	0.10517	0.199182	0.146588	0.20099	-0.000347	0.00031
1768	0.109114	0.199511	0.146423	0.200661	-1.9e-05	0.003433
1769	0.115031	0.199182	0.147245	0.203784	0.000146	0.002447
1770	0.117496	0.203291	0.15119	0.201812	0.00031	0.002775
1771	0.120455	0.19836	0.145602	0.205263	0.000146	-0.000841
1772	0.121605	0.189156	0.153326	0.200332	0.00031	0.000146
1773	0.127851	0.202305	0.156285	0.199018	-1.9e-05	0.000146
1774	0.1267	0.199675	0.158421	0.201319	-0.000183	0.003104
1775	0.133932	0.202633	0.1576	0.199018	-0.000347	0.003104
1776	0.136233	0.199675	0.162366	0.199182	-0.000347	-0.000183
1777	0.139027	0.202962	0.159079	0.198689	-0.000183	0.007377
1778	0.142479	0.198689	0.165489	0.201483	-0.000183	0.001296
1779	0.143136	0.202469	0.162202	0.197703	0.000146	0.012965
1780	0.143629	0.20362	0.162037	0.204606	0.000474	0.020197
1781	0.14856	0.202633	0.161873	0.200168	0.00031	0.028086
1782	0.150697	0.20477	0.153326	0.19721	0.00031	0.028251
1783	0.151025	0.194909	0.160722	0.200332	0.000474	0.023813
1784	0.152669	0.200004	0.160229	0.201483	-1.9e-05	0.020033
1785	0.153819	0.202633	0.160065	0.197374	-0.000183	0.023484
1786	0.157107	0.201154	0.155463	0.197045	-0.000347	0.027922
1787	0.159736	0.199839	0.156285	0.198689	-0.000347	0.034168
1788	0.159572	0.201154	0.151025	0.200168	-0.000512	0.043207
1789	0.16516	0.197045	0.15119	0.200332	0.000146	0.049453
1790	0.16401	0.199839	0.143794	0.202469	-0.000183	0.059314
1791	0.165489	0.199675	0.142479	0.203455	0.000146	0.05915
1792	0.166968	0.20214	0.145108	0.199675	0.000146	0.065888
1793	0.166804	0.200168	0.135247	0.198853	0.00031	0.075092
1794	0.173871	0.198524	0.135411	0.198689	0.000639	0.075421
1795	0.168776	0.200497	0.132617	0.201812	0.000146	0.080187
1796	0.169926	0.202633	0.133932	0.19721	-0.000347	0.093172
1797	0.173542	0.203455	0.129823	0.200168	-0.000347	0.08972
1798	0.170255	0.200004	0.128673	0.199018	-0.000183	0.094815
1799	0.173707	0.203784	0.12292	0.199839	-0.000676	0.101225
1800	0.176829	0.200004	0.126865	0.199675	-1.9e-05	0.10139
1801	0.176336	0.20477	0.123906	0.200004	-1.9e-05	0.108293
1802	0.178966	0.202633	0.12292	0.199182	0.000474	0.109114
1803	0.180938	0.201319	0.120126	0.201154	0.000474	0.113059
1804	0.177651	0.199346	0.115031	0.199675	0.000474	0.116839
1805	0.183404	0.199018	0.113552	0.200332	0.00031	0.120784
1806	0.176994	0.198031	0.112401	0.200825	-1.9e-05	0.123085
1807	0.181431	0.202633	0.039756	0.200168	-0.000347	0.127358
1808	0.182582	0.197374	0.039098	0.197867	-0.000347	0.12555
1809	0.181596	0.197045	0.034003	0.20099	-0.000347	0.131796
1810	0.181924	0.202305	0.034989	0.201154	-0.000841	0.134261
1811	0.185705	0.199511	0.032688	0.201154	-1.9e-05	0.137219
1812	0.183404	0.204277	0.028744	0.202469	-1.9e-05	0.142479
1813	0.18554	0.204113	0.032524	0.198853	0.000639	0.143301
1814	0.185869	0.199839	0.02447	0.200661	0.000146	0.146588
1815	0.185047	0.199839	0.019375	0.198689	0.000474	0.14971
1816	0.187348	0.200661	0.010993	0.198031	0.00031	0.146588
1817	0.187184	0.198031	0.013787	0.199346	0.000474	0.147409
1818	0.187348	0.203948	0.01428	0.200004	-1.9e-05	0.149875
1819	0.188663	0.19836	0.015102	0.19836	-0.000512	0.151025
1820	0.190471	0.20362	0.010007	0.201976	-0.000512	0.149382
1821	0.188827	0.201976	0.007213	0.200332	-0.000347	0.14856
1822	0.192443	0.205263	0.003268	0.198689	0.000146	0.155627
1823	0.1908	0.203291	0.003104	0.204277	0.000146	0.154148
1824	0.193922	0.202962	0.007213	0.201812	0.000146	0.159243
1825	0.191128	0.199346	0.005898	0.203126	0.000474	0.157271
1826	0.1908	0.20099	0.005569	0.201812	0.00031	0.161544
1827	0.190964	0.20214	0.004912	0.199346	0.000146	0.163188
1828	0.19573	0.200332	0.007377	0.19836	0.000146	0.16253
1829	0.189814	0.202633	0.005734	0.200332	-0.000183	0.166311
1830	0.191786	0.201647	0.00409	0.197538	-0.000183	0.167954
1831	0.192772	0.201647	-0.000676	0.201319	-0.000512	0.169433
1832	0.192936	0.202962	0.002447	0.199182	-0.000183	0.165489
1833	0.192443	0.203948	0.003268	0.199675	-0.000347	0.16516
1834	0.194087	0.200825	0.002775	0.19836	0.000146	0.166475
1835	0.194416	0.205921	0.000639	0.199839	0.000146	0.16894
1836	0.192608	0.200168	0.005241	0.193429	0.000474	0.167132
1837	0.195402	0.203126	0.003104	0.19836	0.000474	0.170419
1838	0.192115	0.202469	0.002611	0.196881	0.00031	0.169598
1839	0.198031	0.200497	0.00294	0.19836	-1.9e-05	0.170748
1840	0.193429	0.200825	0.002447	0.201647	-0.000347	0.170913
1841	0.195073	0.200004	0.003597	0.195073	-0.000183	0.169433
1842	0.19458	0.199675	0.000967	0.20362	-0.000676	0.170748
1843	0.198524	0.20099	0.002775	0.201647	-0.000347	0.171734
1844	0.193265	0.201319	0.000474	0.200168	-1.9e-05	0.17535
1845	0.197867	0.201483	0.00146	0.200168	-0.000183	0.174693
1846	0.196388	0.202798	0.002447	0.20214	0.00031	0.178309
1847	0.194087	0.201154	0.000803	0.198689	0.000639	0.178966
1848	0.19458	0.202305	-0.003306	0.199675	0.000474	0.178966
1849	0.192443	0.20099	0.002775	0.200661	0.000639	0.176829
1850	0.197045	0.201976	0.000639	0.19836	-0.000512	0.184883
1851	0.193429	0.201976	0.001132	0.196388	0.00031	0.177158
1852	0.194416	0.201483	0.000967	0.199018	-0.000183	0.181596
1853	0.196881	0.199346	0.000803	0.201483	-0.000512	0.180774
1854	0.198031	0.202469	-0.000183	0.197045	-0.000347	0.181924
1855	0.199182	0.202798	0.001132	0.199182	-0.000347	0.184718
1856	0.19721	0.203126	0.000146	0.200168	-1.9e-05	0.185869
1857	0.191786	0.200332	-0.000841	0.20362	0.00031	0.183568
1858	0.196388	0.197867	0.00031	0.199839	-1.9e-05	0.185047
1859	0.199839	0.200004	0.00031	0.203948	-1.9e-05	0.183897
1860	0.194087	0.199511	0.000474	0.199182	0.000803	0.184225
1861	0.197538	0.199675	0.003597	0.202798	-0.000183	0.186033
1862	0.196552	0.199346	0.00146	0.200497	-1.9e-05	0.186526
1863	0.198196	0.204277	0.00031	0.202798	-0.000512	0.186855
1864	0.199839	0.197374	0.003761	0.199839	-0.000347	0.186198
1865	0.20099	0.200168	-0.001334	0.200497	-0.000347	0.18817
1866	0.197867	0.199511	0.005569	0.200004	-0.000183	0.003104
1867	0.200497	0.204441	-0.000183	0.199018	0.000146	0.002282
1868	0.198031	0.19836	0.000967	0.202305	-1.9e-05	0.000803
1869	0.19836	0.202962	0.00031	0.198689	0.000474	0.000146
1870	0.20099	0.200497	0.000803	0.202962	0.000474	0.000967
1871	0.196059	0.201647	-0.001005	0.200825	0.000639	-0.000512
1872	0.198524	0.19836	0.000146	0.200661	-0.000183	0.010993
1873	0.200332	0.199018	-1.9e-05	0.198689	-1.9e-05	0.016581
1874	0.196881	0.198853	0.000803	0.198853	-0.000676	0.024142
1875	0.198689	0.202305	0.002447	0.200332	-0.000512	0.029894
1876	0.204277	0.201976	0.000967	0.202469	-0.000841	0.03729
1877	0.201319	0.200168	0.002447	0.200332	-0.000183	-0.000183
1878	0.197703	0.202798	-0.000183	0.202469	-1.9e-05	0.001789
1879	0.198689	0.200332	-0.001991	0.201976	0.00031	-0.000183
1880	0.198031	0.203948	0.00294	0.200004	0.00031	0.00294
1881	0.196388	0.199675	0.005734	0.199839	0.000474	0.003104
1882	0.19836	0.201483	-0.000512	0.199346	0.000474	0.00146
1883	0.196717	0.199839	0.003926	0.201154	0.000474	0.00146
1884	0.200168	0.200661	0.002611	0.197538	0.000146	0.003926
1885	0.19573	0.201319	0.001132	0.200825	-0.000183	0.000474
1886	0.198524	0.202305	0.00146	0.199511	-0.000512	0.008363
1887	0.200825	0.203126	0.001625	0.205592	-0.000183	0.016417
1888	0.199018	0.202469	0.002447	0.207564	-0.000347	0.019868
1889	0.195402	0.202798	0.000639	0.202305	-1.9e-05	0.026607
1890	0.201154	0.203291	0.000474	0.201647	0.000146	0.031538
1891	0.199018	0.205921	0.000639	0.201154	0.00031	0.036633
1892	0.20099	0.201812	0.001296	0.195566	0.000639	0.042714
1893	0.199839	0.204113	-0.001498	0.202962	0.000474	0.051096
1894	0.194087	0.200004	0.005076	0.200004	0.00031	0.056191
1895	0.197538	0.203126	0.001132	0.200497	-0.000676	0.063587
1896	0.196881	0.197538	0.007377	0.199346	-0.000347	0.065395
1897	0.19573	0.201483	0.006227	0.199018	-0.000512	0.072627
1898	0.198031	0.198524	0.005898	0.193758	-0.000512	0.076572
1899	0.19836	0.200661	0.005076	0.194087	-0.000841	0.082488
1900	0.194744	0.201647	0.004748	0.197703	0.000146	0.086269
1901	0.201319	0.201483	0.002775	0.196717	0.000146	0.010829
1902	0.199018	0.201976	0.001954	0.197867	0.000639	0.019704
1903	0.198196	0.202633	0.004583	0.197867	0.00031	0.027593
1904	0.200497	0.201319	-0.000183	0.199675	0.000803	0.033346
1905	0.199182	0.20099	0.002118	0.197045	0.000146	0.044522
1906	0.198689	0.204934	0.008035	0.201319	-0.000676	0.047316
1907	0.197045	0.203784	0.006884	0.200332	-0.000183	0.052247
1908	0.202305	0.202469	0.001296	0.201319	-0.000183	0.058821
1909	0.201812	0.201647	0.004255	0.201319	-0.000347	0.064738
1910	0.202633	0.204277	0.00146	0.202633	-0.000183	0.066546
1911	0.199346	0.205099	0.002775	0.201647	0.000146	0.064409
1912	0.203784	0.202633	0.000146	0.201812	0.00031	0.068025
1913	0.195566	0.198524	0.00146	0.201319	0.000146	0.067696
1914	0.206085	0.202633	0.00031	0.200332	0.00031	0.077065
1915	0.20214	0.199675	0.001132	0.202798	0.000967	0.074271
1916	0.199675	0.201647	0.00146	0.199675	0.000474	0.0603
1917	0.198196	0.203455	0.00787	0.200168	-1.9e-05	0.009185
1918	0.200004	0.199018	0.003268	0.198031	-1.9e-05	0.008528
1919	0.19721	0.198031	0.002447	0.203291	-1.9e-05	0.015266
1920	0.200168	0.201812	0.006391	0.200332	-0.000347	0.024799
1921	0.199511	0.198524	0.004419	0.201483	-0.000841	0.01576
1922	0.199346	0.203126	0.005241	0.200004	0.000474	0.007706
1923	0.199675	0.200332	0.001625	0.200661	0.000146	0.000474
1924	0.200661	0.204113	0.003104	0.199018	0.000474	0.004255
1925	0.198689	0.205263	0.002775	0.201812	0.000146	-0.002484
1926	0.197045	0.200497	0.004583	0.200168	0.000803	0.003761
1927	0.198524	0.204441	0.006391	0.209208	0.000474	0.011651
1928	0.197867	0.200332	0.012308	0.203291	-0.000183	0.004912
1929	0.200004	0.201319	0.013459	0.199346	-0.000183	0.017403
1930	0.198031	0.200661	0.01954	0.204606	-0.000512	0.01691
1931	0.201976	0.202633	0.027758	0.202305	-0.000347	0.030387
1932	0.198196	0.200497	0.034332	0.201483	-0.000676	0.036304
1933	0.200168	0.202962	0.042057	0.200168	0.00031	0.042714
1934	0.199182	0.201647	0.044851	0.203948	0.000146	0.046001
1935	0.201154	0.201976	0.05389	0.199839	0.00031	0.054876
1936	0.19836	0.202305	0.065724	0.200004	0.00031	0.060465
1937	0.203126	0.201154	0.068189	0.19836	0.000474	0.065067
1938	0.199018	0.20362	0.066546	0.200004	0.00031	0.070162
1939	0.199182	0.200332	0.076736	0.198031	-0.000183	0.075257
1940	0.199511	0.202962	0.077886	0.201812	-0.000347	0.080352
1941	0.197703	0.197703	0.084625	0.200004	-0.000183	0.081667
1942	0.201647	0.200332	0.08857	0.201647	-0.000676	0.091692
1943	0.199675	0.201319	0.097609	0.199346	-0.000347	0.094322
1944	0.203455	0.201812	0.098431	0.199675	-1.9e-05	0.097116
1945	0.200004	0.203455	0.100732	0.202633	0.00031	0.098431
1946	0.199018	0.202469	0.103691	0.205099	0.00031	0.104677
1947	0.201319	0.20099	0.106649	0.202305	0.00031	0.104677
1948	0.199675	0.200168	0.113552	0.202633	0.00031	0.111415
1949	0.196881	0.201319	0.114209	0.203126	0.000146	0.112566
1950	0.19721	0.200332	0.119962	0.199346	-0.000347	0.116839
1951	0.198031	0.200661	0.121605	0.20099	-0.000676	0.117496
1952	0.197703	0.198031	0.125386	0.199839	-0.000183	0.120126
1953	0.197045	0.201976	0.128837	0.201154	-0.000512	0.123906
1954	0.196388	0.201154	0.134918	0.198853	-0.000183	0.123742
1955	0.199511	0.205263	0.132289	0.202305	0.000146	0.121277
1956	0.199346	0.198853	0.140013	0.200332	0.00031	0.124399
1957	0.202305	0.197867	0.139849	0.199018	0.00031	0.124399
1958	0.202305	0.198196	0.146916	0.200332	0.00031	0.123578
1959	0.202305	0.201647	0.147409	0.199675	0.000474	0.129495
1960	0.20099	0.201647	0.146423	0.201976	0.00031	0.118647
1961	0.202798	0.202305	0.146588	0.199675	-0.000183	0.084625
1962	0.197703	0.202962	0.148396	0.201812	-0.000512	0.018554
1963	0.200661	0.199346	0.15234	0.201647	-0.000347	0.00409
1964	0.199839	0.199346	0.155299	0.200497	-0.000512	0.008035
1965	0.204441	0.201319	0.155299	0.202305	-0.000347	0.003433
1966	0.198689	0.204113	0.157271	0.204441	-1.9e-05	-0.001005
1967	0.200497	0.202305	0.161215	0.201812	0.000146	0.005734
1968	0.19721	0.201154	0.160229	0.20362	0.000146	0.013787
1969	0.202633	0.203126	0.163188	0.198689	0.000474	0.021348
1970	0.199346	0.204277	0.166146	0.19836	0.00031	0.028251
1971	0.199018	0.202305	0.169433	0.202305	0.000146	0.023156
1972	0.197867	0.202305	0.165489	0.199839	-0.000183	0.027429
1973	0.198524	0.202633	0.168776	0.198853	-0.000183	0.016253
1974	0.200661	0.202798	0.17157	0.203455	-0.000183	0.01691
1975	0.197703	0.203291	0.172392	0.200004	-0.000512	0.012637
1976	0.204934	0.202469	0.173049	0.19721	-0.000183	0.019047
1977	0.20099	0.203455	0.174528	0.199182	0.000146	0.019375
1978	0.203291	0.202962	0.174364	0.198853	0.000146	0.027758
1979	0.200168	0.203291	0.17535	0.197374	0.000474	0.037455
1980	0.202633	0.205427	0.176336	0.200661	0.000146	0.03614
1981	0.20099	0.20099	0.178637	0.200332	0.00031	0.012965
1982	0.201483	0.203784	0.178309	0.199839	0.000474	0.022827
1983	0.202633	0.201976	0.179295	0.202962	-0.000183	-1.9e-05
1984	0.200332	0.200168	0.17913	0.200004	-0.000347	0.001789
1985	0.195402	0.201976	0.179788	0.201483	-0.000512	0.002611
1986	0.199182	0.197538	0.182746	0.201483	-1.9e-05	0.009678
1987	0.200661	0.204934	0.180774	0.200497	-0.000183	0.017567
1988	0.200332	0.202305	0.182253	0.199346	-0.000183	0.024635
1989	0.200168	0.201319	0.181431	0.199675	0.000967	0.027758
1990	0.200497	0.201483	0.18932	0.199182	0.000803	0.035975
1991	0.200004	0.202798	0.183075	0.199511	0.001132	0.042221
1992	0.199182	0.201976	0.188006	0.200661	0.001625	0.047809
1993	0.200661	0.204934	0.186855	0.197374	0.000474	0.05537
1994	0.199018	0.20214	0.187841	0.200332	0.000146	0.052247
1995	0.204441	0.205921	0.184883	0.199182	0.001789	0.057013
1996	0.200332	0.203948	0.187019	0.199675	-0.001662	0.062766
1997	0.200661	0.199839	0.187513	0.200332	0.000146	0.060465
1998	0.199346	0.20362	0.187513	0.203948	0.001132	0.002118
1999	0.202305	0.200497	0.188827	0.195402	0.002118	0.007706
2000	0.199182	0.20099	0.187513	0.199511	0.00031	0.006391
2001	0.200661	0.199675	0.192772	0.197045	0.000639	0.003268
2002	0.197703	0.202798	0.188992	0.197538	0.003597	0.000474
2003	0.201483	0.199839	0.191293	0.200825	0.012308	-0.000512
2004	0.199346	0.201812	0.189156	0.19721	0.01954	-0.000512
2005	0.197867	0.201647	0.192115	0.199346	0.025292	0.003926
2006	0.200004	0.200168	0.192772	0.199018	0.032853	0.000639
2007	0.199018	0.199346	0.200661	0.200825	0.038605	0.000146
2008	0.205592	0.202798	0.198689	0.20099	0.04748	0.001625
2009	0.197538	0.203291	0.192443	0.200497	0.052411	0.000967
2010	0.20099	0.205099	0.19573	0.198689	0.059643	0.003926
2011	0.199018	0.201976	0.192608	0.20214	0.060958	0.000146
2012	0.195895	0.202798	0.19195	0.198524	0.072463	0.004748
2013	0.200825	0.201647	0.192115	0.200661	0.074271	0.004419
2014	0.204606	0.199839	0.193594	0.199511	0.081995	0.00409
2015	0.199182	0.204934	0.1908	0.202305	0.084461	0.002775
2016	0.20099	0.200497	0.193594	0.200825	0.094815	0.000146
2017	0.200004	0.201483	0.192279	0.205921	0.095966	0.005076
2018	0.203455	0.195402	0.196059	0.201154	0.09876	0.004748
2019	0.199839	0.200825	0.195073	0.20214	0.103691	0.004419
2020	0.197867	0.200332	0.192936	0.202633	0.105663	0.00146
2021	0.202305	0.198689	0.196717	0.196059	0.108786	0.000803
2022	0.196059	0.199182	0.19721	0.203126	0.111415	0.00031
2023	0.204441	0.203126	0.196552	0.199018	0.117496	0.00031
2024	0.197374	0.200825	0.198031	0.201812	0.124235	-0.000347
2025	0.203948	0.204441	0.197374	0.201154	0.126372	-1.9e-05
2026	0.198853	0.205099	0.199018	0.202962	0.126207	-0.001169
2027	0.200332	0.200661	0.196388	0.197703	0.129823	0.000803
2028	0.199511	0.204113	0.196717	0.203291	0.132782	0.000639
2029	0.199511	0.203126	0.19836	0.201976	0.135083	0.002118
2030	0.200004	0.204113	0.197867	0.20477	0.139356	0.000639
2031	0.202633	0.202469	0.199018	0.200661	0.138041	0.00031
2032	0.201483	0.201154	0.195073	0.201976	0.142643	-0.001827
2033	0.198196	0.201976	0.197374	0.202633	0.146259	0.00031
2034	0.198689	0.203291	0.195566	0.201647	0.148889	-0.000183
2035	0.19836	0.20362	0.199511	0.200332	0.146752	0.002775
2036	0.203948	0.201483	0.202962	0.199018	0.150204	0.003433
2037	0.199182	0.202305	0.201483	0.200004	0.153655	0.001789
2038	0.20099	0.201812	0.19836	0.199182	0.156613	0.000639
2039	0.199018	0.199346	0.198031	0.199675	0.154641	-1.9e-05
2040	0.201319	0.201647	0.199182	0.201483	0.159736	0.000146
2041	0.197045	0.200168	0.199182	0.201319	0.156942	0.00031
2042	0.201154	0.205099	0.199182	0.200004	0.164174	0.00031
2043	0.198853	0.20099	0.200825	0.201154	0.163023	0.000474
2044	0.198196	0.204441	0.202305	0.201976	0.164667	-1.9e-05
2045	0.197374	0.202798	0.197703	0.202469	0.167297	-1.9e-05
2046	0.196717	0.204606	0.002611	0.196717	0.169269	-0.000183
2047	0.198853	0.202305	0.010829	0.196717	0.167625	-0.000347
2048	0.197045	0.200825	0.018225	0.194087	0.170091	-0.000512
2049	0.199182	0.203948	0.023156	0.195073	0.173871	-0.000347
2050	0.199675	0.200332	0.032853	0.196717	0.174528	-0.000183
2051	0.199675	0.201319	0.039756	0.194251	0.173542	0.000146
2052	0.196223	0.200825	0.04748	0.196388	0.17272	0.00031
2053	0.201647	0.201812	0.051261	0.198524	0.177815	0.00031
2054	0.199346	0.200497	0.058657	0.194416	0.174364	0.000146
2055	0.200168	0.202962	0.062766	0.194416	0.178637	0.000146
2056	0.202305	0.200497	0.070819	0.194909	0.177651	-0.000183
2057	0.203455	0.198853	0.080352	0.197538	0.180445	-0.000347
2058	0.200497	0.203784	0.081667	0.198853	0.179623	-0.000512
2059	0.201812	0.203784	0.08594	0.19458	0.181596	-0.000183
2060	0.198689	0.202469	0.090871	0.19836	0.181103	-1.9e-05
2061	0.19721	0.201812	0.096459	0.194416	0.178637	0.000146
2062	0.200004	0.200661	0.095966	0.19721	0.183568	0.00031
2063	0.199018	0.202469	0.104019	0.196059	0.183732	0.00031
2064	0.200497	0.200825	0.105498	0.196388	0.186691	0.000474
2065	0.197703	0.200004	0.110593	0.197867	0.186691	0.000474
2066	0.200004	0.203291	0.113552	0.195237	0.189649	0.000146
2067	0.20099	0.19458	0.116675	0.19836	0.190471	-0.000183
2068	0.202798	0.195895	0.120291	0.197867	0.187841	-0.000841
2069	0.20099	0.199182	0.126043	0.195895	0.18817	-0.000841
2070	0.199346	0.203126	0.125386	0.198196	0.190635	-0.000512
2071	0.198031	0.199182	0.128344	0.200004	0.185212	-0.000676
2072	0.19836	0.200497	0.13311	0.198031	0.194744	-1.9e-05
2073	0.203455	0.200004	0.13459	0.197703	0.188334	0.000146
2074	0.196388	0.200497	0.139192	0.198524	0.192608	0.00031
2075	0.200332	0.204113	0.139685	0.198689	0.188663	0.000474
2076	0.200661	0.199346	0.145108	0.19836	0.188499	0.000474
2077	0.200004	0.204277	0.145766	0.199675	0.190142	-1.9e-05
2078	0.201647	0.20362	0.146423	0.197867	0.189485	-0.000347
2079	0.201154	0.200332	0.14971	0.197045	0.190964	-0.000347
2080	0.198524	0.201812	0.153984	0.198853	0.19195	-0.000183
2081	0.200168	0.204606	0.154641	0.197045	0.192279	-0.000512
2082	0.196223	0.200661	0.157107	0.194909	0.192443	-0.000347
2083	0.199346	0.204441	0.15612	0.198031	0.196388	0.000146
2084	0.19721	0.200332	0.158914	0.201154	0.192443	-1.9e-05
2085	0.200168	0.202305	0.158914	0.198689	0.194251	0.000146
2086	0.198689	0.20362	0.161544	0.197867	0.19573	0.000474
2087	0.198689	0.202798	0.163516	0.198853	0.193922	0.00031
2088	0.201483	0.20362	0.161051	0.200168	0.192279	0.000146
2089	0.200825	0.199839	0.167132	0.197538	0.197045	0.000146
2090	0.200661	0.20099	0.167625	0.201319	0.194744	-0.000183
2091	0.199675	0.199839	0.169762	0.199018	0.1908	-0.000512
2092	0.198853	0.20362	0.169269	0.200497	0.193922	-0.000512
2093	0.199839	0.201154	0.170913	0.200004	0.195073	-0.000512
2094	0.19573	0.200661	0.173214	0.199839	0.194251	-1.9e-05
2095	0.197703	0.20099	0.175515	0.200497	0.195566	0.000146
2096	0.198031	0.202798	0.174364	0.199182	0.198853	0.00031
2097	0.19458	0.207071	0.176829	0.196223	0.196223	0.00031
2098	0.198524	0.203948	0.178144	0.197538	0.196552	0.00031
2099	0.196388	0.201647	0.179623	0.196388	0.19458	0.000146
2100	0.196717	0.206085	0.18061	0.193429	0.194087	-0.000183
2101	0.195402	0.200661	0.180938	0.197045	0.195402	-0.000183
2102	0.198196	0.202305	0.181596	0.19458	0.197374	-0.000512
2103	0.198031	0.203784	0.181431	0.197703	0.192443	-0.000347
2104	0.200661	0.201483	0.181267	0.198689	0.197538	-1.9e-05
2105	0.199346	0.200332	0.18554	0.202469	0.199018	-1.9e-05
2106	0.200825	0.200168	0.186691	0.200004	0.199182	0.000146
2107	0.200168	0.201154	0.18176	0.202305	0.199018	0.00031
2108	0.197867	0.200825	0.189156	0.200661	0.197538	0.000474
2109	0.199018	0.202305	0.18817	0.201976	0.196223	0.00031
2110	0.19836	0.200332	0.184718	0.200004	0.197703	0.000146
2111	0.200497	0.202469	0.183897	0.199182	0.197374	-1.9e-05
2112	0.198031	0.200332	0.186691	0.199839	0.196552	-0.000347
2113	0.202633	0.201483	0.187184	0.200497	0.197045	-0.000347
2114	0.195566	0.200497	0.187019	0.200004	0.19721	-0.000512
2115	0.198689	0.19836	0.187841	0.197703	0.200825	-0.000347
2116	0.19573	0.194909	0.189814	0.200497	0.199511	-1.9e-05
2117	0.197374	0.20214	0.191128	0.199346	0.200497	0.000146
2118	0.198524	0.204277	0.191786	0.201319	0.198524	0.00031
2119	0.196552	0.201647	0.190142	0.200004	0.200661	0.000474
2120	0.199018	0.202305	0.190964	0.199839	0.198524	0.000146
2121	0.201483	0.202798	0.193101	0.201812	0.200497	0.000146
2122	0.194744	0.203784	0.190307	0.20099	0.199511	-0.000183
2123	0.199346	0.202962	0.192115	0.200825	0.199182	-0.000183
2124	0.200661	0.202305	0.192115	0.202305	0.196552	-0.000347
2125	0.197867	0.201812	0.194416	0.201154	0.198853	-0.000347
2126	0.196881	0.201483	0.191786	0.199346	0.199182	-0.000512
2127	0.198689	0.200004	0.191621	0.199018	0.198853	-1.9e-05
2128	0.197703	0.201976	0.194087	0.201976	0.197867	-1.9e-05
2129	0.196059	0.200497	0.19458	0.206414	0.199511	0.000639
2130	0.194251	0.201319	0.193429	0.200332	0.198524	0.000146
2131	0.196552	0.199511	0.197045	0.203126	0.195566	0.00146
2132	0.196388	0.202962	0.19573	0.20099	0.199018	0.007542
2133	0.193758	0.202305	0.196552	0.200661	0.196388	0.004583
2134	0.195237	0.201647	0.197538	0.196059	0.197045	0.003433
2135	0.197538	0.201976	0.196223	0.205427	0.198853	0.004912
2136	0.195895	0.204277	0.196717	0.200168	0.199182	0.004583
2137	0.196388	0.202962	0.196717	0.198524	0.199346	0.012637
2138	0.198196	0.20362	0.199839	0.200168	0.193101	0.006884
2139	0.196388	0.201976	0.196388	0.199182	0.192608	0.008363
2140	0.193429	0.203948	0.197538	0.200825	0.193101	0.009021
2141	0.196552	0.199839	0.196223	0.205921	0.194251	0.012472
2142	0.195073	0.202633	0.197867	0.200332	0.189649	0.017732
2143	0.192772	0.20214	0.192608	0.203291	0.18932	0.018225
2144	0.193922	0.203948	0.192936	0.200332	0.191293	0.022827
2145	0.191786	0.201647	0.202469	0.199018	0.191457	0.032524
2146	0.191786	0.193594	0.196388	0.20362	0.190964	0.034003
2147	0.192772	0.200825	0.197374	0.204934	0.192608	0.04255
2148	0.190307	0.201976	0.197867	0.202305	0.188499	0.047316
2149	0.1908	0.200497	0.19721	0.195566	0.192115	0.049617
2150	0.194416	0.20214	0.197867	0.203455	0.186691	0.051589
2151	0.195073	0.201319	0.199675	0.201319	0.186855	0.057999
2152	0.193429	0.202305	0.196223	0.201647	0.188663	0.062108
2153	0.194416	0.201154	0.20099	0.198689	0.187184	0.066546
2154	0.194744	0.200825	0.198031	0.201483	0.185212	0.071148
2155	0.194909	0.201976	0.197374	0.199182	0.185212	0.07312
2156	0.196059	0.202798	0.196388	0.200332	0.18439	0.081667
2157	0.194416	0.200168	0.199511	0.200661	0.184061	0.078051
2158	0.194087	0.203291	0.196717	0.201976	0.181924	0.084625
2159	0.193429	0.200825	0.193594	0.199839	0.179295	0.083146
2160	0.196223	0.200497	0.195895	0.201647	0.180445	0.084296
2161	0.193101	0.199511	0.19836	0.202962	0.171899	0.085447
2162	0.195073	0.201154	0.201483	0.200661	0.166475	0.091035
2163	0.193101	0.199346	0.19573	0.201647	0.140013	0.091364
2164	0.193429	0.198031	0.198031	0.199018	0.091857	0.091692
2165	0.194416	0.200168	0.197538	0.201812	0.057671	0.020526
2166	0.19573	0.202962	0.199511	0.19836	0.044686	0.015924
2167	0.192115	0.204277	0.198853	0.200004	0.03992	0.014116
2168	0.194744	0.199182	0.201319	0.199511	0.039427	0.004748
2169	0.196388	0.195073	0.198031	0.199675	0.045015	0.00787
2170	0.196059	0.199675	0.200332	0.199675	0.049124	0.001132
2171	0.196059	0.201976	0.200004	0.19836	0.049124	-1.9e-05
2172	0.195895	0.199675	0.201319	0.202798	0.041399	0.000146
2173	0.197867	0.204113	0.199182	0.20099	0.039591	0.000639
2174	0.195402	0.201647	0.20099	0.19836	0.038605	0.00031
2175	0.197703	0.202469	0.199675	0.200497	0.041399	0.00031
2176	0.195402	0.202962	0.199018	0.20214	0.04107	0.000146
2177	0.19721	0.202633	0.198853	0.200004	0.034989	0.002611
2178	0.19721	0.201154	0.199018	0.20099	0.033839	-0.000512
2179	0.197045	0.201647	0.199675	0.197703	0.03351	-1.9e-05
2180	0.193594	0.201154	0.197045	0.202469	0.03729	-1.9e-05
2181	0.196388	0.199018	0.200168	0.199839	0.024799	-0.000347
2182	0.194416	0.200825	0.199018	0.200825	0.027593	-0.000183
2183	0.195402	0.200004	0.199182	0.201647	0.030387	0.000474
2184	0.191128	0.201483	0.196388	0.200497	0.0271	0.00031
2185	0.19721	0.202633	0.197374	0.201154	0.038276	0.000474
2186	0.198524	0.20099	0.199346	0.200497	0.041728	0.000639
2187	0.195895	0.201647	0.199675	0.198196	0.047645	0.00031
2188	0.19836	0.202798	0.198689	0.200332	0.054876	-1.9e-05
2189	0.196059	0.201154	0.20214	0.198853	0.061615	-0.000183
2190	0.199018	0.20477	0.202798	0.199675	0.068189	-0.000183
2191	0.194909	0.202469	0.197538	0.204277	0.070655	-0.000512
2192	0.200168	0.202633	0.201647	0.200332	0.07953	-0.000347
2193	0.196388	0.20214	0.201647	0.201483	0.071148	-1.9e-05
2194	0.197538	0.201319	0.195402	0.202633	0.078215	0.000146
2195	0.195073	0.202798	0.202305	0.204277	0.079201	0.00031
2196	0.200168	0.201812	0.195566	0.199511	0.081174	0.000639
2197	0.198853	0.198196	0.196223	0.198689	0.083475	0.000146
2198	0.196717	0.19836	0.203455	0.203126	0.089227	0.00031
2199	0.19573	0.202962	0.200497	0.199018	0.091692	-1.9e-05
2200	0.199018	0.196717	0.199346	0.19836	0.098267	-0.000183
2201	0.196388	0.205263	0.199839	0.199346	0.094158	-0.000183
2202	0.19721	0.201976	0.200661	0.196388	0.103362	0.000146
2203	0.197045	0.201154	0.200332	0.198524	0.10895	-0.000347
2204	0.196552	0.201154	0.20214	0.195402	0.115689	-1.9e-05
2205	0.200661	0.20477	0.196881	0.200332	0.118154	0.005076
2206	0.197538	0.201319	0.200004	0.201319	0.120126	0.002282
2207	0.199346	0.203948	0.199018	0.199018	0.12177	0.003104
2208	0.200004	0.199675	0.198524	0.20214	0.124235	0.00935
2209	0.199675	0.202962	0.202962	0.202633	0.129495	0.010336
2210	0.19836	0.204934	0.201483	0.201319	0.123906	0.001296
2211	0.201976	0.20099	0.201647	0.199182	0.125714	0.008035
2212	0.200004	0.19836	0.196717	0.201154	0.117168	0.010336
2213	0.200825	0.19836	0.201154	0.200661	0.054219	0.015595
2214	0.199346	0.203126	0.197045	0.201647	0.015266	-0.000347
2215	0.19836	0.201812	0.198031	0.199511	0.006556	0.00031
2216	0.199346	0.201319	0.198031	0.202962	0.001954	-1.9e-05
2217	0.198689	0.199018	0.200332	0.201647	0.003433	0.000803
2218	0.199346	0.202962	0.200497	0.200661	-0.001005	0.000474
2219	0.199511	0.200332	0.203455	0.200661	0.001789	0.000639
2220	0.202469	0.204441	0.200661	0.202962	0.002611	0.000803
2221	0.193922	0.202798	0.204441	0.198524	0.000146	-0.000183
2222	0.202962	0.20477	0.199839	0.201483	0.003104	0.000146
2223	0.197703	0.202798	0.200825	0.200004	0.00146	-1.9e-05
2224	0.199018	0.202305	0.201976	0.200004	0.001954	-1.9e-05
2225	0.197867	0.201647	0.199346	0.199182	0.000474	0.000639
2226	0.197538	0.200825	0.200332	0.197867	0.001625	0.00031
2227	0.200825	0.204277	0.199346	0.20099	-0.00232	0.000146
2228	0.201976	0.202305	0.20099	0.203291	-0.000183	0.001132
2229	0.199511	0.201812	0.199018	0.200004	-0.001827	-0.001005
2230	0.201319	0.199839	0.199839	0.197538	0.000639	0.00146
2231	0.201154	0.203291	0.200168	0.20362	0.000803	-1.9e-05
2232	0.19836	0.199839	0.201154	0.19836	0.001132	0.001132
2233	0.198524	0.200332	0.200497	0.200661	-0.000183	-0.000183
2234	0.199182	0.200497	0.20099	0.199839	0.000639	0.007213
2235	0.196881	0.201812	0.199182	0.200661	0.000967	0.010336
2236	0.200825	0.200004	0.200661	0.200004	0.000474	0.006884
2237	0.200497	0.201319	0.199839	0.198689	-0.001334	0.00146
2238	0.19721	0.201483	0.197867	0.20099	0.000803	0.00146
2239	0.204277	0.201812	0.198689	0.201812	0.001132	0.009514
2240	0.197538	0.200825	0.199346	0.201319	-0.001005	0.000639
2241	0.199182	0.201976	0.20099	0.199346	0.00146	0.001954
2242	0.200004	0.204113	0.20099	0.206414	0.000146	0.003104
2243	0.200825	0.201647	0.201812	0.197374	0.001132	0.010171
2244	0.201154	0.200661	0.19836	0.200497	-0.000183	0.018061
2245	0.202305	0.200497	0.198524	0.199675	0.000803	0.021348
2246	0.199182	0.202633	0.200332	0.195895	0.000639	0.030552
2247	0.19721	0.204113	0.198689	0.200004	0.000146	0.038441
2248	0.199018	0.204606	0.195895	0.201319	-0.000676	0.035975
2249	0.196059	0.197703	0.202798	0.198689	0.000146	0.046166
2250	0.198031	0.201976	0.198853	0.199675	-0.001334	0.045015
2251	0.194087	0.198689	0.197703	0.199182	-0.000676	0.013623
2252	0.197867	0.203455	0.204277	0.20214	-0.000183	0.023649
2253	0.199675	0.200332	0.198031	0.202633	-0.000512	0.0271
2254	0.201976	0.198524	0.200497	0.198196	0.000967	0.035154
2255	0.200825	0.20362	0.203126	0.198853	0.000146	0.043043
2256	0.200825	0.200332	0.205756	0.201812	0.000967	0.049781
2257	0.196223	0.202798	0.200825	0.200332	0.000639	0.055041
2258	0.199675	0.19836	0.202798	0.199839	0.000146	0.062273
2259	0.199675	0.202633	0.200825	0.201483	-0.000347	0.066053
2260	0.199182	0.202633	0.200825	0.20099	0.000146	0.071477
2261	0.201154	0.202633	0.195073	0.201319	-0.000512	0.079366
2262	0.200497	0.200661	0.196388	0.200825	0.000474	0.07838
2263	0.202633	0.199511	0.198524	0.202305	-0.000347	0.087912
2264	0.200497	0.198689	0.199018	0.200661	0.00031	0.089556
2265	0.20214	0.199346	0.197703	0.20214	0.000639	0.095473
2266	0.199839	0.196223	0.198031	0.201647	0.000474	0.094158
2267	0.201483	0.200661	0.199675	0.201976	0.000474	0.098595
2268	0.200004	0.200661	0.199675	0.202469	0.000474	0.100239
2269	0.199511	0.197703	0.200497	0.199839	-0.000347	0.107635
2270	0.194909	0.19573	0.199675	0.201154	-0.000347	0.105334
2271	0.201154	0.200168	0.200497	0.201976	-0.000183	0.110922
2272	0.195566	0.199675	0.200825	0.201319	-0.000512	0.113388
2273	0.200825	0.200497	0.200825	0.202305	-0.000183	0.121112
2274	0.199839	0.200825	0.201976	0.204934	-1.9e-05	0.12555
2275	0.198196	0.203126	0.203948	0.200004	0.00031	0.125714
2276	0.200332	0.201976	0.199675	0.200497	0.00031	0.129166
2277	0.201483	0.202962	0.202469	0.200497	0.000474	0.004419
2278	0.200661	0.203291	0.202305	0.203455	0.000146	-0.000347
2279	0.199182	0.203126	0.201154	0.201483	0.000474	-0.000347
2280	0.200825	0.203455	0.201319	0.200661	-0.000183	-0.000512
2281	0.200004	0.201812	0.201319	0.201647	-0.000183	-1.9e-05
2282	0.199511	0.200168	0.198853	0.201812	-0.000183	0.000146
2283	0.198196	0.201483	0.199839	0.201812	-0.000512	0.000146
2284	0.199675	0.203948	0.200004	0.201319	-1.9e-05	0.000474
2285	0.200168	0.199839	0.200825	0.201812	-1.9e-05	0.000474
2286	0.202469	0.203291	0.201976	0.199182	-1.9e-05	0.002611
2287	0.200004	0.200497	0.19836	0.200332	0.000146	0.010664
2288	0.200661	0.200825	0.203948	0.199018	0.00031	0.021348
2289	0.198689	0.20099	0.196881	0.201647	0.000146	0.026443
2290	0.197703	0.201319	0.199675	0.199839	0.000474	0.032688
2291	0.20099	0.202469	0.199511	0.202305	-0.000183	0.041235
2292	0.198853	0.201976	0.202962	0.199839	-0.000512	0.04748
2293	0.19836	0.20362	0.200168	0.202469	-0.000347	0.050768
2294	0.200168	0.202962	0.202962	0.199839	-1.9e-05	0.056027
2295	0.197538	0.204113	0.201154	0.198524	-1.9e-05	0.057342
2296	0.200332	0.201319	0.203126	0.201483	0.000474	0.058164
2297	0.198689	0.205756	0.20099	0.201483	0.00031	0.067368
2298	0.199511	0.20477	0.200497	0.20099	0.00031	0.068847
2299	0.201647	0.203948	0.201319	0.198853	0.000146	0.076243
2300	0.19836	0.202469	0.200497	0.200168	0.000146	0.077722
2301	0.204934	0.202962	0.199182	0.200661	0.00031	0.080681
2302	0.199018	0.201319	0.19836	0.201976	0.000146	0.08594
2303	0.200004	0.205427	0.202305	0.199018	0.00031	0.083968
2304	0.201483	0.200825	0.20099	0.203948	-0.000512	0.084461
2305	0.198853	0.198031	0.200004	0.201812	-0.000512	0.085776
2306	0.199839	0.203126	0.200825	0.202962	-0.000841	0.086762
2307	0.200168	0.199182	0.202633	0.199018	0.000146	0.002282
2308	0.199346	0.202962	0.20099	0.202962	0.000146	0.003597
2309	0.199346	0.201319	0.197867	0.200004	0.00031	0.00294
2310	0.200661	0.203291	0.200168	0.201319	0.00031	0.013459
2311	0.204606	0.201976	0.202305	0.202633	0.000146	0.00146
2312	0.200497	0.202633	0.202798	0.197538	0.000146	0.000474
2313	0.198031	0.201154	0.201483	0.20099	0.000803	0.005734
2314	0.200497	0.198853	0.199346	0.199839	-0.000183	0.002611
2315	0.199346	0.200497	0.199018	0.203126	-0.000347	0.005734
2316	0.201647	0.19836	0.202633	0.201483	0.000146	0.004748
2317	0.200497	0.203291	0.200004	0.202305	-0.000183	0.005898
2318	0.201483	0.200497	0.200004	0.202633	0.000146	0.012472
2319	0.202469	0.201647	0.199346	0.204934	-1.9e-05	0.019211
2320	0.20477	0.203784	0.200497	0.199182	0.00031	0.017896
2321	0.202962	0.204277	0.19836	0.203455	0.000146	0.022169
2322	0.203784	0.203948	0.200661	0.199511	0.000474	0.020526
2323	0.203455	0.200661	0.199182	0.200004	0.000146	0.019704
2324	0.199346	0.201154	0.201319	0.198853	0.000146	0.013952
2325	0.200661	0.20362	0.199675	0.200661	-0.000676	-0.000512
2326	0.200168	0.200661	0.200168	0.199018	-0.000347	0.002118
2327	0.199511	0.20214	0.199018	0.200661	-0.000183	0.001954
2328	0.197538	0.202469	0.203784	0.199675	-0.001334	0.00146
2329	0.202305	0.202962	0.201154	0.200332	-1.9e-05	0.002775
2330	0.198689	0.201812	0.202469	0.205592	0.000474	0.002775
2331	0.199182	0.204113	0.202305	0.201812	0.000639	0.005241
2332	0.198853	0.202798	0.198853	0.200661	0.000639	0.000639
2333	0.201319	0.204441	0.199182	0.199839	0.000803	0.003926
2334	0.196717	0.206249	0.197045	0.200825	0.000474	0.007049
2335	0.201319	0.201976	0.197867	0.199346	0.000146	0.014445
2336	0.20214	0.200497	0.193429	0.200661	-0.000512	0.015595
2337	0.198689	0.20099	0.20099	0.20099	-1.9e-05	0.018061
2338	0.200661	0.201647	0.199018	0.202305	-0.000676	0.025621
2339	0.199346	0.199346	0.203784	0.200661	-0.001662	0.03236
2340	0.200332	0.203126	0.197867	0.202469	-0.000512	0.033674
2341	0.200004	0.199675	0.200004	0.201647	0.000146	0.015102
2342	0.200497	0.199346	0.202798	0.198031	0.000146	0.004912
2343	0.199839	0.200661	0.199511	0.199346	0.00031	-0.001334
2344	0.201319	0.201483	0.200661	0.197703	0.000639	0.000639
2345	0.195237	0.200825	0.197538	0.199346	0.001296	0.00294
2346	0.199182	0.201976	0.198196	0.202633	-0.000183	0.008857
2347	0.196223	0.200168	0.199182	0.20099	0.00031	0.004419
2348	0.195566	0.201154	0.200825	0.197538	-0.000183	0.006884
2349	0.198689	0.202798	0.195566	0.20099	-0.000512	0.011651
2350	0.198853	0.203455	0.19836	0.200497	-0.001827	0.015924
2351	0.204606	0.203126	0.196223	0.199182	0.00031	0.00031
2352	0.205427	0.201319	0.19836	0.199346	0.000146	0.003268
2353	0.201976	0.203784	0.19721	0.195237	0.000474	0.008035
2354	0.203126	0.201976	0.197867	0.200004	0.000146	0.014773
2355	0.203948	0.202962	0.196881	0.199018	0.00031	0.021183
2356	0.199839	0.201154	0.195073	0.19836	0.00031	0.026278
2357	0.199511	0.201483	0.194744	0.201483	-0.000183	0.02973
2358	0.200497	0.197045	0.195237	0.201647	-0.000183	0.028251
2359	0.200497	0.204606	0.196059	0.19836	-0.000512	0.031373
2360	0.199839	0.202962	0.19458	0.201483	-0.000676	0.031702
2361	0.200825	0.200168	0.194251	0.201154	-0.000676	0.003926
2362	0.198524	0.198689	0.196388	0.200004	-1.9e-05	0.010664
2363	0.203126	0.201154	0.193265	0.201154	0.00031	0.016253
2364	0.198524	0.201154	0.192608	0.198524	0.00031	0.008857
2365	0.200661	0.205099	0.19573	0.199839	0.00031	0.005734
2366	0.200825	0.201976	0.19573	0.202305	0.00031	0.014938
2367	0.196388	0.203126	0.195566	0.19836	0.00031	0.000967
2368	0.205263	0.20362	0.195237	0.203291	-1.9e-05	0.002611
2369	0.206742	0.202962	0.194416	0.197867	-0.000183	0.015924
2370	0.198031	0.205427	0.194251	0.200825	-0.000347	0.017074
2371	0.200332	0.202469	0.19458	0.203126	-0.000347	0.00146
2372	0.201483	0.20362	0.192115	0.204113	-0.000676	0.002611
2373	0.196881	0.201319	0.195566	0.201483	-1.9e-05	0.000474
2374	0.20214	0.201647	0.193101	0.199346	0.000146	0.008692
2375	0.200004	0.201976	0.192608	0.200168	0.000146	0.011651
2376	0.201483	0.202305	0.193429	0.199511	0.00031	0.008692
2377	0.198689	0.202305	0.192115	0.20099	0.00031	0.016088
2378	0.201319	0.203291	0.193429	0.199839	0.00031	0.012637
2379	0.19836	0.20214	0.193101	0.20099	-1.9e-05	0.000803
2380	0.199511	0.201976	0.193101	0.19836	-0.000347	-0.000676
2381	0.198853	0.202633	0.192936	0.202962	-0.000347	0.00031
2382	0.198524	0.201812	0.193265	0.199182	-0.000512	0.001789
2383	0.200004	0.203126	0.192608	0.202469	-0.000841	0.000474
2384	0.20099	0.202469	0.196552	0.199839	0.000146	0.000474
2385	0.200825	0.203784	0.191786	0.200825	0.000146	0.00031
2386	0.199346	0.200168	0.195073	0.196388	0.00031	-1.9e-05
2387	0.20362	0.202633	0.192115	0.199182	0.000474	-0.000347
2388	0.200497	0.201154	0.19458	0.201319	0.000639	-0.000347
2389	0.20099	0.204277	0.193429	0.200332	0.000639	-0.000512
2390	0.200004	0.201976	0.192936	0.201319	-0.000183	-0.000347
2391	0.201976	0.204934	0.193922	0.201319	-0.000347	-1.9e-05
2392	0.199839	0.201976	0.189485	0.203126	-0.000512	0.000146
2393	0.199182	0.203455	0.19195	0.200825	-0.000676	0.00031
2394	0.199839	0.201812	0.190964	0.200661	-0.000676	0.000146
2395	0.201154	0.199182	0.194744	0.203455	-0.000183	0.000146
2396	0.19721	0.202962	0.193265	0.205921	0.000146	0.000639
2397	0.200825	0.200168	0.190142	0.200004	0.00031	-1.9e-05
2398	0.197867	0.199346	0.016581	0.201319	0.00031	-0.000347
2399	0.197374	0.199182	0.000803	0.197374	0.000474	-0.000512
2400	0.198031	0.202633	0.000803	0.199182	0.000474	-0.000347
2401	0.195566	0.199346	0.006884	0.199675	-1.9e-05	-0.000676
2402	0.196552	0.203126	0.007377	0.197045	-0.000512	-1.9e-05
2403	0.200332	0.20099	0.000146	0.200497	-0.000347	0.00031
2404	0.19836	0.202962	0.00031	0.203784	-0.000347	0.00031
2405	0.199675	0.201319	-0.001498	0.202469	-0.000183	0.000474
2406	0.205427	0.200497	0.012144	0.199839	-0.000183	0.001132
2407	0.19836	0.201976	0.019704	0.205756	0.000146	-1.9e-05
2408	0.203455	0.201976	0.026114	0.199346	-1.9e-05	0.00409
2409	0.200825	0.200825	0.034332	0.20362	0.00031	0.001296
2410	0.203455	0.200825	0.040249	0.199018	0.000474	0.011815
2411	0.199182	0.200825	0.007542	0.202798	0.00031	0.007213
2412	0.199018	0.201154	0.006062	0.201154	-1.9e-05	-0.002484
2413	0.199675	0.201647	0.006391	0.198853	-0.000183	-0.000347
2414	0.199675	0.199675	0.012472	0.202305	-0.000512	0.00146
2415	0.19836	0.205263	0.015924	0.201647	-0.000512	0.003268
2416	0.199346	0.197374	0.030223	0.197703	0.000146	0.0105
2417	0.199839	0.202962	0.034332	0.080023	0.000146	0.002447
2418	0.197374	0.199675	0.041892	0.005734	0.000146	0.00031
2419	0.196388	0.201483	0.04748	0.001625	0.00031	0.000146
2420	0.198031	0.201483	0.05652	-0.000347	0.00031	-0.000183
2421	0.200661	0.202633	0.060958	0.002118	0.00031	-0.000183
2422	0.198689	0.198031	0.063916	0.000639	0.00031	-0.000347
2423	0.203948	0.202305	0.070655	0.001625	0.000146	-0.000676
2424	0.198689	0.201812	0.076079	0.001625	-0.000347	-0.000183
2425	0.201154	0.199182	0.079366	0.007706	-0.000347	-1.9e-05
2426	0.201154	0.200004	0.068682	0.00031	-0.000512	0.00031
2427	0.199511	0.203126	0.068025	-0.000347	-0.000347	0.00031
2428	0.200332	0.199182	0.071805	-0.000183	-1.9e-05	0.00031
2429	0.199346	0.198031	0.079366	-0.000183	0.000146	0.000474
2430	0.198853	0.203455	0.080187	-1.9e-05	-0.000512	-1.9e-05
2431	0.199839	0.201647	0.08594	0.000146	0.000803	-0.000347
2432	0.199511	0.202305	0.088405	0.00031	0.000146	-0.000347
2433	0.196552	0.20214	0.096623	0.000474	0.000146	-0.000512
2434	0.198853	0.200168	0.098595	0.000474	-1.9e-05	-0.000512
2435	0.200004	0.203126	0.102704	0.000474	-1.9e-05	-1.9e-05
2436	0.201319	0.201154	0.003433	0.000146	-0.000183	0.00031
2437	0.19836	0.201647	0.012965	-0.000183	-0.000347	0.00031
2438	0.199839	0.204113	0.02069	-0.000347	-0.001662	0.000146
2439	0.198853	0.200825	0.026936	-0.000512	-1.9e-05	0.000474
2440	0.200825	0.203126	0.022169	-0.000512	0.000146	0.00031
2441	0.201319	0.20362	-0.000183	0.000146	0.000146	-1.9e-05
2442	0.200332	0.20362	0.002447	0.000146	0.00031	-0.000183
2443	0.201319	0.201483	0.004419	0.00031	0.00031	-0.000347
2444	0.200661	0.202305	0.000803	0.00031	0.00031	-0.000676
2445	0.200661	0.200332	0.00672	0.000474	-1.9e-05	-0.000512
2446	0.196552	0.199839	0.016746	0.00031	-0.000347	-0.000183
2447	0.199346	0.202633	0.001625	-1.9e-05	-0.000347	-1.9e-05
2448	0.201319	0.19721	0.001132	-0.000347	-0.000512	0.00031
2449	0.194087	0.198196	0.006227	-0.000183	-0.003142	0.00031
2450	0.19836	0.198853	0.016746	-0.000512	-0.000347	0.000474
2451	0.201483	0.200661	0.023977	-1.9e-05	-0.000183	0.000474
2452	0.194416	0.20099	0.033674	0.000146	0.000474	-1.9e-05
2453	0.197045	0.202962	0.038605	0.000146	0.00031	-0.000183
2454	0.197538	0.201319	0.046001	0.000146	0.000803	-0.000347
2455	0.199018	0.20362	0.037783	0.000146	0.000474	-0.000183
2456	0.198524	0.200497	0.046987	0.00031	-1.9e-05	-0.000512
2457	0.199675	0.202469	0.056356	0.000474	-0.000183	-1.9e-05
2458	0.200661	0.202798	0.061451	-0.000183	-0.000512	-1.9e-05
2459	0.204934	0.200825	0.065231	-0.000183	-0.000347	0.00031
2460	0.197538	0.202305	0.072134	-0.000512	-0.002484	0.00031
2461	0.205263	0.199346	0.074928	-0.000512	-0.000512	0.00031
2462	0.201976	0.201319	0.077558	-1.9e-05	-0.000183	0.00031
2463	0.200825	0.201647	0.088898	-0.000183	0.000639	-1.9e-05
2464	0.199675	0.203455	0.090871	0.000146	-1.9e-05	-0.000183
2465	0.200497	0.20099	0.093007	0.000146	0.000474	-0.000183
2466	0.200661	0.201647	0.097281	0.000474	-0.000183	-0.000183
2467	0.199675	0.199839	0.101061	0.000146	0.00031	-0.000512
2468	0.197538	0.19721	0.107471	0.00031	-0.000183	-0.000183
2469	0.197045	0.20099	0.109607	0.002282	-0.000183	0.000146
2470	0.201154	0.202962	0.109607	-0.000347	-0.000512	0.000146
2471	0.198031	0.201483	0.113881	-0.000347	-0.001498	0.00031
2472	0.200168	0.204934	0.11914	0.002118	-0.000183	0.00031
2473	0.201154	0.206578	0.118976	0.00409	0.000146	0.000474
2474	0.199675	0.204606	0.123906	0.012965	0.000639	-0.000183
2475	0.196059	0.204113	0.124564	0.025785	0.000146	-0.000347
2476	0.201976	0.202469	0.130316	0.031373	0.000967	-0.000347
2477	0.198196	0.20477	0.128508	0.041892	0.000146	-0.000347
2478	0.202305	0.202469	0.133439	0.046987	0.000146	-0.000347
2479	0.201976	0.202633	0.134425	0.051261	-0.000183	-0.000347
2480	0.196059	0.201319	0.138863	0.058985	-0.000841	0.000146
2481	0.200004	0.202305	0.135247	0.065888	-0.000676	0.00031
2482	0.198853	0.198853	0.141493	0.071641	-0.001005	0.00031
2483	0.201154	0.201647	0.144287	0.072956	-0.000183	0.000474
2484	0.200497	0.201812	0.145437	0.068189	0.000146	0.00031
2485	0.198689	0.200168	0.149546	0.083639	0.000146	0.000146
2486	0.199839	0.197867	0.152176	0.087584	-0.000512	-0.000183
2487	0.199675	0.199018	0.154641	0.092021	0.001132	-0.000347
2488	0.19836	0.206907	0.152669	0.097774	0.000639	-0.000512
2489	0.199839	0.202633	0.156778	0.09991	0.00031	-0.000347
2490	0.199182	0.201319	0.156778	0.106156	-0.000183	-0.000183
2491	0.200332	0.202962	0.161544	0.109607	-0.000183	0.00031
2492	0.201319	0.199839	0.160229	0.113059	-0.000512	0.000474
2493	0.200004	0.201647	0.164174	0.11651	-0.000347	-1.9e-05
2494	0.199182	0.201319	0.16253	0.123413	-1.9e-05	0.00031
2495	0.200004	0.202633	0.163845	0.118154	0.00031	0.00031
2496	0.202305	0.201812	0.166146	0.12818	0.00031	-1.9e-05
2497	0.193922	0.201647	0.165324	0.125221	0.00031	-0.000183
2498	0.199182	0.202962	0.169433	0.131467	-1.9e-05	-0.000512
2499	0.197538	0.19836	0.166968	0.135247	0.00031	-0.000512
