Ladekurvenmessung

Zeit: 2018_05_04 08.54.56

Info: FVA3, v = 0.1, T = 23, F = 20, h = 17.3

Ladewiderstand[Ohm]: 1012700

Störkapazität[pF]: 0.000000

Entladezeit[ms]: 200

Abtastrate[Hz]: 250000

Anzahl der Messwerte: 2500.000000

Verzögerung[ms]: 3

Ladespannung[V]: 0.200000


	Kurve_1	Kurve_2	Kurve_3	Kurve_4
0	-0.002155	0.00031	0.195073	0.000146
1	0.000474	0.000146	0.199182	0.001789
2	0.002118	0.000474	0.199346	0.000146
3	0.002447	-0.001005	0.198031	0.000639
4	-1.9e-05	-0.000347	0.200004	0.000803
5	0.001296	0.000146	0.197374	0.003597
6	-0.000183	-0.000183	0.201647	0.000639
7	-0.002813	0.000474	0.199018	0.00031
8	0.002118	-0.000183	0.199511	-0.001498
9	0.000639	0.00031	0.19836	0.004912
10	0.00146	0.00031	0.199182	0.00031
11	0.003433	0.000639	0.197538	-0.001498
12	-0.000183	-1.9e-05	0.199839	-0.001991
13	0.000474	-1.9e-05	0.196717	-0.001498
14	0.002118	-0.000676	0.193429	0.00146
15	-0.000183	-0.000676	0.19458	-0.001662
16	0.001132	-0.000512	0.197703	0.000803
17	-0.000183	-0.001169	0.201319	-0.000183
18	-0.001498	0.00031	0.198031	0.000967
19	-0.00232	-1.9e-05	0.199346	-0.000512
20	-1.9e-05	-0.000183	0.198689	0.000146
21	-0.001334	0.000474	0.200332	-0.000512
22	0.00031	0.000967	0.197374	0.00031
23	-0.001827	-0.000512	0.198853	0.002118
24	0.000803	0.000146	0.199182	-0.000183
25	-1.9e-05	-0.000512	0.198196	-0.001827
26	-0.000183	0.000639	0.199675	-0.000512
27	0.001625	-0.001005	0.198524	-0.003306
28	0.001132	-0.000347	0.198689	-0.002484
29	0.000474	-1.9e-05	0.19721	-0.005443
30	0.000967	-0.000676	0.200004	-0.007908
31	0.000803	0.00031	0.198524	-0.00347
32	0.001625	-1.9e-05	0.19836	0.001132
33	0.001296	0.00031	0.196059	-0.001662
34	-0.000841	0.00031	0.201154	-0.000512
35	0.000803	0.00031	0.204441	0.003268
36	0.002118	-0.000512	0.202305	0.000474
37	0.003761	-1.9e-05	0.203784	0.002118
38	-0.001827	-0.001005	0.201154	0.000803
39	-0.000512	0.000967	0.201976	-0.002155
40	0.000639	-1.9e-05	0.201154	-1.9e-05
41	-0.001991	0.000474	0.202633	-0.000512
42	-0.000183	-1.9e-05	0.20099	-0.002648
43	0.000146	0.000474	0.20099	0.001789
44	0.000803	0.000146	0.196388	-0.001169
45	-0.001662	0.000639	0.199511	-0.001169
46	0.000967	-0.000183	0.200825	0.00031
47	0.00146	-0.000347	0.19836	0.000967
48	0.001625	-0.000512	0.197374	0.00031
49	0.001132	-0.000183	0.201319	-0.000347
50	0.000146	-0.000512	0.197045	0.000639
51	-0.003142	-0.000347	0.200332	0.000146
52	0.000803	-1.9e-05	0.199182	0.001625
53	-0.001169	-1.9e-05	0.200332	-0.001334
54	-0.001827	-0.000183	0.199182	0.00672
55	-0.001169	-1.9e-05	0.200004	0.001789
56	-0.002813	0.000474	0.200332	0.00146
57	-0.002977	-1.9e-05	0.200825	0.000474
58	0.001296	-0.000347	0.199839	0.00294
59	-0.000841	-0.000183	0.199182	0.001789
60	-0.00232	0.00031	0.200661	-0.000841
61	0.00146	-0.000183	0.199018	-0.002648
62	-0.00232	0.00031	0.199839	-0.001005
63	-0.001662	0.000639	0.198689	0.003761
64	-0.000841	-0.000512	0.198524	-0.003142
65	-0.001498	0.000639	0.200004	0.001625
66	-0.002648	0.000146	0.198524	0.002118
67	-0.003963	-1.9e-05	0.201319	-0.000183
68	-0.001005	-1.9e-05	0.199511	-0.000183
69	-0.002813	0.00031	0.19836	0.001789
70	-0.000841	-0.000183	0.200332	0.000146
71	-0.005114	-0.000347	0.199018	0.003104
72	-0.003799	-0.000512	0.200004	0.00146
73	-0.000841	-0.000183	0.20099	0.001789
74	-0.001991	-1.9e-05	0.200004	0.00146
75	-0.001169	0.000474	0.200332	-1.9e-05
76	-0.002977	0.000474	0.19836	0.000639
77	-0.003306	0.000967	0.199182	-0.001827
78	-0.001827	-1.9e-05	0.197867	0.000639
79	-0.00232	0.00031	0.197374	-0.001005
80	-0.001169	-0.000183	0.19573	-0.001005
81	-0.001991	-0.000512	0.198524	-0.004456
82	-0.001827	-0.000512	0.197538	0.00146
83	-0.001498	-0.000183	0.197374	-0.000841
84	-0.001498	0.000474	0.196223	0.000967
85	0.000474	-1.9e-05	0.197867	0.001132
86	-1.9e-05	0.00031	0.201647	0.000803
87	0.000474	-0.000183	0.193922	0.002447
88	0.003104	0.00031	0.198196	0.000967
89	-0.000347	-0.000347	0.199675	-0.004621
90	-0.001334	0.000146	0.199182	0.004419
91	-0.000347	-0.000841	0.200497	-0.001991
92	-0.003142	-0.000183	0.200825	-0.002813
93	0.000967	-0.000183	0.199018	0.002775
94	-0.003306	-0.000183	0.200004	-0.00232
95	-0.001498	0.000146	0.198689	-1.9e-05
96	-0.002484	0.00031	0.200825	-0.000676
97	-0.000841	0.000474	0.199839	-0.000676
98	-0.002648	-1.9e-05	0.200497	-1.9e-05
99	-0.000512	0.000474	0.198031	0.000146
100	-0.002813	-0.000347	0.200332	-0.000183
101	-0.001005	-1.9e-05	0.200825	-0.000676
102	-0.00232	-0.000512	0.198196	0.000639
103	-0.001169	-0.000512	0.198853	-1.9e-05
104	-0.000512	-0.000676	0.200661	0.000146
105	-0.000676	-0.000676	0.199511	0.001789
106	-0.001991	-0.000183	0.197703	0.000146
107	-0.002813	-0.000183	0.204441	-0.000183
108	-0.001005	0.000146	0.199346	0.001132
109	-0.002484	0.00031	0.201647	-0.000183
110	-0.001827	-1.9e-05	0.199675	-1.9e-05
111	-0.003142	0.000803	0.199839	-0.001498
112	0.001296	0.000146	0.199346	-0.001334
113	-0.001334	0.000146	0.199675	0.000639
114	-0.002155	-0.000347	0.199675	-0.001827
115	0.000803	-0.000183	0.197374	-0.001991
116	-0.000183	-1.9e-05	0.201483	-0.001498
117	0.000967	-0.000347	0.202305	-0.003142
118	-0.000841	0.00031	0.199675	-0.001005
119	-0.002648	-0.000183	0.201154	-0.00347
120	-0.002648	0.000146	0.200497	0.002447
121	-0.001005	0.000146	0.198524	0.001296
122	-0.002155	0.000639	0.199511	0.000474
123	-1.9e-05	-0.000183	0.198524	0.000146
124	-0.002813	-0.000676	0.201154	0.000803
125	0.003597	-0.000512	0.197045	-0.000841
126	-0.001662	-0.000347	0.201483	-0.000183
127	-0.001169	0.000146	0.198853	-0.002484
128	-0.001005	-1.9e-05	0.196881	-0.000676
129	-0.001498	0.000146	0.19721	-0.000183
130	-0.000676	0.000146	0.199182	-0.001005
131	0.000146	0.000639	0.200332	-0.001991
132	-0.001498	-0.000512	0.197374	-0.001662
133	-0.001169	0.000474	0.198031	0.001625
134	0.001296	-0.000512	0.200497	-0.00232
135	-0.000512	-1.9e-05	0.200497	0.002282
136	-0.001169	-0.000512	0.201483	-0.000183
137	-0.000347	-0.000347	0.201976	-0.000347
138	-0.001662	-0.000676	0.199182	-0.000512
139	-0.001662	-0.000183	0.200004	-0.001169
140	0.000803	-0.000347	0.198031	0.000803
141	-0.001827	-0.000183	0.199182	0.001132
142	-0.000512	0.000146	0.202469	0.000803
143	-0.000512	0.00031	0.199675	0.000146
144	-0.001334	-1.9e-05	0.19721	0.003926
145	-0.000841	-1.9e-05	0.200661	-0.001662
146	-0.001005	-0.000183	0.198853	0.000474
147	-0.001991	-0.000347	0.200661	0.000146
148	-0.000841	-0.000183	0.200497	-0.002484
149	0.000967	-0.000512	0.199839	-0.001334
150	-0.003142	0.000146	0.200332	0.000639
151	0.003104	0.000146	0.196881	-0.000347
152	-0.00347	0.000146	0.199675	-1.9e-05
153	-0.000347	0.000474	0.200168	0.000639
154	0.001789	0.000803	0.199675	-0.003799
155	0.001954	-0.000512	0.197045	0.001132
156	-0.000676	-1.9e-05	0.199675	-0.001005
157	-0.000676	-0.000512	0.198524	0.00031
158	-0.001005	-0.000676	0.197374	-0.000347
159	-0.00232	-0.000512	0.202469	0.000639
160	-0.000347	-0.000512	0.200168	-0.001498
161	-0.00232	0.00031	0.200004	-0.001005
162	-0.001662	-1.9e-05	0.199839	-0.001169
163	-0.001005	0.00031	0.199675	-0.000676
164	-0.002648	-1.9e-05	0.202962	-0.003142
165	-0.000183	0.000146	0.201319	-0.004128
166	-0.001334	-1.9e-05	0.19836	-0.001169
167	-0.000841	-0.000183	0.204441	-0.001827
168	0.000474	-1.9e-05	0.20099	-0.000183
169	0.000803	-0.000347	0.201647	-0.001498
170	0.000967	-0.000183	0.202469	-1.9e-05
171	-0.000676	-0.000183	0.200004	-0.00232
172	-0.00232	-1.9e-05	0.199346	-0.00347
173	-0.000676	0.000639	0.200168	-0.000183
174	-0.001498	0.000639	0.199182	-0.001334
175	-0.004785	-0.000183	0.198689	-0.000347
176	-0.001005	0.000146	0.199018	0.000803
177	0.001132	-0.000512	0.199182	-0.001991
178	-1.9e-05	-0.000347	0.199182	-0.000347
179	-0.000347	0.000146	0.201154	0.001954
180	0.000639	-0.000676	0.198031	0.000967
181	-0.000347	-1.9e-05	0.200168	-0.000841
182	0.002447	-0.000841	0.196881	-0.002155
183	0.001954	-0.000183	0.197867	-0.002648
184	-0.003142	0.000474	0.199018	0.000639
185	0.001789	0.000146	0.195895	0.000639
186	-0.001169	0.000146	0.199346	-1.9e-05
187	0.001296	0.000639	0.196059	-0.001169
188	0.000803	-0.000676	0.195895	-0.000676
189	-0.001991	0.000146	0.19721	0.002118
190	-0.002484	-0.000183	0.199839	0.002118
191	-0.001334	-0.000347	0.198031	-0.002813
192	-1.9e-05	-0.000183	0.200004	-1.9e-05
193	0.001132	-0.000512	0.199839	0.000474
194	-1.9e-05	-1.9e-05	0.200004	-0.001498
195	-0.001005	0.000146	0.198689	0.003926
196	-0.000183	-1.9e-05	0.199346	0.001132
197	-0.002813	0.00031	0.20099	0.000967
198	0.00146	0.000146	0.199839	0.000803
199	0.000967	0.000146	0.201812	0.000803
200	-1.9e-05	-0.000183	0.197374	-0.000347
201	-0.001662	-0.000183	0.201647	-0.003635
202	0.001625	-1.9e-05	0.199018	0.002611
203	0.001296	-0.000347	0.20099	-0.004128
204	0.00146	-0.000183	0.199346	-0.002484
205	0.000146	0.000146	0.199346	0.000803
206	-0.003963	0.000146	0.197703	0.000639
207	-1.9e-05	-1.9e-05	0.198196	-0.001662
208	-0.000676	0.000146	0.192936	0.000146
209	0.000639	-0.000183	0.19836	0.000639
210	0.000967	-1.9e-05	0.196717	0.000967
211	0.000474	-0.000512	0.19573	-0.000512
212	-0.000676	-0.000347	0.197045	0.002447
213	0.000639	-0.000512	0.194909	0.000146
214	-0.002648	-0.000512	0.197045	-0.000841
215	0.002282	-0.000512	0.194416	-0.001827
216	-0.002648	0.000146	0.196388	0.000803
217	-0.00232	0.000146	0.197374	0.00146
218	-0.003963	0.00031	0.196552	0.000803
219	-0.001334	-0.000183	0.199346	-1.9e-05
220	-0.004621	0.000146	0.196059	-0.001991
221	-0.003142	0.00031	0.196552	-0.000183
222	-0.001991	-0.000676	0.198196	-0.004621
223	-0.001827	-0.000676	0.19573	0.000803
224	-1.9e-05	-0.000512	0.197374	-0.00347
225	-0.001827	-0.000183	0.19721	-0.001991
226	0.000639	-0.000676	0.196881	-0.000841
227	-0.000676	0.000474	0.197703	-0.004292
228	0.000639	-0.000347	0.194909	-0.001005
229	-0.000676	0.00031	0.196388	-0.001169
230	0.000146	-0.000183	0.19573	-0.000347
231	0.002447	-0.000512	0.19836	0.002118
232	0.000967	-0.000183	0.195073	-0.000183
233	0.000474	0.000146	0.197045	-0.001169
234	0.000146	-1.9e-05	0.195566	0.000803
235	-0.000676	-0.000841	0.200661	-0.001334
236	-0.000183	-0.00232	0.200332	-0.003635
237	-0.000347	-0.000512	0.198524	-0.004292
238	-0.001662	0.000146	0.199839	0.001296
239	-0.000841	-0.000347	0.204113	-0.001662
240	-0.001827	0.000474	0.196552	-0.001662
241	-0.001662	0.00031	0.197867	-0.003635
242	-0.000183	0.000474	0.197374	-0.001662
243	0.004912	-0.000347	0.197538	-0.000841
244	0.00031	-0.000512	0.198689	-0.001169
245	0.002775	-0.000183	0.19721	-0.000183
246	-0.000183	-0.000183	0.200004	-0.000676
247	0.002282	-0.002484	0.198853	-0.000841
248	0.000146	-0.000347	0.199018	-0.001827
249	0.000803	-0.000183	0.198853	0.001296
250	-1.9e-05	0.00031	0.199018	0.00031
251	-0.001005	0.00031	0.192772	0.000967
252	-0.002813	0.000146	0.199839	-0.001005
253	-0.000183	-0.000183	0.197867	-0.000183
254	-0.001334	-1.9e-05	0.201483	-0.002155
255	-0.001334	-1.9e-05	0.199182	-0.004128
256	-0.00232	-0.000183	0.197538	-0.003635
257	-0.001498	-0.000183	0.197867	-0.001005
258	0.000639	0.003104	0.198524	-0.002648
259	-0.000347	-0.000183	0.200168	-0.001169
260	-1.9e-05	-1.9e-05	0.197538	-0.000183
261	0.001625	0.000146	0.199018	-0.000512
262	0.000474	-0.000347	0.190635	0.000967
263	-1.9e-05	0.000474	0.198524	0.001625
264	0.001625	-0.000347	0.19721	-1.9e-05
265	0.000803	0.00031	0.196388	-0.002155
266	-0.000347	-1.9e-05	0.199182	0.004912
267	-0.001498	-0.000512	0.195895	-0.000347
268	-0.003306	-1.9e-05	0.193429	0.001132
269	-0.00232	0.002447	0.202798	-0.001169
270	-0.004785	-1.9e-05	0.197867	0.000803
271	-0.004621	-0.000183	0.196717	-0.001827
272	-0.001991	0.000146	0.202305	-0.001662
273	-0.000676	0.000146	0.197374	-0.001827
274	-0.002977	0.000474	0.197374	-0.001005
275	0.000803	0.00031	0.19721	0.001132
276	-0.001662	0.000146	0.199839	0.00031
277	-1.9e-05	-0.000183	0.197374	-0.001991
278	-0.000183	-0.000183	0.199018	-0.001498
279	-0.000183	-0.000512	0.195566	0.000803
280	0.001954	-0.000841	0.197867	-0.000841
281	0.000639	-0.000347	0.197703	0.000803
282	-0.002648	-0.000183	0.196717	-0.000512
283	-0.000841	-0.000512	0.188663	0.003104
284	-0.001827	0.000474	0.058492	-0.005278
285	-0.001662	0.00031	0.006391	0.002118
286	0.001625	0.000474	0.013623	-0.002484
287	-0.001662	-0.000347	0.022334	-0.000347
288	-0.001498	0.000146	0.028579	-0.004128
289	-0.001991	-0.000512	0.03614	-0.004785
290	-0.000676	-0.000676	0.037783	-0.000183
291	-0.002648	-0.000676	0.048467	-0.000183
292	-0.001169	0.000146	0.054055	-0.001169
293	-0.000512	-1.9e-05	0.058657	-0.000183
294	-0.004621	0.00031	0.066381	-0.000183
295	0.00031	0.000639	0.07197	0.000474
296	0.001625	0.00031	0.073449	0.000803
297	-0.000183	-1.9e-05	0.082488	-1.9e-05
298	0.000639	-1.9e-05	0.08216	0.000967
299	-0.001005	-0.000512	0.089885	-0.008237
300	0.000146	-0.000347	0.093665	-1.9e-05
301	-0.000347	-0.000841	0.096788	-0.000676
302	-0.006757	0.00031	0.101883	0.00146
303	-0.002484	0.00031	0.107799	-0.002648
304	-0.001827	0.000146	0.109443	0.002447
305	-0.000841	-0.000183	0.113059	-0.000183
306	-0.002484	0.00031	0.118976	-0.001334
307	-0.000512	0.000474	0.11799	-0.001334
308	-0.003306	0.000146	0.124235	0.000639
309	0.001625	0.000146	0.126536	-0.000841
310	-0.000676	0.000146	0.131796	-0.003142
311	-0.001005	-0.000183	0.13196	-0.000841
312	-0.001827	-0.000676	0.133603	-0.000841
313	-0.009716	-0.000347	0.137548	0.001789
314	-0.003142	-0.000183	0.14215	-0.000676
315	-0.001334	0.000474	0.13952	-0.000347
316	-0.003635	0.00031	0.145766	0.002775
317	-0.00232	0.00031	0.145273	0.000967
318	-0.002813	-1.9e-05	0.147081	0.000639
319	-0.004949	0.00031	0.14971	-0.002813
320	0.000474	-1.9e-05	0.152505	-1.9e-05
321	-0.003142	0.000474	0.155134	0.007706
322	-0.001334	-0.000347	0.154641	-0.001334
323	-0.001334	-0.000183	0.156778	0.000474
324	-0.001005	-0.000841	0.159408	0.000803
325	-0.004621	0.000146	0.163352	0.002447
326	0.000639	0.00031	0.162366	0.001954
327	-0.001827	0.000146	0.16253	-0.001334
328	-0.000183	0.000474	0.164503	0.002282
329	-0.000676	0.000146	0.166146	-0.001169
330	-0.001005	0.00031	0.163352	0.002282
331	0.00146	-0.000183	0.166804	-1.9e-05
332	0.001132	-0.000347	0.168118	0.002775
333	-1.9e-05	-0.000512	0.171241	-0.001334
334	-0.000512	-0.000183	0.175021	-0.003963
335	0.003926	-0.000841	0.176336	-0.002155
336	-0.002977	0.000146	0.173378	0.00031
337	-1.9e-05	-0.000183	0.175679	-0.002648
338	-0.001827	-0.000183	0.176665	-0.007086
339	0.000639	0.000146	0.175679	0.00031
340	-0.001005	0.000146	0.178144	0.002611
341	-0.000347	0.00031	0.178144	0.000146
342	0.000146	-1.9e-05	0.181431	0.00031
343	-0.00232	-0.000183	0.180281	0.001789
344	-0.000841	-0.000183	0.182417	-0.001827
345	-0.001827	-1.9e-05	0.181924	0.002118
346	0.00409	-0.000183	0.181267	0.000474
347	-0.001662	-0.000183	0.184061	0.00031
348	0.00031	-0.000183	0.182746	-1.9e-05
349	-0.000183	0.000639	0.184061	-0.000183
350	-0.001169	-0.000183	0.183404	0.00031
351	-0.001498	0.00031	0.184883	0.000474
352	-0.001662	-1.9e-05	0.185376	0.000474
353	-0.000841	-0.000347	0.186691	0.000967
354	0.00031	0.000146	0.186526	0.002118
355	0.001296	-0.000512	0.189814	0.004255
356	0.000474	0.000146	0.185705	0.003104
357	-1.9e-05	0.000146	0.189814	-0.000183
358	-0.001662	-1.9e-05	0.189156	0.000967
359	-0.001005	0.000146	0.192279	0.00031
360	0.001296	0.00031	0.189649	0.002118
361	-0.000841	0.000474	0.189814	0.000146
362	-0.00232	0.000146	0.189485	-0.000183
363	0.000967	-0.000183	0.189485	0.000146
364	-0.000183	0.000474	0.190471	0.001296
365	0.004583	-1.9e-05	0.189485	0.000967
366	0.000803	-0.000347	0.192772	0.000474
367	0.001296	-0.000676	0.191786	-0.001334
368	-0.001827	-0.000512	0.194251	-0.003142
369	-0.001827	-0.000347	0.190635	-0.00232
370	0.000474	-1.9e-05	0.193922	-0.000183
371	-0.001169	-1.9e-05	0.194251	-0.001827
372	-0.001662	0.000146	0.194909	-0.000183
373	-0.002155	0.000146	0.193101	0.00146
374	-0.000512	-1.9e-05	0.195895	0.001132
375	0.001789	-0.000183	0.193265	0.003926
376	-1.9e-05	-0.000183	0.194909	0.000146
377	0.000639	-0.000183	0.194251	0.003104
378	-0.000183	-1.9e-05	0.191293	0.003104
379	0.001296	-0.000347	0.194087	-0.001334
380	-0.001169	-1.9e-05	0.197045	-0.000841
381	-0.002813	0.000967	0.193101	-0.000347
382	0.001132	0.00031	0.194909	-0.001498
383	-0.000347	0.00031	0.196717	-0.000676
384	0.000803	0.000474	0.196223	-0.000512
385	-0.000512	-1.9e-05	0.19573	-0.001334
386	0.00146	-0.000347	0.194087	-0.001498
387	-0.000183	-0.000347	0.19721	-0.00232
388	0.002447	-0.000512	0.195566	-0.000183
389	-0.001005	-0.000512	0.198853	-0.001827
390	0.002118	-1.9e-05	0.198853	0.001296
391	0.001625	-0.000183	0.201319	0.000803
392	-0.002155	0.000474	0.199346	0.002611
393	-0.002648	0.000474	0.198689	-0.001169
394	0.000803	-0.000183	0.198853	0.003433
395	-0.001827	-1.9e-05	0.198031	0.000803
396	-0.002484	0.000146	0.199182	0.000474
397	0.000146	-0.000183	0.197867	-0.000841
398	-0.00347	-1.9e-05	0.197374	0.00146
399	0.000474	-0.000676	0.197374	-0.002155
400	-0.000841	-1.9e-05	0.196223	-0.003306
401	-0.001662	-1.9e-05	0.19721	-0.000676
402	-0.001827	-0.000183	0.196059	0.00031
403	0.000639	-1.9e-05	0.19836	0.000803
404	-0.001169	0.000146	0.199511	-0.001662
405	0.000474	0.00031	0.198031	-0.001991
406	0.000803	0.00031	0.198689	0.001296
407	-0.001334	0.00031	0.198524	0.001625
408	0.00146	-1.9e-05	0.198689	0.00031
409	-0.001005	-0.000183	0.198853	0.003761
410	-0.000183	-0.000347	0.201319	0.001954
411	-0.001169	-0.000512	0.19836	0.00031
412	-0.001498	-0.000676	0.18439	0.000474
413	0.001625	0.000639	0.135576	0.00031
414	-0.001662	-0.000183	0.08972	-0.000183
415	-0.002813	0.000639	0.087584	-0.002484
416	-0.001169	0.000639	0.091364	0.002447
417	-0.003799	0.000639	0.095144	-0.003963
418	-0.001991	0.000639	0.10254	-0.001005
419	-0.003799	-1.9e-05	0.106978	-0.002977
420	-0.000347	-0.000183	0.10632	0.002775
421	0.002447	-0.000512	0.112894	-0.001334
422	-0.001662	-0.000183	0.113552	-0.000183
423	0.00031	-0.000841	0.117168	-0.001991
424	-0.001498	-0.000183	0.122756	-0.000183
425	0.004748	-0.000183	0.127029	0.00146
426	-0.001169	0.000474	0.129001	0.000639
427	0.00146	-1.9e-05	0.131796	0.000639
428	-0.001169	0.000474	0.133439	0.000639
429	-0.001169	-0.000183	0.136726	0.001132
430	0.000146	-1.9e-05	0.138863	-1.9e-05
431	-0.001169	-0.000183	0.138534	0.000803
432	-0.001662	-0.000512	0.142314	-0.001498
433	-1.9e-05	-0.000512	0.141821	-0.000512
434	0.00031	-1.9e-05	0.147903	0.000474
435	-0.000183	-1.9e-05	0.144451	0.001132
436	-0.000183	0.000146	0.150697	0.000967
437	-0.000183	0.000146	0.153162	0.002611
438	0.00031	0.000146	0.155956	-0.000183
439	0.000967	0.00031	0.156285	-0.001827
440	0.002611	-1.9e-05	0.15875	0.000474
441	0.000967	-1.9e-05	0.155956	-0.000676
442	0.003761	-0.000183	0.160887	-0.001334
443	0.001954	-0.000347	0.163352	-0.001169
444	0.00146	-0.000347	0.165982	0.000639
445	0.004419	-0.000183	0.166804	0.00031
446	0.000474	-1.9e-05	0.168118	0.001296
447	-0.001169	0.000146	0.170255	-0.000347
448	0.001954	0.00031	0.167625	-0.00347
449	-0.000841	0.00031	0.175515	0.001132
450	-0.000841	0.00031	0.171899	0.000146
451	-0.002484	-1.9e-05	0.174035	-1.9e-05
452	0.000146	-0.000183	0.175021	0.00031
453	-0.000676	-0.000347	0.176008	0.003268
454	0.000146	-0.000512	0.176665	0.002775
455	0.001132	-0.000347	0.176665	-0.001169
456	-1.9e-05	-0.000183	0.17798	-0.000512
457	0.000803	0.000146	0.17913	-0.001005
458	0.000474	-1.9e-05	0.180938	0.000967
459	0.000803	0.000146	0.179295	-0.001005
460	-0.000512	0.000474	0.184883	0.00146
461	0.000474	0.000146	0.179952	0.001132
462	-0.002648	0.000146	0.184554	0.000474
463	-0.002977	-0.000183	0.182911	0.000474
464	-0.000841	-0.000347	0.185212	0.000639
465	-0.001334	-0.000183	0.183732	0.000967
466	-0.001827	-0.000512	0.187677	0.00031
467	0.000639	-0.000183	0.186526	0.000146
468	-0.000183	-0.000183	0.186855	0.000803
469	-0.003635	0.00031	0.189814	-0.001827
470	0.001132	0.000146	0.188827	-0.001169
471	-0.000512	0.00031	0.18932	0.002447
472	0.00146	0.00031	0.190471	-0.000183
473	-0.000512	0.000146	0.187184	-0.000183
474	0.000639	-0.000183	0.189485	0.00146
475	0.001625	-0.000347	0.190471	0.00031
476	0.000967	-0.000347	0.188663	0.000146
477	-0.001498	-0.000183	0.191293	0.000474
478	0.002611	-0.000512	0.186691	0.00031
479	-0.003142	-1.9e-05	0.190471	0.000639
480	0.001625	0.000146	0.18932	0.001625
481	-0.000841	0.000146	0.191293	-0.000841
482	-0.000512	0.00031	0.191128	0.000967
483	-0.001005	0.000146	0.190471	-1.9e-05
484	-0.001662	0.000146	0.188827	-0.001169
485	0.00146	-0.000183	0.192443	-0.000676
486	-0.000183	-0.000512	0.194416	0.000967
487	-1.9e-05	-0.000512	0.195566	-0.004949
488	0.00031	-0.000347	0.192936	-0.001827
489	0.001132	-0.000347	0.195895	-0.001005
490	0.00031	-1.9e-05	0.194744	0.000474
491	-0.001662	-1.9e-05	0.19195	0.00031
492	-0.002155	-1.9e-05	0.197703	0.002611
493	-0.000676	0.00031	0.195402	0.00031
494	-0.000676	0.000474	0.197045	0.001132
495	-0.001662	-0.000183	0.195237	0.001954
496	0.001296	-0.000183	0.195402	0.001296
497	-0.001334	-0.000347	0.195237	0.00294
498	0.003268	-0.000183	0.196059	0.00031
499	0.000146	-0.000347	0.196552	0.001954
500	0.000146	-0.000183	0.198853	0.001296
501	-0.001169	-1.9e-05	0.197045	0.001789
502	-0.000676	0.00031	0.198196	0.00146
503	-0.001662	0.00031	0.198031	0.001132
504	-0.000676	0.000146	0.19721	0.000803
505	-0.001334	0.000146	0.197045	0.002775
506	0.002118	0.000146	0.196388	0.005898
507	-0.000841	-0.000347	0.19836	0.000146
508	0.000474	-0.000347	0.196717	0.001132
509	-0.000676	-0.000183	0.198524	0.001132
510	0.00031	-0.000512	0.194416	0.001625
511	0.001132	-0.000347	0.196059	0.001132
512	-0.001498	-1.9e-05	0.195402	0.00146
513	0.000639	0.000146	0.196388	0.002775
514	0.000803	0.00031	0.197374	0.001132
515	0.001625	0.00031	0.196552	0.001954
516	0.000146	0.000146	0.193922	0.003597
517	-0.00232	0.00031	0.199675	0.00146
518	-0.002813	-0.000347	0.197867	0.002282
519	-0.000512	-0.000347	0.201154	0.001132
520	-0.001498	-0.000347	0.200825	0.00409
521	-0.001991	-0.000347	0.201647	0.000146
522	-0.002977	-0.000183	0.20099	0.002447
523	0.000639	0.000146	0.198689	0.000639
524	-0.001991	0.000146	0.199839	0.001954
525	0.001789	0.000146	0.199018	0.000803
526	-0.002484	0.000146	0.198853	0.00031
527	0.000803	0.00031	0.195402	0.001132
528	0.000967	0.000146	0.198853	0.001789
529	-1.9e-05	-0.000347	0.197703	-0.000347
530	0.00146	-0.000347	0.196059	0.000474
531	-0.000347	-0.000512	0.19836	0.002118
532	0.000803	-0.000347	0.201812	-1.9e-05
533	0.003761	-0.000183	0.199346	0.002611
534	-0.002648	-0.000183	0.197045	-0.000841
535	0.00031	0.000146	0.202305	0.000146
536	0.002118	0.00031	0.201812	-0.000183
537	-0.001005	0.00031	0.201976	0.000146
538	0.001296	0.00031	0.200497	-0.001005
539	-0.000676	-1.9e-05	0.202633	-0.00232
540	0.001954	-1.9e-05	0.198196	0.000803
541	0.00146	-0.000347	0.203784	0.001132
542	0.000146	-0.000347	0.202798	-0.000512
543	0.000474	-0.000347	0.203455	0.000146
544	0.001296	-0.000183	0.199675	0.002775
545	-0.001827	0.000146	0.200661	0.000967
546	-0.001169	0.000146	0.199182	0.001789
547	0.000639	0.000146	0.199675	0.001954
548	0.001789	0.00031	0.202633	0.001296
549	0.001954	0.000146	0.201483	0.002118
550	0.00031	-0.000183	0.200825	0.003926
551	0.002118	-0.000183	0.201976	-0.000183
552	-0.001169	-1.9e-05	0.201647	0.003268
553	-0.000676	-0.000512	0.202305	0.001954
554	0.00031	-0.000347	0.203126	0.000967
555	0.00146	-0.000347	0.201483	0.003104
556	-0.003635	-1.9e-05	0.203455	0.00031
557	0.000639	0.000146	0.201483	0.002118
558	0.00031	0.000146	0.200497	-1.9e-05
559	-0.000676	0.000146	0.203291	0.00146
560	-0.000183	0.00031	0.201483	-0.000841
561	-0.000512	-1.9e-05	0.198196	0.001789
562	0.003761	-0.000347	0.200497	-0.000183
563	0.005569	-0.000512	0.196223	0.002611
564	0.002611	-0.000512	0.202469	0.000474
565	0.002118	-0.000512	0.201647	0.001625
566	0.003597	-0.000512	0.200497	0.00146
567	-0.003142	-1.9e-05	0.201976	0.003597
568	-0.000676	-1.9e-05	0.200825	0.000474
569	-0.001991	0.00031	0.201154	-0.000183
570	0.001625	0.000146	0.203126	0.001625
571	-0.001498	0.00031	0.200004	-0.001662
572	0.00031	-1.9e-05	0.202798	-0.000183
573	0.000474	-0.000347	0.199018	-1.9e-05
574	0.000803	-0.000512	0.199675	0.002447
575	-0.000347	-0.000347	0.201647	0.000803
576	0.000639	-0.000512	0.197867	0.001625
577	0.000639	-0.000183	0.199018	-0.001498
578	-1.9e-05	0.000146	0.198031	0.002118
579	0.000803	0.000146	0.198853	-0.000841
580	0.000639	0.000146	0.198524	0.002447
581	-0.000347	0.00031	0.196881	0.003597
582	0.00294	0.00031	0.199675	0.005405
583	0.005405	0.000146	0.19721	0.000474
584	-0.001498	-0.000512	0.199182	0.001954
585	0.005898	-0.000347	0.201319	0.001132
586	0.001132	-0.000512	0.201647	-0.00232
587	0.000803	-0.000512	0.202305	0.000146
588	0.000146	-0.000347	0.202469	-1.9e-05
589	0.001132	-1.9e-05	0.200332	-0.002155
590	-0.003963	0.000146	0.202962	0.000639
591	-1.9e-05	0.000146	0.201976	0.000803
592	-0.001005	0.000146	0.202305	-1.9e-05
593	0.000474	0.000146	0.199346	0.001954
594	0.001625	-1.9e-05	0.197867	-0.001169
595	0.002775	-0.000183	0.199346	0.000803
596	0.00031	-0.000347	0.200332	0.001625
597	-0.000347	-0.000183	0.201812	0.000967
598	0.003433	-0.000347	0.200168	-0.000347
599	0.002447	-1.9e-05	0.202469	0.000967
600	0.002775	0.000146	0.201154	0.000803
601	-0.000183	-1.9e-05	0.20214	0.003104
602	0.002282	0.000474	0.201647	0.002118
603	0.000803	0.000146	0.201976	0.001954
604	0.001789	0.000146	0.200497	0.001132
605	0.001132	0.000146	0.202305	-0.001005
606	0.00031	-0.000183	0.20099	-0.002155
607	0.000146	-0.000347	0.201647	0.001625
608	-0.000512	-0.000347	0.202305	-0.001005
609	-0.000347	-0.000512	0.204113	-0.001169
610	0.001625	-0.000183	0.203455	0.001132
611	0.001954	0.000146	0.200332	-0.004621
612	0.003268	0.000146	0.200332	-0.000841
613	0.003761	-1.9e-05	0.202798	0.001296
614	-0.000347	0.000146	0.200332	-0.000183
615	0.002775	0.000146	0.199511	0.001296
616	0.00031	-0.000183	0.201647	0.001132
617	0.00294	-0.000183	0.198196	0.000803
618	0.003268	-0.000183	0.201154	0.002611
619	0.003104	-0.000512	0.199675	0.000146
620	-0.000183	-0.000347	0.201647	0.000146
621	0.001789	-0.000676	0.200004	0.000967
622	0.000474	0.000146	0.20362	-0.001498
623	-0.001334	0.000146	0.201319	0.001132
624	0.000803	0.00031	0.201812	-0.000183
625	0.001625	0.00031	0.199839	0.000803
626	0.000639	0.000146	0.201483	0.000474
627	0.001789	-1.9e-05	0.199675	0.000803
628	0.003104	-0.000512	0.198689	0.000146
629	0.000803	-0.000512	0.200825	0.002118
630	0.002447	-0.000347	0.201319	0.00031
631	0.000803	-0.000512	0.197703	-0.000512
632	0.00409	-1.9e-05	0.199511	-0.005278
633	0.001625	0.000146	0.196552	-0.000183
634	0.002611	0.000146	0.197703	0.00294
635	-0.000512	0.000146	0.198524	-0.002155
636	0.002282	0.000146	0.200332	-1.9e-05
637	0.001296	0.000146	0.199346	-0.000676
638	0.003597	-1.9e-05	0.199182	0.00031
639	0.00146	-0.000347	0.201319	-0.002484
640	0.000474	-0.000512	0.199018	0.00294
641	0.001296	-0.000347	0.201319	0.000803
642	0.000146	-0.000183	0.201319	0.001789
643	0.000474	-1.9e-05	0.198196	0.000146
644	-0.001169	-1.9e-05	0.200004	0.00146
645	0.000146	0.000146	0.199511	0.00294
646	0.003104	0.00031	0.196059	0.003104
647	0.000967	0.00031	0.19836	0.001954
648	-0.000676	0.000146	0.202469	0.001296
649	0.001789	-0.000183	0.200332	0.001625
650	-0.000841	-0.000347	0.200004	0.002282
651	0.001132	-0.000347	0.200661	0.002611
652	-0.001005	-0.000512	0.200825	0.000967
653	-0.000676	-1.9e-05	0.200004	-0.000347
654	-1.9e-05	-0.000183	0.200004	0.000803
655	0.000967	-1.9e-05	0.199839	-1.9e-05
656	-0.000512	0.00031	0.20099	-0.000841
657	-0.001827	0.000146	0.190635	0.003268
658	0.000474	0.00031	0.199182	0.001954
659	-0.001827	0.000146	0.199511	0.001625
660	0.001954	-1.9e-05	0.20099	0.002611
661	0.000803	-0.000183	0.200825	0.005241
662	0.001625	-0.000512	0.199839	0.003104
663	-0.001662	-0.000347	0.201319	-1.9e-05
664	-0.000183	-0.000676	0.199839	0.002775
665	0.000146	-1.9e-05	0.201154	0.002611
666	-0.001827	-1.9e-05	0.201647	0.00031
667	0.000967	0.000146	0.199675	-0.000841
668	0.00031	0.00031	0.197867	0.000474
669	-0.006593	0.00031	0.200004	0.000146
670	-0.001827	0.00031	0.198031	-0.000512
671	0.001625	-0.000183	0.199839	-0.000676
672	-0.001991	-0.000347	0.200661	-0.000347
673	-0.000183	-0.000512	0.199675	-0.001662
674	-0.001005	-0.000347	0.199346	0.000967
675	0.001296	-0.000512	0.201319	0.000146
676	0.002282	-0.000183	0.202633	0.002282
677	0.002447	0.000146	0.202305	0.001954
678	0.000146	0.00031	0.200661	0.000146
679	0.001296	-1.9e-05	0.207564	0.00146
680	0.000803	0.00031	0.201812	-0.001991
681	0.002447	0.000146	0.197867	0.002118
682	0.001296	-1.9e-05	0.199839	0.003104
683	-1.9e-05	-0.000347	0.200004	-0.000841
684	-0.000841	-0.000183	0.196717	-0.004292
685	0.000146	-0.000512	0.196717	-0.000183
686	0.002118	-0.000347	0.199839	-0.004785
687	0.00146	0.000146	0.198853	-0.003963
688	0.001625	-0.000183	0.19836	-0.000841
689	0.001296	0.000146	0.202305	0.000639
690	0.004419	0.00031	0.202633	-0.001005
691	0.000803	0.00031	0.200332	0.003268
692	0.004255	0.00031	0.20099	0.00031
693	0.002447	-1.9e-05	0.200661	0.002118
694	0.001625	-0.000347	0.202962	-0.004785
695	0.003761	-0.000347	0.206414	0.000474
696	0.003926	-0.000347	0.200825	0.001132
697	0.000474	-0.000347	0.204113	0.000639
698	0.001296	-1.9e-05	0.201154	0.003268
699	0.00031	-1.9e-05	0.201483	-0.001334
700	0.000146	0.000146	0.202305	0.001625
701	-0.001662	0.00031	0.201647	-0.000512
702	-0.000512	0.000474	0.19836	0.002611
703	-0.000183	0.000146	0.200004	-0.000347
704	-0.000676	-0.000183	0.199839	0.000967
705	0.00146	-0.000183	0.198689	-0.006757
706	0.000639	-0.000347	0.199675	0.00031
707	0.002611	-0.000512	0.200004	0.000967
708	-0.006429	-0.000183	0.201319	0.002447
709	-0.001334	-0.000183	0.20099	0.00146
710	-0.000183	0.00031	0.201483	-0.001334
711	0.000639	0.000146	0.199675	-0.001827
712	-0.004456	0.00031	0.203126	-0.000512
713	-0.001005	0.00031	0.200004	0.002611
714	-0.002813	0.000146	0.202798	0.002611
715	0.000474	-0.000183	0.200004	0.003104
716	-0.002484	-0.000347	0.201647	0.003433
717	-0.001991	-0.000183	0.199346	-0.001498
718	-0.002813	-0.000347	0.197538	-0.001498
719	-0.006922	-0.000512	0.201154	0.00146
720	-0.001991	0.000146	0.201483	0.001625
721	-0.001991	-1.9e-05	0.199675	0.000146
722	-0.001827	0.00031	0.201483	-0.002813
723	0.001296	0.000146	0.202305	0.002447
724	0.000967	0.000474	0.198524	0.001954
725	-0.001169	0.000146	0.201976	0.00409
726	0.002118	-0.000183	0.197703	0.003433
727	-0.000347	-0.000183	0.19836	0.008035
728	0.002447	-0.000512	0.199346	0.000803
729	0.000146	-0.000347	0.200332	0.003104
730	0.002118	-0.000183	0.199839	0.005241
731	-0.002155	0.000146	0.203126	0.000803
732	-0.001169	0.00031	0.200661	0.000639
733	-0.001991	0.000146	0.202962	-0.005607
734	-0.001827	0.000146	0.20099	-0.002813
735	-0.000347	0.000146	0.198196	-0.002484
736	-1.9e-05	-1.9e-05	0.199675	-0.002484
737	0.001625	-0.000183	0.201647	-0.001827
738	-0.002813	-0.000183	0.199839	-0.000676
739	-0.001991	-0.000183	0.201319	0.000474
740	-0.000347	-0.000183	0.201483	0.000474
741	0.007377	-0.000347	0.203948	0.001954
742	-0.001991	0.000146	0.199839	0.002282
743	0.002447	-1.9e-05	0.20099	0.002118
744	-0.000676	0.00031	0.20477	0.000639
745	0.002611	0.000146	0.206085	0.003104
746	0.00031	0.000146	0.201812	0.000803
747	0.001296	0.00031	0.201319	0.001954
748	0.002118	-0.000183	0.203291	0.000474
749	-0.000347	-0.000347	0.201647	0.000967
750	-0.001498	-0.000183	0.201154	0.003104
751	0.003761	-0.000347	0.201154	0.004255
752	0.013459	-0.000347	0.201812	0.0105
753	0.018225	-1.9e-05	0.20099	0.02069
754	0.025785	0.000146	0.201154	0.025292
755	0.033017	0.00031	0.201976	0.032524
756	0.039756	0.00031	0.202469	0.041728
757	0.047316	0.000474	0.205099	0.047316
758	0.050768	0.000146	0.201812	0.055698
759	0.060465	-0.000183	0.203291	0.061122
760	0.069176	-0.000347	0.199839	0.068354
761	0.068189	-0.000347	0.20362	0.072134
762	0.073613	-0.000512	0.201319	0.076736
763	0.081338	-0.000183	0.20099	0.077886
764	0.082982	-1.9e-05	0.202469	0.086597
765	0.088405	-1.9e-05	0.201976	0.088077
766	0.092843	0.00031	0.200168	0.092843
767	0.097116	0.00031	0.204606	0.098102
768	0.09876	0.000474	0.200004	0.101554
769	0.104184	0.000146	0.200497	0.103855
770	0.1101	-1.9e-05	0.201812	0.109936
771	0.110758	-0.000347	0.200497	0.113716
772	0.113223	-0.000347	0.201647	0.114702
773	0.117661	-0.000347	0.199346	0.119633
774	0.123906	-0.000347	0.203126	0.123578
775	0.125879	0.000146	0.199182	0.127851
776	0.128508	-1.9e-05	0.199511	0.129823
777	0.134425	0.000146	0.199511	0.131467
778	0.134425	0.00031	0.203126	0.138699
779	0.137055	0.000146	0.19836	0.139192
780	0.139356	-1.9e-05	0.198524	0.137384
781	0.140342	-0.000183	0.200825	0.142807
782	0.143958	-1.9e-05	0.20099	0.142643
783	0.145766	-0.000512	0.200168	0.150532
784	0.148067	-0.000347	0.202469	0.148396
785	0.150204	-0.000347	0.201319	0.151354
786	0.152669	-1.9e-05	0.200332	0.151683
787	0.152833	0.000146	0.202305	0.153326
788	0.158093	0.000474	0.200332	0.154641
789	0.156449	0.00031	0.203455	0.1576
790	0.159408	0.00031	0.200825	0.160558
791	0.159408	-1.9e-05	0.202305	0.161544
792	0.164831	-0.000183	0.200497	0.164667
793	0.165489	-0.000183	0.200825	0.164996
794	0.165653	-0.000347	0.201647	0.167625
795	0.166804	-0.000347	0.20099	0.166146
796	0.168612	-0.000347	0.19721	0.169269
797	0.169598	-1.9e-05	0.202962	0.168776
798	0.171899	0.00031	0.200168	0.172885
799	0.17157	0.00031	0.20099	0.170584
800	0.171406	0.00031	0.203455	0.173707
801	0.173378	0.00031	0.201976	0.173707
802	0.173049	-1.9e-05	0.202633	0.174035
803	0.176829	-1.9e-05	0.20099	0.176008
804	0.175843	-1.9e-05	0.203126	0.176665
805	0.179295	-0.000347	0.201483	0.177322
806	0.175843	-0.000512	0.202633	0.17913
807	0.18061	-0.000347	0.204441	0.176829
808	0.180774	0.000146	0.204277	0.177487
809	0.180281	0.000146	0.20099	0.179459
810	0.184718	-1.9e-05	0.203455	0.178309
811	0.182417	-1.9e-05	0.202962	0.182417
812	0.182746	0.00031	0.200661	0.184061
813	0.184718	-1.9e-05	0.200332	0.186691
814	0.187348	-0.000183	0.200168	0.183732
815	0.184554	-0.000183	0.201647	0.188006
816	0.184061	-0.000512	0.200004	0.185705
817	0.185869	-0.000347	0.201647	0.184883
818	0.189156	-0.000183	0.203784	0.186526
819	0.185047	-1.9e-05	0.204934	0.187841
820	0.186526	0.000146	0.202305	0.186526
821	0.183897	0.000146	0.203948	0.186526
822	0.190142	0.00031	0.203291	0.188827
823	0.189649	0.000146	0.20214	0.189649
824	0.188499	0.000146	0.201483	0.189156
825	0.192443	0.000146	0.201483	0.18932
826	0.191457	-0.000347	0.202305	0.194416
827	0.193429	-0.000512	0.200004	0.188992
828	0.192279	-0.000512	0.198524	0.19195
829	0.193594	-0.000183	0.199346	0.189978
830	0.191786	-1.9e-05	0.198524	0.192443
831	0.193101	0.000146	0.196223	0.192936
832	0.193101	0.000146	0.200168	0.193101
833	0.196388	0.000146	0.201647	0.193594
834	0.192936	0.00031	0.202305	0.193758
835	0.195895	0.000146	0.201154	0.189978
836	0.196059	-0.000183	0.201812	0.193922
837	0.192772	-0.000183	0.201154	0.195237
838	0.197045	-0.000183	0.201154	0.191293
839	0.196717	-0.000347	0.200661	0.192936
840	0.195895	-0.000183	0.202305	0.194416
841	0.193922	-1.9e-05	0.20099	0.195895
842	0.195895	-1.9e-05	0.200497	0.193922
843	0.194087	0.00031	0.199839	0.197374
844	0.195402	0.00031	0.201154	0.195237
845	0.192936	0.00031	0.199511	0.195402
846	0.193758	0.000146	0.196059	0.196717
847	0.197045	-0.000183	0.196881	0.195402
848	0.195895	-0.000347	0.197538	0.197374
849	0.194744	-0.000347	0.203126	0.197045
850	0.198031	-0.000183	0.196223	0.196388
851	0.196223	-0.000512	0.201483	0.197045
852	0.19721	-1.9e-05	0.199675	0.199182
853	0.197538	-1.9e-05	0.201647	0.197538
854	0.197538	0.000146	0.200004	0.196717
855	0.196717	0.000146	0.202469	0.199675
856	0.197374	0.000146	0.199511	0.199018
857	0.196223	0.000146	0.201647	0.196717
858	0.197867	-0.000183	0.20099	0.202469
859	0.198853	-0.000347	0.203455	0.197867
860	0.196388	-0.000347	0.201319	0.197374
861	0.195895	-0.000347	0.197538	0.195237
862	0.19721	-0.000183	0.20099	0.196717
863	0.197045	-1.9e-05	0.200332	0.195566
864	0.196223	0.000146	0.20099	0.198524
865	0.199511	0.000146	0.198196	0.199182
866	0.195895	0.000146	0.202469	0.199675
867	0.199182	0.00031	0.201319	0.199511
868	0.197538	0.000146	0.202305	0.199839
869	0.199839	-0.000183	0.200661	0.199839
870	0.198689	-0.000183	0.203784	0.198689
871	0.196388	-0.000183	0.200497	0.200825
872	0.202962	-0.000512	0.20362	0.19721
873	0.201976	-0.000347	0.201647	0.200497
874	0.198031	0.000146	0.204441	0.198196
875	0.20099	0.000146	0.203455	0.199346
876	0.199839	0.000146	0.202305	0.19721
877	0.197538	0.000146	0.203784	0.198689
878	0.201483	0.000474	0.196881	0.196223
879	0.197703	-1.9e-05	0.200332	0.199511
880	0.200168	-0.000183	0.198689	0.198853
881	0.199182	-0.000347	0.198196	0.200004
882	0.201154	-0.000183	0.197703	0.197538
883	0.201483	-0.000347	0.199675	0.197867
884	0.202633	-0.000347	0.201319	0.195895
885	0.200332	0.000146	0.202633	0.199839
886	0.199675	0.000146	0.202798	0.20099
887	0.20099	0.00031	0.20362	0.196388
888	0.201647	0.000474	0.204113	0.20214
889	0.202469	0.000146	0.203291	0.200497
890	0.200004	-1.9e-05	0.20214	0.202305
891	0.201647	-0.000183	0.199839	0.201154
892	0.199018	-0.000347	0.204934	0.20362
893	0.200004	-0.000347	0.199018	0.195566
894	0.197867	-0.000347	0.200661	0.201154
895	0.200497	-0.000183	0.200168	0.199018
896	0.19836	0.000146	0.200825	0.200168
897	0.197703	0.000146	0.200004	0.200004
898	0.200661	0.00031	0.202469	0.201483
899	0.199839	0.00031	0.200497	0.201812
900	0.200168	0.00031	0.200825	0.203126
901	0.19836	-1.9e-05	0.201483	0.202633
902	0.201976	-0.000183	0.200497	0.20099
903	0.197867	-0.000347	0.200825	0.205099
904	0.198524	-0.000512	0.199018	0.200661
905	0.19836	-0.000512	0.200004	0.201812
906	0.200004	-0.000183	0.201483	0.201319
907	0.198689	-1.9e-05	0.203455	0.201812
908	0.198524	-1.9e-05	0.201976	0.201483
909	0.195895	-1.9e-05	0.201812	0.201812
910	0.199018	0.000146	0.199675	0.200825
911	0.195402	0.000474	0.200004	0.201812
912	0.193265	-0.000183	0.200004	0.19836
913	0.197374	-0.000183	0.198524	0.198853
914	0.197867	-0.000183	0.199182	0.197867
915	0.198524	-0.000183	0.200332	0.199182
916	0.200004	-0.000512	0.19836	0.20099
917	0.199839	-0.000347	0.20214	0.199675
918	0.200825	0.000146	0.198031	0.201483
919	0.199675	0.00031	0.200168	0.200004
920	0.199346	0.00031	0.201319	0.20099
921	0.200661	0.000146	0.20099	0.199675
922	0.200497	0.000146	0.201812	0.202633
923	0.202469	-1.9e-05	0.20214	0.199511
924	0.197374	-0.000347	0.200825	0.200332
925	0.200825	-0.000183	0.202469	0.199675
926	0.200825	-0.000347	0.202305	0.198689
927	0.200332	-0.000347	0.202469	0.200004
928	0.199675	-0.000183	0.201154	0.201812
929	0.198853	-1.9e-05	0.199675	0.200825
930	0.199182	0.00031	0.199018	0.200661
931	0.202633	0.00031	0.199839	0.200004
932	0.200825	0.00031	0.201154	0.198689
933	0.201154	0.00031	0.200004	0.200332
934	0.200332	-1.9e-05	0.201647	0.19836
935	0.202305	-0.000347	0.196388	0.201812
936	0.199675	-0.000347	0.199839	0.198031
937	0.199839	-0.000512	0.200661	0.199182
938	0.202633	-0.000512	0.202469	0.198853
939	0.199839	-0.000183	0.204277	0.202305
940	0.20099	-1.9e-05	0.202633	0.199182
941	0.199182	-1.9e-05	0.201812	0.200825
942	0.200497	0.00031	0.201647	0.202305
943	0.200004	0.000474	0.204441	0.200004
944	0.198689	0.00031	0.20099	0.199018
945	0.203291	0.000146	0.202305	0.199675
946	0.199346	-0.000183	0.199675	0.201483
947	0.201647	-0.000347	0.205921	0.201319
948	0.202633	-0.000347	0.203948	0.20099
949	0.202469	-0.000512	0.205592	0.195566
950	0.201483	-0.000183	0.202798	0.202469
951	0.201483	-1.9e-05	0.202798	0.200661
952	0.200004	0.000146	0.200825	0.199675
953	0.203291	-1.9e-05	0.202469	0.202798
954	0.199839	0.00031	0.204113	0.206249
955	0.201812	0.000146	0.199346	0.200332
956	0.199675	-1.9e-05	0.203455	0.20214
957	0.200825	-0.000347	0.200661	0.200332
958	0.202305	-0.000347	0.199346	0.200497
959	0.20099	-0.000183	0.200661	0.200497
960	0.200004	-0.000347	0.200825	0.200168
961	0.200661	-0.000183	0.201319	0.200168
962	0.198524	0.000146	0.202469	0.202305
963	0.19836	0.000146	0.198689	0.200661
964	0.198196	0.000146	0.203291	0.199182
965	0.197867	0.000639	0.202962	0.201319
966	0.200661	0.00031	0.199018	0.201647
967	0.19836	-1.9e-05	0.200825	0.201812
968	0.198853	-0.000183	0.202633	0.200168
969	0.198853	-0.000347	0.200661	0.201154
970	0.200004	-0.000183	0.202633	0.200661
971	0.199182	-0.000183	0.201483	0.201647
972	0.198031	-0.000183	0.201154	0.20099
973	0.201483	-1.9e-05	0.201483	0.20099
974	0.198196	0.00031	0.199018	0.202633
975	0.19836	0.00031	0.200004	0.20214
976	0.19836	0.000146	0.199182	0.202469
977	0.199346	0.00031	0.19836	0.20099
978	0.201812	-0.000183	0.199346	0.204113
979	0.200168	-0.000183	0.199839	0.203291
980	0.200661	-0.000347	0.19836	0.203126
981	0.200004	-0.000512	0.203291	0.200497
982	0.200332	-0.000183	0.20362	0.199675
983	0.201976	-0.000183	0.201483	0.199346
984	0.19836	0.000146	0.203291	0.19836
985	0.204934	0.00031	0.202633	0.199182
986	0.199018	0.000474	0.202633	0.19721
987	0.200825	0.000146	0.201154	0.197703
988	0.202633	0.00031	0.200168	0.197703
989	0.202305	-1.9e-05	0.197703	0.19721
990	0.197703	-0.000183	0.200004	0.200332
991	0.201483	-0.000347	0.199182	0.202798
992	0.200332	-0.000512	0.201154	0.20099
993	0.200497	-0.000347	0.200825	0.201976
994	0.202633	-1.9e-05	0.201647	0.199675
995	0.201483	0.000146	0.201154	0.203291
996	0.203291	-1.9e-05	0.202633	0.201483
997	0.203455	0.000146	0.202305	0.203291
998	0.201319	0.00031	0.201976	0.200661
999	0.200825	0.000146	0.204606	0.201647
1000	0.202305	-0.000183	0.199346	0.200004
1001	0.197867	-0.000183	0.201812	0.201154
1002	0.201319	-0.000347	0.201647	0.201319
1003	0.200004	-0.000512	0.204606	0.200332
1004	0.198689	-0.000347	0.202469	0.199182
1005	0.20099	-0.000347	0.202305	0.200825
1006	0.200825	-0.000183	0.199346	0.199346
1007	0.200825	-1.9e-05	0.20099	0.202469
1008	0.201976	0.00031	0.197867	0.201812
1009	0.20099	0.00031	0.199346	0.200497
1010	0.201483	0.00031	0.197703	0.204606
1011	0.205592	-0.000183	0.198689	0.198524
1012	0.203784	-0.000183	0.200497	0.203126
1013	0.204606	-0.000512	0.20099	0.204441
1014	0.199182	-0.000512	0.200004	0.199675
1015	0.199346	-0.000512	0.203784	0.200497
1016	0.198689	-0.000183	0.202798	0.20099
1017	0.199346	0.000146	0.202798	0.198853
1018	0.198853	0.000146	0.202305	0.201976
1019	0.200168	0.00031	0.200661	0.200004
1020	0.19836	0.00031	0.200825	0.200825
1021	0.200661	0.000474	0.199839	0.199182
1022	0.200332	-1.9e-05	0.20099	0.199018
1023	0.201154	-0.000183	0.197867	0.201319
1024	0.195073	-0.000347	0.197867	0.201483
1025	0.201976	-0.000347	0.200661	0.200332
1026	0.200825	-0.000676	0.199182	0.200661
1027	0.202305	-0.000183	0.198524	0.202469
1028	0.201483	0.000146	0.19836	0.202469
1029	0.199675	0.000146	0.200004	0.204113
1030	0.201319	0.000474	0.199182	0.201154
1031	0.201154	-1.9e-05	0.198524	0.202469
1032	0.202305	0.00031	0.200332	0.201647
1033	0.199839	-0.000183	0.201319	0.201483
1034	0.200661	-0.000183	0.198031	0.198689
1035	0.20099	-0.000347	0.202633	0.201976
1036	0.200825	-0.000183	0.204606	0.197045
1037	0.199511	-0.000347	0.203291	0.199018
1038	0.201647	-1.9e-05	0.199675	0.200661
1039	0.198689	-1.9e-05	0.200332	0.195566
1040	0.199511	0.000146	0.199675	0.201647
1041	0.199675	0.00031	0.195237	0.200661
1042	0.199018	0.00031	0.198196	0.20099
1043	0.199018	0.00031	0.197045	0.200661
1044	0.203291	-0.000183	0.201319	0.20362
1045	0.204441	-0.000183	0.20099	0.199675
1046	0.202962	-0.000347	0.201976	0.20214
1047	0.201976	-0.000512	0.201319	0.199839
1048	0.200661	0.000146	0.201812	0.203291
1049	0.201976	-1.9e-05	0.201976	0.201319
1050	0.199511	0.00031	0.198853	0.201976
1051	0.200332	0.00031	0.199839	0.201319
1052	0.197538	0.00031	0.192279	0.200332
1053	0.199018	0.000146	0.200168	0.202305
1054	0.197703	0.00031	0.20214	0.198524
1055	0.199346	0.000146	0.20099	0.198031
1056	0.205427	-0.000183	0.201647	0.199346
1057	0.200168	-0.000347	0.199346	0.201319
1058	0.200825	-0.000347	0.198689	0.199675
1059	0.200661	-0.000512	0.201154	0.201319
1060	0.200661	-1.9e-05	0.199675	0.200497
1061	0.200661	-1.9e-05	0.201647	0.201647
1062	0.20362	-1.9e-05	0.199839	0.200825
1063	0.203126	0.00031	0.199346	0.2074
1064	0.203291	0.00031	0.200168	0.201319
1065	0.199018	0.00031	0.201483	0.199839
1066	0.199018	-1.9e-05	0.199675	0.204113
1067	0.200332	-0.000347	0.201483	0.200825
1068	0.200497	-0.000347	0.200497	0.19836
1069	0.197703	-0.000183	0.203455	0.198031
1070	0.199182	-0.000676	0.199675	0.198524
1071	0.198031	-1.9e-05	0.201319	0.200004
1072	0.199182	0.000146	0.201812	0.199018
1073	0.201812	0.00031	0.200661	0.198031
1074	0.197374	0.000146	0.205427	0.201812
1075	0.203126	0.000146	0.199511	0.200004
1076	0.201483	0.000146	0.200004	0.201154
1077	0.202469	-0.000183	0.196223	0.201319
1078	0.202469	-0.000183	0.196059	0.20099
1079	0.201812	-0.000512	0.200332	0.198853
1080	0.201154	-0.000512	0.198031	0.199675
1081	0.203784	-0.000512	0.199346	0.200168
1082	0.199346	-1.9e-05	0.202633	0.197867
1083	0.200661	0.000146	0.200497	0.192115
1084	0.198853	0.000146	0.203126	0.187841
1085	0.201483	0.000146	0.204606	0.180116
1086	0.199182	0.00031	0.201319	0.173542
1087	0.199839	0.00031	0.200661	0.168447
1088	0.202798	-0.000183	0.201154	0.165324
1089	0.198853	-0.000347	0.201483	0.156613
1090	0.200497	-0.000512	0.197374	0.152176
1091	0.199675	-0.000512	0.194909	0.152998
1092	0.201319	-0.000347	0.20099	0.144451
1093	0.198196	-0.000183	0.201483	0.147574
1094	0.20099	0.000146	0.200004	0.147574
1095	0.200168	0.000146	0.202305	0.147245
1096	0.199511	0.000474	0.200825	0.146259
1097	0.200332	0.00031	0.201647	0.137219
1098	0.203126	0.00031	0.200004	0.131302
1099	0.201154	-0.000183	0.200661	0.126536
1100	0.199675	-0.000183	0.202469	0.115195
1101	0.200332	-0.000512	0.20099	0.120619
1102	0.19836	-0.000512	0.19836	0.124399
1103	0.197703	-0.000512	0.202798	0.123578
1104	0.198031	-1.9e-05	0.200168	0.122098
1105	0.199018	0.000146	0.202633	0.113881
1106	0.199018	0.000146	0.201976	0.097116
1107	0.20099	0.000146	0.202962	0.070326
1108	0.199182	0.000474	0.200004	0.035647
1109	0.200825	0.000146	0.199675	0.002282
1110	0.200661	-1.9e-05	0.199675	0.001789
1111	0.200661	-0.000183	0.197374	0.002775
1112	0.196552	-0.000347	0.203455	0.000146
1113	0.202305	-0.000512	0.200661	0.003433
1114	0.193594	-0.000512	0.202469	0.002775
1115	0.201319	-0.000347	0.20099	0.002282
1116	0.198031	0.000639	0.200825	0.002118
1117	0.200332	0.00031	0.200825	-1.9e-05
1118	0.199346	0.000146	0.201154	-1.9e-05
1119	0.197867	0.00031	0.198689	0.001296
1120	0.197538	-1.9e-05	0.200661	-0.000347
1121	0.197045	-0.000183	0.200332	0.00146
1122	0.200332	-0.000347	0.201647	0.007049
1123	0.202798	-0.000183	0.202633	-0.001005
1124	0.199346	-0.000347	0.186691	0.000803
1125	0.200168	-0.000347	0.002611	0.001625
1126	0.20214	-1.9e-05	-1.9e-05	-0.000676
1127	0.200332	0.000146	0.005241	0.000803
1128	0.201319	0.000146	0.008035	0.000803
1129	0.201319	0.000146	0.00294	-0.000183
1130	0.201812	0.00031	0.000474	-0.000512
1131	0.201647	0.00031	0.000639	0.000967
1132	0.199182	-0.000183	0.006556	-0.000841
1133	0.198689	-0.000347	0.015266	-0.000183
1134	0.199675	-0.000347	0.019047	0.000639
1135	0.203126	-0.000512	0.029072	-1.9e-05
1136	0.204606	-0.000347	0.038276	0.000474
1137	0.199839	-0.000183	0.038605	0.00031
1138	0.200004	-1.9e-05	0.052247	0.00031
1139	0.199675	0.00031	0.056027	-1.9e-05
1140	0.200332	0.000146	0.064574	0.000146
1141	0.200661	0.000146	0.068189	-0.000512
1142	0.199018	-1.9e-05	0.073613	0.00031
1143	0.201154	-1.9e-05	0.077229	-0.000512
1144	0.199675	-0.000347	0.083803	-0.000183
1145	0.200004	-0.000347	0.086597	-0.000841
1146	0.199675	-0.000347	0.090213	0.000639
1147	0.204934	-0.000183	0.095144	0.000146
1148	0.199182	0.000146	0.10139	0.000639
1149	0.201319	-1.9e-05	0.101718	0.000146
1150	0.200168	-1.9e-05	0.106813	0.000474
1151	0.199182	0.000146	0.110758	0.000474
1152	0.201647	0.00031	0.112894	-1.9e-05
1153	0.198853	0.00031	0.118318	-0.000347
1154	0.201319	-0.000183	0.121441	-0.000347
1155	0.200332	-0.000512	0.124399	-0.000183
1156	0.201319	-0.000512	0.127851	-1.9e-05
1157	0.200825	-0.000347	0.129988	0.000146
1158	0.202962	-0.000183	0.132946	0.000146
1159	0.196388	-0.001498	0.137548	0.000146
1160	0.199018	0.005898	0.13952	-1.9e-05
1161	0.200825	0.007542	0.143958	0.00031
1162	0.199675	0.016088	0.142972	-0.000183
1163	0.200004	0.009678	0.14215	-0.000347
1164	0.196059	0.001625	0.146095	-0.000183
1165	0.200168	-1.9e-05	0.149053	-0.000512
1166	0.199675	-0.000512	0.148067	-0.000347
1167	0.200497	-0.000347	0.15234	0.000146
1168	0.203126	0.000474	0.155627	-0.000183
1169	0.200004	-0.001005	0.154641	0.000146
1170	0.196717	0.000474	0.159901	0.000474
1171	0.201976	0.000146	0.158914	0.00031
1172	0.199182	0.00031	0.163023	-1.9e-05
1173	0.199839	0.000146	0.164667	-0.000183
1174	0.198031	0.00031	0.164831	-0.000183
1175	0.202305	0.000146	0.166475	-0.000512
1176	0.201483	-1.9e-05	0.169762	-0.000183
1177	0.204113	-0.000183	0.166475	-0.000512
1178	0.199018	-0.000183	0.168118	-0.000183
1179	0.198689	-0.000347	0.169762	-1.9e-05
1180	0.201483	-0.000183	0.171241	0.00031
1181	0.200168	-0.000183	0.170091	0.00031
1182	0.199182	-1.9e-05	0.171406	0.00031
1183	0.199018	0.00031	0.172556	0.00031
1184	0.199511	0.000146	0.175843	-0.000183
1185	0.200168	0.00031	0.177651	-1.9e-05
1186	0.200825	-0.000183	0.176008	-0.000512
1187	0.200497	0.000146	0.180445	0.000146
1188	0.201812	-0.000512	0.179459	-0.001498
1189	0.200661	-0.000512	0.180281	0.002447
1190	0.201483	-0.000347	0.179459	0.001625
1191	0.200661	-0.000347	0.185376	0.001789
1192	0.200332	0.000146	0.186855	0.006227
1193	0.200497	0.000146	0.183075	0.012801
1194	0.200497	0.000146	0.187019	0.021183
1195	0.20214	0.00031	0.185212	0.027429
1196	0.199182	0.000146	0.186033	0.033839
1197	0.200497	0.000146	0.187019	0.036962
1198	0.200332	0.000474	0.185869	0.045837
1199	0.20099	-0.000512	0.186691	0.051589
1200	0.198689	-0.000512	0.186526	0.056027
1201	0.200825	-0.000512	0.186033	0.064902
1202	0.199839	-0.000347	0.189978	0.068682
1203	0.200825	-1.9e-05	0.188006	0.074435
1204	0.199346	0.00031	0.190635	0.080845
1205	0.202305	0.00031	0.189485	0.08594
1206	0.201319	0.002775	0.190964	0.090542
1207	0.202469	0.00146	0.188663	0.094815
1208	0.200332	0.00031	0.077886	0.098102
1209	0.200825	-1.9e-05	0.000474	0.102376
1210	0.201647	-0.000183	0.000474	0.107471
1211	0.200825	-0.000347	-0.000347	0.108457
1212	0.199346	-0.000183	0.003104	0.113223
1213	0.201154	-0.000183	0.002775	0.116017
1214	0.199511	0.000146	0.00031	0.116839
1215	0.196881	-1.9e-05	0.002447	0.121441
1216	0.199839	0.000146	0.003433	0.121934
1217	0.198853	0.000474	0.008528	0.1267
1218	0.197538	0.000146	0.004255	0.130152
1219	0.198524	0.00031	0.012308	0.134261
1220	0.202305	-0.000183	0.015431	0.135411
1221	0.199182	-0.000183	0.02447	0.141986
1222	0.204441	-0.000347	0.029894	0.139849
1223	0.200004	-0.000347	0.035975	0.143136
1224	0.202469	-0.000347	0.044851	0.147409
1225	0.201976	-1.9e-05	0.051754	0.146916
1226	0.199675	0.000146	0.052904	0.152176
1227	0.199839	0.000146	0.06293	0.150861
1228	0.197045	0.000146	0.066875	0.156613
1229	0.200332	0.000639	0.071805	0.155956
1230	0.198031	0.000146	0.077065	0.157764
1231	0.202798	-1.9e-05	0.078051	0.157435
1232	0.199675	-0.000347	0.085118	0.160887
1233	0.200332	-0.000347	0.090871	0.160229
1234	0.199675	-0.000347	0.094651	0.160558
1235	0.202469	-0.000347	0.099417	0.163023
1236	0.199675	0.000146	0.103855	0.165324
1237	0.200004	0.000146	0.106485	0.167461
1238	0.201319	0.00031	0.112237	0.165489
1239	0.201812	0.00031	0.115689	0.170419
1240	0.200661	0.000146	0.118647	0.174693
1241	0.200168	-1.9e-05	0.120455	0.177651
1242	0.202469	-0.000183	0.124235	0.175515
1243	0.200661	-0.000347	0.12933	0.178144
1244	0.200661	-0.000347	0.131302	0.175021
1245	0.198196	-0.000347	0.132289	0.176994
1246	0.198689	-0.000347	0.135247	0.177487
1247	0.198196	0.000146	0.140178	0.17798
1248	0.199511	-1.9e-05	0.13837	0.177158
1249	0.198524	0.000146	0.146752	0.17913
1250	0.200497	0.000474	0.145602	0.18061
1251	0.196881	0.00031	0.146588	0.181267
1252	0.199511	0.000146	0.151354	0.178802
1253	0.201483	-0.000183	0.150861	0.181596
1254	0.19836	-0.000347	0.152505	0.183568
1255	0.199675	-0.000183	0.155956	0.185869
1256	0.201812	-0.000347	0.155134	0.185705
1257	0.201483	-0.000183	0.159901	0.183732
1258	0.200497	-1.9e-05	0.161051	0.188499
1259	0.201812	-1.9e-05	0.160229	0.183897
1260	0.198689	0.000146	0.162366	0.188499
1261	0.199511	0.00031	0.16516	0.186362
1262	0.199182	0.00031	0.163516	0.190142
1263	0.19721	0.000146	0.164174	0.188499
1264	0.19721	-0.000183	0.168118	0.186362
1265	0.198853	-0.000347	0.167461	0.187677
1266	0.196881	-0.000347	0.170913	0.188499
1267	0.199675	-0.000512	0.17272	0.188499
1268	0.199018	-0.000347	0.174035	0.189485
1269	0.196717	0.000146	0.175843	0.190635
1270	0.200332	0.000146	0.175679	0.18932
1271	0.201647	0.00031	0.175021	0.1908
1272	0.201976	0.00031	0.180938	0.191293
1273	0.201976	0.00031	0.174693	0.192608
1274	0.198524	0.00031	0.177815	0.192608
1275	0.202305	-0.000183	0.178637	0.195073
1276	0.202469	-0.000183	0.180774	0.192443
1277	0.197374	-0.000512	0.179295	0.193265
1278	0.197867	-0.000347	0.17798	0.194909
1279	0.200661	-0.000183	0.181431	0.196717
1280	0.199182	-1.9e-05	0.18176	0.195895
1281	0.20099	0.000146	0.185376	0.193594
1282	0.201483	0.000146	0.183732	0.19195
1283	0.200497	0.00031	0.188006	0.192443
1284	0.20099	0.000474	0.185705	0.193429
1285	0.197703	-1.9e-05	0.187184	0.192936
1286	0.20214	-0.000183	0.186691	0.194251
1287	0.200661	-0.000347	0.187513	0.194251
1288	0.199346	-0.000347	0.187184	0.197867
1289	0.202962	-0.000183	0.18817	0.197703
1290	0.201154	-0.000512	0.187677	0.198031
1291	0.20099	-1.9e-05	0.188992	0.19721
1292	0.199346	0.000146	0.188827	0.195073
1293	0.200661	0.000146	0.187348	0.197374
1294	0.198689	0.000146	0.192608	0.198524
1295	0.203291	0.000146	0.191457	0.198196
1296	0.199675	0.000146	0.191786	0.198031
1297	0.20099	-0.000183	0.191128	0.197867
1298	0.200661	-0.000347	0.192608	0.200168
1299	0.199511	-0.000347	0.192115	0.197703
1300	0.199511	-0.000347	0.194416	0.197374
1301	0.200004	-0.000347	0.193758	0.199675
1302	0.198524	0.000146	0.19573	0.195895
1303	0.199675	-1.9e-05	0.194744	0.196717
1304	0.198196	0.000146	0.194416	0.195402
1305	0.196717	0.00031	0.193429	0.200004
1306	0.201812	0.000146	0.195402	0.19836
1307	0.196881	0.000146	0.195895	0.197703
1308	0.200004	-0.000183	0.192772	0.197867
1309	0.198689	-0.000347	0.195237	0.197374
1310	0.201319	-0.000347	0.196388	0.199182
1311	0.199511	-0.000183	0.196059	0.200661
1312	0.20214	-0.000183	0.196388	0.198031
1313	0.198689	0.000146	0.197374	0.197374
1314	0.200661	0.000146	0.198031	0.198689
1315	0.200332	0.000146	0.198031	0.196059
1316	0.197374	0.000146	0.197867	0.199346
1317	0.195566	0.00031	0.197538	0.198196
1318	0.20099	-1.9e-05	0.195895	0.199346
1319	0.19836	-0.000347	0.198524	0.198031
1320	0.201483	-0.000183	0.199839	0.198853
1321	0.200004	-0.000347	0.195073	0.196388
1322	0.200168	-0.000347	0.199018	0.199018
1323	0.202469	-0.000183	0.197538	0.198524
1324	0.197867	-1.9e-05	0.197538	0.199018
1325	0.200004	0.000146	0.194744	0.197867
1326	0.198689	0.000146	0.197374	0.199346
1327	0.200661	0.000474	0.199182	0.199675
1328	0.199675	0.000639	0.193758	0.199511
1329	0.20099	-1.9e-05	0.194744	0.202798
1330	0.200497	-0.000347	0.197374	0.201976
1331	0.200661	-0.000347	0.197703	0.201976
1332	0.203948	-0.000347	0.200168	0.198031
1333	0.201319	-0.000347	0.200497	0.199675
1334	0.201647	-1.9e-05	0.201319	0.197703
1335	0.199182	0.000146	0.198853	0.197703
1336	0.200825	0.000146	0.199182	0.200004
1337	0.199018	0.00031	0.200825	0.198031
1338	0.199346	0.000474	0.203126	0.199511
1339	0.196059	0.00031	0.199839	0.20099
1340	0.19836	0.000146	0.201976	0.199346
1341	0.198689	-0.000183	0.198689	0.19836
1342	0.200004	-0.000512	0.201483	0.197867
1343	0.199018	-0.000512	0.200661	0.199018
1344	0.201647	-0.000512	0.19721	0.199346
1345	0.200661	-0.000183	0.201319	0.199675
1346	0.203455	-1.9e-05	0.19721	0.199182
1347	0.200661	-0.000183	0.19836	0.199346
1348	0.20099	0.00031	0.19836	0.200004
1349	0.199182	0.00031	0.202305	0.201483
1350	0.200497	0.00031	0.198853	0.201647
1351	0.200497	-1.9e-05	0.200332	0.201319
1352	0.200004	-0.000183	0.201154	0.202633
1353	0.201319	-0.000183	0.198524	0.201483
1354	0.199182	-0.000347	0.202962	0.199182
1355	0.201647	-0.000183	0.199018	0.199675
1356	0.199018	0.000803	0.200661	0.198853
1357	0.201319	0.000146	0.199511	0.19836
1358	0.197374	0.000474	0.198196	0.200332
1359	0.199346	0.000474	0.201976	0.199839
1360	0.199675	0.00031	0.201319	0.200004
1361	0.200332	0.001296	0.195237	0.201154
1362	0.202469	0.000146	0.20099	0.199018
1363	0.201812	-0.000183	0.197045	0.200661
1364	0.201647	-0.000347	0.196552	0.20099
1365	0.203291	0.000146	0.198524	0.199675
1366	0.200168	-0.001498	0.199839	0.201154
1367	0.197538	0.001132	0.201647	0.201647
1368	0.201154	-1.9e-05	0.200661	0.200004
1369	0.195402	0.001625	0.201319	0.201647
1370	0.198524	0.000803	0.201647	0.201812
1371	0.199346	0.00031	0.203126	0.197538
1372	0.200168	0.00031	0.199675	0.199182
1373	0.198196	0.00146	0.200497	0.200497
1374	0.200661	0.000639	0.198196	0.199182
1375	0.198853	0.000639	0.199182	0.200004
1376	0.199675	0.000967	0.197703	0.198853
1377	0.200168	0.00146	0.201154	0.198524
1378	0.201154	-0.001662	0.197538	0.200661
1379	0.200332	-1.9e-05	0.198853	0.198196
1380	0.200825	-1.9e-05	0.198853	0.202469
1381	0.201812	-0.000183	0.200497	0.202305
1382	0.199182	-1.9e-05	0.203455	0.202633
1383	0.201812	0.001954	0.201976	0.198853
1384	0.200661	0.000967	0.200825	0.199346
1385	0.201647	0.000474	0.201976	0.200825
1386	0.199675	-0.000676	0.201319	0.203784
1387	0.200004	-0.000841	0.201812	0.197538
1388	0.19721	0.002282	0.20099	0.199675
1389	0.192115	-0.001498	0.200661	0.199511
1390	0.182746	0.001625	0.200332	0.199182
1391	0.175515	0.001954	0.199018	0.199346
1392	0.171077	0.008363	0.204113	0.195895
1393	0.164174	0.001789	0.201319	0.200497
1394	0.166968	-1.9e-05	0.201647	0.199182
1395	0.165653	0.009843	0.200825	0.20099
1396	0.168612	0.010336	0.201319	0.199346
1397	0.168118	0.013294	0.199839	0.203784
1398	0.167954	0.017239	0.20099	0.200004
1399	0.152505	0.002118	0.202962	0.200497
1400	0.066217	0.007049	0.20099	0.199346
1401	0.066875	0.013952	0.202305	0.205592
1402	0.073613	0.01428	0.201154	0.203291
1403	0.077886	0.023156	0.200004	0.201319
1404	0.081831	0.025292	0.202798	0.203126
1405	0.087748	0.026771	0.201976	0.198689
1406	0.093007	0.028251	0.199675	0.200332
1407	0.095637	0.028908	0.20099	0.199839
1408	0.100075	0.032524	0.198524	0.201319
1409	0.101225	0.035975	0.198689	0.197374
1410	0.106813	0.039263	0.198689	0.202469
1411	0.113223	0.036633	0.199511	0.200004
1412	0.113716	0.039263	0.199182	0.200661
1413	0.119633	0.029894	0.200497	0.201154
1414	0.121605	0.015595	0.198853	0.202305
1415	0.126207	0.017074	0.20099	0.201976
1416	0.129001	0.010993	0.20099	0.202469
1417	0.131302	-0.000841	0.201319	0.200825
1418	0.134425	0.005241	0.202305	0.202469
1419	0.135576	0.01313	0.201483	0.20214
1420	0.139027	0.018225	0.201812	0.200332
1421	0.138205	0.025292	0.201812	0.201319
1422	0.143794	0.026936	0.201976	0.199346
1423	0.14478	0.035811	0.198031	0.200661
1424	0.144287	0.038276	0.201154	0.200661
1425	0.148724	0.044358	0.202633	0.200661
1426	0.152176	0.04896	0.199346	0.201154
1427	0.152669	0.053233	0.20099	0.199018
1428	0.157107	0.056191	0.200004	0.200332
1429	0.156285	0.059314	0.19836	0.201319
1430	0.160722	0.058492	0.199182	0.19458
1431	0.160558	0.069011	0.199675	0.200497
1432	0.162859	0.06293	0.199839	0.201483
1433	0.164831	0.070162	0.199346	0.199839
1434	0.166146	0.073942	0.201483	0.200004
1435	0.166146	0.077229	0.203455	0.20099
1436	0.168283	0.078544	0.199839	0.200825
1437	0.168283	0.081831	0.202469	0.199182
1438	0.173871	0.031373	0.201647	0.198689
1439	0.17157	0.000803	0.202798	0.198853
1440	0.173707	0.001296	0.200332	0.200497
1441	0.174857	-0.000183	0.201483	0.197374
1442	0.174857	0.000474	0.201812	0.201154
1443	0.174528	-0.001662	0.199182	0.201483
1444	0.177651	0.00146	0.202633	0.201483
1445	0.180281	0.000146	0.201812	0.198853
1446	0.178637	0.00935	0.199675	0.202962
1447	0.179459	0.011158	0.195237	0.201319
1448	0.181924	0.017567	0.201812	0.201154
1449	0.179952	0.023156	0.201976	0.19836
1450	0.181431	0.027922	0.201976	0.199346
1451	0.183239	0.032688	0.20099	0.20214
1452	0.182582	0.034003	0.201812	0.201483
1453	0.184554	0.040249	0.199511	0.200661
1454	0.184225	0.039756	0.198689	0.200332
1455	0.185869	0.04633	0.202469	0.201154
1456	0.186691	0.050932	0.202633	0.199018
1457	0.186526	0.059478	0.201647	0.201319
1458	0.187841	0.063752	0.195895	0.20099
1459	0.186033	0.068354	0.197538	0.20099
1460	0.18932	0.067696	0.202962	0.201319
1461	0.188006	0.078051	0.202798	0.200497
1462	0.188992	0.080187	0.202305	0.200332
1463	0.188499	0.084132	0.201319	0.203126
1464	0.188827	0.080681	0.201647	0.199511
1465	0.187841	0.084296	0.201647	0.201647
1466	0.18817	0.075092	0.200825	0.201647
1467	0.189814	0.081338	0.20099	0.201319
1468	0.190635	0.087255	0.200661	0.200661
1469	0.189156	0.089227	0.201812	0.20099
1470	0.19458	0.096459	0.197867	0.201319
1471	0.194416	0.095473	0.199839	0.200661
1472	0.193429	0.103033	0.198689	0.201319
1473	0.195073	0.104019	0.200004	0.199346
1474	0.194909	0.110758	0.200825	0.202633
1475	0.196223	0.110265	0.199675	0.20099
1476	0.192115	0.118483	0.199839	0.201812
1477	0.192443	0.116182	0.200004	0.201154
1478	0.194251	0.120455	0.201319	0.20099
1479	0.194909	0.123085	0.200168	0.199182
1480	0.190471	0.12933	0.203948	0.203455
1481	0.194909	0.123085	0.193922	0.197374
1482	0.193922	0.130152	0.202305	0.199018
1483	0.19721	0.134918	0.199675	0.197703
1484	0.193594	0.134425	0.201154	0.197045
1485	0.195237	0.138699	0.199182	0.19721
1486	0.19573	0.139027	0.198524	0.197374
1487	0.193594	0.140506	0.199675	0.200004
1488	0.194744	0.141	0.200825	0.201154
1489	0.194909	0.143465	0.200332	0.201976
1490	0.195895	0.140342	0.199839	0.200825
1491	0.192443	0.14478	0.204277	0.203291
1492	0.197045	0.140671	0.199839	0.201976
1493	0.197045	0.14478	0.200168	0.203455
1494	0.198524	0.147081	0.200332	0.203291
1495	0.197538	0.150861	0.202798	0.195073
1496	0.197045	0.153819	0.199675	0.198196
1497	0.196717	0.15497	0.201154	0.201154
1498	0.197374	0.155463	0.201154	0.199346
1499	0.194744	0.154641	0.203126	0.196388
1500	0.193922	0.154641	0.201154	0.195895
1501	0.19721	0.157764	0.200825	0.197045
1502	0.198524	0.157107	0.200168	0.198524
1503	0.197867	0.152669	0.201647	0.198689
1504	0.196223	0.149217	0.197867	0.201154
1505	0.203948	0.152669	0.201319	0.199675
1506	0.198853	0.154477	0.201319	0.193429
1507	0.199346	0.154148	0.200825	0.197867
1508	0.199182	0.157271	0.201154	0.201154
1509	0.19573	0.157271	0.206249	0.200332
1510	0.197045	0.157271	0.202633	0.200332
1511	0.200004	0.159408	0.203455	0.200497
1512	0.201154	0.159079	0.201647	0.199511
1513	0.200004	0.163188	0.201976	0.198689
1514	0.198689	0.163681	0.199675	0.199839
1515	0.197867	0.164831	0.199182	0.201812
1516	0.196388	0.164338	0.200825	0.199346
1517	0.198196	0.167461	0.201319	0.201483
1518	0.19721	0.166804	0.200168	0.194744
1519	0.196552	0.164667	0.199511	0.199018
1520	0.188499	0.163188	0.202305	0.197374
1521	0.198196	0.169269	0.199346	0.19836
1522	0.200332	0.167297	0.20099	0.199018
1523	0.200661	0.168776	0.201319	0.199511
1524	0.200497	0.168612	0.201483	0.200332
1525	0.200004	0.044029	0.198031	0.202962
1526	0.201647	0.00031	0.198853	0.198853
1527	0.200332	-1.9e-05	0.200332	0.201812
1528	0.20362	0.009021	0.198689	0.202633
1529	0.202633	0.012308	0.201483	0.199675
1530	0.201319	0.021348	0.199511	0.202469
1531	0.201647	0.03236	0.203126	0.200004
1532	0.199346	0.036797	0.202962	0.196223
1533	0.198524	0.041399	0.200332	0.197045
1534	0.198689	0.048795	0.200661	0.198031
1535	0.199182	0.051754	0.201154	0.196059
1536	0.197045	0.059314	0.199182	0.199018
1537	0.200332	0.06408	0.199182	0.199018
1538	0.201812	0.072134	0.196552	0.201154
1539	0.203455	0.0769	0.199018	0.198853
1540	0.20099	0.083803	0.20099	0.199511
1541	0.205921	0.084461	0.198196	0.201154
1542	0.205592	0.091364	0.203455	0.201483
1543	0.200168	0.093172	0.202633	0.201154
1544	0.200332	0.097116	0.199839	0.203126
1545	0.20214	0.100568	0.199511	0.199018
1546	0.200497	0.103362	0.201319	0.201483
1547	0.199839	0.108621	0.20099	0.200004
1548	0.198031	0.109279	0.199675	0.200825
1549	0.197703	0.115689	0.202469	0.196552
1550	0.198524	0.115853	0.199675	0.198689
1551	0.19836	0.119797	0.198689	0.199511
1552	0.19836	0.121277	0.197867	0.198031
1553	0.198853	0.124399	0.198689	0.200497
1554	0.198524	0.1267	0.201647	0.19836
1555	0.199018	0.129988	0.198853	0.198853
1556	0.200332	0.136069	0.198196	0.198689
1557	0.198853	0.135247	0.200168	0.202633
1558	0.200661	0.137055	0.201812	0.200825
1559	0.199675	0.137055	0.201483	0.200661
1560	0.199182	0.141164	0.19721	0.199839
1561	0.200332	0.131138	0.199182	0.206085
1562	0.199018	0.131302	0.201154	0.199511
1563	0.201483	0.131631	0.200004	0.197538
1564	0.201319	0.001132	0.199675	0.198524
1565	0.196552	0.000967	0.202633	0.196881
1566	0.197867	0.009021	0.206907	0.197374
1567	0.199346	0.015595	0.201812	0.198031
1568	0.199346	0.023813	0.202633	0.198689
1569	0.200825	0.024964	0.200825	0.197045
1570	0.198689	0.026278	0.200332	0.200497
1571	0.201319	0.025785	0.200004	0.196223
1572	0.197374	0.033346	0.201483	0.200004
1573	0.202633	0.03729	0.200332	0.197703
1574	0.200168	0.042385	0.199182	0.199346
1575	0.20362	0.051261	0.19836	0.198031
1576	0.199511	0.054876	0.200825	0.201154
1577	0.202469	0.059972	0.199839	0.200497
1578	0.201647	0.067039	0.198689	0.200332
1579	0.202305	0.07049	0.200004	0.199839
1580	0.201976	0.074764	0.201976	0.196717
1581	0.199346	0.081667	0.20099	0.200825
1582	0.201976	0.084296	0.201647	0.200332
1583	0.200497	0.087748	0.200661	0.198196
1584	0.200332	0.092186	0.202469	0.19573
1585	0.200004	0.095473	0.202305	0.199018
1586	0.200332	0.101061	0.20362	0.194744
1587	0.202633	0.104184	0.202633	0.19721
1588	0.201812	0.105827	0.201319	0.19721
1589	0.195895	0.109936	0.201647	0.199018
1590	0.200497	0.110429	0.201154	0.200497
1591	0.197045	0.114702	0.200825	0.199346
1592	0.196059	0.10895	0.200004	0.200004
1593	0.201812	0.120948	0.20362	0.200497
1594	0.201483	0.119633	0.202962	0.202305
1595	0.201483	0.123742	0.199839	0.197867
1596	0.201483	0.12555	0.199018	0.200825
1597	0.201319	0.126865	0.203291	0.200004
1598	0.200825	0.131302	0.199182	0.201647
1599	0.199511	0.128673	0.202305	0.198689
1600	0.19836	0.132453	0.199511	0.199511
1601	0.200497	0.134097	0.200661	0.200168
1602	0.199346	0.137877	0.202633	0.200497
1603	0.199018	0.137712	0.199346	0.200168
1604	0.19836	0.140342	0.202633	0.200825
1605	0.199839	0.141986	0.199018	0.199675
1606	0.200332	0.101554	0.201319	0.199839
1607	0.199839	-1.9e-05	0.200332	0.199675
1608	0.197538	0.006556	0.200825	0.200332
1609	0.200497	0.015102	0.197538	0.201154
1610	0.200497	0.020197	0.200168	0.199839
1611	0.200825	0.030387	0.198196	0.200004
1612	0.197867	0.036633	0.201154	0.201319
1613	0.200004	-0.000183	0.198524	0.203948
1614	0.19721	0.003104	0.199018	0.199018
1615	0.198196	0.01576	0.202798	0.202305
1616	0.197045	0.022663	0.198031	0.20214
1617	0.196717	0.028251	0.199182	0.200004
1618	0.19836	0.035482	0.198196	0.199675
1619	0.200004	0.04107	0.202305	0.200168
1620	0.201154	0.044193	0.200004	0.198689
1621	0.197374	0.052411	0.201154	0.201647
1622	0.200497	0.057177	0.20099	0.196223
1623	0.199182	0.06556	0.202962	0.200661
1624	0.20099	0.070326	0.199511	0.200332
1625	0.199182	0.072627	0.200004	0.201154
1626	0.199511	0.080187	0.196881	0.201976
1627	0.200332	0.082982	0.200661	0.201976
1628	0.199182	0.089391	0.199346	0.199839
1629	0.200168	0.090706	0.197538	0.199182
1630	0.201647	0.094487	0.197867	0.200332
1631	0.200497	0.093172	0.198689	0.197703
1632	0.198524	0.097445	0.20214	0.199675
1633	0.200332	0.097445	0.20099	0.196059
1634	0.196059	0.09991	0.200168	0.200004
1635	0.200661	0.09991	0.199346	0.197703
1636	0.19836	0.097938	0.201647	0.198853
1637	0.199839	0.104184	0.201483	0.197703
1638	0.197374	0.104019	0.202633	0.197703
1639	0.198853	0.101225	0.201319	0.199182
1640	0.199511	0.102047	0.201154	0.200497
1641	0.20099	0.102869	0.201812	0.199511
1642	0.201812	0.098924	0.202305	0.200004
1643	0.200497	0.103855	0.202633	0.201647
1644	0.200497	0.098924	0.20099	0.19836
1645	0.200004	0.100732	0.201647	0.199675
1646	0.201976	0.101718	0.199839	0.200497
1647	0.196717	0.102047	0.200497	0.200168
1648	0.201647	0.105005	0.199018	0.199839
1649	0.200004	0.104512	0.20099	0.202305
1650	0.200825	0.09613	0.20099	0.199675
1651	0.199839	0.093172	0.199839	0.203126
1652	0.200661	0.092021	0.200661	0.201976
1653	0.198853	0.093172	0.198853	0.199018
1654	0.201647	0.098102	0.201483	0.200661
1655	0.199018	0.09613	0.202962	0.197045
1656	0.201483	0.094158	0.202305	0.200825
1657	0.199182	0.095473	0.203784	0.200825
1658	0.198853	0.096623	0.197045	0.202798
1659	0.197867	0.097774	0.200332	0.200332
1660	0.198853	0.096623	0.196552	0.203948
1661	0.201647	0.09613	0.198196	0.201319
1662	0.198853	0.097116	0.197538	0.200661
1663	0.201976	0.094651	0.19836	0.201154
1664	0.199839	0.094487	0.199182	0.201647
1665	0.203455	0.094158	0.198689	0.201154
1666	0.201154	0.052411	0.198853	0.200497
1667	0.199675	0.006227	0.197703	0.20099
1668	0.19836	0.015102	0.196717	0.203126
1669	0.19836	0.025457	0.200004	0.202305
1670	0.197867	0.027429	0.201154	0.200332
1671	0.198031	0.03729	0.199839	0.204113
1672	0.19836	0.037783	0.202305	0.202305
1673	0.199675	0.043043	0.200825	0.200825
1674	0.201647	0.046659	0.201319	0.200661
1675	0.199346	0.051918	0.201483	0.202633
1676	0.19836	0.054055	0.200825	0.199182
1677	0.200168	0.059314	0.198524	0.199511
1678	0.200332	0.061944	0.198196	0.200332
1679	0.19836	0.064245	0.198853	0.199839
1680	0.199346	0.068847	0.195073	0.199675
1681	0.199346	0.06671	0.197703	0.199182
1682	0.200497	0.06934	0.196388	0.20099
1683	0.200168	0.071148	0.197538	0.200004
1684	0.202305	0.070819	0.196223	0.198031
1685	0.201483	0.075421	0.198853	0.20099
1686	0.201976	0.076079	0.199675	0.200332
1687	0.19836	0.076736	0.201154	0.199675
1688	0.201483	0.082817	0.198031	0.200168
1689	0.201647	0.081174	0.203784	0.201319
1690	0.199511	0.081995	0.200497	0.200168
1691	0.200168	0.078544	0.201812	0.200004
1692	0.200497	0.080681	0.200332	0.20099
1693	0.199182	0.077886	0.202798	0.199346
1694	0.196552	0.081338	0.202469	0.200168
1695	0.200825	0.077065	0.198689	0.197867
1696	0.196881	0.071148	0.199839	0.19836
1697	0.197703	0.042714	0.200332	0.200661
1698	0.200661	0.027593	0.199511	0.200497
1699	0.199182	0.0105	0.198689	0.199346
1700	0.199675	0.012308	0.201319	0.201647
1701	0.201319	0.015431	0.199018	0.20214
1702	0.20099	0.020855	0.200332	0.200825
1703	0.201319	0.029894	0.200332	0.201483
1704	0.202962	0.032853	0.201154	0.200825
1705	0.201483	0.038605	0.200332	0.20214
1706	0.201483	0.039098	0.20362	0.197703
1707	0.201976	0.045837	0.20362	0.200168
1708	0.199839	0.046659	0.200661	0.199018
1709	0.201319	0.052411	0.198524	0.199511
1710	0.199511	0.054548	0.197374	0.196552
1711	0.199018	0.05915	0.199182	0.200332
1712	0.200497	0.058657	0.198689	0.198853
1713	0.199839	0.041235	0.198524	0.199675
1714	0.197867	0.042221	0.19836	0.199182
1715	0.19836	0.045837	0.201976	0.200497
1716	0.199839	0.046166	0.198853	0.199839
1717	0.201319	0.021512	0.202469	0.198524
1718	0.202469	0.010993	0.202469	0.201319
1719	0.197867	0.01428	0.202633	0.200332
1720	0.198853	0.021512	0.201647	0.201154
1721	0.200168	0.029237	0.202305	0.200332
1722	0.200168	0.041399	0.203784	0.203784
1723	0.201154	0.04107	0.19721	0.200661
1724	0.199346	0.026443	0.200661	0.203455
1725	0.201483	0.028086	0.200004	0.200168
1726	0.20099	0.037619	0.199839	0.201812
1727	0.20099	0.03614	0.198031	0.19721
1728	0.199018	0.016581	0.199018	0.200004
1729	0.200497	0.017567	0.20099	0.198689
1730	0.199675	0.02069	0.200168	0.200168
1731	0.199182	0.029566	0.199675	0.199018
1732	0.199839	0.033346	0.202633	0.194744
1733	0.19836	0.034661	0.201812	0.201812
1734	0.202633	0.040249	0.20099	0.198689
1735	0.202469	0.048631	0.196388	0.197703
1736	0.199182	0.053233	0.200497	0.198853
1737	0.20214	0.057342	0.201319	0.199839
1738	0.202798	0.062437	0.199182	0.201154
1739	0.200004	0.07049	0.202469	0.202962
1740	0.200497	0.07197	0.202962	0.199346
1741	0.199182	0.079037	0.201319	0.202633
1742	0.197703	0.081667	0.201319	0.199839
1743	0.197703	0.089391	0.202633	0.200332
1744	0.198853	0.095308	0.202962	0.200497
1745	0.199018	0.096623	0.202305	0.200825
1746	0.200004	0.102376	0.198196	0.201319
1747	0.199839	0.103855	0.200497	0.199675
1748	0.198031	0.107964	0.198689	0.202798
1749	0.198524	0.107799	0.201483	0.199182
1750	0.198689	0.111251	0.201319	0.201319
1751	0.201154	0.115031	0.200168	0.200661
1752	0.198524	0.034496	0.200497	0.201647
1753	0.20099	0.001296	0.200332	0.200825
1754	0.199182	0.002611	0.201154	0.201319
1755	0.201812	0.008692	0.202305	0.202962
1756	0.198196	0.013952	0.199675	0.205263
1757	0.200497	0.017732	0.200497	0.203948
1758	0.200004	0.022991	0.20214	0.202469
1759	0.201812	0.01428	0.197867	0.202305
1760	0.199675	0.008692	0.200332	0.20099
1761	0.200004	0.013787	0.199346	0.198689
1762	0.200332	0.020855	0.20099	0.199346
1763	0.198196	0.028744	0.198853	0.200661
1764	0.200661	0.032031	0.20099	0.198524
1765	0.199018	0.039427	0.200332	0.201319
1766	0.196223	0.040413	0.202305	0.198689
1767	0.197703	0.041728	0.201483	0.201483
1768	0.201483	0.036962	0.203126	0.199346
1769	0.196552	0.008035	0.200497	0.199511
1770	0.197538	0.014938	0.20099	0.200825
1771	0.201154	0.02069	0.200825	0.200004
1772	0.19836	0.024142	0.202469	0.19836
1773	0.199182	0.035647	0.200332	0.201319
1774	0.200332	0.038605	0.19836	0.198689
1775	0.199346	0.043536	0.198524	0.200497
1776	0.201319	0.05011	0.200168	0.201812
1777	0.201154	0.056191	0.201319	0.199839
1778	0.201319	0.062437	0.196717	0.20099
1779	0.201319	0.068189	0.203291	0.197538
1780	0.199839	0.072298	0.199839	0.200004
1781	0.199018	0.006391	0.201319	0.201976
1782	0.199839	0.008692	0.203948	0.198524
1783	0.202305	0.012965	0.204441	0.198196
1784	0.199839	0.024635	0.203291	0.200661
1785	0.200497	0.027922	0.20099	0.199018
1786	0.200825	0.039427	0.200004	0.202633
1787	0.201647	0.042714	0.200497	0.20362
1788	0.199346	0.049453	0.201976	0.201812
1789	0.200661	0.050768	0.197703	0.198853
1790	0.200825	0.062601	0.20099	0.201319
1791	0.200004	0.065395	0.198689	0.200497
1792	0.201812	0.068025	0.199346	0.202305
1793	0.203126	0.077229	0.200661	0.20214
1794	0.204606	0.081009	0.203455	0.197867
1795	0.201154	0.080516	0.200004	0.200168
1796	0.199511	0.090049	0.202305	0.201647
1797	0.19836	0.091364	0.198689	0.199346
1798	0.199839	0.064902	0.202305	0.202798
1799	0.199018	0.044851	0.200004	0.201647
1800	0.199511	0.003597	0.198689	0.199675
1801	0.198689	0.011486	0.200332	0.200332
1802	0.20214	-1.9e-05	0.201319	0.200825
1803	0.197538	0.001296	0.199018	0.20214
1804	0.197703	-1.9e-05	0.199839	0.200661
1805	0.199182	-0.000347	0.201319	0.199675
1806	0.200497	-0.000347	0.197867	0.197538
1807	0.19836	-1.9e-05	0.200825	0.19836
1808	0.198689	0.000146	0.20099	0.199018
1809	0.199182	0.00031	0.199346	0.200332
1810	0.199839	0.000146	0.197867	0.200497
1811	0.200825	0.000146	0.199182	0.202633
1812	0.199839	-1.9e-05	0.197703	0.20099
1813	0.201976	-0.000183	0.200004	0.202469
1814	0.19721	-0.000512	0.200004	0.202798
1815	0.19836	-0.000347	0.201483	0.199182
1816	0.199675	-0.000347	0.201647	0.200497
1817	0.198196	-1.9e-05	0.200332	0.199511
1818	0.195402	0.000146	0.201319	0.203948
1819	0.200825	0.000146	0.198689	0.199182
1820	0.198031	0.000146	0.198031	0.199511
1821	0.200168	0.000474	0.198031	0.199182
1822	0.198196	0.000146	0.197703	0.199675
1823	0.199511	-1.9e-05	0.197703	0.200497
1824	0.199839	-0.000183	0.199511	0.201976
1825	0.19836	-0.000347	0.199018	0.201812
1826	0.199675	-0.000512	0.199346	0.200168
1827	0.199346	-0.000841	0.199675	0.200661
1828	0.202305	-0.000183	0.199346	0.200004
1829	0.198853	-0.000183	0.198853	0.202305
1830	0.200332	0.000146	0.199839	0.199346
1831	0.199346	0.00031	0.199839	0.201647
1832	0.199839	0.000146	0.199346	0.200168
1833	0.199018	0.00031	0.201319	0.198524
1834	0.201483	-0.000183	0.198524	0.196059
1835	0.198689	-0.000347	0.20214	0.200497
1836	0.202633	-0.000183	0.200497	0.195566
1837	0.195402	-0.000183	0.200661	0.198031
1838	0.198689	-0.000512	0.199675	0.201154
1839	0.198031	-0.000183	0.201647	0.200332
1840	0.199182	-1.9e-05	0.200004	0.201154
1841	0.199839	0.000146	0.199511	0.201812
1842	0.200825	0.000146	0.191293	0.201647
1843	0.202633	0.00031	0.198524	0.200004
1844	0.197374	0.000146	0.199182	0.202469
1845	0.200661	-1.9e-05	0.201647	0.19836
1846	0.198853	-1.9e-05	0.199346	0.202469
1847	0.200825	-0.000347	0.200825	0.200004
1848	0.197703	-0.000183	0.202305	0.200661
1849	0.203291	-1.9e-05	0.200661	0.199839
1850	0.198689	-1.9e-05	0.202962	0.202962
1851	0.199511	-1.9e-05	0.198689	0.19721
1852	0.197703	0.00031	0.202962	0.201647
1853	0.198689	0.000146	0.192936	0.19836
1854	0.197538	0.000146	0.199346	0.197867
1855	0.19836	0.00031	0.199182	0.19836
1856	0.199839	0.000146	0.200004	0.200004
1857	0.197867	-0.000347	0.198524	0.200661
1858	0.200497	-0.000347	0.200332	0.205756
1859	0.19836	-0.000347	0.201319	0.20099
1860	0.200825	-0.000183	0.199839	0.200825
1861	0.196388	-0.000183	0.199346	0.203291
1862	0.198524	-1.9e-05	0.199182	0.20099
1863	0.199018	0.000146	0.199346	0.201483
1864	0.199018	0.00031	0.200825	0.201319
1865	0.196881	0.000474	0.200004	0.20099
1866	0.199675	0.00031	0.200497	0.201976
1867	0.198524	-0.000183	0.201319	0.199675
1868	0.196223	-0.000183	0.199839	0.201319
1869	0.196388	-0.000347	0.200497	0.196388
1870	0.200168	-0.000183	0.195073	0.199182
1871	0.200661	-0.000512	0.200497	0.198524
1872	0.196388	-0.000183	0.200661	0.200661
1873	0.19721	0.000146	0.200004	0.200497
1874	0.19836	0.00031	0.199346	0.199511
1875	0.199182	0.000146	0.203291	0.201154
1876	0.199346	0.00031	0.196059	0.20214
1877	0.199182	0.00031	0.196223	0.200004
1878	0.200661	-1.9e-05	0.19836	0.201647
1879	0.200004	-0.000183	0.197703	0.200004
1880	0.198689	-0.000347	0.19836	0.201154
1881	0.200004	-0.000347	0.197045	0.197703
1882	0.199018	-0.000676	0.199346	0.199182
1883	0.199839	-0.000183	0.203455	0.199182
1884	0.197867	0.000146	0.199346	0.199018
1885	0.198031	0.00031	0.200168	0.195895
1886	0.199675	0.000146	0.203126	0.200004
1887	0.196881	0.000146	0.197374	0.196388
1888	0.196059	0.000474	0.200825	0.197703
1889	0.197867	-1.9e-05	0.20099	0.200661
1890	0.198689	-0.000183	0.199839	0.194087
1891	0.195402	-0.000512	0.198689	0.200497
1892	0.201483	-0.000347	0.200661	0.199511
1893	0.19836	-0.000183	0.197045	0.200661
1894	0.196223	-1.9e-05	0.201154	0.200661
1895	0.197374	-1.9e-05	0.200497	0.200004
1896	0.201154	0.000146	0.198689	0.198524
1897	0.199511	0.000146	0.199675	0.205099
1898	0.200168	0.00031	0.200004	0.201319
1899	0.198524	0.00031	0.200661	0.201319
1900	0.200004	-1.9e-05	0.199675	0.200332
1901	0.199018	-0.000183	0.200661	0.193265
1902	0.197538	-0.000512	0.199675	0.198031
1903	0.19836	-0.000183	0.201647	0.199018
1904	0.193101	-0.000183	0.200168	0.198853
1905	0.196223	-1.9e-05	0.200825	0.201483
1906	0.200497	-1.9e-05	0.200168	0.203455
1907	0.199018	0.00031	0.20214	0.19836
1908	0.196388	0.00031	0.200497	0.201483
1909	0.198031	0.00031	0.197538	0.198524
1910	0.196552	0.00031	0.20214	0.199511
1911	0.199511	-0.000183	0.200004	0.200168
1912	0.196388	0.000146	0.200661	0.203784
1913	0.198689	-0.000841	0.198524	0.197374
1914	0.198196	0.004419	0.201319	0.202962
1915	0.192115	0.005405	0.200497	0.202305
1916	0.19721	0.002282	0.203291	0.199346
1917	0.195895	-1.9e-05	0.200004	0.199675
1918	0.197538	0.00031	0.200661	0.197703
1919	0.195402	0.000146	0.202305	0.200825
1920	0.198853	0.00031	0.200825	0.199018
1921	0.196881	0.00031	0.199675	0.201319
1922	0.196223	-0.000183	0.201976	0.200661
1923	0.197374	-0.000183	0.201647	0.207235
1924	0.197867	-0.000512	0.200497	0.19573
1925	0.196717	-0.000347	0.200332	0.199018
1926	0.19721	-0.000347	0.197703	0.20099
1927	0.197045	-1.9e-05	0.198196	0.19836
1928	0.19836	-1.9e-05	0.198853	0.201154
1929	0.198689	0.00031	0.200004	0.200661
1930	0.198524	0.00031	0.199839	0.199182
1931	0.198031	0.00031	0.195895	0.200332
1932	0.198031	0.000146	0.199018	0.197703
1933	0.198853	-0.000183	0.200497	0.200168
1934	0.197867	-0.000512	0.197374	0.200661
1935	0.198031	-0.000347	0.200825	0.197538
1936	0.200168	-0.000183	0.198689	0.199675
1937	0.202798	-0.000347	0.202469	0.200497
1938	0.195402	0.000146	0.204113	0.198031
1939	0.196552	0.000146	0.198689	0.197374
1940	0.196059	0.00031	0.202305	0.199675
1941	0.196388	-1.9e-05	0.20099	0.199839
1942	0.195237	0.000146	0.198196	0.201319
1943	0.197374	0.000146	0.205756	0.200497
1944	0.198031	-0.000183	0.199675	0.199511
1945	0.197703	-0.000512	0.200661	0.201976
1946	0.201319	-0.000512	0.202469	0.202469
1947	0.198853	-0.000676	0.19836	0.200497
1948	0.197867	-0.000183	0.20099	0.200004
1949	0.19573	-1.9e-05	0.199675	0.200168
1950	0.196223	0.00031	0.200497	0.198853
1951	0.195237	0.00031	0.19836	0.199839
1952	0.196223	0.000146	0.199511	0.200168
1953	0.194744	0.00031	0.200661	0.203291
1954	0.195895	-1.9e-05	0.201483	0.201483
1955	0.196223	-0.000183	0.200332	0.202633
1956	0.196388	-0.000183	0.201154	0.201319
1957	0.196059	-0.000347	0.201483	0.199182
1958	0.196059	-0.000512	0.196881	0.198689
1959	0.193758	-0.000347	0.199511	0.198196
1960	0.195895	-0.000183	0.197045	0.203126
1961	0.194909	-1.9e-05	0.200497	0.200004
1962	0.193758	0.00031	0.19836	0.202305
1963	0.196388	0.000474	0.202962	0.200497
1964	0.194909	0.000146	0.199018	0.201319
1965	0.191293	0.000146	0.201976	0.200332
1966	0.193265	-0.000347	0.198031	0.200497
1967	0.193922	-0.000183	0.199675	0.200661
1968	0.19458	-0.000347	0.200004	0.200004
1969	0.194087	-0.000512	0.200004	0.198524
1970	0.19195	-0.000347	0.200497	0.198524
1971	0.194744	-0.000183	0.201647	0.201154
1972	0.192772	0.000146	0.205263	0.201812
1973	0.195402	0.000146	0.201647	0.200168
1974	0.193922	0.000146	0.20099	0.20099
1975	0.195073	0.00031	0.19836	0.199675
1976	0.19458	-1.9e-05	0.200825	0.200332
1977	0.19573	-0.000183	0.197538	0.199839
1978	0.195237	-0.000347	0.201319	0.20214
1979	0.195237	-0.000347	0.199839	0.199182
1980	0.194416	-0.000183	0.20362	0.200004
1981	0.196717	-0.000183	0.199675	0.199675
1982	0.195566	0.000146	0.201319	0.199018
1983	0.195073	0.000146	0.198524	0.198689
1984	0.192608	0.00031	0.199182	0.19836
1985	0.195566	0.00031	0.199018	0.197538
1986	0.197374	0.00031	0.200004	0.200825
1987	0.197703	0.00031	0.202633	0.201319
1988	0.19836	-1.9e-05	0.200168	0.199839
1989	0.192936	-0.000183	0.201319	0.198524
1990	0.194909	-0.000183	0.200661	0.199511
1991	0.194744	-0.000512	0.202305	0.201812
1992	0.19458	-0.000183	0.203455	0.199182
1993	0.195895	-1.9e-05	0.203455	0.200825
1994	0.19458	0.00031	0.20099	0.200004
1995	0.195566	-1.9e-05	0.200661	0.200661
1996	0.195402	0.000146	0.200332	0.201319
1997	0.194416	0.00031	0.199182	0.199018
1998	0.19195	-1.9e-05	0.198524	0.201647
1999	0.193758	-1.9e-05	0.200661	0.199675
2000	0.194087	-1.9e-05	0.20099	0.200825
2001	0.193758	-0.000183	0.198031	0.199182
2002	0.193429	-0.000512	0.201976	0.201319
2003	0.19573	-0.000183	0.199675	0.202305
2004	0.190964	-0.000183	0.20099	0.200497
2005	0.197045	0.000146	0.202305	0.198031
2006	0.194251	0.00031	0.200497	0.199675
2007	0.195073	0.000474	0.201483	0.20362
2008	0.195566	0.00031	0.200168	0.199839
2009	0.191786	0.000146	0.201647	0.203455
2010	0.196388	-0.000183	0.200004	0.205263
2011	0.196552	-0.000512	0.198853	0.200661
2012	0.194416	-0.000347	0.199346	0.200168
2013	0.191293	-0.000347	0.199346	0.199839
2014	0.1908	-0.000183	0.199839	0.198853
2015	0.190307	0.000146	0.199511	0.201154
2016	0.191457	0.000146	0.199511	0.198196
2017	0.190142	0.000146	0.199182	0.199346
2018	0.193101	0.000146	0.200004	0.202305
2019	0.192115	0.000146	0.199182	0.200497
2020	0.192608	0.000146	0.198853	0.200168
2021	0.194087	-0.000183	0.199018	0.204606
2022	0.192936	-0.000183	0.203784	0.201319
2023	0.192443	-0.000347	0.196388	0.201319
2024	0.193758	-0.000512	0.197045	0.200661
2025	0.194251	-0.000183	0.199839	0.200168
2026	0.192115	0.000146	0.198031	0.200004
2027	0.191786	0.000146	0.20099	0.201483
2028	0.190964	0.00031	0.19721	0.198853
2029	0.190307	0.00031	0.202305	0.19836
2030	0.192115	0.000146	0.200825	0.199182
2031	0.191128	0.000146	0.199346	0.200004
2032	0.188827	-0.000183	0.199839	0.199839
2033	0.190964	-0.000183	0.198853	0.19721
2034	0.188663	-0.000347	0.198689	0.200168
2035	0.190964	-0.000512	0.197867	0.199182
2036	0.190471	-0.000183	0.19836	0.199346
2037	0.19458	0.000146	0.200332	0.201647
2038	0.191293	0.000146	0.20099	0.201976
2039	0.19195	0.000146	0.199346	0.20099
2040	0.192608	0.000474	0.200661	0.201647
2041	0.191457	0.000474	0.198524	0.203291
2042	0.189649	0.00031	0.200332	0.202469
2043	0.189485	0.000146	0.198853	0.199675
2044	0.189485	-0.000183	0.201647	0.201319
2045	0.190964	-0.000183	0.198524	0.198853
2046	0.189814	-0.000512	0.199675	0.199182
2047	0.186362	-0.000183	0.199182	0.199675
2048	0.187184	-1.9e-05	0.200497	0.198689
2049	0.187019	0.000146	0.200004	0.200332
2050	0.188827	0.000474	0.199182	0.196717
2051	0.187841	0.00031	0.197867	0.200661
2052	0.189814	0.000146	0.197867	0.199182
2053	0.187348	-1.9e-05	0.201647	0.200332
2054	0.191621	-0.000183	0.198853	0.198524
2055	0.191621	-0.000347	0.203126	0.200332
2056	0.191457	-0.000347	0.198524	0.200168
2057	0.1908	-0.000512	0.200497	0.200004
2058	0.190307	-0.000347	0.200661	0.201812
2059	0.187184	0.000146	0.200497	0.199182
2060	0.187184	0.000474	0.205099	0.200004
2061	0.191293	0.000474	0.202305	0.197045
2062	0.188334	0.00031	0.200332	0.199675
2063	0.188499	0.00031	0.200168	0.19836
2064	0.187348	0.000146	0.200825	0.199511
2065	0.188992	-0.000183	0.199511	0.199511
2066	0.188334	-0.000512	0.200332	0.200497
2067	0.176665	-0.000347	0.199675	0.197374
2068	0.166639	-0.000347	0.198031	0.199346
2069	0.169269	-0.000183	0.202633	0.199839
2070	0.158093	-1.9e-05	0.201154	0.199675
2071	0.151354	0.000146	0.197538	0.20099
2072	0.154477	0.000146	0.201319	0.200004
2073	0.145437	0.00031	0.19836	0.200825
2074	0.147738	0.00031	0.197703	0.204606
2075	0.147245	-1.9e-05	0.197374	0.201976
2076	0.151354	0.00031	0.198031	0.199839
2077	0.150368	-1.9e-05	0.197374	0.201154
2078	0.153655	-0.000347	0.197867	0.19836
2079	0.155627	-0.000512	0.199675	0.201154
2080	0.155627	-0.000183	0.19836	0.196552
2081	0.1576	-1.9e-05	0.201647	0.19721
2082	0.158093	0.000146	0.200497	0.197867
2083	0.1576	0.000146	0.20099	0.201154
2084	0.161051	0.00031	0.199675	0.197867
2085	0.161873	0.00031	0.201319	0.197045
2086	0.161544	0.000146	0.199018	0.200825
2087	0.164831	-0.000183	0.200661	0.199182
2088	0.168283	-0.000347	0.198196	0.205263
2089	0.168612	-0.000347	0.200825	0.202798
2090	0.16894	-0.000347	0.199511	0.20214
2091	0.171077	-0.000347	0.198524	0.201812
2092	0.168612	0.000146	0.200661	0.201154
2093	0.173378	0.000146	0.200825	0.201319
2094	0.170748	0.00031	0.199675	0.201154
2095	0.17272	0.000146	0.202305	0.200004
2096	0.173707	-1.9e-05	0.199018	0.202305
2097	0.168283	0.000146	0.199675	0.200661
2098	0.166804	-1.9e-05	0.200332	0.200497
2099	0.171734	-0.000183	0.198689	0.202962
2100	0.168283	-0.000183	0.20214	0.199018
2101	0.166311	-0.000512	0.200004	0.198031
2102	0.161873	-0.000183	0.201647	0.200168
2103	0.161873	-1.9e-05	0.199346	0.198196
2104	0.15234	0.000146	0.200332	0.19836
2105	0.153655	0.000146	0.200497	0.200168
2106	0.155792	0.000474	0.200004	0.202798
2107	0.157107	0.000146	0.196717	0.199839
2108	0.1576	0.000146	0.199839	0.201812
2109	0.154477	-0.000183	0.195566	0.200661
2110	0.160558	-0.000347	0.197538	0.200332
2111	0.16138	-0.000347	0.198853	0.202305
2112	0.152505	-0.000512	0.200825	0.202469
2113	0.154806	-0.000183	0.199839	0.201483
2114	0.136562	-1.9e-05	0.196881	0.201483
2115	0.129659	0.00031	0.201812	0.200497
2116	0.128344	0.00031	0.201154	0.199346
2117	0.12818	0.00031	0.202962	0.198689
2118	0.130152	0.00031	0.198689	0.200004
2119	0.124235	0.000146	0.201319	0.199511
2120	0.12933	-1.9e-05	0.200497	0.198031
2121	0.135411	-0.000183	0.200825	0.199675
2122	0.132782	-0.000512	0.199675	0.201319
2123	0.135411	-0.000347	0.197045	0.199018
2124	0.134754	-0.000512	0.195237	0.199675
2125	0.138534	-1.9e-05	0.198031	0.199018
2126	0.126372	0.000146	0.196388	0.203126
2127	0.129823	0.00031	0.193922	0.199182
2128	0.125879	0.000146	0.200661	0.201647
2129	0.120784	0.00031	0.199511	0.200825
2130	0.011651	-1.9e-05	0.199346	0.200004
2131	0.010171	-1.9e-05	0.199675	0.19721
2132	0.018061	-0.000183	0.201319	0.199018
2133	0.022334	-0.000512	0.200497	0.198853
2134	0.028415	-0.000347	0.205263	0.198031
2135	0.034661	-0.000347	0.200332	0.198196
2136	0.036962	0.000146	0.20214	0.200332
2137	0.045672	0.000146	0.200497	0.199839
2138	0.050768	0.000474	0.201154	0.200168
2139	0.053069	0.00031	0.202305	0.202469
2140	0.05389	0.000474	0.201812	0.199346
2141	0.014609	-1.9e-05	0.201483	0.201319
2142	0.000146	-0.000183	0.199839	0.200332
2143	0.001954	-0.000183	0.198853	0.202798
2144	0.003597	-0.000183	0.199018	0.199675
2145	0.000146	-0.000183	0.201812	0.201319
2146	0.001625	-0.000183	0.198853	0.200661
2147	-0.000183	-1.9e-05	0.200661	0.200661
2148	0.001296	0.000146	0.201483	0.202633
2149	0.006227	0.000474	0.201154	0.199511
2150	0.005569	0.00031	0.201812	0.202305
2151	0.000474	0.00031	0.201976	0.201154
2152	0.006556	-1.9e-05	0.201319	0.200004
2153	0.000474	-0.000183	0.201647	0.200332
2154	0.004583	-0.000347	0.201812	0.199675
2155	0.003597	-0.000512	0.204113	0.199018
2156	-0.000183	-0.000512	0.200332	0.201154
2157	-1.9e-05	-0.000347	0.200168	0.200661
2158	-0.000183	0.000146	0.198524	0.199018
2159	0.000146	0.000146	0.198689	0.199182
2160	0.002611	0.00031	0.202305	0.200825
2161	0.004583	0.00031	0.19721	0.203126
2162	0.005241	0.00031	0.199182	0.202305
2163	0.014609	-1.9e-05	0.19721	0.200825
2164	0.016581	-0.000183	0.200497	0.201483
2165	0.001296	-0.000183	0.198524	0.202305
2166	-0.000183	-0.000512	0.202305	0.198853
2167	0.000803	-0.000676	0.201812	0.199346
2168	0.000639	-0.000183	0.203126	0.200004
2169	0.000146	-0.000183	0.20099	0.201154
2170	0.005076	0.00031	0.201483	0.202633
2171	-1.9e-05	0.000146	0.200825	0.200825
2172	0.00031	0.00031	0.200661	0.196388
2173	0.000146	0.000146	0.200497	0.20099
2174	-1.9e-05	-1.9e-05	0.198689	0.199182
2175	-0.000183	-0.000183	0.199182	0.199675
2176	-0.000347	-0.000183	0.202469	0.200825
2177	-0.000347	-0.000347	0.201976	0.199511
2178	-0.000512	-0.000512	0.199182	0.201154
2179	-1.9e-05	-0.000512	0.200004	0.202469
2180	0.00031	0.000146	0.198031	0.202305
2181	-1.9e-05	0.00031	0.198524	0.202305
2182	0.00031	0.00031	0.20214	0.199675
2183	0.000146	0.000146	0.202469	0.200168
2184	0.000474	0.00031	0.199182	0.200661
2185	-1.9e-05	-1.9e-05	0.201976	0.198031
2186	-0.000183	-0.000183	0.198196	0.200661
2187	-0.000512	-0.000183	0.200004	0.20214
2188	-0.000183	-0.000512	0.199839	0.198689
2189	-0.000512	-0.000183	0.202305	0.198689
2190	-0.000183	-0.000183	0.198196	0.200497
2191	0.00031	0.000146	0.198853	0.199346
2192	0.000146	0.000146	0.199839	0.199511
2193	0.000146	0.000146	0.199511	0.201812
2194	0.000146	0.000146	0.200825	0.201483
2195	0.000146	0.00031	0.19721	0.200168
2196	-1.9e-05	-1.9e-05	0.202305	0.203455
2197	-0.000347	-0.000183	0.199346	0.200825
2198	-0.000183	-0.000512	0.199182	0.201976
2199	-0.000347	-0.000512	0.200168	0.202469
2200	-0.000183	-0.000347	0.20099	0.200004
2201	-0.000183	-0.000183	0.201483	0.202798
2202	-1.9e-05	0.000146	0.203455	0.200332
2203	0.000146	0.000146	0.202962	0.20099
2204	0.00031	0.00031	0.198524	0.201483
2205	0.000474	0.00031	0.200497	0.201976
2206	0.000146	0.00031	0.19836	0.198853
2207	0.000146	-1.9e-05	0.200497	0.200168
2208	-0.000347	-0.000183	0.198031	0.199346
2209	-0.000347	-0.000347	0.200004	0.199675
2210	-0.000347	-0.000512	0.198853	0.198196
2211	-0.000347	-0.000512	0.20099	0.198689
2212	-0.000183	-0.000183	0.19836	0.200497
2213	0.000146	0.00031	0.200332	0.197374
2214	0.000146	-1.9e-05	0.199511	0.202962
2215	0.00031	0.000146	0.205756	0.19836
2216	0.00031	0.000474	0.202305	0.200497
2217	0.00031	0.000146	0.201647	0.198853
2218	-1.9e-05	0.000146	0.200825	0.201154
2219	-0.000183	0.000146	0.201483	0.200004
2220	-0.000347	0.00031	0.202469	0.201154
2221	-0.000183	0.000474	0.200332	0.199018
2222	-0.000512	-0.000183	0.202962	0.199675
2223	-0.000183	-0.001005	0.197374	0.198853
2224	0.00031	0.004912	0.199346	0.199182
2225	0.00031	0.007049	0.199346	0.201483
2226	0.000146	0.005405	0.199839	0.199018
2227	0.00031	0.007049	0.197538	0.199839
2228	0.000146	0.005405	0.198196	0.198689
2229	-1.9e-05	0.006227	0.196552	0.200332
2230	-0.000183	0.00294	0.200168	0.201812
2231	-0.000347	0.007213	0.19836	0.202633
2232	-0.000347	0.009678	0.199346	0.195895
2233	-0.000347	0.018225	0.201319	0.200168
2234	-0.000183	0.02069	0.200004	0.200661
2235	-1.9e-05	0.031538	0.199182	0.199346
2236	-1.9e-05	0.033346	0.20362	0.198853
2237	0.00031	0.037455	0.201976	0.199346
2238	0.000146	0.040249	0.198196	0.20099
2239	0.00146	0.03992	0.203784	0.199675
2240	-1.9e-05	0.046166	0.198689	0.200497
2241	-0.000512	0.046823	0.200332	0.202305
2242	-0.000183	0.0437	0.199018	0.199182
2243	-0.000512	0.040906	0.199346	0.199018
2244	-0.000347	0.025621	0.204277	0.202469
2245	-0.000347	0.008857	0.199675	0.199182
2246	0.006391	0.001954	0.19836	0.200497
2247	0.013623	0.000146	0.20099	0.200497
2248	0.020197	0.000146	0.19195	0.202962
2249	0.025128	0.000146	0.19836	0.201319
2250	0.03351	0.000146	0.199346	0.201812
2251	0.039427	-0.000183	0.198196	0.201154
2252	0.04107	-0.000183	0.202305	0.201319
2253	0.056027	-0.000512	0.199018	0.197867
2254	0.054383	-1.9e-05	0.19836	0.204606
2255	0.063259	-0.001334	0.200332	0.201483
2256	0.067203	0.000803	0.200661	0.200661
2257	0.071805	0.00031	0.199511	0.200168
2258	0.07953	0.000639	0.201319	0.200661
2259	0.082324	-1.9e-05	0.192115	0.20099
2260	0.086269	0.000967	0.200332	0.199511
2261	0.091528	-0.000183	0.19836	0.201647
2262	0.096788	0.001625	0.200332	0.199839
2263	0.09613	0.009185	0.199182	0.200168
2264	0.101718	0.015102	0.200825	0.200497
2265	0.106485	0.023649	0.193594	0.199346
2266	0.109772	0.031209	0.19836	0.200825
2267	0.109114	0.035647	0.20099	0.199675
2268	0.111908	0.04107	0.198689	0.200332
2269	0.114374	0.04896	0.201154	0.200168
2270	0.116017	0.052082	0.200661	0.199839
2271	0.11914	0.057835	0.199182	0.200661
2272	0.117825	0.061122	0.200332	0.198853
2273	0.121441	0.06671	0.201154	0.19836
2274	0.121605	0.070326	0.200332	0.200497
2275	0.127687	0.071805	0.201319	0.197045
2276	0.129166	0.072956	0.199511	0.199018
2277	0.13311	0.082324	0.201647	0.198689
2278	0.131302	0.08331	0.200825	0.200168
2279	0.137219	0.087912	0.199018	0.195237
2280	0.137877	0.093336	0.200825	0.199018
2281	0.141328	0.09235	0.2074	0.19836
2282	0.140835	0.100732	0.201647	0.197045
2283	0.142479	0.102376	0.201154	0.198524
2284	0.141821	0.106485	0.204606	0.198853
2285	0.143136	0.111087	0.202798	0.194909
2286	0.146752	0.112237	0.20099	0.198853
2287	0.149382	0.114867	0.193429	0.199182
2288	0.154641	0.119304	0.202633	0.197867
2289	0.151518	0.116182	0.200332	0.198524
2290	0.154641	0.122427	0.201154	0.198853
2291	0.15497	0.128344	0.201647	0.201483
2292	0.156778	0.126372	0.204441	0.197703
2293	0.152176	0.12933	0.200825	0.202633
2294	0.154148	0.129166	0.201647	0.199839
2295	0.155956	0.134754	0.201812	0.199511
2296	0.157107	0.137877	0.202633	0.190635
2297	0.156613	0.13952	0.202305	0.200168
2298	0.159079	0.139027	0.197538	0.197703
2299	0.157107	0.146095	0.199182	0.200825
2300	0.156285	0.141986	0.203455	0.199839
2301	0.160558	0.152011	0.200168	0.201483
2302	0.163188	0.147245	0.199675	0.198689
2303	0.166475	0.150532	0.200661	0.200661
2304	0.166639	0.151518	0.196552	0.205099
2305	0.169598	0.154806	0.199675	0.20214
2306	0.164831	0.160558	0.198853	0.203948
2307	0.174035	0.156285	0.201483	0.19573
2308	0.173378	0.161051	0.199018	0.201154
2309	0.171734	0.162202	0.198196	0.200661
2310	0.167132	0.166804	0.200168	0.200497
2311	0.172556	0.165489	0.199182	0.201154
2312	0.178144	0.166475	0.200825	0.201319
2313	0.174693	0.168283	0.199511	0.201154
2314	0.174693	0.169926	0.203126	0.201154
2315	0.175843	0.170913	0.196717	0.198524
2316	0.174693	0.169762	0.202633	0.199675
2317	0.176665	0.172392	0.199182	0.199839
2318	0.177815	0.172885	0.197703	0.202798
2319	0.176994	0.171899	0.199511	0.198853
2320	0.183075	0.173378	0.197703	0.199018
2321	0.174857	0.173214	0.198031	0.200825
2322	0.181596	0.171241	0.198689	0.200332
2323	0.184718	0.175186	0.19721	0.201319
2324	0.186198	0.175679	0.199675	0.199675
2325	0.185047	0.177158	0.20099	0.201483
2326	0.187184	0.177487	0.19573	0.199511
2327	0.184554	0.177322	0.197538	0.201319
2328	0.189485	0.179952	0.199182	0.201812
2329	0.187348	0.180445	0.200825	0.204277
2330	0.187841	0.180281	0.200004	0.194744
2331	0.188663	0.181103	0.204441	0.197374
2332	0.187841	0.180281	0.200661	0.196717
2333	0.188663	0.181267	0.201154	0.194909
2334	0.187513	0.181596	0.200497	0.196059
2335	0.190471	0.179788	0.197045	0.19573
2336	0.18932	0.184225	0.20099	0.200332
2337	0.191293	0.181267	0.200661	0.198031
2338	0.187841	0.181431	0.200661	0.197703
2339	0.193429	0.187019	0.199018	0.199675
2340	0.195073	0.184225	0.200497	0.201812
2341	0.194744	0.182417	0.199675	0.198031
2342	0.191621	0.157928	0.200825	0.199839
2343	0.200661	-0.001005	0.203126	0.197703
2344	0.194909	0.002118	0.199182	0.199182
2345	0.195566	0.010336	0.200332	0.199675
2346	0.196223	0.019211	0.201647	0.198196
2347	0.194087	0.025292	0.199182	0.199511
2348	0.194087	0.03236	0.20099	0.200661
2349	0.194909	0.038934	0.198524	0.197867
2350	0.193922	0.043536	0.199839	0.198196
2351	0.195402	0.050603	0.199511	0.199018
2352	0.194744	0.050603	0.197703	0.195895
2353	0.197374	0.063587	0.197703	0.199675
2354	0.199182	0.06671	0.201647	0.197867
2355	0.193922	0.072956	0.19573	0.199346
2356	0.196388	0.078544	0.197703	0.200168
2357	0.196881	0.081831	0.199675	0.198196
2358	0.198031	0.088898	0.198031	0.199182
2359	0.195566	0.091035	0.198524	0.200825
2360	0.19721	0.093665	0.197867	0.199346
2361	0.198689	0.104019	0.198031	0.200497
2362	0.194087	0.102704	0.199018	0.201483
2363	0.201154	0.110922	0.199675	0.199182
2364	0.195895	0.111251	0.199018	0.196881
2365	0.193922	0.118976	0.197703	0.196388
2366	0.195237	0.118483	0.196717	0.196717
2367	0.191128	0.119633	0.201483	0.19573
2368	0.197045	0.125057	0.199839	0.197045
2369	0.197538	0.1267	0.200332	0.197867
2370	0.198031	0.131467	0.196717	0.199511
2371	0.197867	0.132453	0.196717	0.199839
2372	0.197538	0.137548	0.196388	0.200004
2373	0.196717	0.141164	0.195895	0.200661
2374	0.197867	0.14215	0.196223	0.199675
2375	0.19836	0.141986	0.195566	0.198853
2376	0.198524	0.147574	0.197374	0.20214
2377	0.199346	0.146095	0.195895	0.200825
2378	0.197538	0.14856	0.198524	0.203291
2379	0.19836	0.150697	0.198031	0.201154
2380	0.196717	0.152998	0.200661	0.199018
2381	0.197045	0.15497	0.19836	0.198031
2382	0.196388	0.154148	0.200168	0.198524
2383	0.196388	0.158257	0.196881	0.199182
2384	0.197045	0.157764	0.19721	0.19573
2385	0.195566	0.153326	0.200332	0.196388
2386	0.19721	0.147903	0.19836	0.200168
2387	0.199839	0.147409	0.197045	0.198689
2388	0.196059	0.147081	0.198031	0.197703
2389	0.195402	0.151518	0.19836	0.201647
2390	0.194744	0.153162	0.198196	0.20099
2391	0.196552	0.154477	0.19836	0.20099
2392	0.197703	0.002611	0.198853	0.200825
2393	0.196059	0.006391	0.199839	0.20099
2394	0.200168	0.008199	0.198196	0.201483
2395	0.198689	0.002611	0.200004	0.200497
2396	0.197703	0.004255	0.198689	0.198196
2397	0.198689	0.003761	0.199018	0.198196
2398	0.197374	0.007706	0.197867	0.199346
2399	0.195073	0.009514	0.200332	0.197703
2400	0.198031	0.01954	0.201154	0.198031
2401	0.197538	0.025128	0.197374	0.197374
2402	0.197374	0.030059	0.201483	0.198853
2403	0.20477	0.036633	0.19836	0.198853
2404	0.200168	0.045179	0.199018	0.197867
2405	0.201154	0.052575	0.198196	0.198196
2406	0.197867	0.057835	0.199346	0.200661
2407	0.200168	0.06556	0.199182	0.198031
2408	0.198853	0.065724	0.19721	0.200004
2409	0.195237	0.074435	0.200661	0.200168
2410	0.199182	0.0769	0.19721	0.199511
2411	0.20099	0.083146	0.200332	0.199018
2412	0.197867	0.087748	0.19836	0.199182
2413	0.196881	0.092514	0.200332	0.198196
2414	0.194416	0.09498	0.198853	0.195895
2415	0.193265	0.099582	0.200497	0.194744
2416	0.196717	0.104677	0.198524	0.196717
2417	0.197045	0.106978	0.19721	0.200661
2418	0.196552	0.109279	0.200497	0.197703
2419	0.195895	0.067368	0.198031	0.198853
2420	0.200168	-0.000183	0.198689	0.196717
2421	0.198031	-1.9e-05	0.198524	0.200004
2422	0.200661	-1.9e-05	0.199839	0.197538
2423	0.198853	0.000146	0.199018	0.195402
2424	0.196552	0.000146	0.199182	0.199675
2425	0.202305	0.000639	0.200332	0.199675
2426	0.198524	0.003104	0.196717	0.200661
2427	0.199182	0.00935	0.196223	0.200825
2428	0.200497	0.008035	0.197703	0.200332
2429	0.198689	0.010993	0.196388	0.198689
2430	0.199182	0.018389	0.195895	0.200497
2431	0.201976	0.016253	0.197045	0.196223
2432	0.197374	0.026278	0.198689	0.198524
2433	0.200825	0.031209	0.200332	0.19836
2434	0.198689	0.038605	0.200497	0.196717
2435	0.199346	0.043865	0.200661	0.199346
2436	0.198689	0.051589	0.199346	0.197045
2437	0.196388	0.056027	0.201812	0.198689
2438	0.19836	0.065724	0.201319	0.20214
2439	0.200168	0.067696	0.199839	0.199839
2440	0.197538	0.075092	0.198524	0.202469
2441	0.198524	0.079859	0.197867	0.200332
2442	0.198196	0.083968	0.199839	0.199182
2443	0.201154	0.088077	0.198524	0.202305
2444	0.204113	0.093172	0.20099	0.200332
2445	0.19836	0.092843	0.196059	0.19721
2446	0.197538	0.099089	0.198524	0.200168
2447	0.196717	0.104019	0.19721	0.200004
2448	0.196717	0.104841	0.197374	0.197867
2449	0.198196	0.109936	0.198689	0.200497
2450	0.200497	0.112073	0.198524	0.200497
2451	0.195237	0.113881	0.197867	0.199675
2452	0.196223	0.113716	0.198689	0.198689
2453	0.19721	0.120126	0.199346	0.199182
2454	0.19836	0.123906	0.19573	0.196552
2455	0.197045	0.129166	0.005569	0.199346
2456	0.197703	0.131796	-0.000512	0.198031
2457	0.196552	0.13311	-0.000347	0.198853
2458	0.196881	0.115689	0.000146	0.201319
2459	0.194909	0.117496	-1.9e-05	0.201483
2460	0.196388	0.119797	0.000146	0.198196
2461	0.197867	0.124235	0.00031	0.200661
2462	0.193758	0.127358	0.000474	0.196717
2463	0.195073	0.128673	0.000146	0.198031
2464	0.198853	0.130645	-0.000183	0.198196
2465	0.19836	0.131467	-0.000183	0.198031
2466	0.193758	0.136891	-0.000512	0.200497
2467	0.197703	0.137384	-0.000512	0.198196
2468	0.197538	0.141821	-0.000347	0.199511
2469	0.200497	0.143465	-1.9e-05	0.199675
2470	0.196552	0.148231	-1.9e-05	0.199346
2471	0.19836	0.146423	0.00031	0.19836
2472	0.196717	0.149053	0.000474	0.197703
2473	0.196717	0.152998	0.000146	0.196059
2474	0.20099	0.154312	0.000146	0.197538
2475	0.19721	0.15497	-0.000183	0.198031
2476	0.197538	0.156285	-0.000183	0.194909
2477	0.193101	0.159736	-0.000183	0.198524
2478	0.192115	0.159243	-0.000347	0.197374
2479	0.190635	0.159243	-0.000183	0.195895
2480	0.190964	0.160394	-1.9e-05	0.196552
2481	0.187841	0.163023	0.000146	0.198853
2482	0.192279	0.163023	0.000474	0.194087
2483	0.188334	0.160887	0.00031	0.198853
2484	0.181103	0.127687	0.000474	0.200168
2485	0.181103	0.131467	-1.9e-05	0.199346
2486	0.183239	0.13574	-0.000347	0.19836
2487	0.182417	0.137712	-0.000183	0.200497
2488	0.180938	0.140835	-0.000347	0.201483
2489	0.182582	0.143136	-0.000183	0.199346
2490	0.182089	0.143794	-0.000347	0.199839
2491	0.183732	0.147903	0.000146	0.200661
2492	0.181596	0.150368	0.000146	0.200004
2493	0.183239	0.150204	0.000146	0.197538
2494	0.178309	0.15497	0.000474	0.201483
2495	0.181924	0.153655	0.00031	0.198689
2496	0.179952	0.154806	0.000146	0.201976
2497	0.182746	0.155299	-1.9e-05	0.198524
2498	0.183404	0.158093	-0.000512	0.200661
2499	0.183897	0.158257	-0.000347	0.199018
