Ladekurvenmessung

Zeit: 2018_05_04 09.08.29

Info: FVA3, v = 1.05, T = 23, F = 20, h = 518.2

Ladewiderstand[Ohm]: 1012700

Störkapazität[pF]: 0.000000

Entladezeit[ms]: 200

Abtastrate[Hz]: 250000

Anzahl der Messwerte: 2500.000000

Verzögerung[ms]: 3

Ladespannung[V]: 0.200000


	Kurve_1	Kurve_2	Kurve_3	Kurve_4
0	0.001625	0.001296	0.00146	-0.000183
1	0.001132	0.003597	0.002775	0.002447
2	0.003268	0.00294	-0.003306	-0.000347
3	0.00031	0.004748	-0.000512	-0.001005
4	0.001132	0.003268	-0.00232	-0.001991
5	0.003926	0.002775	0.000474	0.000967
6	0.005241	0.00409	0.000639	-0.001005
7	0.001296	0.004419	0.000967	-0.000841
8	-0.000347	0.002118	-0.001005	0.001954
9	0.000146	0.003761	0.003104	0.002282
10	-0.001005	0.000474	-0.000676	0.002282
11	-0.001991	-0.000676	0.001625	0.003104
12	-0.001827	-0.000347	-1.9e-05	0.000146
13	-1.9e-05	-0.00347	0.001296	0.003761
14	0.000803	0.000146	0.000967	0.000146
15	0.000474	0.000639	0.001132	0.002118
16	0.000639	0.000474	0.002447	0.000803
17	0.002611	0.001132	-0.001662	-1.9e-05
18	0.000474	0.001954	-0.000183	-1.9e-05
19	0.004255	-1.9e-05	-0.001334	-0.001334
20	0.003597	0.000967	-1.9e-05	-0.001827
21	0.000639	0.000474	-0.001827	-0.002155
22	0.002282	-0.002155	-0.00347	-0.000676
23	0.001132	-0.001827	-0.000841	0.000803
24	-0.001498	-0.000841	0.002118	0.002282
25	0.001625	-0.001662	0.001296	0.000639
26	-0.000841	-0.001498	0.003597	0.00294
27	-0.001334	0.00031	0.002775	-0.000183
28	-0.001005	-0.001169	0.003268	0.002447
29	0.00031	0.00146	0.001132	0.000474
30	0.000967	0.000474	-1.9e-05	-0.000512
31	0.001625	0.001625	0.00409	0.00146
32	0.000474	0.000639	-0.000183	0.001132
33	-0.000512	0.002447	-0.000512	0.00294
34	-0.001498	-0.00232	0.000146	0.000146
35	-0.003635	-0.003635	0.00146	-0.003799
36	-0.001169	-0.001498	-1.9e-05	0.000967
37	0.00146	-0.001991	0.002282	0.000639
38	0.001789	-0.001498	0.000146	0.000146
39	0.000146	-0.002977	0.001625	0.000639
40	0.003597	0.000803	-0.000183	-0.00347
41	-0.002484	-0.001169	0.000639	-0.00232
42	-0.000676	-0.002813	-0.000183	0.000967
43	-0.000841	-0.003799	-0.001334	0.001789
44	-0.002813	-0.001169	-0.001169	0.000639
45	-0.001498	-0.004292	0.000639	0.002282
46	-0.003306	-0.000347	-0.000676	0.002447
47	-0.002484	-0.005278	0.001296	0.003761
48	-0.001827	-0.001334	0.001789	0.001789
49	0.00146	-0.001169	-0.002813	0.000474
50	0.000803	-0.001991	0.00031	0.000639
51	0.002118	-0.000347	0.000146	-0.000676
52	0.000803	-0.003306	0.000967	-0.001005
53	0.003597	-0.004456	0.002282	-0.001169
54	-0.000347	-0.003963	-0.000347	0.000803
55	0.005076	-0.001005	-0.002813	-0.001005
56	0.002118	-0.005114	0.001789	-0.000841
57	-0.001334	-0.003142	-0.001498	-0.001005
58	-0.001662	-0.004621	0.000146	0.000474
59	-0.001498	-0.004456	-0.001662	0.000967
60	-0.001827	-0.001662	0.000474	0.001625
61	-0.003635	-0.002155	-0.000676	0.001954
62	-0.002648	0.001789	-0.000676	0.001296
63	-0.00232	-0.002484	0.001296	0.000474
64	0.003926	-0.003306	-0.001005	0.001954
65	-0.001334	-0.004621	-0.001169	0.004419
66	0.000639	-0.003306	-0.002977	-0.001005
67	0.000146	-0.004621	-0.001334	-0.000183
68	0.004419	-0.004949	-0.002155	0.000474
69	0.000967	-0.004128	-0.001498	0.00294
70	0.001789	-0.005936	-0.001498	-0.001662
71	0.001954	-0.00725	-0.003635	0.002282
72	0.001296	-0.001169	-0.000347	-0.002155
73	0.00146	-0.009387	0.001789	-0.001662
74	0.000803	-0.005114	0.000639	-0.002484
75	0.003926	-0.006264	0.004419	-0.000347
76	-0.001005	-0.004456	-0.000841	0.002447
77	0.00146	-0.004456	-0.002648	-0.000841
78	-0.001827	-0.00347	-1.9e-05	0.001132
79	0.000146	-0.002155	-1.9e-05	0.002282
80	-0.000512	0.000803	0.000146	0.000474
81	-0.000183	-0.001005	0.000474	0.001625
82	-0.000183	-0.002484	0.000146	0.002611
83	0.001132	-0.004621	-0.00232	0.000967
84	0.000803	-0.004785	0.001625	0.00031
85	0.002118	-0.004292	-0.000347	-0.001991
86	-0.001662	-0.003963	0.00409	0.001132
87	0.001296	-0.003635	-0.001169	0.000639
88	-0.001169	-0.002977	0.001789	0.000803
89	-0.000347	-0.001991	-0.000512	-0.003306
90	0.002118	-0.005114	0.001132	0.002447
91	-0.002155	0.000967	0.000967	-0.001498
92	-0.002813	-0.004128	-0.000183	-0.001991
93	0.002118	-0.002648	-0.002648	-0.001334
94	-0.003963	-0.004456	-0.001169	0.003268
95	-0.000676	-0.001827	0.000967	0.003926
96	-0.001498	-0.002977	0.000803	-0.001991
97	-0.001498	-0.001662	-0.001498	0.000803
98	0.002282	-0.000183	-0.001662	0.00294
99	0.000474	0.00031	-0.000841	-0.000841
100	0.001954	0.00031	-0.004785	-0.001005
101	-1.9e-05	-0.001991	-0.002484	0.006227
102	-1.9e-05	0.00031	-0.002484	-0.001334
103	-0.003799	-0.001005	0.001296	-0.000841
104	-0.000841	-0.002155	-0.000183	-0.005114
105	-0.000183	-0.001827	0.001789	0.000639
106	0.000146	0.00146	0.00409	-0.002977
107	0.00146	-0.004128	0.00031	-0.004128
108	0.000474	-0.002813	0.000146	-0.00347
109	-0.002155	-0.010045	-0.000841	-0.000512
110	-0.003306	-0.001334	-1.9e-05	-0.000347
111	-0.002813	-0.002484	-1.9e-05	0.000803
112	-0.003142	-0.002484	-0.001334	0.002447
113	-0.002155	0.003597	-0.002155	0.001296
114	-0.005114	0.002611	0.00031	0.002775
115	0.000803	-0.000841	-0.004128	0.00031
116	-0.000512	0.00031	-0.001662	0.001132
117	-0.000347	0.002118	-0.003142	-0.001334
118	-0.002648	-0.003142	-0.001498	0.002775
119	0.001789	-0.001827	-0.004621	0.000146
120	0.00031	-0.004292	-0.0061	0.00146
121	-0.001498	-0.00347	0.000639	0.000146
122	-0.000841	-0.003799	0.001789	0.000803
123	-0.000183	-0.004621	0.00031	0.005076
124	-0.000512	-0.005278	0.001954	0.001296
125	-0.002155	-0.002648	-0.002484	-0.001498
126	0.000803	-0.002155	-0.003799	0.00146
127	-1.9e-05	-0.003963	0.001789	0.00031
128	0.000803	-0.001005	0.000967	-0.000841
129	-0.001334	0.001132	-0.000183	0.001296
130	0.002611	-0.003306	-0.001827	0.000967
131	-0.001169	-0.004621	-0.002648	0.00294
132	-0.001662	-0.000512	-0.001662	-0.001005
133	-0.000841	-0.002484	-0.001005	0.001132
134	-0.001498	0.00146	-0.000676	0.000803
135	0.002447	0.002118	-1.9e-05	0.000639
136	0.000967	0.001296	-1.9e-05	0.001296
137	0.003433	-0.000841	-0.002484	0.003926
138	0.001625	0.001132	0.001625	0.002611
139	0.003926	-0.001334	0.002611	0.002447
140	-0.000347	-0.003306	0.000639	-0.000347
141	0.002282	-0.00232	0.000967	-0.000347
142	0.000639	-0.000676	0.00146	-0.001662
143	-0.001169	-0.002484	-0.001005	-0.000512
144	-0.001005	-0.001991	-0.001169	0.002447
145	0.00294	-0.00232	-0.000676	-0.001827
146	-0.002813	-0.002484	-0.000512	0.000803
147	0.000639	-0.003142	-0.001498	-0.000512
148	0.001789	0.000803	-0.000512	-0.001005
149	0.005569	0.000639	0.002282	-0.002155
150	-0.002484	0.00146	0.000474	-0.001498
151	-0.001827	0.00031	0.000146	0.002282
152	0.003104	-0.000183	-0.00232	-0.003142
153	-0.003963	0.000639	-0.001169	-0.001498
154	-0.001498	-0.000183	-0.000676	0.002611
155	-0.000183	-1.9e-05	0.001789	-0.001169
156	-0.000347	-1.9e-05	0.000803	0.000146
157	-0.000676	-0.000183	0.000803	0.003597
158	-0.001169	-0.000183	0.001296	0.000967
159	-0.000347	0.00146	0.000146	-0.000512
160	0.00146	0.00031	-0.001498	0.000146
161	0.000639	0.001296	0.00146	0.000474
162	0.000639	-0.000841	-0.000676	-0.000512
163	-0.000512	-0.002155	-0.000347	0.000474
164	-0.001498	0.00409	0.000474	0.000146
165	-0.00232	-0.00347	-0.001498	-0.001169
166	-0.002977	0.00294	0.000474	0.000639
167	-0.00232	-0.000183	-0.001005	0.002775
168	-0.001005	0.003104	-0.001827	0.000639
169	-0.000841	0.001296	-0.004128	0.002447
170	-1.9e-05	0.001625	-0.004292	0.000146
171	0.002118	0.00031	0.000967	0.001296
172	-0.000183	-0.000183	0.000967	-0.001827
173	-0.001005	-0.001334	-0.001662	-0.001498
174	0.001132	-0.001498	-0.000347	-0.000676
175	0.00146	-0.003306	-0.00232	-0.001169
176	-0.001169	-0.000183	0.005241	-0.000676
177	0.001132	-0.002813	0.000639	-0.000347
178	-0.000347	-0.001991	0.001789	0.00146
179	0.00146	0.000146	0.000474	-0.002484
180	0.002775	-0.004128	0.001296	0.000803
181	0.00294	0.001789	-0.001662	-0.001005
182	-0.000512	0.001132	-0.000676	-0.002977
183	-0.000676	-0.001334	-0.001334	0.000474
184	-1.9e-05	-0.000183	0.000474	-0.000512
185	0.000146	0.004748	-0.001662	-0.001334
186	-0.004621	-0.001005	-0.000183	-0.001005
187	-0.001169	-0.001169	-0.001334	0.000639
188	0.000639	-0.001498	-0.001005	-0.004128
189	-0.002484	0.003268	0.000967	-0.004456
190	-0.000841	0.001296	-0.002813	-0.001991
191	-0.001662	0.001625	0.000474	-0.002155
192	0.000474	0.000803	-0.002813	-0.002484
193	-0.001005	0.001296	0.001132	0.000474
194	0.003104	0.00146	0.000146	-0.000347
195	-0.000512	0.00031	-0.000183	-0.001991
196	0.000146	0.001625	-0.000183	-0.00232
197	0.001296	0.000639	-0.001991	-0.000841
198	-0.000183	0.000146	-0.001005	-0.005936
199	-0.001498	0.002282	-0.000347	0.004255
200	0.002447	0.00146	-0.001334	0.002447
201	-0.003306	0.000639	-0.000183	-1.9e-05
202	-1.9e-05	0.003761	-0.001991	-0.001827
203	-0.001827	0.000803	-0.003306	-0.000183
204	-0.006593	0.000639	-0.001991	-0.000841
205	0.000803	0.000967	-0.000347	-0.002813
206	-0.000841	0.00294	0.00146	0.000474
207	0.00031	0.003104	0.002611	-0.001334
208	-0.004621	-0.000512	0.000146	-0.000347
209	-0.001827	0.003926	-0.001498	-0.000347
210	-0.001005	0.002118	0.000146	0.00146
211	-0.001169	0.002118	-1.9e-05	-0.000676
212	-0.001827	-0.000347	0.000474	-0.000676
213	-1.9e-05	0.000967	-0.002155	-0.001334
214	0.002611	0.000639	0.000474	0.002447
215	-0.001334	0.00294	0.001132	-0.002813
216	0.001789	-0.002155	0.000639	-0.000676
217	0.003761	0.003597	-0.000512	-0.001827
218	0.001625	0.004419	-0.002155	0.00031
219	-0.000183	-0.000676	-0.001498	-0.001169
220	0.000474	0.00031	0.000639	0.000146
221	-0.003799	0.004255	-0.000841	0.002447
222	0.00031	0.000146	-0.001827	0.00146
223	-0.00232	0.003268	-0.000347	0.001625
224	-0.001169	0.003926	-0.001334	0.000146
225	0.002282	0.000803	-0.002977	0.001296
226	0.002775	0.00294	0.00146	-0.002484
227	0.003433	0.001789	-0.001005	-0.003635
228	0.001789	0.004255	-0.002977	-0.003963
229	0.003433	0.002118	0.003926	-0.000183
230	0.001132	0.002282	-0.001827	-0.004128
231	-0.002155	0.002447	0.002447	0.002118
232	-0.000676	0.005734	0.001132	-0.000512
233	0.000803	0.002118	-0.000347	0.001789
234	-0.001169	0.005898	0.000639	-0.000347
235	-0.000347	0.000146	-0.000347	-0.000512
236	-0.001169	0.004255	-0.001662	-0.000183
237	0.000639	0.00294	-0.000676	-0.00232
238	-0.004128	0.005241	0.000639	0.002447
239	-0.000841	0.005076	-0.004292	-0.001169
240	0.001789	0.004912	0.00294	0.000474
241	-0.00347	0.00409	-0.001827	-0.000512
242	-0.000512	0.003926	-0.001991	0.003104
243	-0.001498	0.00409	-0.001662	-0.000676
244	-0.001498	0.002118	0.000146	0.001789
245	-1.9e-05	0.007049	-0.000347	-0.000183
246	-0.00347	0.003926	-0.000183	-0.001169
247	-0.000676	0.005898	-0.000347	0.000474
248	-1.9e-05	0.004912	0.001132	0.001954
249	-0.000183	0.001954	-0.000183	0.003104
250	0.000967	0.002775	-0.002155	-0.002977
251	0.000967	0.003926	0.000967	0.000474
252	-0.002484	0.003104	-0.001827	-0.002813
253	-0.000512	0.003268	-0.002484	-0.004785
254	-0.000841	0.005241	-0.002977	-0.001662
255	-0.001005	0.004255	-0.001498	0.002118
256	-0.000347	0.005076	-0.000841	-0.001991
257	0.00031	0.001132	-0.003799	0.001132
258	-0.003799	0.002775	-0.003306	-0.001169
259	-0.005771	0.004748	-0.000183	0.000146
260	-0.003306	0.003597	-0.001662	-0.000841
261	-0.001662	0.003104	0.000474	0.001789
262	0.000639	0.006391	-0.000347	-0.000676
263	-0.000347	0.00031	-0.000841	0.00031
264	-0.001662	0.002775	-0.000841	-0.001991
265	0.00031	0.002775	-0.001005	0.000146
266	0.000474	0.004583	-0.001498	-1.9e-05
267	0.001954	0.00409	-0.003963	0.000474
268	-0.001005	0.00409	0.001296	0.000146
269	0.000474	0.003926	-0.002484	-0.00232
270	-0.000183	0.001132	-0.000676	0.002282
271	-0.000183	0.002447	0.002447	0.00031
272	-0.000183	0.006062	0.00031	-0.000841
273	0.002118	0.004583	-0.002155	0.000639
274	-0.002155	0.000803	0.000146	0.000967
275	-0.000841	0.005405	-0.002484	-0.001005
276	-0.000512	0.005898	-0.001005	0.00146
277	-0.001005	0.004583	-0.001991	0.00294
278	0.001789	0.005405	-0.005936	-0.002484
279	-0.000841	0.004583	0.000639	-0.001662
280	0.000803	0.006391	-0.002155	-0.001169
281	0.002775	0.007706	-0.000183	0.000474
282	0.00146	0.003433	0.003761	-0.002155
283	0.000967	0.004255	0.000803	0.000639
284	0.002118	0.003268	-0.000676	-0.001498
285	-0.001662	0.006062	0.001296	0.000474
286	0.00031	0.005734	-0.000347	-0.000676
287	0.00031	0.005898	0.00031	0.000474
288	-0.000183	0.004255	-0.002977	-0.000512
289	-0.001169	0.006391	-0.000676	0.000639
290	0.000146	0.00409	-0.000512	-0.001334
291	-0.001991	0.003761	-0.000183	-0.000183
292	0.001625	0.006391	-0.002813	-0.00232
293	-0.001498	0.001296	-0.000841	0.000967
294	-0.002648	0.005241	-0.000183	-0.000512
295	0.000474	0.002775	-0.000676	-0.001005
296	-0.002813	0.006391	0.001789	0.001625
297	-0.000512	0.002611	0.001625	-0.000676
298	0.001132	0.004419	0.000639	0.00031
299	0.001954	0.001954	0.000474	-0.004292
300	-0.002813	0.002611	-1.9e-05	0.000967
301	0.000474	0.000967	0.000967	-0.000183
302	0.000474	0.005076	-0.000841	-0.001169
303	-0.000841	0.003597	-0.001334	-0.002813
304	0.000639	0.000803	-0.001334	0.000803
305	0.001296	0.004748	-0.003142	-0.002484
306	-0.000512	0.003268	-0.001169	-0.001334
307	-0.001169	0.005405	-0.002813	-0.00347
308	-0.001498	0.002775	-0.000347	-0.003306
309	-0.00347	0.004255	-0.001005	0.000639
310	-0.003963	0.00146	-0.000841	0.00146
311	-0.000676	0.006062	0.000803	-1.9e-05
312	-0.001169	0.005241	-0.000676	-1.9e-05
313	-0.001498	0.00409	-0.000512	-1.9e-05
314	-0.001662	0.001132	0.000803	0.001625
315	-0.001662	0.000146	0.001132	-1.9e-05
316	0.00031	0.001132	0.000146	-0.000676
317	0.000474	0.000639	-0.000512	-0.000183
318	0.000967	0.000967	-0.001005	0.00031
319	-0.000841	-0.000841	0.002118	0.000474
320	0.001789	0.000803	0.00146	-0.001169
321	0.00031	-0.00232	-1.9e-05	0.002611
322	-1.9e-05	0.004419	0.000474	-0.000347
323	-0.000183	0.001132	0.001789	0.000146
324	0.000474	0.002447	0.000474	-0.001334
325	0.00031	0.002118	0.003761	-0.000347
326	-0.000183	0.004255	0.003104	-1.9e-05
327	-0.000183	0.002447	0.001789	-0.003963
328	-0.000347	0.004912	0.003761	0.005898
329	0.000967	0.006227	0.003926	0.000639
330	-0.000347	0.004748	0.003433	0.000474
331	0.00031	0.006391	0.002775	0.000474
332	-0.001334	0.00146	0.002118	0.001625
333	-0.000676	0.001789	0.003926	-1.9e-05
334	-0.001334	0.00294	0.005076	0.000639
335	0.00294	0.003104	0.00294	-0.000676
336	-0.000841	0.002775	0.002611	-0.000841
337	0.003433	0.000474	0.000639	-0.002813
338	0.00146	-0.000841	0.003926	0.000967
339	-0.000676	0.002775	0.005241	-0.001334
340	0.003104	0.000967	0.002447	-0.002813
341	-0.002155	0.004255	0.001132	-0.001005
342	0.001625	0.002775	0.001954	-0.000347
343	0.000967	0.003268	0.000803	0.001954
344	-0.000183	0.003926	0.002282	-0.000183
345	-0.001498	0.004583	0.00146	0.000146
346	0.001954	0.003926	-0.004456	-0.000183
347	-0.001169	0.003761	0.000639	-0.001498
348	-0.001334	0.003433	0.001296	-0.004456
349	-0.001169	-0.000512	-0.002484	0.00146
350	-0.001334	0.003761	0.00031	0.001789
351	-1.9e-05	0.003104	0.000803	-0.004292
352	0.000803	0.002447	0.000474	-0.001005
353	0.000474	0.005241	0.001132	-0.001005
354	0.000474	0.001625	-0.002648	-0.002484
355	0.000474	0.000146	-0.001498	-0.00347
356	0.00031	0.002447	-0.000512	-0.001498
357	0.000967	0.00294	-0.000512	-0.002155
358	-1.9e-05	0.002447	0.000146	-0.001498
359	0.001132	0.002611	0.000803	-0.001005
360	-0.001498	0.004419	0.001625	0.001296
361	-0.003799	0.001789	0.000803	0.000967
362	-0.001662	0.003433	0.000474	0.001296
363	0.001132	0.004419	-0.000512	-0.001005
364	-0.003635	0.002282	0.002611	0.003104
365	-0.00347	0.001625	0.000639	0.000967
366	-0.001005	0.003268	0.001789	0.001789
367	0.000146	0.003433	-0.000676	0.001296
368	0.000146	0.002118	0.000639	0.002118
369	0.001625	0.005076	0.002447	-1.9e-05
370	-0.000512	0.000474	0.003268	-0.000841
371	0.001296	0.000803	0.000967	0.000474
372	0.005241	0.00031	0.001789	-0.000841
373	-0.001005	0.002282	0.002118	-0.000183
374	0.001625	-0.001334	0.001132	-1.9e-05
375	-0.000183	0.00146	0.001954	0.000967
376	0.001789	0.002118	0.001625	0.001954
377	0.000639	0.002611	0.002447	-1.9e-05
378	0.000803	0.002775	0.002775	0.00031
379	-0.000512	0.006062	0.005734	0.006556
380	0.000474	0.004912	-0.001827	0.003433
381	-0.001005	0.003268	-0.002484	0.005405
382	-0.001005	0.005076	-0.000183	0.003104
383	0.00031	0.000803	-0.000347	0.003926
384	0.00031	0.006227	-0.001005	0.000474
385	-0.000183	0.000639	-0.00232	0.003761
386	0.000639	0.003761	-0.002155	0.003761
387	0.000803	-0.001005	-0.001005	0.001625
388	-0.000183	0.002775	-0.000347	0.001132
389	0.001625	0.003268	-0.000676	0.000146
390	-0.002813	0.00294	0.001296	0.00031
391	0.000639	0.000803	-0.002155	0.001625
392	-0.004292	0.001296	0.002611	0.001132
393	-0.003142	0.000967	0.000803	0.00146
394	-0.000512	0.002118	0.002118	0.002775
395	0.001132	0.001789	-0.001005	0.001296
396	-0.003963	0.001954	-0.00232	0.000967
397	-1.9e-05	0.002447	-0.003635	0.004255
398	-0.001498	0.000967	0.000803	0.007213
399	-0.001827	0.002447	-0.004292	0.004255
400	-0.000676	0.001954	-0.000183	-0.000347
401	-0.000347	0.002611	-0.00232	0.002447
402	0.001954	0.002447	0.000967	0.00146
403	-0.000347	0.003597	-0.001169	-0.000183
404	0.002447	0.00146	-0.002155	0.000639
405	0.00031	-0.000183	-0.001662	-0.001991
406	-0.001662	-0.001662	-0.002155	-0.000676
407	0.001954	0.000146	-0.000183	-0.001334
408	0.002282	0.000146	-0.000676	0.001132
409	-0.000183	0.001296	0.00146	0.003597
410	0.00409	0.003433	-0.000183	0.001132
411	-0.000347	-0.001334	0.000967	0.001954
412	0.00031	0.00294	0.000146	-0.000347
413	-0.001005	0.003268	0.000639	0.001625
414	-0.002484	0.000803	-0.001169	-0.000347
415	-0.003799	0.001296	-0.000183	0.001625
416	-0.001334	0.001132	0.000146	0.001789
417	0.000146	0.000803	-0.003142	0.003268
418	-0.001498	0.003926	-0.002155	0.000803
419	0.000803	0.00294	0.002118	0.000967
420	0.000146	0.002282	0.002775	0.002118
421	0.000474	0.00146	-0.001991	0.001296
422	0.000474	0.000639	-0.000347	0.000967
423	0.000146	-0.000183	0.000146	0.00031
424	0.001954	0.00031	-0.001005	0.000474
425	0.001954	-0.001498	-0.00232	-0.001662
426	0.000474	-0.001498	0.001132	0.000639
427	0.002775	0.000146	0.001132	0.001132
428	-0.000183	-0.000347	-0.001005	-0.002484
429	0.001954	0.004255	-0.001334	-0.000841
430	0.00146	0.00409	-0.006264	-0.001334
431	-0.002484	0.003104	-0.002813	0.003104
432	-0.000347	0.001132	-0.001662	-0.000676
433	-0.00232	0.004419	-0.00232	0.001954
434	0.001296	0.002447	-0.001498	0.001954
435	-0.000512	0.003433	-0.002977	-0.001169
436	0.000639	0.000967	-0.002648	0.00031
437	-0.000512	0.003268	-0.001169	0.000474
438	0.001132	0.005569	-0.002648	-0.000841
439	0.00294	0.003268	-0.001498	-0.000512
440	0.002775	0.003268	-0.002155	0.001296
441	0.00294	0.003597	-0.000841	-0.000512
442	0.003926	0.001789	-0.003799	-0.000347
443	0.002118	0.000146	-0.001005	0.003433
444	-0.001662	0.002118	0.003268	-0.001498
445	0.001296	-0.000347	0.004748	0.000639
446	-0.00232	0.002447	-0.000676	0.002447
447	0.000146	0.00031	-0.003142	0.002118
448	-0.001169	0.001296	-0.001005	0.00031
449	-0.000183	0.001132	0.000474	-0.000512
450	-0.002155	0.002118	-0.002648	0.002775
451	0.00031	0.002282	-0.000347	0.002118
452	-0.001334	0.003926	-0.002484	-0.003799
453	-0.000183	0.001789	-0.008072	0.000146
454	-0.002484	0.005076	-0.001334	0.00146
455	0.000803	0.000803	-0.002977	-0.000512
456	0.001789	0.00146	-0.000512	0.001296
457	0.001789	0.00146	-0.002155	0.000474
458	0.000803	-1.9e-05	0.002447	-0.002484
459	-0.001991	0.00146	-0.001169	-0.002484
460	-0.004128	-0.00232	0.001132	0.000639
461	-0.00232	0.001789	-0.000183	-0.002813
462	-0.003306	-0.000676	-0.001169	0.001789
463	-0.004949	0.003761	0.000146	-0.001827
464	0.000639	0.000474	0.00031	0.001296
465	0.001296	0.002282	-0.001662	0.00031
466	0.000803	0.002611	-0.001991	0.003104
467	0.001954	-1.9e-05	-0.000841	0.001296
468	0.001954	0.002118	-0.001005	0.00031
469	-0.000841	0.003268	-0.000347	0.000639
470	0.002611	-0.001169	-0.001498	-0.000183
471	-1.9e-05	0.002447	0.003597	0.002775
472	0.000474	0.003104	-0.001334	0.001132
473	0.000474	0.000639	0.000967	0.002447
474	0.001296	0.000474	0.00031	-0.000347
475	0.001625	-0.000183	0.000803	0.000803
476	0.000639	0.003926	0.002775	0.000146
477	0.004419	0.001789	0.00409	0.00031
478	0.00031	0.001954	0.002447	0.001789
479	0.00146	0.00409	-1.9e-05	-1.9e-05
480	0.001296	0.004583	0.003433	-0.001662
481	0.000639	0.003104	0.001789	-0.000841
482	0.001132	0.00294	0.002447	0.00031
483	0.000146	0.003433	-0.000512	0.00031
484	0.000803	0.003597	0.001132	-0.000183
485	0.00146	0.003597	-0.001169	-0.001169
486	-0.001169	0.002447	-0.000183	0.001625
487	0.003761	0.003104	-0.001334	0.00031
488	-0.001005	0.004912	0.00294	0.002447
489	-0.001334	0.007542	0.001789	-0.000512
490	0.000967	0.00031	0.001625	0.003926
491	0.00146	0.004255	-0.000676	-0.000347
492	0.00031	-0.000347	-0.000183	0.001625
493	0.001789	0.001625	0.000474	0.002611
494	0.002282	0.001789	-0.001005	0.001789
495	0.00031	0.002447	0.002447	-0.000512
496	0.002282	0.002118	0.002775	-0.000183
497	0.000803	0.00294	-0.001169	-0.001662
498	0.000474	0.000967	0.004583	0.000474
499	-0.002155	0.00294	0.000803	-0.00347
500	0.002775	0.00031	0.000146	-0.000512
501	0.000639	0.004419	0.002118	-0.001334
502	0.000967	0.003104	0.000967	-0.007579
503	-0.000841	0.003597	-0.001991	-0.002648
504	0.001625	0.005076	-0.003142	-0.000183
505	-0.001005	0.003433	-0.000676	0.000474
506	-0.000347	0.005076	-0.001169	-0.001334
507	-0.001991	0.003761	-0.001005	-0.001827
508	-0.000512	0.001625	-0.000512	0.000639
509	0.001296	0.002611	0.001789	0.003268
510	-0.003306	0.003268	0.002775	0.002447
511	-0.000347	0.00294	0.001132	0.002611
512	-0.000183	0.002447	0.002118	0.001625
513	0.002611	0.004912	0.00031	0.000639
514	-0.001991	0.003268	0.002118	0.000639
515	0.002611	-0.000347	-0.001662	-0.000841
516	-0.000512	0.003268	-0.002484	0.005076
517	0.002447	0.002611	-0.00347	-0.002648
518	0.003104	0.001625	-0.001169	-0.001662
519	0.000639	0.002118	-0.005443	0.000639
520	-0.000512	0.001954	0.000803	0.00294
521	-0.000183	0.002447	0.002611	-0.000183
522	0.00146	0.003268	0.003104	0.001954
523	0.00146	0.000803	0.000474	0.002447
524	-0.000183	-0.000183	0.001132	0.002611
525	-1.9e-05	0.003761	0.00031	0.002447
526	0.002118	0.001789	0.000967	0.002118
527	0.000146	0.004912	0.000967	0.002282
528	0.001132	0.000146	0.000474	0.001296
529	0.000967	0.005734	-0.000183	0.001954
530	0.001625	0.001954	0.002611	0.002447
531	-0.000512	0.008692	0.00409	-1.9e-05
532	0.001132	0.002282	0.005734	-0.000183
533	0.001296	0.002775	0.002447	0.001296
534	0.001296	0.003433	0.000967	0.000639
535	0.002118	0.003104	0.000803	-0.000512
536	0.000474	0.003761	0.00031	-0.000512
537	0.002447	0.002447	0.001625	-0.001498
538	0.002118	0.003104	0.000803	-1.9e-05
539	0.001132	-0.000676	0.000146	-0.000347
540	-0.000183	-0.000676	-0.001498	-0.002813
541	-0.000183	0.001296	-0.000512	0.003268
542	-0.001991	0.003433	-0.000512	-1.9e-05
543	-0.003799	0.001296	0.000639	0.002611
544	0.000146	0.002775	0.001625	0.001625
545	0.000803	0.003104	-0.001169	0.001296
546	-0.003142	-0.000512	0.00031	-0.001662
547	0.000803	0.000803	-0.001169	-0.00347
548	0.001296	-1.9e-05	0.003268	-0.001005
549	0.00031	-1.9e-05	-0.001169	0.000146
550	0.00146	-0.000183	0.002282	-0.001991
551	0.000474	0.002282	0.002118	-0.004292
552	0.000146	-0.002648	-0.002484	0.001296
553	0.00146	0.001954	-0.001991	0.003268
554	-0.00347	-1.9e-05	0.00409	-0.000841
555	0.002447	0.001132	0.002118	-0.001827
556	0.00031	0.000474	-0.001005	0.001625
557	-0.001334	0.003433	0.000474	-0.002484
558	0.000146	-1.9e-05	0.001132	0.002282
559	0.003433	0.001789	0.00146	0.001132
560	0.001296	0.00031	-0.001991	-0.000183
561	-0.002977	0.003268	0.00146	0.000967
562	-0.001005	0.002611	-0.001005	-0.002155
563	-0.005114	0.002775	-1.9e-05	0.002118
564	-0.003799	0.000474	-0.000512	0.001789
565	-0.001334	0.001132	0.00294	-1.9e-05
566	0.00031	0.00146	0.00031	0.00146
567	0.00031	-0.000183	0.000967	0.000639
568	0.001789	0.002775	-0.001334	-0.002484
569	0.00146	0.000639	-0.002648	0.001132
570	0.002282	0.002447	0.00409	-0.001498
571	-1.9e-05	-0.00232	-0.000841	-0.000183
572	-0.000183	-1.9e-05	-0.00232	-0.001662
573	-0.000676	0.000639	-0.001498	-0.001005
574	0.000967	-0.003306	0.001625	-0.001334
575	-0.000841	0.000474	0.000474	0.001132
576	-0.001005	0.003761	0.003104	0.00031
577	0.001789	0.001789	-1.9e-05	-0.000841
578	-0.000347	0.00146	0.001132	0.00294
579	0.001296	0.003433	-0.000183	-0.001498
580	-0.000183	0.003433	0.001132	0.002447
581	0.002282	0.004255	0.001625	0.000967
582	-0.000183	0.002118	-1.9e-05	-0.000183
583	0.00146	0.002611	-0.002648	-1.9e-05
584	0.00031	0.003597	0.000639	-0.000512
585	0.00031	0.00031	-0.001169	-0.000676
586	0.002118	-0.000183	0.000803	-1.9e-05
587	-0.001662	0.002775	0.000803	-0.001662
588	-0.001827	0.00146	0.002775	-0.001169
589	-1.9e-05	-0.001498	0.00146	-0.000841
590	0.000474	0.003104	0.00146	0.001625
591	-0.000841	0.002611	0.000967	0.000639
592	0.001789	0.000803	0.003268	-0.000347
593	-0.000183	0.003268	-0.001498	0.001296
594	-0.002155	0.003761	-0.00232	-1.9e-05
595	-0.002813	0.003104	-1.9e-05	-0.003963
596	0.001789	0.001954	-0.000347	0.002611
597	0.000474	0.000146	-0.000183	0.003433
598	-0.001498	0.002447	0.002611	0.00146
599	-1.9e-05	0.002118	0.002118	-0.000512
600	0.001296	0.001625	-0.000183	0.000639
601	-0.001498	0.003268	0.002118	-0.001662
602	0.001789	0.001625	0.000146	-0.005443
603	0.004583	-0.00347	0.002775	-0.001827
604	-0.001827	0.000639	-0.002155	-0.006429
605	0.000639	-0.001169	0.000639	-0.003963
606	-0.00232	-0.000183	0.000474	-0.003799
607	-0.000183	0.000967	-1.9e-05	0.000803
608	-1.9e-05	0.000474	-0.000347	0.002282
609	-0.004456	0.001954	0.003761	0.000474
610	-0.005114	0.00146	0.000639	0.000639
611	-0.003799	0.002447	-0.001498	-0.000347
612	-0.002977	0.003104	0.001132	0.000967
613	-0.003635	0.000639	-0.002155	0.000803
614	0.000967	0.000967	0.00031	-0.002648
615	0.005405	0.000967	-0.000841	-0.000183
616	0.000967	0.00031	0.000967	0.000967
617	0.000967	-1.9e-05	-0.000512	-0.000676
618	0.000803	0.00031	-0.001005	0.001296
619	-1.9e-05	0.003597	-0.000183	-1.9e-05
620	-0.001827	-0.000676	-0.001169	-0.000183
621	0.00031	0.001296	0.00294	-0.000183
622	0.001789	-0.002155	-0.001827	0.001132
623	-0.001169	0.001296	-0.001334	0.001296
624	0.00031	-0.000347	-0.000512	-0.000676
625	0.001296	-0.002648	0.005734	0.00146
626	-0.000183	-0.002977	-0.000512	-0.001334
627	-0.001334	0.00146	-0.00232	-0.000183
628	-1.9e-05	0.001625	0.000474	-0.000512
629	-0.001334	-0.001169	-1.9e-05	0.00031
630	0.002282	0.003761	-0.001498	-0.001827
631	-0.000347	0.003597	0.001789	0.000967
632	-0.001334	0.002282	-0.001662	0.00146
633	0.001625	0.002118	-0.002484	0.001789
634	0.000967	0.004419	0.00031	0.000474
635	0.000146	-0.001827	0.000639	-0.000676
636	0.002282	-0.000347	0.003433	-0.000841
637	0.001132	-0.000183	0.000474	-0.000512
638	-0.001169	0.002447	0.00146	-0.001991
639	-0.000841	-0.002484	-0.000183	-0.001498
640	-0.000347	0.003433	-0.000676	0.000474
641	0.000146	0.001954	-0.000512	0.000146
642	-0.000676	0.001296	0.003268	0.000803
643	0.002118	0.001132	0.000639	-0.000347
644	0.00031	0.002447	0.002282	0.000146
645	-0.000841	0.000474	-0.001334	-0.000183
646	-0.001662	0.002775	0.001296	0.001954
647	0.003597	0.001132	0.00031	0.003104
648	-0.002484	0.00031	-0.000841	0.00031
649	-0.001827	0.004419	-1.9e-05	0.000639
650	0.000474	0.000803	-0.000512	-1.9e-05
651	0.000146	0.001132	0.000639	0.001296
652	0.000474	0.005241	-1.9e-05	-0.004456
653	-0.002813	0.000474	0.000967	-0.000676
654	0.003268	-0.001005	0.005405	0.004912
655	-0.001498	0.000474	0.002611	-0.001005
656	-1.9e-05	0.000474	0.00031	-0.003799
657	-0.000676	-0.000676	0.000967	0.001625
658	0.002282	0.000146	0.001789	-0.000512
659	-0.001334	-0.001334	-0.000347	-1.9e-05
660	-0.00232	-0.000183	-0.001991	-0.001991
661	-0.001827	0.002611	0.000803	-0.002813
662	-0.0061	-0.000183	-0.001169	-0.000347
663	-0.003799	-0.001827	-1.9e-05	0.002611
664	0.001296	-0.000183	0.005734	0.001954
665	-0.004785	-0.00232	0.000803	0.002282
666	-0.005936	0.001625	-0.001991	0.001954
667	-0.000183	0.000474	-0.00347	-0.000347
668	-0.002484	0.001132	-1.9e-05	0.000146
669	0.000474	-0.000183	0.001789	0.000803
670	-0.001334	-0.002813	-0.000512	0.001789
671	0.002282	-0.002484	-0.005936	-0.001662
672	-0.001169	-0.000841	-0.001991	-0.002813
673	0.000967	-0.003963	-0.003799	0.000639
674	0.000146	-0.002648	0.000639	0.001132
675	-0.000347	0.002447	0.001132	-1.9e-05
676	0.000803	-0.000183	0.003104	0.001625
677	0.000967	0.001132	0.00031	0.00031
678	-0.000183	0.003433	0.000803	-0.000676
679	-0.000183	0.000803	0.000474	-0.001498
680	0.002447	-0.004128	0.003268	-0.000676
681	0.000474	0.002282	-0.000183	-0.00347
682	-0.000676	0.000146	-0.001991	0.001296
683	-0.000512	-1.9e-05	0.00409	-0.001827
684	0.000639	-0.000512	0.001296	0.00031
685	-0.001991	0.001625	0.001954	0.000146
686	0.000474	0.001296	0.00146	-0.000841
687	0.001296	0.000967	0.00409	-0.001498
688	0.002447	-0.001498	0.002611	0.000967
689	0.000474	0.002611	0.002611	-0.000841
690	0.00146	-0.001005	0.002118	-0.001005
691	0.002775	-0.000841	0.005734	-0.001169
692	-0.000512	0.003268	0.000967	-0.002484
693	0.001132	-0.00232	0.00294	-1.9e-05
694	0.002775	0.001296	0.002447	-0.003306
695	0.002118	-0.004949	0.00146	0.002118
696	-0.001169	0.000146	0.001625	0.000146
697	-0.001498	-0.000183	0.002611	0.000639
698	-0.000841	0.002447	0.000639	-0.001498
699	0.00031	0.001954	0.002118	0.000967
700	-0.001169	0.002118	0.001789	0.001132
701	0.002118	0.003104	-1.9e-05	-0.000512
702	-0.001498	0.000639	0.004583	-0.00347
703	0.000146	0.004748	0.002775	-0.001662
704	-0.003306	-0.001169	0.002118	0.000803
705	0.000639	-0.00232	0.000474	-0.001991
706	-0.000512	0.00146	0.003104	0.000803
707	0.001296	0.001296	0.00031	-0.00232
708	-1.9e-05	0.00031	0.002282	-0.001334
709	0.001132	0.000639	0.002447	-0.003799
710	0.003433	-0.000676	0.001789	-0.000676
711	-0.002484	0.003268	0.001296	-0.001827
712	-0.000347	-0.003306	0.001625	0.000146
713	0.00031	-0.000512	0.003104	0.001296
714	-0.002155	0.00031	-0.003799	-0.000347
715	-0.00232	0.002447	-0.003635	0.000803
716	-0.000183	-0.001169	-0.00347	-0.000347
717	-0.000183	0.000967	-0.00347	0.000474
718	0.001789	0.001789	-0.005114	-0.000183
719	-0.001169	0.000967	0.001132	0.001954
720	0.004912	-0.001169	-0.001498	0.000474
721	-1.9e-05	-0.001169	0.000474	0.005076
722	0.000474	0.000474	-0.011524	-0.002484
723	0.00146	-0.001991	-0.001498	-0.001498
724	0.001789	-0.001991	-0.000183	-0.001169
725	0.000967	-0.001662	0.002447	-0.000183
726	0.001132	0.001625	0.003433	-0.001005
727	0.004255	-1.9e-05	0.004912	-0.001169
728	-0.001498	0.002447	0.003433	0.003433
729	0.000639	-0.000841	0.003926	0.000639
730	0.000146	0.003433	0.004583	-0.002155
731	0.001132	-0.001169	0.005241	-0.000676
732	-0.000347	0.000967	0.004583	0.001296
733	0.001954	0.00146	0.005405	-0.001005
734	-0.001827	0.00031	0.006062	-0.000347
735	-0.000512	0.000639	0.00672	0.001296
736	-0.0061	0.001296	0.004583	0.001625
737	0.001132	0.002118	0.003104	-0.002484
738	-0.000676	0.000146	0.004583	0.001789
739	-0.000512	0.001296	-0.001991	0.000967
740	0.001132	0.000803	0.004255	0.001132
741	0.000146	0.002118	0.000474	0.000967
742	0.001954	0.000474	0.003926	-0.000512
743	-0.001005	-0.002813	0.002775	0.002775
744	0.00294	-0.001827	0.002447	-0.000183
745	0.000803	-0.000512	0.003268	0.00031
746	0.002447	-0.000183	0.004419	0.002447
747	-0.001498	-0.000676	0.002282	-0.001498
748	-1.9e-05	-0.000347	0.001789	-0.002155
749	0.000474	0.001132	0.002447	-0.000512
750	-0.001005	-0.003142	0.00146	-0.000676
751	0.003761	0.00672	0.007213	0.004748
752	0.012472	0.014938	0.015102	0.011322
753	0.018718	0.021019	0.022663	0.020197
754	0.026278	0.033181	0.026114	0.027922
755	0.034989	0.035647	0.036469	0.028744
756	0.041564	0.043371	0.04107	0.041235
757	0.051425	0.048138	0.050768	0.049453
758	0.055041	0.057835	0.054712	0.05389
759	0.065067	0.058657	0.063587	0.058657
760	0.068354	0.068847	0.068518	0.065888
761	0.072298	0.070819	0.072791	0.073942
762	0.076243	0.079037	0.078708	0.077229
763	0.083475	0.084789	0.082324	0.081502
764	0.084296	0.089063	0.090213	0.090049
765	0.090871	0.091692	0.090706	0.094487
766	0.098431	0.100568	0.058985	0.097116
767	0.101061	0.102376	0.063916	0.099417
768	0.103197	0.105334	0.06934	0.106978
769	0.108457	0.110922	0.070162	0.111251
770	0.11158	0.113716	0.050439	0.113552
771	0.115195	0.117332	0.008528	0.117496
772	0.11651	0.118647	0.017074	0.124893
773	0.122098	0.124728	0.010007	0.124564
774	0.124235	0.126207	0.021019	0.127851
775	0.128673	0.129988	0.028086	0.131302
776	0.133932	0.132782	0.034168	0.13459
777	0.137548	0.138041	0.038934	0.13574
778	0.137877	0.136726	0.045508	0.138041
779	0.141328	0.143629	0.056356	0.141493
780	0.143629	0.143958	0.057342	0.142643
781	0.144451	0.147574	0.066546	0.143958
782	0.148067	0.148067	0.069504	0.143794
783	0.14971	0.149053	0.074764	0.15234
784	0.149382	0.154312	0.07953	0.150368
785	0.152176	0.15497	0.086597	0.152505
786	0.156285	0.158421	0.086597	0.158257
787	0.156778	0.158586	0.092021	0.158257
788	0.157928	0.161873	0.095308	0.158257
789	0.161051	0.161051	0.096623	0.162859
790	0.160229	0.164831	0.10139	0.16138
791	0.164174	0.16516	0.105663	0.166311
792	0.166475	0.167625	0.109936	0.167132
793	0.164667	0.16516	0.113552	0.164174
794	0.167625	0.169433	0.117496	0.170419
795	0.170748	0.169433	0.118811	0.172885
796	0.168612	0.170091	0.1267	0.173214
797	0.174035	0.17157	0.128673	0.171241
798	0.169269	0.174035	0.130645	0.175021
799	0.175021	0.172063	0.129001	0.172392
800	0.176994	0.170091	0.133439	0.174035
801	0.176008	0.175021	0.135411	0.172885
802	0.17798	0.177815	0.136233	0.176994
803	0.177158	0.177815	0.136069	0.17535
804	0.175186	0.178802	0.142972	0.175515
805	0.180116	0.183404	0.142807	0.183404
806	0.182746	0.178802	0.145437	0.185047
807	0.178473	0.181924	0.148724	0.182746
808	0.184718	0.182089	0.150204	0.185212
809	0.186033	0.186033	0.153326	0.186033
810	0.185705	0.186526	0.155627	0.184554
811	0.183239	0.184554	0.15612	0.186526
812	0.18554	0.187841	0.157435	0.184225
813	0.183568	0.186198	0.159408	0.187348
814	0.186362	0.186033	0.159572	0.187184
815	0.186855	0.185212	0.164174	0.186526
816	0.187348	0.186362	0.164667	0.188663
817	0.186691	0.187348	0.164174	0.190142
818	0.185047	0.1908	0.167625	0.188827
819	0.188992	0.189978	0.167461	0.189814
820	0.190307	0.186362	0.167132	0.190471
821	0.18932	0.187513	0.168447	0.187348
822	0.191128	0.1908	0.164996	0.193101
823	0.191128	0.188827	0.169433	0.191457
824	0.189485	0.192443	0.173378	0.193101
825	0.192772	0.188827	0.172885	0.193101
826	0.191293	0.192443	0.178802	0.190635
827	0.192608	0.191457	0.176665	0.194416
828	0.193101	0.193429	0.180774	0.196059
829	0.195402	0.194416	0.18061	0.194909
830	0.193758	0.190964	0.184225	0.193758
831	0.19458	0.196223	0.182417	0.191786
832	0.195402	0.192772	0.18439	0.192115
833	0.192115	0.194416	0.180116	0.192772
834	0.197867	0.193101	0.184883	0.193758
835	0.196388	0.195895	0.184225	0.191621
836	0.195073	0.194909	0.180281	0.193429
837	0.195402	0.195237	0.183732	0.193101
838	0.195895	0.194744	0.186855	0.195073
839	0.194251	0.197703	0.185869	0.197538
840	0.195895	0.196388	0.187677	0.194251
841	0.194416	0.199511	0.18932	0.19836
842	0.197374	0.196881	0.187348	0.194251
843	0.193265	0.195073	0.189978	0.197867
844	0.195237	0.199675	0.189485	0.196717
845	0.195402	0.197867	0.191128	0.199346
846	0.195073	0.199675	0.189814	0.200168
847	0.195895	0.196223	0.192608	0.198853
848	0.197538	0.199839	0.1908	0.196223
849	0.196223	0.194744	0.194251	0.196552
850	0.197703	0.19721	0.11158	0.195402
851	0.197538	0.196552	0.119633	0.195895
852	0.198689	0.197867	0.124071	0.19458
853	0.199018	0.19573	0.126207	0.19721
854	0.19573	0.197703	0.126865	0.19458
855	0.197045	0.196717	0.130809	0.193758
856	0.197538	0.19836	0.133275	0.20214
857	0.197867	0.200168	0.133932	0.199839
858	0.195237	0.196552	0.139027	0.199839
859	0.20099	0.199511	0.136562	0.199839
860	0.194416	0.19836	0.141493	0.201483
861	0.198689	0.200004	0.141164	0.196717
862	0.19721	0.19721	0.14593	0.201483
863	0.196552	0.198853	0.129823	0.200168
864	0.196223	0.19721	0.118976	0.201976
865	0.198689	0.196388	0.121605	0.199182
866	0.199182	0.200168	0.008528	0.199675
867	0.200661	0.201154	0.016088	0.198524
868	0.198853	0.195895	0.022827	0.199018
869	0.199182	0.197374	0.03351	0.197703
870	0.201319	0.195566	0.037783	0.196388
871	0.198524	0.196717	0.044851	0.198031
872	0.200168	0.199346	0.055205	0.199346
873	0.197045	0.196717	0.058657	0.200497
874	0.200825	0.197374	0.064245	0.198031
875	0.200004	0.200004	0.07049	0.201647
876	0.199675	0.197867	0.075092	0.199182
877	0.197538	0.202633	0.082488	0.200661
878	0.200004	0.199018	0.088734	0.197867
879	0.198524	0.198853	0.091857	0.204606
880	0.19836	0.200004	0.095801	0.197538
881	0.200497	0.198524	0.101225	0.20099
882	0.200004	0.196881	0.104841	0.200004
883	0.197867	0.199346	0.107799	0.19721
884	0.199346	0.198689	0.115195	0.200004
885	0.203126	0.198031	0.116839	0.19836
886	0.20099	0.200497	0.121605	0.200168
887	0.201647	0.199346	0.12177	0.19836
888	0.200168	0.198031	0.129659	0.200168
889	0.201319	0.198524	0.129166	0.196881
890	0.200332	0.200661	0.134425	0.199675
891	0.198196	0.199675	0.134261	0.199675
892	0.197867	0.201319	0.13952	0.199182
893	0.198853	0.199675	0.139192	0.20214
894	0.198853	0.203126	0.143958	0.201812
895	0.199839	0.202798	0.144944	0.201483
896	0.197703	0.201647	0.147574	0.203291
897	0.200168	0.201319	0.14971	0.202469
898	0.199511	0.204441	0.152669	0.201647
899	0.199018	0.203126	0.156778	0.198689
900	0.201154	0.199346	0.157435	0.202633
901	0.200004	0.200661	0.158914	0.197703
902	0.202962	0.198196	0.156942	0.19721
903	0.199511	0.200661	0.162202	0.201154
904	0.20362	0.198524	0.16401	0.198031
905	0.199675	0.199511	0.165324	0.19573
906	0.200168	0.199675	0.166146	0.197045
907	0.201319	0.198689	0.167625	0.202798
908	0.200497	0.200004	0.170584	0.196717
909	0.200168	0.200168	0.171077	0.199675
910	0.202469	0.199675	0.170419	0.199346
911	0.200004	0.201319	0.176336	0.198524
912	0.199511	0.201647	0.17535	0.20099
913	0.199182	0.200825	0.176172	0.203126
914	0.196059	0.202305	0.176665	0.202469
915	0.200168	0.200332	0.176994	0.201483
916	0.198031	0.200825	0.178309	0.202798
917	0.200004	0.201647	0.177487	0.199839
918	0.198689	0.201154	0.178802	0.201812
919	0.205099	0.198689	0.180938	0.202469
920	0.198853	0.197703	0.182089	0.198524
921	0.201647	0.196388	0.182582	0.198689
922	0.200661	0.196717	0.187841	0.200661
923	0.199675	0.198031	0.179952	0.198196
924	0.199018	0.197374	0.185212	0.200661
925	0.197374	0.201976	0.185376	0.199346
926	0.195566	0.198031	0.182253	0.200825
927	0.196059	0.200332	0.184718	0.200497
928	0.195073	0.200497	0.188992	0.203126
929	0.195402	0.202962	0.186691	0.201647
930	0.196717	0.199839	0.186855	0.198031
931	0.192772	0.205099	0.189978	0.200332
932	0.19573	0.202633	0.189649	0.199346
933	0.191128	0.201319	0.191621	0.200497
934	0.190964	0.204277	0.191128	0.200168
935	0.192279	0.203291	0.191786	0.200168
936	0.192608	0.199346	0.191786	0.200004
937	0.190635	0.199018	0.194909	0.201483
938	0.192443	0.200168	0.19195	0.200168
939	0.189978	0.199839	0.19573	0.201154
940	0.190964	0.200332	0.192772	0.198196
941	0.186526	0.198689	0.195237	0.201483
942	0.187513	0.201976	0.196223	0.199346
943	0.188006	0.198689	0.195073	0.200168
944	0.187019	0.200661	0.194251	0.200004
945	0.183568	0.199346	0.194087	0.19836
946	0.181431	0.201483	0.194909	0.201483
947	0.182911	0.200661	0.198031	0.202798
948	0.182417	0.201976	0.19573	0.203455
949	0.179623	0.20214	0.194251	0.200004
950	0.177487	0.200825	0.198524	0.201319
951	0.179459	0.202305	0.195402	0.19721
952	0.176829	0.200004	0.195237	0.200497
953	0.176501	0.201647	0.196552	0.198031
954	0.177651	0.200004	0.19836	0.199675
955	0.178473	0.199839	0.194087	0.199839
956	0.174857	0.199839	0.19721	0.201319
957	0.171899	0.200825	0.197045	0.197867
958	0.170255	0.19836	0.198524	0.199182
959	0.168447	0.201154	0.199182	0.200332
960	0.171077	0.198853	0.196388	0.197703
961	0.166311	0.201483	0.197538	0.199675
962	0.165817	0.19836	0.196223	0.201154
963	0.164174	0.199839	0.197045	0.202798
964	0.16516	0.201154	0.196717	0.201483
965	0.159079	0.200661	0.196552	0.200168
966	0.161873	0.199675	0.196388	0.20099
967	0.160887	0.201154	0.197867	0.202962
968	0.161215	0.202469	0.194087	0.201319
969	0.160558	0.200497	0.195566	0.206742
970	0.158586	0.19836	0.198524	0.20214
971	0.157764	0.196881	0.198196	0.203455
972	0.158586	0.200497	0.196552	0.201812
973	0.158914	0.201976	0.196388	0.200825
974	0.15875	0.198689	0.199018	0.201154
975	0.156613	0.197538	0.197867	0.200004
976	0.154148	0.200332	0.201976	0.199346
977	0.157107	0.200661	0.197045	0.200004
978	0.152176	0.201812	0.200661	0.200661
979	0.152833	0.200004	0.199675	0.198689
980	0.15119	0.200497	0.197703	0.200661
981	0.152669	0.200332	0.198031	0.205592
982	0.152176	0.202469	0.19836	0.200825
983	0.151354	0.201647	0.197374	0.201976
984	0.150368	0.200497	0.198689	0.203291
985	0.153162	0.202305	0.196881	0.20099
986	0.153162	0.203455	0.198196	0.203948
987	0.154148	0.198031	0.197538	0.19721
988	0.156449	0.198031	0.197538	0.201154
989	0.154641	0.201483	0.198853	0.20099
990	0.155627	0.198689	0.198853	0.199839
991	0.156942	0.200497	0.199675	0.201319
992	0.161709	0.200661	0.191786	0.204934
993	0.15875	0.200004	0.192608	0.199346
994	0.160065	0.200332	0.193594	0.199346
995	0.158421	0.199839	0.192115	0.200497
996	0.16138	0.199018	0.19458	0.19836
997	0.159572	0.201154	0.195895	0.198031
998	0.162695	0.20099	0.190964	0.198524
999	0.163352	0.201812	0.199018	0.199346
1000	0.163352	0.200497	0.193265	0.198031
1001	0.162859	0.200497	0.19836	0.200332
1002	0.165653	0.201319	0.18932	0.199511
1003	0.166804	0.199511	0.194251	0.203126
1004	0.167297	0.202962	0.196059	0.199346
1005	0.16894	0.199346	0.195566	0.201154
1006	0.170091	0.201483	0.193758	0.204934
1007	0.16894	0.2074	0.195402	0.203126
1008	0.168118	0.201647	0.196388	0.197703
1009	0.170255	0.200332	0.196388	0.201812
1010	0.171077	0.202633	0.196717	0.200825
1011	0.173214	0.200004	0.195566	0.199839
1012	0.173707	0.200661	0.197045	0.198853
1013	0.173871	0.200497	0.196552	0.201976
1014	0.174035	0.198689	0.198031	0.20362
1015	0.177651	0.202633	0.196717	0.199346
1016	0.176501	0.201154	0.198524	0.198853
1017	0.181431	0.201483	0.19458	0.203784
1018	0.178966	0.200004	0.197867	0.201483
1019	0.177487	0.201319	0.194416	0.202633
1020	0.178637	0.200004	0.195402	0.204113
1021	0.183239	0.201647	0.197045	0.200825
1022	0.18439	0.197867	0.194909	0.200497
1023	0.181924	0.20099	0.196552	0.201154
1024	0.184883	0.201154	0.196552	0.201812
1025	0.185705	0.197045	0.19721	0.20362
1026	0.187019	0.199182	0.197867	0.199675
1027	0.185869	0.200661	0.196552	0.200004
1028	0.190471	0.199182	0.192608	0.199839
1029	0.18932	0.201154	0.199182	0.201154
1030	0.191128	0.201319	0.19721	0.201319
1031	0.189978	0.19836	0.199675	0.202469
1032	0.194909	0.201154	0.198689	0.199182
1033	0.189485	0.197045	0.201154	0.200004
1034	0.190142	0.204277	0.196717	0.199346
1035	0.190307	0.199346	0.199346	0.203126
1036	0.189485	0.201976	0.196717	0.202798
1037	0.1908	0.195895	0.198524	0.201319
1038	0.189156	0.201154	0.199839	0.201483
1039	0.193101	0.198031	0.198031	0.200168
1040	0.191786	0.196881	0.20099	0.203291
1041	0.193101	0.199182	0.199839	0.200168
1042	0.194087	0.197867	0.199675	0.200168
1043	0.19721	0.196881	0.199182	0.201483
1044	0.189978	0.198853	0.201647	0.201812
1045	0.194087	0.199018	0.198031	0.198689
1046	0.191786	0.196388	0.203126	0.203126
1047	0.194416	0.199182	0.201154	0.196881
1048	0.193594	0.197703	0.200168	0.199839
1049	0.193758	0.204606	0.198689	0.200497
1050	0.19458	0.196717	0.196881	0.196717
1051	0.19573	0.198853	0.197045	0.198853
1052	0.195237	0.199018	0.199511	0.199346
1053	0.19195	0.19836	0.197703	0.199018
1054	0.198524	0.199182	0.19573	0.199346
1055	0.196223	0.198196	0.198689	0.201483
1056	0.197538	0.195402	0.199182	0.201812
1057	0.195402	0.005405	0.202798	0.204441
1058	0.198524	0.012965	0.200497	0.202633
1059	0.194909	0.023813	0.200497	0.205756
1060	0.193429	0.029894	0.201319	0.202962
1061	0.193922	0.039263	0.200332	0.203948
1062	0.19836	0.045015	0.200004	0.202633
1063	0.196717	0.051261	0.205427	0.201154
1064	0.196223	0.058657	0.200825	0.197538
1065	0.201319	0.061944	0.200168	0.203126
1066	0.198853	0.07197	0.199675	0.196717
1067	0.196059	0.073613	0.198031	0.19836
1068	0.199675	0.079859	0.197703	0.202633
1069	0.196223	0.084296	0.198689	0.203948
1070	0.196717	0.088734	0.197703	0.201483
1071	0.196881	0.092021	0.197703	0.202633
1072	0.198031	0.100403	0.198031	0.204277
1073	0.200332	0.101883	0.200332	0.202305
1074	0.19836	0.107471	0.202469	0.201647
1075	0.199675	0.111251	0.201812	0.199511
1076	0.199675	0.115195	0.202962	0.201154
1077	0.200825	0.119797	0.201812	0.201976
1078	0.198031	0.121277	0.205921	0.202469
1079	0.200825	0.125386	0.199675	0.205099
1080	0.197703	0.125221	0.20099	0.202798
1081	0.201812	0.132617	0.200661	0.200497
1082	0.201483	0.133603	0.202798	0.201319
1083	0.199675	0.137548	0.199346	0.200004
1084	0.201483	0.140835	0.201647	0.199675
1085	0.199675	0.083475	0.201154	0.200332
1086	0.197374	0.011322	0.200661	0.200168
1087	0.199675	0.021512	0.199018	0.201319
1088	0.199018	-0.000347	0.199018	0.201319
1089	0.197374	0.011651	0.202305	0.20099
1090	0.20099	0.005734	0.196223	0.202962
1091	0.198031	0.009514	0.202469	0.20477
1092	0.198524	0.001954	0.199839	0.200825
1093	0.194909	-0.000512	0.200497	0.202469
1094	0.201319	0.000474	0.201154	0.197703
1095	0.201483	-0.001169	0.202305	0.176829
1096	0.199839	-0.000676	0.200497	0.182089
1097	0.200332	-0.000183	0.19721	0.181267
1098	0.202305	0.000803	0.199018	0.180774
1099	0.200332	0.008363	0.199675	0.183075
1100	0.199182	0.003268	0.202305	0.179295
1101	0.199511	0.009514	0.200497	0.18061
1102	0.199675	0.015924	0.201647	0.182089
1103	0.199675	0.022169	0.199675	0.184554
1104	0.198689	0.002282	0.200825	0.184883
1105	0.201483	0.003104	0.198196	0.180281
1106	0.197703	0.009843	0.200497	0.186198
1107	0.201647	0.013294	0.196717	0.185869
1108	0.197374	0.007049	0.200332	0.187513
1109	0.201976	0.01428	0.198853	0.189485
1110	0.199511	0.001296	0.198196	0.191457
1111	0.197374	0.004583	0.199018	0.189814
1112	0.198524	0.001789	0.199018	0.193758
1113	0.199346	0.007213	0.200168	0.194251
1114	0.198196	0.013787	0.199018	0.191786
1115	0.198853	0.021183	0.201319	0.191293
1116	0.199839	0.026607	0.202305	0.189156
1117	0.199839	0.032688	0.200661	0.189649
1118	0.200497	0.037619	0.197703	0.189485
1119	0.198689	0.0437	0.199346	0.189649
1120	0.205921	0.047809	0.197703	0.190635
1121	0.197045	0.053562	0.198031	0.193594
1122	0.204441	0.060629	0.197374	0.192443
1123	0.203948	0.06556	0.198853	0.195895
1124	0.199511	0.067368	0.197374	0.194744
1125	0.199346	0.075421	0.197538	0.194744
1126	0.199182	0.082653	0.200004	0.194087
1127	0.200168	0.085283	0.201483	0.195895
1128	0.201319	0.090049	0.203948	0.191786
1129	0.19836	0.0935	0.200825	0.194744
1130	0.197538	0.097116	0.20099	0.194087
1131	0.202469	0.099582	0.20362	0.19573
1132	0.20099	0.103691	0.20099	0.193922
1133	0.200661	0.104019	0.200497	0.194909
1134	0.200004	0.110593	0.201976	0.197374
1135	0.201976	0.109114	0.199675	0.197045
1136	0.199182	0.093336	0.201647	0.196717
1137	0.201319	0.08857	0.200661	0.194416
1138	0.200497	0.061451	0.202305	0.19721
1139	0.201154	0.068682	0.202798	0.195073
1140	0.200004	0.071312	0.197045	0.195566
1141	0.200004	0.0769	0.200825	0.196881
1142	0.201319	0.080516	0.200332	0.197703
1143	0.202305	0.086104	0.199018	0.196881
1144	0.199675	0.08972	0.201812	0.198524
1145	0.200332	0.093993	0.198853	0.199839
1146	0.202469	0.098267	0.199182	0.201319
1147	0.200661	0.102869	0.202798	0.196059
1148	0.200497	0.105663	0.202962	0.198689
1149	0.20099	0.061615	0.206249	0.197703
1150	0.201483	0.005898	0.201319	0.197045
1151	0.200332	0.017074	0.203455	0.196059
1152	0.203784	0.022005	0.197703	0.194251
1153	0.202469	0.029894	0.202798	0.195237
1154	0.20099	0.038769	0.200168	0.197045
1155	0.201812	0.044851	0.200497	0.199346
1156	0.201812	0.051096	0.198689	0.197867
1157	0.200168	0.054712	0.200004	0.199675
1158	0.200004	0.063094	0.199346	0.199346
1159	0.199675	0.066381	0.202305	0.200661
1160	0.202469	0.074928	0.20099	0.199018
1161	0.203784	0.077722	0.199182	0.200004
1162	0.199511	0.087255	0.201812	0.196223
1163	0.202798	0.08857	0.20099	0.196552
1164	0.201976	0.096623	0.202305	0.199182
1165	0.196388	0.097938	0.200497	0.200661
1166	0.200825	0.102869	0.201976	0.201319
1167	0.202305	0.105827	0.200825	0.200332
1168	0.197045	0.108457	0.200168	0.202633
1169	0.200168	0.114538	0.199346	0.199182
1170	0.200004	0.117661	0.201319	0.198031
1171	0.202798	0.121112	0.201647	0.198853
1172	0.205099	0.123249	0.202305	0.200661
1173	0.205099	0.127522	0.201647	0.197374
1174	0.202798	0.12818	0.201483	0.19836
1175	0.201976	0.131796	0.199018	0.20099
1176	0.197867	0.137219	0.198196	0.199346
1177	0.202633	0.139027	0.198853	0.199018
1178	0.201647	0.138205	0.197045	0.204606
1179	0.197538	0.143958	0.202305	0.203126
1180	0.201319	0.146423	0.201483	0.202633
1181	0.199018	0.150039	0.203126	0.201976
1182	0.201647	0.151025	0.203291	0.199018
1183	0.200168	0.151354	0.203126	0.202962
1184	0.203784	0.154641	0.200825	0.200332
1185	0.202633	0.153984	0.200825	0.198689
1186	0.203126	0.155792	0.200497	0.200661
1187	0.201154	0.155134	0.203291	0.196881
1188	0.201483	0.160394	0.199675	0.199018
1189	0.201483	0.161544	0.203126	0.201976
1190	0.201483	0.164667	0.200825	0.200332
1191	0.202962	0.165489	0.200661	0.200332
1192	0.201483	0.168776	0.201154	0.199839
1193	0.200332	0.16779	0.203291	0.200497
1194	0.199675	0.169598	0.201812	0.20099
1195	0.200661	0.172227	0.199018	0.200168
1196	0.199346	0.17272	0.20477	0.201154
1197	0.202305	0.172556	0.200332	0.20099
1198	0.199018	0.174693	0.202633	0.19836
1199	0.200332	0.177651	0.200004	0.196552
1200	0.200497	0.176172	0.196388	0.201647
1201	0.201647	0.174035	0.197538	0.200661
1202	0.200497	0.179459	0.204277	0.199675
1203	0.202305	0.179295	0.19836	0.199839
1204	0.202305	0.177651	0.205099	0.201319
1205	0.20214	0.177487	0.200332	0.198196
1206	0.202962	0.17913	0.202469	0.200497
1207	0.201647	0.180938	0.199675	0.201812
1208	0.200825	0.178473	0.202962	0.197703
1209	0.197045	0.183568	0.197374	0.20214
1210	0.196717	0.185376	0.199675	0.200825
1211	0.197374	0.186033	0.200497	0.201483
1212	0.200004	0.185047	0.199346	0.200004
1213	0.195402	0.188663	0.20099	0.201976
1214	0.197374	0.188663	0.204113	0.202798
1215	0.201483	0.187513	0.204441	0.206742
1216	0.201154	0.188006	0.199346	0.202305
1217	0.19836	0.187677	0.200168	0.203291
1218	0.20099	0.188006	0.20099	0.202633
1219	0.201319	0.188827	0.201483	0.201647
1220	0.202633	0.18817	0.197867	0.200661
1221	0.198853	0.189814	0.201154	0.201319
1222	0.204606	0.189156	0.200661	0.202633
1223	0.200497	0.187019	0.199018	0.202469
1224	0.198196	0.194087	0.201154	0.201319
1225	0.200332	0.187019	0.20099	0.200004
1226	0.201154	0.189485	0.20477	0.202305
1227	0.203455	0.192279	0.202962	0.200004
1228	0.201812	0.192772	0.200497	0.205263
1229	0.201976	0.192936	0.196881	0.201976
1230	0.199346	0.193429	0.201154	0.200661
1231	0.200497	0.191621	0.199182	0.201976
1232	0.199346	0.19458	0.201154	0.202469
1233	0.199018	0.198689	0.199182	0.202305
1234	0.199182	0.195402	0.200661	0.205263
1235	0.204113	0.197374	0.199839	0.200661
1236	0.200332	0.194251	0.203784	0.202305
1237	0.201976	0.196059	0.204277	0.202469
1238	0.201812	0.191128	0.202633	0.20099
1239	0.202962	0.194744	0.202633	0.199182
1240	0.203126	0.190964	0.201483	0.200332
1241	0.200825	0.193101	0.203291	0.202798
1242	0.199182	0.192936	0.200497	0.199675
1243	0.199675	0.196059	0.20099	0.202469
1244	0.199675	0.194744	0.201647	0.202305
1245	0.199182	0.193922	0.203784	0.203291
1246	0.201154	0.197538	0.202305	0.202633
1247	0.198524	0.196223	0.20362	0.203455
1248	0.201154	0.196552	0.202633	0.204277
1249	0.200004	0.198524	0.203291	0.205099
1250	0.201647	0.200497	0.198524	0.199675
1251	0.199346	0.194416	0.20362	0.203126
1252	0.202305	0.19721	0.203784	0.201812
1253	0.201483	0.195402	0.199018	0.200332
1254	0.202305	0.196223	0.203948	0.200332
1255	0.202633	0.192936	0.199182	0.202305
1256	0.199182	0.197703	0.201647	0.204277
1257	0.201319	0.198853	0.200825	0.202633
1258	0.199675	0.198031	0.206907	0.201976
1259	0.203948	0.196059	0.20214	0.202633
1260	0.201812	0.193265	0.203455	0.202633
1261	0.197867	0.194744	0.201812	0.201319
1262	0.199511	0.196388	0.202633	0.203455
1263	0.199511	0.196552	0.204606	0.202305
1264	0.19721	0.196881	0.204441	0.201647
1265	0.200661	0.198524	0.199511	0.201154
1266	0.199182	0.19721	0.200168	0.206414
1267	0.20099	0.198524	0.200168	0.203126
1268	0.202798	0.198853	0.198853	0.2074
1269	0.202305	0.199346	0.202633	0.204441
1270	0.202469	0.195237	0.202798	0.20362
1271	0.201647	0.198524	0.200332	0.205756
1272	0.203784	0.19721	0.200168	0.201483
1273	0.20099	0.197045	0.203126	0.205592
1274	0.201154	0.194087	0.203784	0.202798
1275	0.199346	0.19836	0.203126	0.203784
1276	0.20099	0.197867	0.201154	0.20362
1277	0.200004	0.197538	0.204606	0.20362
1278	0.204606	0.195895	0.20099	0.203784
1279	0.203126	0.200825	0.20362	0.204113
1280	0.200332	0.200497	0.202798	0.201976
1281	0.200661	0.199182	0.204277	0.203291
1282	0.202469	0.199675	0.201647	0.204441
1283	0.202469	0.196552	0.201812	0.203126
1284	0.200497	0.200004	0.201483	0.202305
1285	0.203126	0.197867	0.202962	0.203455
1286	0.198853	0.199018	0.201647	0.203948
1287	0.20214	0.026114	0.20214	0.207728
1288	0.199346	0.022663	0.203126	0.207893
1289	0.20214	0.028908	0.202305	0.206085
1290	0.201647	0.03729	0.20099	0.205263
1291	0.199346	0.041564	0.206085	0.204934
1292	0.203784	0.04896	0.205263	0.204934
1293	0.205756	0.054055	0.202305	0.203126
1294	0.199182	0.06408	0.207235	0.20362
1295	0.20362	0.067203	0.201319	0.204441
1296	0.200497	0.072463	0.20362	0.203784
1297	0.200168	0.080023	0.198524	0.20214
1298	0.199839	0.083146	0.202469	0.203291
1299	0.199511	0.092186	0.197867	0.203784
1300	0.199018	0.092679	0.202633	0.202962
1301	0.199511	0.101225	0.19836	0.205756
1302	0.201812	0.103197	0.200004	0.204606
1303	0.200004	0.109279	0.201319	0.206249
1304	0.202633	0.111908	0.199511	0.20099
1305	0.202962	0.121605	0.202962	0.199675
1306	0.201319	0.119469	0.202798	0.201483
1307	0.200661	0.12292	0.006556	0.201647
1308	0.202798	0.126043	0.013623	0.200004
1309	0.199839	0.12818	0.006062	0.201812
1310	0.203126	0.127687	0.011486	0.200168
1311	0.202798	0.135247	0.022334	0.202962
1312	0.203126	0.141821	0.02973	0.200168
1313	0.198853	0.138699	0.038112	0.201154
1314	0.201483	0.14478	0.046659	0.20099
1315	0.199675	0.144944	0.048138	0.200825
1316	0.196717	0.14971	0.056684	0.200825
1317	0.200497	0.150204	0.06293	0.199018
1318	0.201976	0.153491	0.066053	0.200661
1319	0.200004	0.153491	0.069669	0.19721
1320	0.198853	0.155463	0.07953	0.20214
1321	0.202633	0.157271	0.080187	0.199675
1322	0.200168	0.16138	0.088734	0.20214
1323	0.20099	0.16138	0.092679	0.19836
1324	0.198689	0.162037	0.101718	0.193265
1325	0.198689	0.166146	0.105663	0.197703
1326	0.202305	0.166804	0.109279	0.199675
1327	0.204277	0.170748	0.109607	0.197374
1328	0.201319	0.169433	0.116346	0.199839
1329	0.201976	0.171077	0.119304	0.19721
1330	0.203291	0.170584	0.118811	0.196388
1331	0.201483	0.177815	0.123413	0.196881
1332	0.201483	0.176008	0.126207	0.19458
1333	0.198853	0.176336	0.130974	0.197867
1334	0.19836	0.177487	0.130645	0.196223
1335	0.20099	0.179459	0.136398	0.197045
1336	0.201647	0.177651	0.13837	0.196881
1337	0.202633	0.184061	0.140835	0.196881
1338	0.20214	0.184718	0.139685	0.194909
1339	0.201647	0.18439	0.145766	0.197538
1340	0.202633	0.183568	0.145108	0.196223
1341	0.200168	0.183732	0.149875	0.199182
1342	0.201319	0.187513	0.14971	0.195566
1343	0.200825	0.184554	0.153491	0.195402
1344	0.201483	0.18439	0.153655	0.197703
1345	0.201483	0.187348	0.153984	0.195237
1346	0.201319	0.187841	0.156613	0.196223
1347	0.202798	0.184554	0.159572	0.194744
1348	0.199839	0.189485	0.159736	0.193265
1349	0.198853	0.190307	0.161544	0.19195
1350	0.201319	0.187677	0.165489	0.193429
1351	0.20214	0.18932	0.164831	0.187019
1352	0.200825	0.19195	0.163352	0.192279
1353	0.200332	0.188663	0.168447	0.194744
1354	0.200168	0.193101	0.169433	0.195895
1355	0.201483	0.191128	0.168118	0.195402
1356	0.19836	0.192772	0.171734	0.19836
1357	0.200825	0.194744	0.171077	0.196059
1358	0.200825	0.191621	0.175515	0.197703
1359	0.201647	0.192279	0.173378	0.193429
1360	0.202633	0.196223	0.174528	0.19573
1361	0.200661	0.19458	0.176665	0.196552
1362	0.202633	0.194087	0.180445	0.194087
1363	0.199018	0.194744	0.177158	0.194909
1364	0.202305	0.193594	0.182911	0.195402
1365	0.200332	0.19458	0.180938	0.192608
1366	0.203291	0.194087	0.179623	0.196059
1367	0.201154	0.195895	0.184061	0.196881
1368	0.202798	0.19458	0.182582	0.194744
1369	0.203291	0.19573	0.181596	0.197045
1370	0.202469	0.196223	0.180774	0.196388
1371	0.200497	0.195402	0.185869	0.19721
1372	0.201483	0.193922	0.181596	0.193429
1373	0.20099	0.195073	0.182417	0.195402
1374	0.200168	0.196059	0.183239	0.19721
1375	0.200661	0.192936	0.186526	0.19573
1376	0.200825	0.198853	0.188499	0.192608
1377	0.20214	0.196552	0.190635	0.199346
1378	0.201976	0.198689	0.191128	0.198196
1379	0.200497	0.198689	0.192608	0.197867
1380	0.202305	0.198031	0.194909	0.199346
1381	0.202305	0.195237	0.191786	0.199182
1382	0.201812	0.200661	0.194087	0.197045
1383	0.203455	0.196552	0.191128	0.195566
1384	0.198031	0.198689	0.194087	0.196881
1385	0.20214	0.197538	0.19195	0.195895
1386	0.200497	0.198689	0.194416	0.199346
1387	0.20362	0.19836	0.192772	0.194087
1388	0.200661	0.196881	0.192936	0.199346
1389	0.201812	0.203291	0.193101	0.199675
1390	0.201812	0.200497	0.195237	0.199675
1391	0.200497	0.200332	0.194909	0.200497
1392	0.201154	0.200004	0.195237	0.200332
1393	0.200004	0.202633	0.195566	0.199675
1394	0.204113	0.198853	0.192279	0.199675
1395	0.201647	0.201647	0.195402	0.199675
1396	0.200004	0.196881	0.19573	0.198689
1397	0.20099	0.200497	0.19721	0.19836
1398	0.202305	0.199018	0.196388	0.194251
1399	0.199839	0.198853	0.199675	0.199346
1400	0.202305	0.199839	0.197374	0.198853
1401	0.200497	0.199182	0.199839	0.198196
1402	0.201976	0.198524	0.200661	0.197538
1403	0.202798	0.200661	0.200168	0.19458
1404	0.201976	0.200497	0.199018	0.195566
1405	0.199182	0.195073	0.197703	0.198031
1406	0.199675	0.198524	0.198196	0.200004
1407	0.198524	0.199182	0.196388	0.20214
1408	0.201976	0.200004	0.197703	0.200332
1409	0.200168	0.199182	0.197538	0.200004
1410	0.200825	0.197538	0.197867	0.202305
1411	0.201154	0.198689	0.198524	0.201483
1412	0.201483	0.201647	0.201154	0.201647
1413	0.200825	0.199346	0.202962	0.200004
1414	0.200661	0.202962	0.200661	0.202469
1415	0.201483	0.199839	0.201647	0.199018
1416	0.196059	0.200004	0.199839	0.20099
1417	0.200332	0.199675	0.201976	0.19721
1418	0.199839	0.199675	0.201812	0.199675
1419	0.202305	0.200497	0.199839	0.200004
1420	0.199839	0.197867	0.198853	0.198524
1421	0.201319	0.199018	0.199182	0.200825
1422	0.201154	0.200825	0.199346	0.200497
1423	0.199839	0.200497	0.198524	0.204934
1424	0.200497	0.200004	0.202798	0.203784
1425	0.201976	0.200825	0.198853	0.200168
1426	0.201154	0.200497	0.197374	0.200497
1427	0.200332	0.199018	0.198689	0.201483
1428	0.204934	0.197867	0.197867	0.199018
1429	0.200497	0.201154	0.20477	0.200661
1430	0.202962	0.200497	0.204441	0.20099
1431	0.200332	0.200332	0.203291	0.203291
1432	0.202798	0.197703	0.202798	0.199018
1433	0.20214	0.201319	0.205263	0.201976
1434	0.203126	0.200661	0.200497	0.200661
1435	0.199839	0.200168	0.206085	0.200004
1436	0.198524	0.200497	0.203948	0.200004
1437	0.204441	0.198524	0.203455	0.201154
1438	0.19836	0.198689	0.202962	0.199018
1439	0.202962	0.199346	0.205592	0.201154
1440	0.202469	0.200825	0.200825	0.20214
1441	0.198031	0.199675	0.200661	0.200497
1442	0.200497	0.201647	0.202633	0.19836
1443	0.200004	0.199346	0.202305	0.202305
1444	0.200168	0.205592	0.202305	0.201812
1445	0.20099	0.20477	0.199182	0.201319
1446	0.200661	0.203455	0.207071	0.20362
1447	0.200661	0.199018	0.202633	0.20099
1448	0.200661	0.200661	0.202962	0.201647
1449	0.199675	0.200332	0.202962	0.198689
1450	0.201812	0.203948	0.206907	0.200825
1451	0.202305	0.203291	0.201483	0.200332
1452	0.200332	0.198524	0.204277	0.201154
1453	0.20099	0.199839	0.199018	0.198689
1454	0.200004	0.197538	0.20099	0.203291
1455	0.200497	0.200825	0.201154	0.197538
1456	0.199675	0.199346	0.202469	0.198689
1457	0.200332	0.197538	0.202633	0.202469
1458	0.201154	0.203455	0.201647	0.201647
1459	0.200332	0.199511	0.202469	0.201647
1460	0.199346	0.198853	0.201154	0.20099
1461	0.197374	0.202305	0.204277	0.201647
1462	0.199346	0.20362	0.200168	0.199675
1463	0.201812	0.203291	0.200497	0.201483
1464	0.196717	0.202798	0.199182	0.202469
1465	0.197538	0.200004	0.202305	0.203291
1466	0.201647	0.203291	0.201647	0.202633
1467	0.200497	0.197538	0.202633	0.202633
1468	0.201154	0.203126	0.201647	0.202633
1469	0.20099	0.198689	0.202305	0.203291
1470	0.202633	0.196717	0.20099	0.200168
1471	0.201976	0.196717	0.202469	0.202798
1472	0.201647	0.19836	0.202798	0.200332
1473	0.202633	0.196552	0.19836	0.199182
1474	0.199346	0.19836	0.201647	0.199018
1475	0.20099	0.199018	0.200004	0.200661
1476	0.200497	0.200004	0.201647	0.205921
1477	0.202962	0.201319	0.200825	0.201154
1478	0.196881	0.201647	0.196881	0.203126
1479	0.202633	0.201976	0.201976	0.201976
1480	0.200497	0.203455	0.204113	0.204606
1481	0.202469	0.203455	0.199346	0.201647
1482	0.199018	0.200332	0.199018	0.203455
1483	0.20362	0.201319	0.200661	0.201154
1484	0.199346	0.200004	0.199346	0.20362
1485	0.205099	0.200168	0.20099	0.201483
1486	0.200497	0.199839	0.199018	0.199018
1487	0.20477	0.201319	0.200332	0.205099
1488	0.208222	0.198031	0.200825	0.202962
1489	0.201483	0.198524	0.197374	0.20099
1490	0.20477	0.198853	0.19836	0.202469
1491	0.201976	0.198853	0.200332	0.202633
1492	0.203455	0.200661	0.19836	0.200004
1493	0.200332	0.199346	0.198031	0.202962
1494	0.204277	0.20099	0.198031	0.20099
1495	0.199346	0.200497	0.196388	0.202305
1496	0.201319	0.199839	0.198689	0.20099
1497	0.199346	0.201154	0.199346	0.202798
1498	0.199839	0.201319	0.197703	0.201976
1499	0.199839	0.201319	0.198689	0.203784
1500	0.201154	0.200168	0.198031	0.200004
1501	0.200825	0.203126	0.199018	0.20214
1502	0.202962	0.202633	0.198689	0.201976
1503	0.201483	0.199675	0.199511	0.196552
1504	0.201154	0.19836	0.199675	0.201812
1505	0.204934	0.199018	0.200168	0.202798
1506	0.201319	0.203291	0.197703	0.203784
1507	0.201319	0.200661	0.196388	0.202633
1508	0.200004	0.19836	0.199675	0.202633
1509	0.200004	0.199839	0.19721	0.201483
1510	0.200497	0.201976	0.197703	0.203126
1511	0.200004	0.201319	0.197374	0.202798
1512	0.197867	0.206742	0.199018	0.203126
1513	0.201319	0.199839	0.197867	0.204934
1514	0.200332	0.20362	0.19836	0.201319
1515	0.201812	0.199346	0.195402	0.202633
1516	0.201319	0.200497	0.196717	0.204277
1517	0.198196	0.202633	0.196881	0.202798
1518	0.204113	0.200168	0.194087	0.205921
1519	0.202305	0.198853	0.194251	0.201976
1520	0.201812	0.197374	0.193922	0.202633
1521	0.199346	0.200332	0.197045	0.202633
1522	0.204113	0.200004	0.196717	0.200168
1523	0.199839	0.200168	0.198524	0.203291
1524	0.203784	0.198689	0.198196	0.206249
1525	0.202469	0.199675	0.199839	0.200825
1526	0.200168	0.199675	0.199511	0.199018
1527	0.203291	0.200004	0.19836	0.201154
1528	0.200332	0.201647	0.196552	0.20099
1529	0.197867	0.199675	0.202469	0.201976
1530	0.200825	0.201319	0.199839	0.201483
1531	0.20099	0.200332	0.200004	0.202305
1532	0.200332	0.203126	0.196223	0.200661
1533	0.198853	0.199675	0.19721	0.203784
1534	0.199018	0.203455	0.201483	0.202469
1535	0.20477	0.20099	0.198524	0.201483
1536	0.199511	0.203455	0.200661	0.20362
1537	0.203126	0.200168	0.199018	0.201483
1538	0.200825	0.198853	0.199018	0.203291
1539	0.199675	0.195402	0.198031	0.200332
1540	0.199346	0.197703	0.199511	0.201319
1541	0.20099	0.199018	0.199182	0.201976
1542	0.202305	0.199182	0.202798	0.201483
1543	0.201976	0.20099	0.198031	0.199839
1544	0.199675	0.199182	0.200332	0.203455
1545	0.201319	0.201647	0.202305	0.200497
1546	0.199346	0.200497	0.199675	0.20099
1547	0.20099	0.20099	0.20099	0.200497
1548	0.199182	0.200497	0.201812	0.197867
1549	0.201154	0.202633	0.199018	0.199182
1550	0.199839	0.200332	0.199018	0.200332
1551	0.199675	0.202633	0.199839	0.200661
1552	0.200661	0.201483	0.198853	0.198031
1553	0.200497	0.198853	0.199675	0.201976
1554	0.20099	0.199839	0.202305	0.198853
1555	0.198689	0.201483	0.200661	0.201647
1556	0.20362	0.199675	0.200332	0.200168
1557	0.200661	0.199182	0.201319	0.200661
1558	0.202798	0.200497	0.199839	0.199675
1559	0.200497	0.199346	0.202469	0.200661
1560	0.203291	0.200497	0.199675	0.198031
1561	0.200332	0.200168	0.201647	0.198689
1562	0.199675	0.200825	0.200497	0.19836
1563	0.198196	0.196881	0.200332	0.198031
1564	0.196223	0.196059	0.200168	0.200497
1565	0.197374	0.201647	0.202469	0.198853
1566	0.195073	0.199182	0.200825	0.201154
1567	0.198196	0.198524	0.201319	0.199675
1568	0.197867	0.203948	0.200004	0.199675
1569	0.200168	0.201483	0.198031	0.198524
1570	0.200004	0.197374	0.196717	0.202633
1571	0.20099	0.199675	0.196881	0.197867
1572	0.200825	0.200332	0.199182	0.202962
1573	0.20099	0.199675	0.197538	0.200332
1574	0.200332	0.199511	0.200332	0.201647
1575	0.203455	0.197045	0.199511	0.201154
1576	0.200168	0.201154	0.202798	0.197374
1577	0.199346	0.200497	0.202469	0.200661
1578	0.206742	0.198031	0.202798	0.199511
1579	0.201319	0.198524	0.205263	0.198853
1580	0.202469	0.199182	0.202962	0.199675
1581	0.201483	0.20099	0.201812	0.199511
1582	0.19836	0.199675	0.203455	0.197045
1583	0.201647	0.200497	0.199839	0.199675
1584	0.19836	0.200661	0.201319	0.19836
1585	0.195073	0.201483	0.200661	0.19836
1586	0.201319	0.201812	0.199018	0.199511
1587	0.199675	0.202305	0.20099	0.201154
1588	0.19836	0.200004	0.201647	0.197703
1589	0.202798	0.197867	0.201647	0.198853
1590	0.204934	0.201647	0.200661	0.198853
1591	0.201319	0.201647	0.202469	0.201154
1592	0.203455	0.20099	0.201154	0.199839
1593	0.202305	0.199018	0.201154	0.199839
1594	0.201319	0.201483	0.199675	0.201154
1595	0.20099	0.197867	0.199839	0.199346
1596	0.199346	0.201483	0.20362	0.199346
1597	0.198031	0.198031	0.201154	0.199511
1598	0.199511	0.200004	0.202798	0.197867
1599	0.199346	0.201319	0.200004	0.197867
1600	0.19836	0.201154	0.203784	0.19721
1601	0.201812	0.202469	0.201154	0.194416
1602	0.199346	0.201647	0.20099	0.198689
1603	0.20099	0.19836	0.198031	0.19721
1604	0.200332	0.199839	0.204113	0.200661
1605	0.201319	0.200825	0.195566	0.19573
1606	0.199018	0.19836	0.197703	0.200332
1607	0.201483	0.203126	0.197374	0.198031
1608	0.200332	0.197867	0.199182	0.200168
1609	0.201647	0.201976	0.199018	0.201812
1610	0.196881	0.200825	0.200168	0.200661
1611	0.201483	0.199675	0.20214	0.200497
1612	0.202305	0.199511	0.200497	0.199675
1613	0.19836	0.200825	0.20099	0.200004
1614	0.201647	0.196388	0.198524	0.199018
1615	0.200168	0.201647	0.201976	0.199675
1616	0.200168	0.200825	0.198196	0.19836
1617	0.203455	0.200332	0.201154	0.203126
1618	0.200332	0.201647	0.19836	0.197374
1619	0.200004	0.202469	0.200168	0.200004
1620	0.20099	0.201154	0.19573	0.199675
1621	0.198524	0.199018	0.197703	0.203948
1622	0.200661	0.200332	0.198196	0.199675
1623	0.200825	0.200332	0.197538	0.201154
1624	0.202305	0.20362	0.196388	0.20099
1625	0.201483	0.19573	0.196552	0.201154
1626	0.202633	0.201976	0.200661	0.20362
1627	0.201812	0.200004	0.199018	0.200332
1628	0.202633	0.201976	0.200661	0.202469
1629	0.201154	0.200497	0.20099	0.199511
1630	0.200661	0.200168	0.201976	0.202305
1631	0.201647	0.200497	0.198524	0.201976
1632	0.199182	0.200332	0.201319	0.200825
1633	0.200661	0.200332	0.200332	0.198524
1634	0.198196	0.201154	0.199675	0.201154
1635	0.205099	0.203126	0.198524	0.197703
1636	0.20099	0.201483	0.201154	0.199511
1637	0.205263	0.201976	0.197538	0.199511
1638	0.198689	0.197867	0.20099	0.198689
1639	0.202469	0.202469	0.197867	0.201483
1640	0.200661	0.199182	0.197538	0.200004
1641	0.200168	0.201154	0.200332	0.201647
1642	0.202633	0.200497	0.198031	0.201812
1643	0.200497	0.201647	0.202469	0.203455
1644	0.20099	0.201154	0.200497	0.201647
1645	0.201976	0.200661	0.19836	0.202469
1646	0.199511	0.199839	0.201154	0.20099
1647	0.200497	0.200497	0.201812	0.200004
1648	0.203291	0.199675	0.200004	0.20214
1649	0.197867	0.201154	0.198196	0.199018
1650	0.201647	0.199839	0.199511	0.20214
1651	0.199839	0.200004	0.200168	0.200497
1652	0.202798	0.200661	0.198524	0.198031
1653	0.197045	0.197538	0.201319	0.19836
1654	0.200497	0.200497	0.201319	0.199511
1655	0.201812	0.196552	0.199346	0.203455
1656	0.199182	0.201647	0.19573	0.200825
1657	0.201647	0.199675	0.201647	0.202469
1658	0.200004	0.201483	0.196059	0.199511
1659	0.201647	0.200661	0.200332	0.201483
1660	0.200168	0.201154	0.200661	0.200825
1661	0.200825	0.201154	0.200497	0.201976
1662	0.197045	0.200168	0.200661	0.201319
1663	0.19721	0.19836	0.200825	0.200825
1664	0.198031	0.203948	0.201154	0.203455
1665	0.200497	0.202962	0.200661	0.201647
1666	0.200168	0.20099	0.201976	0.201812
1667	0.200332	0.196717	0.200661	0.199839
1668	0.205592	0.201647	0.202962	0.201154
1669	0.202469	0.200661	0.199675	0.200168
1670	0.200332	0.20099	0.19836	0.200332
1671	0.201976	0.199839	0.199675	0.198524
1672	0.199018	0.198853	0.199839	0.198031
1673	0.199182	0.199839	0.198853	0.199839
1674	0.201319	0.201812	0.199675	0.20099
1675	0.200661	0.199839	0.19836	0.201319
1676	0.200497	0.197538	0.197867	0.198853
1677	0.201812	0.204934	0.202962	0.201647
1678	0.201976	0.202962	0.202305	0.199182
1679	0.200497	0.203126	0.203291	0.204113
1680	0.204441	0.200004	0.199675	0.199182
1681	0.200661	0.200004	0.20214	0.202633
1682	0.201647	0.202798	0.199346	0.201483
1683	0.199675	0.198689	0.200825	0.204606
1684	0.203948	0.20214	0.201812	0.197374
1685	0.204441	0.198196	0.201647	0.20099
1686	0.202305	0.203291	0.199511	0.200497
1687	0.200825	0.199675	0.201812	0.202305
1688	0.202305	0.200168	0.201483	0.199839
1689	0.196881	0.202962	0.200661	0.201812
1690	0.197045	0.204113	0.201976	0.201319
1691	0.200497	0.201154	0.197867	0.201319
1692	0.200004	0.203126	0.199346	0.202633
1693	0.200497	0.199182	0.198853	0.201647
1694	0.197374	0.201812	0.201154	0.205756
1695	0.20099	0.201154	0.197703	0.201319
1696	0.199018	0.199018	0.196881	0.203948
1697	0.201812	0.201483	0.198031	0.202305
1698	0.199675	0.200661	0.198524	0.20099
1699	0.202305	0.199675	0.199675	0.199511
1700	0.200004	0.199018	0.201812	0.20099
1701	0.202305	0.202305	0.200661	0.198196
1702	0.201976	0.198689	0.200825	0.198853
1703	0.198689	0.201812	0.201647	0.200332
1704	0.200332	0.196388	0.198853	0.200332
1705	0.201647	0.197045	0.201154	0.20099
1706	0.199346	0.196223	0.198524	0.199346
1707	0.198524	0.198031	0.199182	0.202962
1708	0.202798	0.199839	0.202305	0.202798
1709	0.197045	0.201647	0.199839	0.205592
1710	0.201154	0.200825	0.19836	0.201154
1711	0.196717	0.200825	0.201976	0.204277
1712	0.200332	0.202305	0.19721	0.201154
1713	0.199346	0.199018	0.198853	0.202962
1714	0.198031	0.202633	0.201483	0.201976
1715	0.197703	0.199346	0.196059	0.20214
1716	0.200825	0.198196	0.197538	0.202962
1717	0.199839	0.197538	0.199018	0.200825
1718	0.199018	0.198689	0.19836	0.202305
1719	0.203126	0.198031	0.198689	0.201154
1720	0.200825	0.196881	0.199675	0.199346
1721	0.200497	0.197703	0.199182	0.20099
1722	0.202798	0.200825	0.19836	0.20099
1723	0.200825	0.197538	0.197045	0.200004
1724	0.199839	0.195895	0.200168	0.202798
1725	0.201154	0.199839	0.200168	0.200825
1726	0.19836	0.197703	0.197867	0.202962
1727	0.200168	0.201812	0.199018	0.201812
1728	0.199839	0.200168	0.200332	0.207235
1729	0.20099	0.19836	0.196059	0.20362
1730	0.200661	0.201319	0.19836	0.204934
1731	0.200661	0.201647	0.200168	0.204113
1732	0.201483	0.199675	0.200004	0.202798
1733	0.204277	0.200825	0.200004	0.203126
1734	0.202962	0.20099	0.201812	0.200168
1735	0.203126	0.199675	0.199675	0.203291
1736	0.202305	0.198853	0.201812	0.200661
1737	0.199839	0.203948	0.201154	0.20099
1738	0.199839	0.197045	0.199675	0.203455
1739	0.200332	0.200004	0.201812	0.200661
1740	0.202633	0.199839	0.198524	0.202305
1741	0.201319	0.200825	0.200825	0.205427
1742	0.200168	0.20099	0.201812	0.202798
1743	0.200004	0.200168	0.200332	0.207728
1744	0.199675	0.202469	0.198031	0.200332
1745	0.199182	0.202305	0.202469	0.20362
1746	0.200497	0.201647	0.198031	0.20362
1747	0.200004	0.199675	0.199182	0.203784
1748	0.200497	0.199675	0.197045	0.20099
1749	0.199675	0.200168	0.199511	0.199675
1750	0.201647	0.200497	0.201647	0.20099
1751	0.202469	0.200497	0.200332	0.201483
1752	0.199182	0.202469	0.122427	0.201976
1753	0.200825	0.199511	0.128508	0.201483
1754	0.201319	0.202469	0.130809	0.203784
1755	0.201976	0.195895	0.130152	0.205592
1756	0.199182	0.199839	0.136398	0.208222
1757	0.200332	0.195073	0.140013	0.200661
1758	0.199839	0.19836	0.143301	0.204113
1759	0.199018	0.201154	0.142972	0.202305
1760	0.199675	0.199511	0.144451	0.200168
1761	0.200497	0.200825	0.146423	0.203455
1762	0.196552	0.199511	0.148889	0.205263
1763	0.202305	0.20214	0.151025	0.201647
1764	0.196552	0.201154	0.155299	0.201812
1765	0.200497	0.201319	0.154641	0.205427
1766	0.198524	0.198031	0.155627	0.202305
1767	0.19836	0.200332	0.159243	0.204441
1768	0.200825	0.199346	0.161051	0.202305
1769	0.201319	0.199839	0.163516	0.203784
1770	0.201483	0.197867	0.162859	0.201154
1771	0.197867	0.198196	0.164831	0.201319
1772	0.200825	0.19721	0.16516	0.202469
1773	0.201319	0.19721	0.16779	0.205921
1774	0.198853	0.198031	0.170091	0.202633
1775	0.199182	0.194416	0.171734	0.202962
1776	0.20099	0.197538	0.173049	0.203126
1777	0.199018	0.20362	0.1742	0.204277
1778	0.201319	0.200168	0.172063	0.202305
1779	0.200004	0.197867	0.178802	0.199675
1780	0.201812	0.201154	0.176172	0.200825
1781	0.19836	0.20099	0.177651	0.203455
1782	0.199675	0.201976	0.178144	0.201319
1783	0.201154	0.20099	0.179459	0.199839
1784	0.20362	0.202305	0.181596	0.206249
1785	0.199839	0.201319	0.180281	0.201647
1786	0.199018	0.201647	0.183732	0.203948
1787	0.201812	0.201154	0.182417	0.200004
1788	0.198524	0.201154	0.185376	0.204113
1789	0.202305	0.200497	0.18554	0.20214
1790	0.198853	0.199018	0.187184	0.202633
1791	0.202633	0.199839	0.18554	0.203455
1792	0.194909	0.198196	0.186691	0.201154
1793	0.199018	0.200825	0.186033	0.201319
1794	0.196717	0.201154	0.185869	0.198853
1795	0.199182	0.20099	0.186362	0.204113
1796	0.197867	0.202305	0.194087	0.202305
1797	0.198031	0.201154	0.189814	0.203455
1798	0.200332	0.201812	0.188499	0.204113
1799	0.199018	0.205099	0.193101	0.201812
1800	0.201483	0.201647	0.187841	0.20099
1801	0.202305	0.201319	0.192608	0.199839
1802	0.201483	0.202633	0.191128	0.198524
1803	0.20099	0.200332	0.1908	0.202305
1804	0.201483	0.201154	0.188663	0.200661
1805	0.199346	0.203455	0.192608	0.202469
1806	0.200497	0.199839	0.1908	0.204441
1807	0.201154	0.200661	0.195402	0.202962
1808	0.200661	0.200332	0.194087	0.200661
1809	0.201154	0.199182	0.190635	0.202633
1810	0.197703	0.201483	0.192936	0.200332
1811	0.196388	0.199839	0.194087	0.198689
1812	0.19721	0.199511	0.192608	0.198524
1813	0.197538	0.19721	0.193758	0.200004
1814	0.197867	0.202469	0.195237	0.200661
1815	0.20099	0.200168	0.19573	0.199839
1816	0.19836	0.200332	0.193265	0.199182
1817	0.199182	0.197703	0.193429	0.198689
1818	0.202469	0.202633	0.195237	0.202962
1819	0.197867	0.201319	0.196717	0.201976
1820	0.200825	0.200004	0.194087	0.200661
1821	0.201483	0.200497	0.19458	0.196388
1822	0.200004	0.198853	0.195237	0.200825
1823	0.202305	0.19836	0.195237	0.200497
1824	0.20214	0.199839	0.197045	0.198524
1825	0.202469	0.199182	0.194416	0.198031
1826	0.200168	0.194744	0.197867	0.199182
1827	0.201976	0.200332	0.19836	0.195237
1828	0.200497	0.197867	0.197538	0.19573
1829	0.198196	0.200497	0.201812	0.196388
1830	0.200004	0.200497	0.195073	0.19458
1831	0.200497	0.20099	0.198524	0.199018
1832	0.20099	0.203291	0.198689	0.196552
1833	0.200004	0.205756	0.198689	0.196388
1834	0.202962	0.199675	0.196552	0.197867
1835	0.199018	0.199675	0.199346	0.198196
1836	0.19836	0.20214	0.197867	0.19573
1837	0.200661	0.199018	0.197703	0.197538
1838	0.200004	0.197374	0.195895	0.195402
1839	0.199675	0.199511	0.199839	0.200332
1840	0.202633	0.201319	0.198689	0.199018
1841	0.197867	0.199839	0.199675	0.199018
1842	0.199675	0.199675	0.197867	0.198196
1843	0.201812	0.199018	0.198689	0.197703
1844	0.200168	0.201647	0.199182	0.197045
1845	0.198853	0.198853	0.196388	0.196388
1846	0.20099	0.200332	0.198524	0.197867
1847	0.199839	0.200497	0.19836	0.198689
1848	0.19836	0.201812	0.199018	0.200004
1849	0.20099	0.203948	0.198689	0.194251
1850	0.199511	0.203126	0.199839	0.197867
1851	0.202469	0.201483	0.198853	0.197703
1852	0.19836	0.203784	0.200825	0.197867
1853	0.201154	0.202962	0.197703	0.197045
1854	0.200661	0.199018	0.197374	0.198524
1855	0.202633	0.200004	0.199018	0.201154
1856	0.201976	0.201319	0.198689	0.201812
1857	0.202469	0.201483	0.199346	0.201483
1858	0.200497	0.200825	0.197538	0.198031
1859	0.199839	0.200661	0.195895	0.199675
1860	0.20099	0.199018	0.19458	0.196717
1861	0.198689	0.200332	0.201976	0.199675
1862	0.197538	0.200004	0.196059	0.197867
1863	0.19721	0.20099	0.201319	0.199018
1864	0.198853	0.20099	0.201154	0.197538
1865	0.199182	0.20099	0.202633	0.199675
1866	0.203948	0.201812	0.199182	0.197867
1867	0.201319	0.201319	0.201154	0.198689
1868	0.198853	0.204606	0.199675	0.197374
1869	0.197374	0.200168	0.198689	0.198689
1870	0.19836	0.201154	0.19573	0.196717
1871	0.199018	0.200168	0.197867	0.195237
1872	0.201812	0.200004	0.196717	0.202469
1873	0.198031	0.200168	0.19573	0.197045
1874	0.200661	0.202633	0.200332	0.199675
1875	0.200332	0.202962	0.198689	0.199511
1876	0.20214	0.201483	0.202305	0.200004
1877	0.202798	0.201154	0.199346	0.198524
1878	0.200825	0.20099	0.200661	0.198031
1879	0.201976	0.199182	0.199182	0.199839
1880	0.198853	0.200332	0.199675	0.199346
1881	0.200825	0.201812	0.198853	0.199839
1882	0.199511	0.201812	0.20099	0.198689
1883	0.202962	0.200497	0.199511	0.024635
1884	0.196717	0.202469	0.197867	0.033346
1885	0.199346	0.202305	0.200004	0.03992
1886	0.198689	0.200497	0.200004	0.046659
1887	0.198524	0.203948	0.200661	0.054876
1888	0.200004	0.201319	0.19836	0.05915
1889	0.200497	0.204934	0.201319	0.066875
1890	0.201154	0.199839	0.200004	0.072134
1891	0.200004	0.20099	0.199675	0.077722
1892	0.203784	0.201976	0.199018	0.081174
1893	0.20214	0.200004	0.198031	0.087255
1894	0.202469	0.199675	0.199839	0.092843
1895	0.20099	0.202305	0.202633	0.096459
1896	0.201812	0.200004	0.197538	0.099089
1897	0.200661	0.201647	0.197045	0.104348
1898	0.20099	0.203784	0.199182	0.108457
1899	0.199839	0.202305	0.202305	0.11158
1900	0.200332	0.201483	0.199346	0.111744
1901	0.199839	0.202305	0.203291	0.118154
1902	0.200661	0.202469	0.19836	0.12292
1903	0.198689	0.200332	0.199511	0.123742
1904	0.20099	0.20214	0.199182	0.128015
1905	0.199018	0.195073	0.197867	0.134425
1906	0.199675	0.20214	0.198524	0.138041
1907	0.199839	0.19836	0.199839	0.139685
1908	0.201319	0.201483	0.198689	0.142314
1909	0.201812	0.20362	0.199839	0.147903
1910	0.204277	0.203948	0.197867	0.146423
1911	0.203126	0.198031	0.20099	0.144451
1912	0.198524	0.201812	0.20214	0.150697
1913	0.200004	0.200497	0.201319	0.15234
1914	0.199511	0.200004	0.203784	0.154641
1915	0.200332	0.201319	0.201319	0.154806
1916	0.197538	0.19836	0.198689	0.159572
1917	0.199839	0.203126	0.201812	0.158093
1918	0.194744	0.202962	0.201154	0.161051
1919	0.19836	0.202798	0.199018	0.163516
1920	0.197703	0.201154	0.196388	0.163516
1921	0.199839	0.20362	0.197374	0.163845
1922	0.199346	0.19721	0.198689	0.16779
1923	0.201483	0.20099	0.200661	0.168447
1924	0.201976	0.201976	0.196223	0.172063
1925	0.199839	0.203784	0.200661	0.172556
1926	0.201154	0.201812	0.199675	0.171734
1927	0.199346	0.19836	0.197045	0.177158
1928	0.202305	0.202305	0.20099	0.175186
1929	0.198853	0.201812	0.202962	0.179952
1930	0.203126	0.202633	0.199018	0.180281
1931	0.200004	0.200332	0.203455	0.177815
1932	0.201154	0.202633	0.201154	0.175843
1933	0.200332	0.199182	0.201812	0.179623
1934	0.201483	0.201812	0.20362	0.17913
1935	0.196388	0.20099	0.19721	0.17798
1936	0.197703	0.201812	0.200004	0.181924
1937	0.198031	0.201319	0.200497	0.183075
1938	0.200497	0.200168	0.200661	0.184718
1939	0.199346	0.202469	0.198524	0.18554
1940	0.199346	0.203126	0.201319	0.186033
1941	0.201319	0.202305	0.198524	0.185212
1942	0.20214	0.199182	0.201483	0.188006
1943	0.202962	0.202305	0.199018	0.18554
1944	0.200168	0.202962	0.203948	0.190471
1945	0.202798	0.201647	0.197867	0.188006
1946	0.197867	0.200168	0.200825	0.18932
1947	0.202962	0.199675	0.206414	0.186526
1948	0.197374	0.201976	0.202469	0.18817
1949	0.20099	0.200332	0.20099	0.188663
1950	0.199346	0.201647	0.202469	0.188006
1951	0.198853	0.203126	0.204277	0.187019
1952	0.200168	0.201976	0.198689	0.189156
1953	0.199839	0.199839	0.200004	0.192443
1954	0.199182	0.201154	0.199675	0.193101
1955	0.199839	0.202798	0.199675	0.193429
1956	0.20214	0.202469	0.200661	0.191786
1957	0.199018	0.20214	0.198524	0.193101
1958	0.200497	0.200168	0.199675	0.193594
1959	0.198196	0.201647	0.199839	0.194909
1960	0.201154	0.199511	0.198853	0.197703
1961	0.196881	0.201483	0.203784	0.195237
1962	0.198853	0.203291	0.205263	0.192936
1963	0.200004	0.201812	0.201647	0.196223
1964	0.20099	0.201319	0.20099	0.196223
1965	0.198031	0.199839	0.202633	0.19195
1966	0.200661	0.200332	0.20099	0.195237
1967	0.203291	0.199346	0.202633	0.192279
1968	0.199346	0.20099	0.201319	0.196223
1969	0.197867	0.197703	0.197703	0.194744
1970	0.199018	0.197703	0.201154	0.19458
1971	0.199839	0.193594	0.196059	0.193265
1972	0.198689	0.197374	0.197703	0.195073
1973	0.199675	0.199839	0.200661	0.195402
1974	0.200332	0.201154	0.198524	0.195895
1975	0.202633	0.198689	0.197045	0.19573
1976	0.199511	0.201812	0.20362	0.197703
1977	0.200825	0.201647	0.201154	0.197374
1978	0.202798	0.200004	0.201647	0.199018
1979	0.201154	0.200332	0.199346	0.19836
1980	0.201976	0.199346	0.200661	0.199675
1981	0.19721	0.201976	0.20099	0.195237
1982	0.20214	0.197374	0.20099	0.195073
1983	0.201976	0.20214	0.201647	0.197703
1984	0.202469	0.199182	0.201483	0.19573
1985	0.198853	0.20099	0.201154	0.197045
1986	0.198853	0.198196	0.200497	0.197045
1987	0.199346	0.197374	0.202962	0.197538
1988	0.200004	0.199182	0.200332	0.196059
1989	0.201647	0.200497	0.201976	0.198689
1990	0.200332	0.20099	0.199839	0.196552
1991	0.199182	0.199018	0.199346	0.19836
1992	0.200825	0.199511	0.200497	0.198524
1993	0.200004	0.198031	0.202305	0.19721
1994	0.194251	0.203291	0.199018	0.202633
1995	0.197867	0.199839	0.20099	0.201812
1996	0.200497	0.20099	0.197374	0.201154
1997	0.198196	0.198031	0.198689	0.199346
1998	0.200004	0.202469	0.201154	0.198853
1999	0.200168	0.200168	0.20362	0.196388
2000	0.202633	0.200004	0.200004	0.198524
2001	0.199018	0.200661	0.203948	0.196881
2002	0.201319	0.200825	0.20362	0.199675
2003	0.200497	0.197867	0.197538	0.197374
2004	0.198524	0.197867	0.201812	0.201319
2005	0.201483	0.199839	0.20362	0.199182
2006	0.198196	0.198196	0.199346	0.199182
2007	0.202305	0.20362	0.203455	0.198031
2008	0.198689	0.198524	0.200661	0.199346
2009	0.197045	0.203291	0.200168	0.199511
2010	0.196552	0.20099	0.20099	0.19836
2011	0.199839	0.200497	0.196552	0.200332
2012	0.196059	0.199839	0.197703	0.200004
2013	0.199182	0.20362	0.201319	0.200332
2014	0.200004	0.201319	0.199018	0.200332
2015	0.20099	0.199675	0.200661	0.203126
2016	0.200661	0.201483	0.202633	0.202962
2017	0.200661	0.201154	0.202798	0.201319
2018	0.201319	0.200004	0.203948	0.200497
2019	0.198524	0.198689	0.202633	0.200497
2020	0.201812	0.200661	0.200825	0.199018
2021	0.199346	0.193922	0.201976	0.199511
2022	0.202962	0.195566	0.196717	0.19458
2023	0.200332	0.196717	0.201319	0.201812
2024	0.199018	0.200497	0.202469	0.19836
2025	0.199018	0.196388	0.197538	0.196552
2026	0.201154	0.19721	0.199839	0.201812
2027	0.199182	0.20099	0.201154	0.20214
2028	0.199346	0.201647	0.201154	0.201483
2029	0.200168	0.200332	0.203948	0.201483
2030	0.200168	0.199018	0.201647	0.200497
2031	0.199675	0.202469	0.202633	0.199182
2032	0.201976	0.20214	0.202305	0.198689
2033	0.204441	0.202469	0.201154	0.200004
2034	0.202633	0.20099	0.201976	0.202305
2035	0.201976	0.201483	0.20099	0.19836
2036	0.19836	0.202798	0.203455	0.200497
2037	0.204606	0.197538	0.201483	0.201319
2038	0.198196	0.201319	0.204277	0.19836
2039	0.198689	0.202633	0.20362	0.200661
2040	0.201319	0.199018	0.204441	0.199346
2041	0.20099	0.200332	0.203291	0.199018
2042	0.200332	0.202469	0.202798	0.197867
2043	0.200168	0.200497	0.202305	0.197045
2044	0.197538	0.200168	0.202469	0.201319
2045	0.200497	0.202305	0.200661	0.201483
2046	0.199346	0.200497	0.201154	0.199511
2047	0.199839	0.203291	0.201319	0.199675
2048	0.202962	0.198031	0.200332	0.200332
2049	0.200004	0.202798	0.207235	0.200332
2050	0.200825	0.202305	0.201483	0.19836
2051	0.202469	0.201154	0.209043	0.200168
2052	0.202469	0.200004	0.203126	0.199018
2053	0.200332	0.203126	0.202633	0.197867
2054	0.20214	0.200004	0.202305	0.200497
2055	0.199839	0.199018	0.203455	0.198853
2056	0.199839	0.200168	0.205099	0.198196
2057	0.205592	0.200168	0.200332	0.199675
2058	0.203126	0.201483	0.202633	0.198524
2059	0.195895	0.197045	0.203784	0.200332
2060	0.201812	0.201976	0.204606	0.200497
2061	0.197045	0.196223	0.206907	0.199675
2062	0.196059	0.202962	0.20214	0.202798
2063	0.19836	0.200332	0.202633	0.201319
2064	0.198524	0.204606	0.204934	0.200332
2065	0.20214	0.200332	0.200332	0.196552
2066	0.201976	0.202469	0.203948	0.20362
2067	0.198853	0.202798	0.201812	0.199018
2068	0.200332	0.201319	0.202305	0.20099
2069	0.200661	0.200332	0.200661	0.199511
2070	0.201483	0.195566	0.202305	0.202633
2071	0.201483	0.202798	0.201812	0.20362
2072	0.200825	0.198853	0.203455	0.198031
2073	0.202633	0.198853	0.203948	0.197045
2074	0.200661	0.199511	0.20099	0.202469
2075	0.201483	0.202798	0.204277	0.195566
2076	0.198853	0.198853	0.201483	0.199839
2077	0.202469	0.203455	0.20362	0.202798
2078	0.19836	0.200332	0.201483	0.199346
2079	0.197867	0.202962	0.203784	0.20214
2080	0.201976	0.198853	0.201154	0.198853
2081	0.198853	0.198524	0.20362	0.202305
2082	0.201483	0.201319	0.200168	0.19836
2083	0.202798	0.200332	0.204606	0.206414
2084	0.201812	0.201976	0.201647	0.201812
2085	0.202469	0.202305	0.204441	0.202469
2086	0.201812	0.20362	0.20214	0.198031
2087	0.201647	0.201319	0.203455	0.202305
2088	0.205921	0.200497	0.20214	0.20214
2089	0.19836	0.202962	0.204113	0.201154
2090	0.201976	0.203291	0.202469	0.200497
2091	0.198689	0.20099	0.203291	0.199018
2092	0.199182	0.200825	0.204441	0.201647
2093	0.201647	0.200825	0.201483	0.198524
2094	0.198689	0.203126	0.206085	0.199182
2095	0.200168	0.20214	0.202633	0.199675
2096	0.199346	0.203455	0.203291	0.20099
2097	0.201812	0.204606	0.20099	0.198524
2098	0.199675	0.203455	0.201647	0.200332
2099	0.20214	0.204277	0.200004	0.196388
2100	0.200332	0.20362	0.20099	0.19836
2101	0.200168	0.205263	0.199675	0.200332
2102	0.199346	0.201976	0.199018	0.199346
2103	0.201154	0.201812	0.199839	0.199346
2104	0.201976	0.203455	0.198853	0.19721
2105	0.200825	0.200825	0.204441	0.199182
2106	0.202305	0.202633	0.204277	0.201812
2107	0.20214	0.204113	0.201483	0.202469
2108	0.201647	0.201812	0.201483	0.197703
2109	0.199511	0.201647	0.202962	0.202305
2110	0.199675	0.20099	0.201976	0.199511
2111	0.197867	0.201483	0.203784	0.200661
2112	0.198031	0.202633	0.202469	0.198196
2113	0.196223	0.202469	0.200332	0.200497
2114	0.197867	0.202962	0.202962	0.200332
2115	0.198196	0.202305	0.199839	0.199511
2116	0.199182	0.202962	0.201154	0.200332
2117	0.200168	0.201976	0.204441	0.201319
2118	0.200332	0.204277	0.201647	0.200004
2119	0.200332	0.201154	0.197867	0.201319
2120	0.202469	0.199018	0.199018	0.201154
2121	0.201976	0.200661	0.198031	0.202305
2122	0.202469	0.201812	0.200332	0.20477
2123	0.200825	0.198689	0.197703	0.200497
2124	0.199839	0.199346	0.201154	0.200825
2125	0.200497	0.200004	0.20214	0.200332
2126	0.199018	0.20214	0.201154	0.200661
2127	0.199018	0.20099	0.203126	0.202962
2128	0.200332	0.20099	0.204606	0.200661
2129	0.199839	0.202469	0.200825	0.195895
2130	0.199511	0.202305	0.202305	0.202798
2131	0.199675	0.199182	0.200825	0.198524
2132	0.200497	0.202469	0.201647	0.19836
2133	0.199675	0.204606	0.198196	0.201976
2134	0.200497	0.203455	0.199839	0.200497
2135	0.203291	0.203126	0.19836	0.198031
2136	0.198524	0.201483	0.198853	0.201812
2137	0.201812	0.205427	0.199839	0.200661
2138	0.201483	0.200497	0.199018	0.200168
2139	0.20099	0.206085	0.200661	0.201647
2140	0.201319	0.201647	0.195895	0.200332
2141	0.200332	0.200661	0.199675	0.201483
2142	0.200004	0.199675	0.197538	0.201319
2143	0.201319	0.202633	0.201976	0.200661
2144	0.199675	0.200825	0.197045	0.199675
2145	0.199182	0.198853	0.197703	0.200497
2146	0.203126	0.200661	0.196717	0.196717
2147	0.197374	0.199675	0.19836	0.199511
2148	0.198524	0.202962	0.19721	0.193922
2149	0.197045	0.200497	0.199675	0.201154
2150	0.201647	0.200661	0.196388	0.19836
2151	0.19836	0.202469	0.199346	0.197703
2152	0.201647	0.203291	0.19836	0.199675
2153	0.196388	0.198689	0.19836	0.200825
2154	0.203126	0.202469	0.199675	0.200825
2155	0.199018	0.19836	0.193594	0.200332
2156	0.200332	0.200168	0.196223	0.202633
2157	0.200004	0.200661	0.194416	0.198524
2158	0.199346	0.198196	0.195566	0.203291
2159	0.199839	0.199675	0.195237	0.200661
2160	0.199346	0.19836	0.198853	0.200661
2161	0.20099	0.193758	0.196881	0.200168
2162	0.200497	0.199839	0.200168	0.201647
2163	0.199675	0.20099	0.196223	0.199182
2164	0.197867	0.196881	0.197867	0.201976
2165	0.202798	0.201483	0.198031	0.197045
2166	0.195895	0.200004	0.193429	0.198524
2167	0.201154	0.198524	0.199182	0.200497
2168	0.199182	0.200497	0.195895	0.19721
2169	0.201319	0.200332	0.19721	0.203126
2170	0.200497	0.199346	0.195895	0.200661
2171	0.200004	0.199675	0.19836	0.201812
2172	0.202305	0.201154	0.198031	0.202305
2173	0.200825	0.199675	0.198031	0.203291
2174	0.202633	0.200497	0.198853	0.200332
2175	0.200497	0.196388	0.195402	0.20362
2176	0.204277	0.197538	0.199018	0.202305
2177	0.199018	0.196552	0.193758	0.204934
2178	0.202469	0.197045	0.194087	0.198853
2179	0.200004	0.198524	0.198196	0.199182
2180	0.202305	0.196059	0.19836	0.200332
2181	0.200332	0.195895	0.200332	0.200825
2182	0.200825	0.19721	0.200825	0.19836
2183	0.198853	0.196881	0.198196	0.200168
2184	0.199018	0.198853	0.199839	0.199018
2185	0.201319	0.199675	0.197703	0.194416
2186	0.200661	0.199675	0.19721	0.199839
2187	0.202305	0.198689	0.198196	0.197374
2188	0.200497	0.200332	0.197374	0.200497
2189	0.200825	0.197538	0.196717	0.201154
2190	0.200825	0.200497	0.198689	0.200332
2191	0.198196	0.20099	0.197374	0.20214
2192	0.200497	0.200825	0.19836	0.205427
2193	0.20099	0.200004	0.19836	0.201319
2194	0.200004	0.199839	0.200332	0.203126
2195	0.203126	0.198853	0.198689	0.201483
2196	0.200004	0.199839	0.197538	0.200168
2197	0.198689	0.201483	0.200004	0.198689
2198	0.200497	0.19721	0.200497	0.197538
2199	0.199675	0.200661	0.199018	0.198196
2200	0.196388	0.198689	0.195402	0.199182
2201	0.200004	0.200004	0.198196	0.196388
2202	0.200332	0.196552	0.196717	0.198524
2203	0.198031	0.197538	0.196388	0.201976
2204	0.200332	0.199675	0.201319	0.202633
2205	0.196552	0.200497	0.200497	0.203948
2206	0.199346	0.200332	0.198524	0.20099
2207	0.197703	0.199839	0.200004	0.201976
2208	0.196717	0.200661	0.196552	0.203455
2209	0.201319	0.197867	0.198853	0.201319
2210	0.201647	0.199346	0.198689	0.200661
2211	0.194744	0.197703	0.19836	0.199839
2212	0.201154	0.199182	0.198853	0.199018
2213	0.200004	0.196881	0.200168	0.20099
2214	0.202305	0.200004	0.200497	0.202305
2215	0.201812	0.198853	0.201154	0.20099
2216	0.199182	0.199018	0.202469	0.198853
2217	0.202633	0.19836	0.199675	0.199182
2218	0.20362	0.200497	0.199182	0.200497
2219	0.200004	0.198689	0.200661	0.199839
2220	0.201976	0.199675	0.199182	0.201319
2221	0.200497	0.19721	0.199346	0.197867
2222	0.197374	0.19721	0.19195	0.19836
2223	0.200825	0.199346	0.196059	0.196388
2224	0.199182	0.198853	0.197374	0.20362
2225	0.201319	0.199839	0.196388	0.200168
2226	0.199346	0.199182	0.198689	0.203455
2227	0.202305	0.20362	0.200497	0.200825
2228	0.200825	0.200004	0.20214	0.201483
2229	0.201976	0.200661	0.200497	0.202798
2230	0.200332	0.202962	0.202305	0.199839
2231	0.204277	0.202798	0.201483	0.20099
2232	0.200661	0.202305	0.200004	0.19836
2233	0.199839	0.203455	0.198689	0.201319
2234	0.197538	0.200661	0.201976	0.194416
2235	0.196552	0.197867	0.201483	0.198853
2236	0.199182	0.203126	0.199346	0.198853
2237	0.199018	0.199182	0.200332	0.201812
2238	0.199839	0.200004	0.201319	0.199182
2239	0.198853	0.201976	0.201319	0.200168
2240	0.201976	0.202305	0.199182	0.200661
2241	0.200332	0.200332	0.200825	0.20099
2242	0.20099	0.20214	0.198196	0.203948
2243	0.198524	0.199511	0.199182	0.202962
2244	0.200168	0.202305	0.199018	0.200825
2245	0.199346	0.199675	0.199839	0.199511
2246	0.201154	0.200497	0.200825	0.201647
2247	0.195566	0.202633	0.200661	0.201319
2248	0.197703	0.200168	0.201319	0.200825
2249	0.202469	0.199839	0.20362	0.196881
2250	0.200825	0.200661	0.204606	0.200332
2251	0.200168	0.200497	0.201976	0.19836
2252	0.200004	0.199182	0.203126	0.198524
2253	0.201154	0.197867	0.200004	0.195237
2254	0.201647	0.199182	0.199182	0.201812
2255	0.20362	0.202469	0.197703	0.197703
2256	0.197538	0.199182	0.200004	0.198031
2257	0.201647	0.199346	0.196717	0.200825
2258	0.19458	0.200661	0.199346	0.199675
2259	0.196388	0.205592	0.200004	0.201812
2260	0.201154	0.199182	0.199675	0.199839
2261	0.199675	0.201319	0.201154	0.203291
2262	0.198524	0.20362	0.199182	0.199511
2263	0.200661	0.199839	0.20099	0.201483
2264	0.201483	0.198196	0.20099	0.201483
2265	0.201154	0.201154	0.200168	0.201154
2266	0.199839	0.198689	0.200168	0.199346
2267	0.203455	0.200004	0.201319	0.19836
2268	0.197045	0.196388	0.199346	0.202469
2269	0.198031	0.199675	0.201483	0.201647
2270	0.20099	0.197538	0.193594	0.199511
2271	0.199839	0.199018	0.199346	0.202798
2272	0.199511	0.198853	0.199839	0.19836
2273	0.198524	0.197703	0.198689	0.198196
2274	0.20214	0.200004	0.196717	0.198689
2275	0.201812	0.200825	0.198524	0.198689
2276	0.199182	0.201976	0.195237	0.20099
2277	0.200825	0.200825	0.200004	0.201812
2278	0.200004	0.202305	0.200825	0.198689
2279	0.201483	0.19836	0.198689	0.202305
2280	0.201812	0.202633	0.199839	0.200661
2281	0.199182	0.200168	0.200004	0.201647
2282	0.201812	0.20099	0.200661	0.201154
2283	0.201154	0.197374	0.200168	0.201154
2284	0.198689	0.196388	0.201976	0.200825
2285	0.201647	0.200332	0.199346	0.198689
2286	0.196717	0.200497	0.20362	0.201319
2287	0.199839	0.198853	0.200332	0.201812
2288	0.198689	0.199839	0.200332	0.200825
2289	0.19836	0.20099	0.199839	0.194909
2290	0.200168	0.199018	0.197374	0.197538
2291	0.200497	0.202469	0.198031	0.201647
2292	0.196717	0.201976	0.200825	0.19836
2293	0.200661	0.202469	0.198689	0.197867
2294	0.199346	0.20099	0.20099	0.205921
2295	0.200497	0.200825	0.200004	0.200497
2296	0.20099	0.200168	0.200661	0.199839
2297	0.200004	0.202962	0.202962	0.201483
2298	0.202633	0.20362	0.197867	0.201154
2299	0.201319	0.199018	0.198031	0.202305
2300	0.203455	0.201154	0.197045	0.196881
2301	0.198689	0.200332	0.201154	0.201647
2302	0.20099	0.20099	0.20099	0.198853
2303	0.199675	0.200497	0.20477	0.197703
2304	0.205592	0.201976	0.204934	0.192936
2305	0.197867	0.199346	0.200661	0.201483
2306	0.200661	0.200497	0.200004	0.199346
2307	0.199182	0.197703	0.201483	0.198853
2308	0.202305	0.201812	0.201812	0.199675
2309	0.196388	0.198689	0.198524	0.198689
2310	0.198689	0.204606	0.199839	0.200825
2311	0.199182	0.199018	0.200497	0.199018
2312	0.197538	0.202469	0.199346	0.201319
2313	0.200004	0.206578	0.199182	0.199346
2314	0.198524	0.201154	0.200004	0.203291
2315	0.199182	0.199346	0.199182	0.198689
2316	0.199839	0.199675	0.200168	0.204934
2317	0.200332	0.204606	0.199839	0.201154
2318	0.198031	0.199018	0.200661	0.201319
2319	0.20214	0.19721	0.200661	0.202798
2320	0.19836	0.198196	0.199675	0.200168
2321	0.200168	0.200332	0.198196	0.200661
2322	0.199182	0.198689	0.201319	0.201483
2323	0.200661	0.200332	0.200168	0.201483
2324	0.200825	0.200004	0.198689	0.200825
2325	0.199511	0.199675	0.193265	0.199675
2326	0.19836	0.200004	0.200497	0.199182
2327	0.20099	0.204441	0.201483	0.202962
2328	0.200332	0.201319	0.199839	0.197867
2329	0.199018	0.198853	0.200332	0.200497
2330	0.202962	0.199182	0.200825	0.199511
2331	0.199675	0.20214	0.200332	0.201483
2332	0.200004	0.201976	0.201483	0.199018
2333	0.198689	0.199511	0.196388	0.200168
2334	0.205099	0.203291	0.201812	0.200661
2335	0.198853	0.204441	0.198524	0.200332
2336	0.203126	0.201483	0.200661	0.202962
2337	0.198031	0.202633	0.200825	0.205592
2338	0.203784	0.201976	0.20099	0.202962
2339	0.200497	0.197867	0.199675	0.200332
2340	0.201647	0.201812	0.202633	0.199675
2341	0.200332	0.199675	0.200661	0.200332
2342	0.199346	0.200825	0.200497	0.199675
2343	0.198689	0.200168	0.199018	0.197867
2344	0.198031	0.200661	0.199675	0.200332
2345	0.198524	0.199839	0.199018	0.197538
2346	0.19721	0.202469	0.200332	0.200332
2347	0.196552	0.201483	0.198524	0.199675
2348	0.202305	0.201154	0.200168	0.198524
2349	0.203126	0.202305	0.202469	0.201976
2350	0.200825	0.199346	0.199346	0.198031
2351	0.201319	0.201319	0.198524	0.200661
2352	0.200661	0.199511	0.203948	0.198853
2353	0.198689	0.201154	0.198524	0.202798
2354	0.201812	0.198689	0.200497	0.203784
2355	0.201483	0.198031	0.201483	0.198853
2356	0.200168	0.198853	0.200661	0.201154
2357	0.199346	0.20099	0.200661	0.201319
2358	0.198689	0.197374	0.198853	0.19836
2359	0.196717	0.198031	0.201483	0.200497
2360	0.20099	0.199346	0.199511	0.199346
2361	0.197374	0.200661	0.200497	0.200497
2362	0.198524	0.199675	0.200332	0.199346
2363	0.197374	0.193758	0.202305	0.200332
2364	0.197374	0.202469	0.198853	0.200332
2365	0.197867	0.200168	0.197867	0.199511
2366	0.199675	0.200825	0.200661	0.200497
2367	0.198031	0.198853	0.199182	0.202633
2368	0.202798	0.204113	0.198689	0.200168
2369	0.19836	0.200168	0.201812	0.20099
2370	0.203126	0.198524	0.202633	0.201154
2371	0.201154	0.201812	0.200332	0.199511
2372	0.200661	0.196552	0.194087	0.198689
2373	0.20214	0.197703	0.195073	0.197538
2374	0.199182	0.199675	0.195895	0.202962
2375	0.200168	0.194744	0.195073	0.196059
2376	0.198853	0.19721	0.196059	0.201154
2377	0.199182	0.201154	0.197045	0.199839
2378	0.198853	0.196223	0.197374	0.199018
2379	0.199675	0.202798	0.197538	0.199182
2380	0.19836	0.203126	0.196223	0.199182
2381	0.197374	0.202633	0.196717	0.200332
2382	0.199511	0.200661	0.197867	0.199018
2383	0.200332	0.202305	0.19573	0.197538
2384	0.19836	0.200332	0.197703	0.199675
2385	0.198196	0.200497	0.196881	0.199182
2386	0.202305	0.197538	0.195402	0.200168
2387	0.200825	0.199675	0.197374	0.194416
2388	0.197867	0.199018	0.199018	0.193922
2389	0.201976	0.199511	0.196388	0.200661
2390	0.202305	0.199511	0.198524	0.199182
2391	0.199346	0.200825	0.199018	0.199018
2392	0.200661	0.200497	0.198689	0.199675
2393	0.199182	0.199839	0.199018	0.201154
2394	0.200004	0.200497	0.19836	0.19721
2395	0.197374	0.193922	0.198524	0.197703
2396	0.199182	0.200332	0.19836	0.199511
2397	0.196552	0.199839	0.198031	0.195237
2398	0.199675	0.198524	0.196388	0.19836
2399	0.198196	0.199346	0.200004	0.196881
2400	0.201812	0.199346	0.197703	0.199018
2401	0.195402	0.199675	0.197374	0.196388
2402	0.19836	0.201154	0.199511	0.199511
2403	0.196223	0.198853	0.197867	0.19573
2404	0.201976	0.199675	0.199182	0.200332
2405	0.20099	0.199018	0.193101	0.197538
2406	0.20099	0.197867	0.19836	0.20099
2407	0.199839	0.198031	0.19836	0.198689
2408	0.198524	0.200004	0.198196	0.199839
2409	0.200497	0.198031	0.198524	0.199182
2410	0.198524	0.19836	0.199511	0.199675
2411	0.19836	0.196059	0.197703	0.198853
2412	0.195237	0.199018	0.199675	0.200004
2413	0.199346	0.194416	0.199511	0.197045
2414	0.197045	0.193922	0.201154	0.200004
2415	0.19721	0.197703	0.198689	0.200004
2416	0.202305	0.196552	0.198689	0.198524
2417	0.200332	0.197374	0.198196	0.201647
2418	0.199346	0.195895	0.19721	0.201154
2419	0.199511	0.201154	0.19721	0.200004
2420	0.200332	0.194251	0.200661	0.198524
2421	0.200004	0.199511	0.198524	0.199839
2422	0.200004	0.197045	0.195237	0.200332
2423	0.200661	0.196552	0.195895	0.203455
2424	0.201976	0.195895	0.197374	0.199346
2425	0.202469	0.197374	0.200168	0.200168
2426	0.202633	0.195402	0.198031	0.199675
2427	0.200497	0.194744	0.19721	0.202305
2428	0.200661	0.19573	0.196223	0.198031
2429	0.199346	0.198689	0.197867	0.201976
2430	0.199675	0.20099	0.19721	0.199675
2431	0.196881	0.194744	0.199018	0.199511
2432	0.199018	0.199675	0.20099	0.195566
2433	0.199182	0.196223	0.199346	0.199182
2434	0.199018	0.197867	0.198853	0.201319
2435	0.200332	0.198853	0.199182	0.198524
2436	0.200168	0.201154	0.200825	0.199346
2437	0.20214	0.199346	0.199182	0.200168
2438	0.199675	0.199346	0.200661	0.199839
2439	0.201976	0.200825	0.199182	0.199182
2440	0.201319	0.19836	0.199511	0.200661
2441	0.20362	0.198031	0.200004	0.199839
2442	0.201319	0.198031	0.198689	0.201647
2443	0.198689	0.196552	0.199346	0.199182
2444	0.197045	0.19721	0.203455	0.200661
2445	0.199675	0.198524	0.200661	0.199839
2446	0.197538	0.197045	0.202633	0.200332
2447	0.201483	0.199511	0.200332	0.199675
2448	0.199346	0.196388	0.198196	0.19458
2449	0.200004	0.199182	0.198689	0.190471
2450	0.200661	0.197867	0.199182	0.194744
2451	0.194416	0.20099	0.201812	0.199675
2452	0.200825	0.198031	0.199346	0.194087
2453	0.199839	0.199346	0.198689	0.19836
2454	0.200168	0.19836	0.19836	0.199018
2455	0.200497	0.197045	0.198031	0.199675
2456	0.200497	0.198853	0.199018	0.199839
2457	0.197538	0.196223	0.199018	0.201976
2458	0.19836	0.197867	0.200332	0.199018
2459	0.200332	0.196881	0.201319	0.20099
2460	0.199675	0.198031	0.19836	0.20099
2461	0.192443	0.196717	0.20099	0.199511
2462	0.200004	0.199018	0.199839	0.200332
2463	0.200332	0.19836	0.198031	0.200004
2464	0.199839	0.195237	0.20099	0.20099
2465	0.199018	0.197867	0.198524	0.197703
2466	0.200661	0.19836	0.200332	0.200168
2467	0.197374	0.19721	0.197867	0.200004
2468	0.198689	0.198196	0.199675	0.20214
2469	0.200497	0.199018	0.200825	0.199675
2470	0.200004	0.198689	0.19721	0.199182
2471	0.198524	0.197867	0.195237	0.199346
2472	0.198031	0.19836	0.199346	0.201483
2473	0.201154	0.194744	0.195566	0.198853
2474	0.19836	0.19721	0.196388	0.201812
2475	0.201319	0.200332	0.198196	0.200332
2476	0.19836	0.198196	0.199511	0.199346
2477	0.201319	0.198031	0.199182	0.203948
2478	0.199839	0.200661	0.201812	0.201812
2479	0.198689	0.201647	0.201976	0.201647
2480	0.200497	0.200168	0.201812	0.19721
2481	0.199675	0.20099	0.201812	0.200332
2482	0.199182	0.198524	0.200332	0.196552
2483	0.199346	0.19836	0.20099	0.199182
2484	0.197538	0.199675	0.200168	0.198031
2485	0.199839	0.202962	0.200168	0.199511
2486	0.200004	0.200497	0.199675	0.197703
2487	0.200661	0.198853	0.200168	0.197703
2488	0.200332	0.199182	0.199018	0.196717
2489	0.199675	0.20099	0.201812	0.204277
2490	0.197703	0.200497	0.199839	0.200332
2491	0.198524	0.197045	0.201812	0.20099
2492	0.201976	0.200004	0.200332	0.200661
2493	0.199511	0.197703	0.200004	0.199839
2494	0.199839	0.199675	0.20214	0.20099
2495	0.200661	0.199346	0.201154	0.198853
2496	0.199511	0.199839	0.200497	0.201319
2497	0.200332	0.197045	0.201976	0.196881
2498	0.198689	0.198524	0.202633	0.201154
2499	0.198689	0.19721	0.19836	0.200661
