Ladekurvenmessung

Zeit: 2018_05_04 10.01.55

Info: FVA3, v = 1.05, T = 23, F = 20, h = 587.3

Ladewiderstand[Ohm]: 1012700

Störkapazität[pF]: 0.000000

Entladezeit[ms]: 200

Abtastrate[Hz]: 250000

Anzahl der Messwerte: 2500.000000

Verzögerung[ms]: 3

Ladespannung[V]: 0.200000


	Kurve_1	Kurve_2	Kurve_3	Kurve_4	Kurve_5
0	-0.000841	0.000146	-0.001334	-0.003799	-0.000841
1	0.002775	0.002282	0.002447	0.00409	0.001954
2	0.003761	0.002775	0.001625	0.001625	-0.001005
3	0.007049	0.002118	0.000803	0.003597	0.00294
4	0.006556	0.000146	0.000967	0.001954	0.001132
5	0.004583	0.002118	0.002447	0.000967	0.005076
6	0.003926	0.00146	0.001296	0.002118	-0.000183
7	0.001954	0.007213	0.001296	0.000803	0.005076
8	0.006884	0.001789	0.003104	-0.001005	-0.005114
9	0.002118	0.002118	-0.000512	0.002282	0.006062
10	0.007542	0.002282	0.000803	-0.002977	0.001954
11	0.003926	-0.000183	-0.002484	-0.001827	0.000639
12	0.005241	-0.000512	-0.000183	-0.000347	0.004255
13	0.004255	0.001954	-0.001827	-0.003799	-0.001662
14	0.005405	-0.000676	0.00031	0.001789	0.00294
15	0.000474	-0.001662	0.001132	0.001625	0.000967
16	0.002282	-0.001662	0.007213	-0.000676	0.001296
17	-0.000183	-0.000183	0.004419	0.003104	-0.000183
18	0.00294	0.00146	0.005241	0.003268	-0.000512
19	0.004912	0.000146	0.003761	0.000967	-0.003142
20	0.00294	0.00409	-0.001334	0.003926	-0.001169
21	0.006391	0.000146	0.00146	-0.001827	-0.002484
22	0.003104	0.002447	0.000474	0.004583	0.000474
23	0.007377	-0.000183	0.001954	0.000474	0.000967
24	0.004583	-0.001827	0.000146	0.001625	0.001132
25	0.00672	0.00146	0.00294	0.00031	0.001296
26	0.004583	0.002118	-0.001991	0.00031	-0.000676
27	0.008199	0.000639	0.001625	-0.004456	0.001954
28	0.007213	-0.001169	0.009021	0.001625	0.001625
29	0.005076	0.003268	0.002775	0.000639	0.010664
30	0.006227	-0.000347	-0.002155	0.000639	0.003597
31	0.004255	-0.000183	0.001132	-0.001662	-1.9e-05
32	0.005241	0.00031	0.003926	0.003433	-0.000183
33	0.005734	0.00031	0.000146	0.003268	0.002447
34	0.003926	-0.001334	0.001954	0.001789	0.000639
35	0.005898	0.002775	0.003597	0.00294	0.00031
36	0.006227	0.000474	0.004912	0.000474	-0.000347
37	0.004748	0.00031	0.000803	0.006884	-0.000512
38	0.009514	-0.002977	0.001789	-0.000512	0.000967
39	0.008199	0.00409	0.00146	0.003597	0.000803
40	0.007213	0.001625	0.003268	0.000967	-0.000841
41	0.006884	-0.002977	-0.000676	0.002282	0.00294
42	0.007706	-0.003799	0.00146	0.000639	-0.001662
43	0.007542	-0.003635	-0.002484	-0.002648	0.001132
44	0.00935	-0.00347	0.001625	-0.000841	0.002775
45	0.009021	-0.002484	-0.000512	-0.001334	-0.000676
46	0.007213	-0.002813	-0.000512	-0.002813	0.003104
47	0.011651	-0.004292	0.00294	0.002447	0.000803
48	0.004583	-0.000676	-0.001662	-0.000183	0.001625
49	0.007706	-0.00347	0.000146	-0.003142	0.00146
50	0.010829	-0.000183	0.000967	0.002775	0.001132
51	0.004419	-0.002484	0.001789	-0.001005	0.000803
52	0.00935	-0.000841	-0.000512	0.001954	0.000639
53	0.010007	-0.002813	0.000474	0.001132	-0.002484
54	0.011486	0.000639	0.001789	-0.001005	0.000967
55	0.008857	-0.000183	0.00409	0.00146	-0.003142
56	0.00935	-0.001991	-0.001334	0.000803	-0.002648
57	0.011322	0.000639	0.004419	0.001296	-0.002484
58	0.0105	-0.003963	0.000474	0.000474	-0.002648
59	0.010336	-0.004128	0.00146	0.001132	-0.000512
60	0.010993	-0.004456	0.000474	-0.005443	0.003761
61	0.00935	-0.002155	0.00031	-0.001334	0.002447
62	0.0105	-0.002484	-0.000676	0.000474	0.00672
63	0.012144	-0.005278	-0.003963	0.001954	0.003433
64	0.008035	-0.002813	0.00146	-0.001334	-0.001991
65	0.005405	0.003433	-0.002977	-0.000347	0.00409
66	0.010664	-0.000841	0.00146	-0.001169	0.002282
67	0.0105	0.000474	0.003433	-0.000183	-0.002155
68	0.011158	0.00146	0.001296	0.002118	0.00031
69	0.012144	0.004912	0.003926	0.003104	-0.000512
70	0.014116	0.001132	0.006062	-0.001662	-0.002813
71	0.012801	0.00294	-1.9e-05	0.001954	0.002611
72	0.015431	0.000967	0.00294	-0.001169	0.000639
73	0.013294	0.002611	0.001789	0.003761	-0.002155
74	0.012472	0.002282	0.000803	0.000474	0.002447
75	0.012637	-1.9e-05	0.002775	0.000803	-0.001169
76	0.015924	-0.001169	0.000639	-0.000347	0.003597
77	0.015924	0.002118	0.00031	-1.9e-05	0.004255
78	0.01954	-0.004292	0.002282	0.001296	0.001296
79	0.015924	-0.000183	0.000639	-1.9e-05	0.001132
80	0.01691	0.001132	-0.001498	0.000474	0.00294
81	0.015102	-0.002155	0.001625	-0.000183	-0.004785
82	0.01428	0.001625	-0.001991	-1.9e-05	0.002775
83	0.016417	0.000474	-0.001334	0.00031	-1.9e-05
84	0.01428	-1.9e-05	0.001789	0.003926	0.000146
85	0.018882	0.001625	0.004255	-0.00232	0.004583
86	0.012144	0.001789	-1.9e-05	0.005241	0.003104
87	0.016417	0.002118	0.003597	0.00294	0.000803
88	0.016581	0.003597	0.003761	0.005241	0.000639
89	0.017074	0.002611	0.001625	0.002775	-0.001334
90	0.013459	0.005405	0.003597	0.003926	-1.9e-05
91	0.017239	-0.002484	0.002775	0.000639	0.001625
92	0.013459	-0.001169	0.002447	0.000474	-0.000512
93	0.01576	0.000639	0.001296	0.002118	0.003926
94	0.015102	-0.004456	0.000639	-0.000512	0.003597
95	0.018554	-0.000183	0.00031	0.002282	0.001789
96	0.01576	-0.001005	0.000146	-0.002648	0.003761
97	0.012801	0.00031	0.001132	0.008199	0.005405
98	0.018061	0.00146	0.004419	-0.001991	0.001789
99	0.01576	-0.001334	-0.000347	0.001296	0.002611
100	0.016088	0.002775	0.003761	0.000146	0.001625
101	0.019211	-0.004621	0.000803	-0.000183	0.003104
102	0.016088	-0.001005	0.001132	-0.000841	0.002118
103	0.022334	0.000803	0.000803	-1.9e-05	0.000803
104	0.025292	-1.9e-05	0.00409	0.002447	0.003104
105	0.013952	0.002282	0.003597	0.000639	0.00409
106	0.021676	0.003104	0.003926	-0.000183	0.000803
107	0.020033	0.001625	0.00146	0.00294	0.000967
108	0.016417	0.005241	0.003433	0.001954	0.003761
109	0.022334	0.003104	0.001625	0.002611	-0.000841
110	0.020362	0.001954	0.002611	0.000146	0.001296
111	0.021512	0.000146	0.001132	-0.001827	0.00146
112	0.016253	0.00294	0.000146	-0.001005	0.000967
113	0.018554	-0.000676	-0.000183	-0.00232	0.00146
114	0.020197	-0.001169	0.000967	0.002775	0.003926
115	0.017403	-0.001005	-0.001662	-0.001334	0.001954
116	0.006062	0.002447	-0.00347	0.002118	0.004255
117	0.003761	0.00146	0.002282	-0.000676	0.002118
118	0.004255	0.001625	-0.001498	0.001296	0.001296
119	0.007049	0.002447	0.001954	-0.011688	0.002775
120	0.009185	0.003433	0.002447	-0.001662	0.004912
121	0.008363	0.003761	0.002447	0.000639	-0.003799
122	0.006391	0.004748	0.004255	0.000639	-0.002484
123	0.010171	0.005569	0.004583	-0.002648	0.00146
124	0.008692	0.003433	0.003268	0.000474	0.002447
125	0.009514	0.006556	0.004748	0.000967	0.002775
126	0.011979	-0.000512	0.004748	0.002447	0.006391
127	0.010993	0.004255	0.007542	0.002775	0.007377
128	0.016581	0.001132	0.003597	-1.9e-05	0.002447
129	0.011651	0.003433	-0.000676	0.002118	0.004255
130	0.017732	0.001132	0.00031	-0.003635	0.001296
131	0.016581	-0.001334	0.003926	0.000474	0.004419
132	0.017567	-0.001005	0.000474	-0.001169	0.006391
133	0.013459	0.004255	0.001625	-0.000676	0.005241
134	0.019211	-0.001005	0.001625	-0.001169	0.002118
135	0.017239	0.000146	0.003926	0.001625	0.005898
136	0.020362	0.003104	0.003926	-0.001991	0.003268
137	0.018718	0.00294	0.003597	-0.004949	0.001954
138	0.01954	0.005405	0.005734	-0.005936	0.002447
139	0.01576	0.002775	0.006556	-0.002977	0.003761
140	0.01954	0.00146	0.003761	0.000639	0.001132
141	0.018882	0.004255	0.004912	-0.001005	0.000967
142	0.020526	0.005076	0.005898	-0.00232	0.00146
143	0.020033	0.001625	0.006556	-0.000347	0.000803
144	0.017567	0.003104	0.000803	0.00031	0.001789
145	0.01954	0.002775	0.00409	-0.000512	0.000474
146	0.020197	-0.001662	0.002775	0.00146	0.003104
147	0.020033	0.005569	0.007377	0.001296	0.000146
148	0.019211	0.001132	0.004419	0.002775	0.003104
149	0.021676	0.001132	0.003104	0.002611	0.003926
150	0.01954	0.001789	0.002611	0.001296	0.00409
151	0.022827	-0.00232	0.001789	0.00031	0.000474
152	0.006556	0.008363	0.000639	0.001789	0.001954
153	0.001625	0.000474	0.003268	-0.001827	-0.00232
154	0.00031	0.001296	0.00294	-0.001827	-0.002484
155	0.000639	0.005898	0.003104	-0.000676	0.00146
156	-0.001334	0.002282	0.005241	-0.000183	-0.001662
157	-0.000347	0.00146	0.002611	-0.002648	0.001789
158	-0.001005	0.003268	0.001296	-0.008072	0.00031
159	-0.001827	0.00294	0.000474	-0.002648	0.000146
160	0.002282	0.001132	0.000639	-0.002484	-0.003635
161	-0.001169	0.000803	0.00146	0.000474	0.001132
162	0.000639	0.000639	0.000474	-1.9e-05	-0.002648
163	0.003433	0.004748	-0.002813	0.00146	-0.000512
164	0.000803	-0.002648	-0.001991	-0.003142	0.000146
165	-0.001498	-0.000347	0.00146	0.002282	0.001954
166	0.002611	0.000803	0.00294	0.002611	0.001625
167	0.001954	0.004419	-0.001991	0.001789	0.001132
168	0.006884	-1.9e-05	-0.002155	0.001296	-1.9e-05
169	-0.003306	0.000639	-0.002484	-0.000512	-0.003799
170	-0.002155	0.00146	-0.001169	0.00146	0.000639
171	-0.003306	-1.9e-05	-0.000512	-0.00232	-0.001498
172	-0.0061	0.00294	0.000803	0.002118	-0.000183
173	-0.005443	-0.001827	0.001132	-0.001334	-0.002648
174	-0.005607	0.001625	-0.001334	0.000967	0.000803
175	-0.006757	0.001132	-0.000347	-0.001169	-0.00232
176	-0.009058	0.001132	-1.9e-05	0.000803	-0.002155
177	-0.002648	-0.001169	0.001625	-0.000841	-1.9e-05
178	-0.00347	0.002447	-0.000676	0.001625	-0.000841
179	-0.000512	-1.9e-05	-0.001334	-0.000841	-0.003799
180	-0.003635	-0.001662	-0.004128	0.00409	-0.0061
181	-0.000512	0.001296	-1.9e-05	-1.9e-05	0.002282
182	-0.000841	-0.000676	-0.001662	0.002775	0.002775
183	0.000639	-0.001005	-0.002155	0.006227	0.001954
184	-0.001005	-0.001827	-0.004128	0.00146	-0.001334
185	0.001132	-0.000841	-0.00347	-0.000676	-0.000841
186	-1.9e-05	-0.001991	-0.003963	0.003104	-0.00347
187	-0.000676	-0.000676	-0.003963	0.001789	-0.000676
188	-0.001334	-0.000676	-0.004621	0.000639	-0.001991
189	-0.000841	-0.004456	-0.003799	-0.001827	0.000803
190	-0.000347	-0.004292	-0.001662	0.001132	-0.001498
191	-0.000841	-0.002648	-1.9e-05	-0.001662	-0.000676
192	0.000146	-0.004785	-0.002484	-0.003306	0.00031
193	-0.001662	-0.001991	-0.00347	-0.001005	0.00031
194	-0.000676	-0.003963	-0.001334	-0.001334	-0.003635
195	-0.001334	-0.001662	-0.002977	0.000146	-0.000841
196	0.000639	-0.00232	-0.002648	-0.000347	-0.000183
197	-0.001498	-0.001662	-0.004785	0.006227	-0.001827
198	-0.001005	-0.001498	-0.004456	0.001296	0.002611
199	-0.001498	-0.002484	-0.004456	0.002118	-0.002977
200	-0.000676	0.001132	-0.002813	0.002118	-0.000183
201	-0.001498	-0.004456	-0.004292	-1.9e-05	-0.001498
202	-0.000347	0.00294	-0.0061	0.001132	-0.001991
203	-0.001005	-0.001662	-0.003142	-0.002155	-0.00347
204	0.000803	-0.001334	-0.004785	0.002118	-0.001169
205	-1.9e-05	-0.000512	-0.004128	-0.000512	-0.002484
206	0.000803	-0.00232	-0.005278	-0.002484	0.001296
207	-1.9e-05	-0.001005	0.000146	-0.005607	-0.001005
208	-0.000183	-0.004292	-0.0061	0.005898	0.000474
209	-0.000512	-0.004128	-0.002813	-0.00347	0.001132
210	-0.002484	-0.002155	-0.003306	-0.002813	-0.003799
211	-0.001005	-0.003306	-0.003306	-0.000183	-0.000512
212	-0.007086	-0.00232	-0.005443	0.001296	-0.000347
213	-0.000512	-0.001005	-0.001991	-0.000347	-0.004621
214	-1.9e-05	-0.001662	-0.004949	0.001625	-0.001334
215	-0.001498	-1.9e-05	-0.002648	0.002118	-0.001169
216	-1.9e-05	-0.002155	-0.002484	0.000146	0.000639
217	0.00031	-0.000512	0.004255	0.005734	-0.002155
218	-0.001169	0.000803	-0.000183	0.000474	-0.004785
219	0.00031	0.000639	-0.004128	0.000474	-0.001991
220	-0.001334	-0.001498	-0.000676	-0.001169	-0.004128
221	-0.000347	-0.000676	-0.00232	-0.000183	-0.001005
222	-0.000183	-0.00232	0.000474	0.000146	-0.000347
223	-0.006922	-1.9e-05	-0.006757	0.000474	0.001789
224	-0.000183	-0.003963	-0.002648	-0.001498	-0.001334
225	0.000474	-0.002813	-0.001991	0.00146	0.00146
226	-0.000512	-0.002484	-0.002977	0.00031	-0.002977
227	-0.002484	-0.001498	-0.000841	-0.000347	-0.001827
228	-0.000676	0.000967	-0.003635	0.001296	-0.001662
229	-0.000676	0.001625	-0.001991	0.000803	0.000474
230	-0.000183	0.001954	-0.000347	0.005076	-0.005771
231	-0.001169	0.002118	0.001296	0.000803	-0.001498
232	-0.001498	-0.002155	0.001954	0.00146	-0.003635
233	-0.001169	0.001625	0.002118	0.001132	-0.001991
234	-0.000347	-1.9e-05	0.000967	0.00294	-0.003306
235	-0.000676	-0.001827	0.001296	-0.000676	-0.004621
236	0.00031	-0.001005	-0.002977	0.000803	0.001954
237	0.00031	-0.001498	0.000474	-0.003306	-0.002484
238	0.000474	-0.001991	0.000474	0.004583	0.001789
239	0.001789	-0.005771	-0.003142	0.003926	0.001296
240	-0.000512	-0.000183	-0.002813	0.002282	0.002447
241	0.000474	-0.005771	-0.001498	0.005241	-1.9e-05
242	-0.002977	-0.002813	-0.002977	-0.001498	0.000967
243	-0.000347	-0.003635	-0.002977	-0.001498	0.000967
244	-0.003306	-0.004785	-0.005936	-0.000841	-0.000841
245	-0.000512	-0.003142	-0.001334	0.001132	0.000639
246	-0.003635	-0.00347	-0.003799	-0.001005	-0.001498
247	-0.001827	-0.00347	-0.001005	0.000474	0.001132
248	-0.004785	-0.003635	-1.9e-05	0.002447	-0.001991
249	-0.004785	-0.000841	0.004748	0.002282	0.001625
250	-0.005607	-0.00232	-0.002648	-0.001005	-0.002977
251	-0.006593	-0.007086	-0.003142	0.000474	0.000639
252	-0.008237	-0.002813	-0.000183	-1.9e-05	-0.001827
253	-0.009058	-0.006264	-0.001498	0.003268	0.000967
254	-0.011031	-0.004785	-0.001334	-0.000347	0.000146
255	-0.016454	-0.001334	-0.00232	0.001296	0.001789
256	-0.009716	-0.006757	-0.002813	0.000803	-0.000183
257	-0.016126	-0.002977	-0.006264	0.002775	-0.00232
258	-0.012181	-0.003635	-1.9e-05	-0.004949	0.000967
259	-0.014975	-0.002813	-0.002155	-0.002155	0.004748
260	-0.014482	-0.00347	-0.001334	0.000474	0.004583
261	-0.01514	-0.002648	-0.004785	-0.001334	0.000639
262	-0.013825	-0.004456	-0.005278	0.000474	0.00031
263	-0.019084	-0.002155	-0.00232	0.00031	-0.000841
264	-0.022371	-0.000512	-0.004128	0.000967	0.000639
265	-0.018591	0.00146	-0.002813	0.000639	-0.002648
266	-0.015633	-0.001169	-0.006429	0.000146	0.00146
267	-0.018755	0.000639	-0.003635	-0.000512	-0.006429
268	-0.02007	0.001625	-0.000512	0.000967	-0.005607
269	-0.021056	0.000967	0.00146	-0.000347	-0.001991
270	-0.018427	0.001954	-0.000183	0.003597	-0.003635
271	-0.019249	-0.001991	0.000474	0.000803	-0.001498
272	-0.020235	0.002775	-0.001498	0.00294	-0.000183
273	-0.017112	-0.001662	-1.9e-05	0.005898	0.002447
274	-0.017276	0.001132	-0.003142	-0.00347	0.001296
275	-0.013167	-1.9e-05	-0.000183	0.001132	-0.001169
276	-0.016126	0.000803	-0.004128	-0.000512	-0.00347
277	-0.017934	0.001296	-0.001991	0.000967	0.002118
278	-0.019742	-1.9e-05	-0.000512	-0.000676	-0.000512
279	-0.018098	0.000146	-0.002977	0.000639	0.001296
280	-0.02007	-0.001498	0.00146	-1.9e-05	0.001625
281	-0.017276	0.000967	-0.001498	0.001789	0.000967
282	-0.017934	-0.001334	-0.013989	-0.000347	-1.9e-05
283	-0.018262	-0.000183	-0.0061	-0.001169	0.003926
284	-0.017605	-0.000347	-0.000183	0.000803	0.00787
285	-0.018098	0.002118	-0.003963	0.002118	-0.000512
286	-0.013167	0.00031	0.000146	0.001296	-0.000347
287	-0.019249	0.002775	-0.000841	0.004419	0.001625
288	-0.01251	0.002447	0.000967	-0.000676	-0.000183
289	-0.016783	-0.001334	-0.000347	-0.001005	0.000639
290	-0.016454	0.001296	0.000803	0.001789	0.002775
291	-0.015961	-0.000841	-0.000512	-0.001498	0.002447
292	-0.015797	0.002118	-0.001005	-0.000183	0.00031
293	-0.015468	0.000146	-0.01366	-0.002155	0.000474
294	-0.01514	0.000639	-0.00347	0.000474	0.005734
295	-0.014318	-0.001827	-0.002155	-0.000347	0.002447
296	-0.014318	0.001625	-0.004292	0.000474	0.001954
297	-0.013825	0.000967	-0.000676	-0.003635	-1.9e-05
298	-0.011359	0.002118	-0.000841	0.002447	0.002282
299	-0.012346	0.004748	-0.001498	-0.003142	0.000639
300	-0.014975	-1.9e-05	0.001625	-0.004292	-0.000347
301	-0.013332	0.004255	0.00146	-0.001005	-0.000512
302	-0.013496	0.004255	-0.001991	0.000146	-0.001169
303	-0.013167	0.005405	0.00146	0.001789	-0.001991
304	-0.013989	0.007049	-0.006593	0.00294	-0.002813
305	-0.011852	0.005734	0.00031	0.003104	0.001132
306	-0.013989	0.000639	0.00031	0.000639	-0.001169
307	-0.013989	0.005734	-1.9e-05	-0.001991	0.000639
308	-0.00988	0.00294	-0.002484	-0.00347	0.000146
309	-0.013167	0.001132	-0.005278	0.003597	0.00294
310	-0.011688	0.003597	-0.002977	-0.002155	0.005241
311	-0.009551	0.00294	-0.00347	-0.001827	0.001132
312	-0.01251	0.003433	-0.001991	-0.000183	0.003433
313	-0.010866	0.002447	-0.004621	-0.001498	0.004255
314	-0.008237	0.003597	0.000639	-0.005278	0.000146
315	-0.012346	0.000639	-0.000512	-0.001498	0.002282
316	-0.013167	0.00409	-0.000512	-0.000512	0.000967
317	-0.009716	0.007213	-0.003799	0.00031	-0.001005
318	-0.010373	0.005405	0.001789	0.000146	-0.006757
319	-0.014975	0.009843	-0.000183	0.00031	0.000639
320	-0.009058	0.005405	0.000146	0.001132	-0.001169
321	-0.012346	0.008363	0.00031	0.001625	-0.002813
322	-0.009551	0.007213	0.00146	0.001789	0.000146
323	-0.007908	0.00672	0.002447	0.000803	-1.9e-05
324	-0.004456	0.008363	-0.000841	0.001954	0.004419
325	-0.00725	0.007213	0.000639	0.001296	-0.002648
326	-0.0061	0.008857	-0.001991	0.00146	0.000474
327	-0.005114	0.006884	-0.002155	0.001132	0.000967
328	-0.006429	0.004748	-0.002648	0.003761	0.002447
329	-0.006922	0.0105	0.001296	0.001789	-1.9e-05
330	-0.005607	0.011979	-0.001005	-0.001498	0.001789
331	-0.003306	0.008857	-0.000676	-0.000347	-0.000183
332	-0.008401	0.013623	-0.002813	-0.000183	0.001296
333	-0.003142	0.011815	-0.000841	-0.002648	0.000474
334	-0.005936	0.008363	0.002775	-0.001169	0.00409
335	-0.00873	0.008363	0.001132	-0.002484	-0.000183
336	-0.006593	0.010336	-0.000183	-0.000347	0.00031
337	-0.004456	0.009021	0.00146	0.001296	-0.002648
338	-0.008237	0.008692	-0.000512	0.00146	-0.00232
339	-0.006429	0.0105	0.00031	0.001296	0.004912
340	-0.006922	0.013294	0.000146	0.001132	-0.001498
341	-0.007744	0.0105	-0.002648	0.000146	0.000474
342	-0.002813	0.010007	-0.005443	0.000967	-0.000183
343	-0.003799	0.013294	-0.009387	0.001296	-0.001334
344	-0.004456	0.008528	-0.004456	-0.000347	-0.001169
345	-0.00347	0.011158	-0.00232	0.001625	0.00294
346	-0.003306	0.008035	-0.001991	-0.001005	0.002447
347	-0.006593	0.011322	-0.000512	0.000803	0.001132
348	-0.002648	0.009514	-0.000183	-0.000512	0.00031
349	-0.004456	0.012801	-0.004292	0.00031	0.001789
350	-0.004128	0.014445	-1.9e-05	-0.000676	0.006062
351	-0.005278	0.012308	-0.002813	-0.002155	-0.002648
352	-0.004621	0.012637	0.001132	-0.000512	-0.001827
353	-0.004621	0.011158	-0.000183	-0.001005	-0.002648
354	-0.005936	0.014938	0.000474	0.000967	0.00031
355	-0.0061	0.00672	-0.001169	-0.00725	-0.00232
356	-0.000347	0.014609	-0.004292	0.000474	-0.001005
357	-0.003963	0.008528	0.001789	0.000803	-0.002648
358	-0.003963	0.012308	-0.003306	0.001296	0.000146
359	-0.00232	0.010829	-0.001334	-0.003963	-0.000841
360	-0.007908	0.011815	-0.00232	0.00031	-0.001334
361	-0.004456	0.010829	-0.002813	-0.001498	0.003926
362	-0.004292	0.010829	-0.00347	-0.000347	-0.001334
363	-0.001498	0.00787	-0.002648	-0.002977	0.000803
364	-0.004128	0.00935	-0.003142	0.00146	0.001789
365	-0.002155	0.016417	0.002447	0.000967	-0.000512
366	-0.002977	0.008363	-0.001827	0.000474	0.000967
367	-0.002813	0.008692	-0.000676	-0.000676	0.001789
368	-0.004292	0.009185	0.002118	-0.001498	-0.00232
369	-0.005936	0.009843	-0.001662	0.001132	0.00031
370	-0.001498	0.008363	0.001132	-0.000347	-0.002813
371	-0.000347	0.009843	0.004912	0.001625	0.002118
372	-0.005936	0.009678	0.001296	0.000639	-0.001827
373	-0.005278	0.010171	0.003597	0.000967	-0.002484
374	-0.001005	0.008035	0.000639	-0.000512	-0.003635
375	-0.001991	0.010829	-0.002813	0.002118	-0.002155
376	-0.000183	0.013623	0.000474	0.000639	-0.000676
377	-0.000183	0.008199	-0.001334	0.002611	0.000146
378	-0.00347	0.004912	0.002775	-0.001334	-0.002155
379	-0.003635	0.005898	-0.002648	-0.001498	-0.000347
380	-0.000183	0.006884	0.000474	0.00146	0.000146
381	-0.000347	0.007542	-0.001662	-0.000183	0.000967
382	-0.000512	0.003104	0.00146	0.001132	0.000146
383	-0.001991	0.007049	-0.001991	-0.001827	0.002282
384	-0.002648	0.007213	-0.003142	0.003926	-0.000676
385	-0.001827	0.001296	0.000803	0.00031	-0.005278
386	-0.003142	0.007377	-0.001827	-0.001991	0.000474
387	-0.005278	0.00787	-0.000347	-0.000841	-0.001334
388	-0.001498	0.000967	-0.001662	0.003597	0.000967
389	-0.003963	0.000474	-0.000512	0.003597	-1.9e-05
390	-0.002648	0.002611	0.003104	0.002611	-0.001334
391	-0.001169	0.000803	-0.001169	0.000967	-0.000841
392	-0.005771	0.001625	-0.001169	0.001625	0.000967
393	0.000146	-0.001169	0.006556	-1.9e-05	0.000146
394	-0.001827	-1.9e-05	0.001296	-0.000347	-0.002977
395	-0.003306	-1.9e-05	0.002447	-0.001169	-0.003963
396	-0.001991	-0.001662	0.00146	-0.001334	0.001132
397	0.000967	-0.004292	-0.001334	0.000474	0.00031
398	0.000639	-0.000676	-0.000676	-0.000183	0.000803
399	0.003433	-0.006757	-0.001498	-0.000676	-0.002155
400	-0.003799	-0.005443	0.00031	-0.000512	0.000146
401	-0.001991	-0.009223	-0.001498	-0.001498	0.003104
402	-0.000841	-0.007744	0.000803	0.00031	0.000146
403	-0.002648	-0.006264	-0.000512	0.00031	0.003104
404	-0.002155	-0.012017	0.001625	0.000146	0.000474
405	-0.002484	-0.004292	-0.003306	0.002447	0.000803
406	-0.005936	-0.006757	0.001296	0.001625	0.001954
407	-0.003799	-0.00725	-0.000512	-0.000183	0.003104
408	-0.002813	-0.010866	0.001625	-0.000183	-0.001334
409	-0.00347	-0.009387	-0.001662	-0.000841	0.000474
410	0.007213	-0.013003	-0.000183	-0.000512	-0.001005
411	-0.006429	-0.010538	-0.004292	-0.000512	0.001789
412	-0.001991	-0.009551	0.00031	0.002447	-0.001991
413	-0.002648	-0.010538	-0.001662	0.000146	-0.001169
414	-0.003142	-0.010209	-0.002155	0.001954	0.001789
415	-0.002648	-0.011031	0.002282	-0.000347	0.002447
416	-0.000676	-0.013496	-0.001334	-0.000841	-0.001334
417	-0.001498	-0.011031	-0.000347	0.000803	-0.001498
418	-0.000183	-0.010702	-0.001334	0.000474	-0.000183
419	0.001296	-0.01251	0.000639	-0.004128	-0.002648
420	-0.001498	-0.019742	-0.004949	0.000474	0.001954
421	-0.002155	-0.015304	-0.005771	-0.001827	0.000639
422	-0.004292	-0.012346	0.00031	0.001296	0.000639
423	-0.000512	-0.012017	0.00031	-0.000347	0.000967
424	-0.001334	-0.009716	-0.000676	0.002775	0.00031
425	-0.000183	-0.012017	0.002118	-0.000841	-0.000676
426	-0.002813	-0.010045	0.002282	-0.000183	-0.000183
427	-0.000676	-0.013496	0.001132	-0.000183	0.001132
428	-0.001498	-0.006264	0.001132	0.001954	-0.002648
429	-0.000676	-0.012181	-0.000183	0.00031	0.001789
430	-0.000676	-0.012346	0.00146	0.000803	-0.002813
431	-0.000347	-0.022864	-0.000183	0.00146	0.000967
432	-0.012674	-0.017934	-0.002813	-0.000183	-0.001662
433	-0.001662	-0.015961	0.002447	0.000967	-0.000676
434	-0.001169	-0.011852	0.00031	-0.002484	-0.001662
435	-0.000183	-0.012181	-0.000512	0.003104	0.003104
436	0.001132	-0.012839	-0.001662	0.000639	0.001625
437	0.001625	-0.013003	-0.002484	0.00031	0.003433
438	0.00146	-0.012181	-0.001827	-0.000512	0.00294
439	-0.000183	-0.012181	-0.002484	-0.000512	0.001296
440	-0.001498	-0.01251	0.003104	0.003597	0.000474
441	-0.001334	-0.011359	0.002775	-0.001334	-0.000676
442	0.000146	-0.017276	0.002611	-0.001498	-0.000512
443	-0.011524	-0.013989	-0.001827	-0.001662	-0.00232
444	-0.002977	-0.010373	-0.000841	0.001296	-0.001005
445	-0.003799	-0.010373	-0.001827	-1.9e-05	-0.001827
446	0.003433	-0.010702	-1.9e-05	0.000639	0.001954
447	-1.9e-05	-0.01251	0.000639	0.001296	-0.000183
448	-0.001334	-0.010373	-0.001498	0.002447	-0.003635
449	-0.000841	-0.010866	0.000474	-0.000183	0.002282
450	0.000639	-0.01366	-0.000676	0.000639	-0.00232
451	0.00146	-0.013003	-1.9e-05	-0.000676	-0.001334
452	-0.005771	-0.009387	-0.000512	0.000474	0.001625
453	0.003926	-0.01514	-0.000183	-0.001827	-0.001662
454	-0.004128	-0.005936	-0.003306	-0.002484	0.001789
455	-0.001005	-0.0061	0.001296	0.001296	-0.002813
456	-0.001005	-0.012017	-0.002813	-0.001169	-0.000512
457	-0.001827	-0.009058	0.000146	-0.0061	0.00031
458	-0.000512	-0.011031	-0.001169	-0.000841	-0.001991
459	-0.004128	-0.008401	0.000967	-0.003963	-1.9e-05
460	-0.001498	-0.005771	-0.001662	-0.002648	0.005076
461	-1.9e-05	-0.005443	-0.002813	-0.004128	0.001296
462	-1.9e-05	-0.007908	-0.000841	-0.003306	-0.001005
463	-0.000676	-0.004292	-0.000676	0.001296	0.001625
464	-0.00232	-0.005607	-0.001169	-0.001662	-0.004621
465	-0.001662	-0.005278	-0.002813	0.002118	0.001296
466	0.000967	-0.005607	0.006391	-0.001334	-0.000347
467	-0.004128	-0.001662	-0.001827	0.003268	-0.003306
468	0.001296	-0.003635	0.000639	-0.001169	-0.001991
469	0.00031	-0.003635	-0.001334	0.003433	0.00031
470	0.001954	-0.002813	0.003597	0.002447	-0.001991
471	-0.000347	-0.001827	-0.000841	-0.001662	0.010829
472	-0.000676	-0.004128	0.001296	-0.004456	-0.001498
473	0.000474	-0.00347	-0.004949	-0.000841	-0.000676
474	0.00031	-0.000841	-0.004785	-0.003635	0.001789
475	0.00031	0.000639	-0.001005	-1.9e-05	-0.003306
476	-1.9e-05	-0.001827	-0.002977	-0.001334	-0.002484
477	-0.003142	0.00146	0.00146	-0.001498	0.00146
478	-0.000676	-0.000676	0.000967	0.001296	-0.000347
479	-0.001991	-0.001169	0.003268	-0.001498	-1.9e-05
480	-0.005607	0.002118	-1.9e-05	0.000474	0.001296
481	-0.004621	-1.9e-05	0.00146	-0.001005	-0.001498
482	-0.007744	-1.9e-05	0.000639	0.003104	0.006062
483	-0.003799	0.000146	0.000967	0.000967	-0.003142
484	-0.002813	0.00031	-0.00232	0.000474	-0.000841
485	-0.001662	0.000639	0.00031	-0.000347	0.002611
486	0.000967	0.001954	-0.000183	0.000639	-1.9e-05
487	0.000146	-0.000676	-0.002484	0.001296	-0.002813
488	-0.000512	0.002118	-0.000676	-0.001498	-0.001169
489	0.00146	0.001132	-0.000841	-0.001169	0.00146
490	-0.001498	0.002775	0.00146	-0.005443	-0.000841
491	0.002118	0.003926	-0.001662	-0.004128	0.002118
492	0.000146	0.000474	-0.00232	-0.003635	-0.001662
493	-1.9e-05	0.004255	-0.004128	-0.003799	0.001296
494	-0.00347	0.00146	-0.000841	-0.002155	-0.002813
495	-0.001169	0.002775	0.001296	0.001625	-0.000676
496	-0.002813	0.002118	0.001296	-0.003306	0.000474
497	-0.002977	0.003926	-0.000512	0.000474	-0.001005
498	-0.001169	0.001296	-0.00232	-0.003799	-0.003799
499	-0.00232	0.003761	-0.000512	0.000803	-1.9e-05
500	-0.000676	-0.001827	0.002282	-0.000183	-0.004292
501	-0.002155	0.001954	-0.000183	-0.000347	-0.003142
502	-0.002155	0.004748	-0.000347	0.001132	-0.000676
503	-0.000347	0.00294	-0.001005	0.001132	-0.002484
504	0.001789	0.002611	-0.000183	0.006227	-0.004949
505	-0.00232	0.005076	-0.00232	-0.003142	-0.002813
506	0.002775	-0.002648	-0.001005	-0.0061	-0.001005
507	0.000474	0.003268	-0.001662	-0.006922	-0.001005
508	0.007049	0.003597	-0.003142	-0.004292	-0.001498
509	-0.001827	0.003268	-0.003635	-0.004128	0.001954
510	0.002118	0.004419	-0.000512	-0.002155	0.00031
511	-0.005607	0.002447	-1.9e-05	-0.004292	0.000474
512	-0.005114	0.002118	-0.001498	0.00031	0.003761
513	-0.001827	0.001954	0.00031	0.002282	-0.000347
514	-0.005936	0.00409	0.00146	0.000639	-0.000183
515	-0.003963	0.001132	0.000967	0.001789	-0.011195
516	-0.004128	0.005076	-0.00232	0.003433	-0.002155
517	-0.001498	0.005241	0.00146	-0.00347	-0.005114
518	-0.002155	0.007049	0.00031	0.000967	-0.004292
519	-0.001169	0.008857	-0.004621	0.000146	-0.001169
520	-0.001334	0.005569	0.000967	0.001625	-0.003963
521	0.006062	0.008035	-0.001334	0.001296	-0.004949
522	-0.002484	0.005241	0.000146	-0.000841	-0.001169
523	0.000146	0.00787	0.004912	-0.003963	0.000803
524	0.001132	0.00672	0.000639	-0.001005	0.000474
525	0.000474	0.00787	-0.000512	-0.000512	-0.000676
526	0.001625	0.003926	-0.000347	0.002611	-0.017441
527	-0.005278	0.006556	-0.001334	0.002775	0.00031
528	0.00146	0.005241	0.001132	-0.003306	-0.002813
529	-0.001005	0.004912	-0.001827	-0.001827	0.000146
530	-0.000676	0.006227	0.001625	0.000146	-0.000676
531	-0.001334	0.008857	0.00409	-0.002813	-0.000841
532	0.009678	0.008363	0.003597	-0.001005	-0.004456
533	-0.000676	0.008528	0.002447	0.00294	0.001625
534	0.000803	0.003433	0.00146	-0.001498	-0.000183
535	-0.000183	0.007542	0.001296	0.002282	-0.001169
536	-0.001169	0.007213	-0.000183	0.002118	-0.002155
537	-0.001498	0.004912	0.001132	0.002118	-0.017112
538	-0.001169	0.010336	0.001132	0.001789	-0.00347
539	0.001296	0.007542	0.001132	-0.003963	-0.001827
540	0.00146	0.006556	-0.002648	-0.004621	-0.001334
541	0.002118	0.008857	-0.00347	-0.003799	0.001789
542	0.000146	0.006391	0.00146	-0.002813	-0.001827
543	0.003268	0.003761	0.002282	-0.002484	-0.001991
544	-0.003306	0.005734	-0.002155	-0.000512	0.002447
545	-0.001498	0.003761	0.002775	-0.003963	-0.001827
546	-0.003142	0.003926	-0.005278	-0.000183	0.001132
547	-0.001662	0.005241	0.00146	0.000967	-1.9e-05
548	-0.002155	0.005734	-0.003799	-0.001005	-0.004456
549	-0.004128	0.005569	0.000146	-0.002648	0.00031
550	0.000803	0.008199	0.00146	0.000146	-1.9e-05
551	0.00031	0.007377	0.002611	-0.000183	-0.001827
552	-0.002484	0.005405	0.000639	0.000639	-0.002155
553	-0.001334	0.010336	0.003268	0.000474	-0.001334
554	0.000967	0.006062	0.004748	0.000146	-0.003306
555	0.001296	0.006227	0.002282	-0.002813	-0.000347
556	0.000803	0.003104	0.001625	-0.003963	0.000474
557	0.000639	0.010007	0.00146	0.001789	-1.9e-05
558	-0.000183	0.00672	0.003104	-0.001334	-0.000347
559	-0.001662	0.001132	-0.002484	0.00146	0.000803
560	-0.003306	0.003761	0.001625	-0.004456	0.002118
561	-0.001498	0.005734	-0.001991	-0.003963	0.001625
562	-1.9e-05	0.001954	0.000146	0.001132	-0.000512
563	-0.004949	0.002447	-0.000183	-0.001991	0.000639
564	-0.001991	0.003268	0.003597	-0.005114	0.000639
565	0.001296	0.003268	0.002775	-0.003306	-0.001005
566	-0.001827	0.004583	0.00146	-0.002155	-0.000347
567	-0.001991	0.003926	0.002447	-0.003635	0.001132
568	-1.9e-05	0.004912	0.003433	0.003597	-0.001334
569	-0.003799	0.005076	0.006884	0.000146	-0.002155
570	-0.002155	0.005734	0.000803	0.000146	-0.000841
571	-0.001005	0.00409	0.000967	-0.000841	-0.003142
572	0.000474	0.006884	0.000474	0.000639	-0.001991
573	0.001789	0.004912	0.001296	0.001954	0.000146
574	0.000146	0.006391	0.005898	0.00031	0.000639
575	-0.000512	0.004748	0.006391	-1.9e-05	-0.001498
576	-0.001498	0.005241	0.004419	0.000146	-0.000512
577	-0.002155	0.001296	0.001789	0.000146	-0.001498
578	-0.002648	0.003597	0.001954	-0.000512	0.001789
579	0.000146	0.001625	0.002775	-0.001498	-0.00232
580	0.00031	0.003761	-0.001334	0.000967	0.003104
581	0.003433	0.000639	-0.002813	-0.001991	0.000474
582	-0.004621	0.003761	0.000474	-0.003963	-0.001005
583	-0.000676	0.00787	0.000639	-0.001662	-1.9e-05
584	-0.000676	0.001954	0.001132	-0.002813	-1.9e-05
585	-0.00232	0.002118	0.001625	0.001132	-0.000841
586	-0.002155	0.006062	0.004583	-0.001498	-0.000841
587	-0.001334	0.003761	0.006556	-0.001334	-0.003963
588	-0.001169	0.001625	0.004583	0.000639	-0.003635
589	-0.001991	0.006062	0.001625	-0.000841	0.005241
590	-0.000841	0.004419	0.00146	-0.002977	-0.003635
591	0.000146	0.001132	0.001954	-1.9e-05	-0.000183
592	-0.001498	0.000639	0.003104	-0.001662	-0.001005
593	-0.001169	0.002447	0.000639	-0.000183	-0.001498
594	0.000967	-0.000512	-0.000347	-0.001662	-0.001334
595	-0.001827	0.00294	-0.003142	0.000146	-0.000183
596	-0.000841	0.00031	0.001296	-0.002155	0.001296
597	-0.002648	-0.003306	0.005734	-0.000676	0.00031
598	0.002447	0.00031	0.005569	-0.001334	0.003104
599	-0.001005	-0.004785	0.004583	-0.001005	0.000639
600	-0.001991	0.003104	0.005405	0.000474	0.001625
601	-0.001334	0.001625	0.005569	-0.000512	-0.001169
602	-0.000676	-0.000347	0.007213	-0.001662	0.001132
603	-0.001169	-0.000841	0.001789	-0.000183	-0.002648
604	0.000474	0.002611	0.005734	-0.002977	-0.001991
605	0.000146	0.000146	0.00672	-0.004456	-0.002813
606	-0.001498	0.002447	0.003433	-0.000841	0.001296
607	-1.9e-05	-0.001005	0.006062	-0.000512	-0.000347
608	-0.002484	-0.003142	0.002282	-0.001498	-0.000347
609	-0.004456	-0.0061	0.004748	-0.002648	0.003761
610	-0.007579	-0.003142	0.00409	-0.000676	-0.000676
611	-0.000347	-0.005443	0.003104	-0.000676	0.002447
612	-0.001334	-0.006922	-0.000347	-0.001169	0.001789
613	0.000803	-0.003142	0.004583	-0.001991	0.001296
614	-0.002977	-0.010373	-0.000676	-0.001334	0.001625
615	0.005241	-0.001662	0.002611	0.000967	0.000803
616	0.001296	-0.005114	0.003761	-0.001991	-0.001662
617	-0.003799	-0.000512	0.00294	-0.000512	0.000967
618	0.001132	-0.001498	0.005241	-0.003799	-0.001991
619	-0.001005	-0.007415	0.006556	-0.000183	-0.002155
620	0.000803	-0.002155	0.005405	-0.001005	-0.001169
621	-0.002155	-0.003635	0.005734	-0.000183	0.000146
622	0.001625	-0.005443	0.007213	-0.001169	0.001296
623	-0.002813	-0.003799	0.001954	-0.000183	0.002282
624	-0.000347	-0.004621	0.003433	0.000639	0.001132
625	-0.002648	-0.006429	0.004419	0.001625	0.005241
626	0.002118	-0.001005	0.003761	0.000803	0.005569
627	0.000474	-0.002155	0.00409	-1.9e-05	0.00146
628	-0.000347	-0.004621	0.002447	-0.000183	0.003433
629	0.000639	-0.001662	0.002611	-0.001169	0.000967
630	0.001296	-0.003799	0.003761	0.004748	0.002118
631	-0.002648	-0.006757	0.000474	0.00031	0.003104
632	-1.9e-05	-0.004785	0.003104	0.00031	0.002282
633	0.006227	-0.004292	0.002118	-0.002813	0.002447
634	-0.005607	-0.003799	0.003433	-0.000347	0.003433
635	0.002282	-0.005443	0.003104	-0.000512	0.000803
636	0.000803	-0.005771	0.000146	-1.9e-05	0.000474
637	0.002611	-0.001991	0.00409	0.000474	0.002775
638	-1.9e-05	-0.003963	0.001132	-0.00232	0.002447
639	0.000639	-0.0061	0.002611	-0.002977	0.003761
640	-0.003635	-0.002977	0.004419	-0.003635	0.003433
641	0.000474	-0.00725	0.006556	-0.003306	0.000967
642	-0.001005	-0.004128	0.001296	-0.001991	0.002447
643	-0.001827	-0.004128	0.004583	-0.001334	-0.000183
644	-0.003142	-0.006757	0.001789	-0.000512	0.003597
645	-0.001334	-0.002484	0.001625	0.001296	0.003761
646	-0.001169	-0.006922	0.005569	-0.000183	-0.000676
647	-0.002648	-0.004785	-1.9e-05	0.001625	-0.006593
648	0.003926	-0.004128	0.001296	0.006227	0.000146
649	0.001625	-0.002648	0.001954	-0.001005	-0.00347
650	0.001296	-0.002484	0.001625	-0.002155	-0.005443
651	-0.001169	-0.000183	-0.001005	-0.001334	-0.00232
652	0.000474	-0.005443	0.002118	-0.001662	-0.006429
653	-0.001169	-0.002813	-0.001991	0.000146	-0.004456
654	-0.001169	-0.006429	0.00031	-0.005443	-0.003635
655	-0.001991	-0.001662	0.001296	-0.004621	-0.001991
656	-0.000676	-0.005443	0.002118	-0.003963	-0.003142
657	-0.00347	-0.005114	0.00146	0.000146	-0.002977
658	0.00031	-0.010373	0.000639	-0.002648	-0.002813
659	0.003268	-0.005278	-0.002648	0.001296	-0.000676
660	-0.004128	-0.002484	-0.001827	-0.002648	-0.005771
661	-0.001334	-0.006922	-0.003306	-0.001827	-0.005771
662	0.00031	-0.002977	-0.002484	0.001789	-0.001498
663	0.002775	-0.005771	-0.003142	0.000146	-0.003963
664	-0.001169	-0.003306	-0.004785	0.005898	-0.001005
665	-0.003306	-0.001498	0.002118	0.001625	-0.004456
666	0.001625	-0.002813	-0.000676	0.000474	0.00146
667	0.002118	-0.005114	-0.000841	0.000967	-0.002155
668	-0.000512	0.000146	-0.005607	0.001296	0.000474
669	0.001954	-0.002648	-0.000676	-0.002484	0.000474
670	0.002447	-0.004128	-0.001498	-0.008894	0.001132
671	0.002447	-0.000347	-0.004128	-0.004621	-0.001827
672	0.000803	-0.002813	-0.003142	-0.003963	-0.001169
673	-0.003142	-0.004785	-0.00232	0.000146	0.00146
674	-0.001662	-0.004128	-0.00347	-0.001334	-0.001827
675	-0.000676	-0.003799	-0.00232	0.000639	-0.002977
676	-0.00347	-0.005936	-0.000512	-0.000841	0.000967
677	-0.00232	-0.001334	-0.000512	-0.000841	0.005241
678	-0.001498	-0.004456	-1.9e-05	0.003268	-1.9e-05
679	-0.003635	-0.002155	0.000474	0.001625	0.00294
680	-0.001334	-0.003142	-0.000676	0.000639	-0.001334
681	-0.000183	-0.000676	-0.00232	-0.005278	0.00146
682	0.00409	-0.001498	0.001132	-0.001498	-0.001662
683	-0.002484	-0.001498	-0.002813	-0.000841	-0.000347
684	-0.002813	-0.003799	-0.001827	-1.9e-05	-0.001334
685	-0.001991	-0.001169	-0.001662	-0.001334	0.001954
686	0.001296	-0.006429	-1.9e-05	-0.002155	-0.001662
687	-0.003963	-0.004292	0.000474	-0.001498	-0.000676
688	-0.00347	-0.004292	-0.00347	-0.002484	0.006062
689	-0.001169	-0.005607	0.000146	-0.001005	0.002118
690	-0.002484	-0.001498	0.007706	-0.004949	-1.9e-05
691	-0.002155	-0.001334	0.000803	-0.00347	0.000146
692	-0.001005	-0.001498	-0.001498	-0.00232	0.003761
693	0.000803	-0.003306	-0.000512	-0.004949	-0.004128
694	-0.001662	-0.002155	-0.003306	-1.9e-05	0.000803
695	-0.001005	-0.002813	0.000639	-0.000183	-0.000347
696	-0.000841	-0.001991	-0.002648	0.003268	0.000146
697	0.000146	-0.004949	-0.001169	-0.002484	-0.002813
698	-0.000841	-0.002648	-0.00347	0.001954	0.000967
699	-0.000841	-0.00347	-0.001827	-0.001662	0.001132
700	-0.000183	-0.000512	-0.003306	-0.000347	-0.000512
701	-0.000183	-0.004292	0.005241	0.00031	-0.001827
702	-0.001169	0.000146	-0.00347	0.000474	0.001296
703	0.000803	0.000803	-0.002155	-0.001991	0.003268
704	0.001625	-0.003306	-0.005443	-0.004621	-0.001334
705	0.000146	-0.003799	-0.000347	-0.004785	0.000474
706	-0.001169	-0.004292	-0.003799	-0.002977	-0.002484
707	-0.001334	-0.002484	-0.003963	-0.001991	-0.000676
708	-0.002648	-0.007415	-0.007579	-0.004456	-0.00347
709	-0.004128	-0.00232	-0.004128	-0.000183	-0.005278
710	-0.002484	-0.001827	-0.004621	-0.0061	-0.000347
711	-0.00232	-0.001169	-0.004785	0.000639	0.001789
712	-0.004456	-0.006757	-0.007744	-0.000347	-0.002813
713	-0.005443	0.002447	-0.005443	0.000474	0.000474
714	-0.001827	-0.001005	-0.002155	0.00294	-0.001662
715	-0.001991	0.000803	-0.001498	0.002775	-0.002155
716	-0.000512	-0.002155	-0.003963	-0.001334	-0.00232
717	-0.000347	-0.000841	-0.002813	0.00031	-0.002813
718	0.002611	-0.002155	-0.001991	0.000146	-0.002813
719	0.001296	-0.003635	-0.008072	-1.9e-05	-0.001005
720	-0.001991	-0.004128	-0.00232	-0.000183	0.001954
721	-0.002155	-0.005114	-0.003635	-1.9e-05	-1.9e-05
722	-0.000676	-0.00232	-0.004785	0.00146	-0.000347
723	0.000474	-0.004292	-0.014975	-0.001169	-0.00347
724	-0.001991	0.001954	-0.010045	0.000474	0.001954
725	0.001296	-0.001827	-0.005443	-0.001334	0.001296
726	-0.001334	-0.002648	-0.004456	-0.000676	-0.004456
727	-0.004128	-0.001991	-0.004785	0.002118	-0.004128
728	0.001296	0.000146	-0.001827	-0.001498	-0.001334
729	0.000803	-0.001827	-0.001005	-0.002484	-0.00347
730	0.000146	0.001296	-0.007908	0.000639	-0.001662
731	0.00409	0.000803	-0.000841	-0.001005	0.001132
732	-0.001334	-0.00347	-0.00232	0.000146	-0.000183
733	-0.000512	0.00031	-0.001662	-0.001005	-0.000841
734	0.004255	-0.000347	-0.006922	0.000803	-1.9e-05
735	0.000639	-0.001991	-0.005607	0.00146	-0.001827
736	-0.001827	-0.000512	-0.004785	-0.001991	-0.000676
737	-0.001498	-0.004292	-0.003963	0.000803	-0.000512
738	0.001954	-0.005607	-0.004292	-0.002155	-0.002813
739	-0.001662	-0.000841	-0.000512	-0.001827	0.000146
740	-0.000512	-0.0061	0.001789	-0.005936	-0.002484
741	0.000639	-0.00347	-0.008401	-0.001827	-0.004785
742	-0.001334	-0.005114	-0.00347	-0.000347	0.001132
743	-0.001334	-0.004456	-0.001498	-0.001334	-1.9e-05
744	-0.000841	-0.005114	-0.004949	0.000474	-0.001662
745	-0.002813	-0.002155	-0.002648	-0.001498	0.000967
746	-0.000347	-0.000841	-0.002977	0.000146	-0.004456
747	-0.004292	0.00146	-0.007415	-0.001334	-0.002648
748	0.001296	-0.001005	-0.001498	-1.9e-05	-0.002155
749	-0.004128	-0.00347	-0.003963	-0.001005	-0.002484
750	0.000639	-0.001498	-0.001827	0.000803	-0.003799
751	0.00294	0.001625	0.002775	0.003268	0.005898
752	0.011158	0.0105	0.008528	0.012965	0.012472
753	0.018882	0.014938	0.016581	0.018718	0.021348
754	0.025457	0.022334	0.020855	0.026443	0.029401
755	0.034003	0.031045	0.031867	0.029566	0.032524
756	0.040084	0.03614	0.034496	0.037783	0.04107
757	0.050439	0.044686	0.041728	0.045015	0.045672
758	0.053726	0.053069	0.044686	0.048631	0.055041
759	0.057671	0.061779	0.054876	0.058985	0.058985
760	0.064245	0.066875	0.062766	0.065231	0.06556
761	0.072463	0.069997	0.063587	0.067039	0.070326
762	0.072956	0.077722	0.071805	0.073613	0.076572
763	0.078544	0.080023	0.080352	0.081174	0.081009
764	0.081667	0.084625	0.083639	0.087419	0.089556
765	0.085776	0.089556	0.090871	0.091199	0.053726
766	0.091364	0.092679	0.093665	0.0935	0.054219
767	0.098595	0.101718	0.100896	0.098431	0.062273
768	0.104348	0.100075	0.102376	0.10517	0.064902
769	0.105827	0.105498	0.104677	0.109772	0.072298
770	0.107964	0.109772	0.112237	0.112894	0.077229
771	0.114867	0.114867	0.11273	0.112894	0.082324
772	0.118976	0.11799	0.115524	0.119797	0.084789
773	0.123249	0.123578	0.116675	0.122427	0.091364
774	0.127029	0.126372	0.11914	0.124893	0.096623
775	0.125714	0.128344	0.123742	0.129659	0.104841
776	0.131302	0.128015	0.127194	0.129495	0.106813
777	0.133603	0.13574	0.128015	0.13459	0.112073
778	0.136562	0.136562	0.129823	0.132782	0.109936
779	0.142314	0.139356	0.13574	0.132782	0.116182
780	0.14478	0.139849	0.140835	0.13952	0.11651
781	0.137712	0.144287	0.142643	0.146095	0.12177
782	0.147574	0.147738	0.147245	0.14593	0.124893
783	0.148396	0.150204	0.147081	0.148889	0.126372
784	0.150039	0.148889	0.149382	0.151025	0.131302
785	0.148396	0.148396	0.150204	0.150368	0.134754
786	0.150368	0.152833	0.151025	0.155956	0.137548
787	0.155134	0.153655	0.157107	0.1576	0.140013
788	0.155792	0.158914	0.154477	0.159901	0.141986
789	0.160558	0.162695	0.160558	0.156449	0.144122
790	0.159901	0.161873	0.163023	0.162202	0.145273
791	0.164503	0.158093	0.160722	0.164503	0.143136
792	0.159736	0.163516	0.160065	0.166146	0.149875
793	0.169433	0.165324	0.165489	0.164338	0.149053
794	0.167461	0.166146	0.163023	0.164338	0.154477
795	0.166475	0.168283	0.16779	0.168612	0.160229
796	0.173049	0.170091	0.16894	0.166639	0.158257
797	0.166804	0.172556	0.168612	0.171899	0.158093
798	0.171406	0.17272	0.176336	0.170255	0.163188
799	0.173707	0.172556	0.173542	0.174035	0.16253
800	0.168118	0.170255	0.176172	0.173871	0.162695
801	0.170584	0.175679	0.177651	0.175679	0.165817
802	0.174035	0.17272	0.176501	0.176665	0.164996
803	0.175186	0.179459	0.17535	0.18061	0.167461
804	0.17798	0.178637	0.176501	0.176008	0.16779
805	0.17913	0.17798	0.177487	0.180445	0.169926
806	0.180116	0.181267	0.176829	0.176665	0.171077
807	0.185212	0.176172	0.179459	0.180116	0.175843
808	0.181924	0.179788	0.18176	0.179952	0.173378
809	0.178473	0.182089	0.179623	0.177158	0.175515
810	0.181596	0.18176	0.183897	0.181924	0.173707
811	0.183239	0.178473	0.17798	0.179952	0.178966
812	0.186198	0.183404	0.184718	0.182417	0.179952
813	0.183075	0.184883	0.185705	0.185047	0.176336
814	0.18061	0.183239	0.182089	0.188006	0.178637
815	0.184061	0.18817	0.178802	0.17913	0.177322
816	0.186033	0.186033	0.182582	0.185705	0.181924
817	0.183897	0.187513	0.186526	0.185047	0.178309
818	0.187019	0.18817	0.185376	0.188334	0.186033
819	0.186691	0.187019	0.18932	0.185869	0.178144
820	0.183239	0.189814	0.186855	0.189814	0.182582
821	0.190471	0.188663	0.188663	0.188827	0.182417
822	0.186526	0.189978	0.187841	0.19195	0.187184
823	0.188992	0.188499	0.193922	0.191293	0.186855
824	0.189978	0.189649	0.186526	0.192772	0.187019
825	0.188006	0.192772	0.187841	0.19458	0.187841
826	0.189814	0.191621	0.18817	0.190471	0.188827
827	0.193922	0.190635	0.189649	0.190635	0.192608
828	0.193594	0.191786	0.189814	0.192772	0.193758
829	0.181267	0.190471	0.192936	0.189156	0.196388
830	0.187513	0.190964	0.193429	0.191786	0.191457
831	0.188827	0.192115	0.188827	0.190471	0.192115
832	0.190635	0.190307	0.197867	0.192608	0.193594
833	0.190307	0.192443	0.191621	0.194251	0.19458
834	0.188827	0.188663	0.198689	0.193758	0.193758
835	0.187677	0.1908	0.18932	0.194416	0.194251
836	0.188663	0.193429	0.189814	0.193429	0.191786
837	0.194744	0.193594	0.191293	0.194909	0.194416
838	0.196059	0.192279	0.194416	0.193594	0.193429
839	0.193429	0.195402	0.197374	0.198031	0.196223
840	0.186526	0.193922	0.197703	0.198853	0.195402
841	0.19195	0.193101	0.195073	0.195237	0.192443
842	0.194909	0.195402	0.194251	0.19573	0.196223
843	0.195237	0.192608	0.195073	0.196223	0.197867
844	0.195895	0.193265	0.193922	0.195402	0.200661
845	0.193101	0.19458	0.196223	0.196059	0.199346
846	0.19573	0.188006	0.194087	0.197374	0.199675
847	0.194416	0.196717	0.193922	0.194416	0.197538
848	0.194416	0.192443	0.195895	0.195073	0.200332
849	0.195237	0.194251	0.199511	0.194744	0.197374
850	0.192115	0.197045	0.193758	0.198031	0.19836
851	0.190471	0.19195	0.196717	0.194909	0.174693
852	0.193594	0.196717	0.194087	0.196388	0.178144
853	0.198689	0.194744	0.196388	0.194416	0.172392
854	0.19195	0.197374	0.193922	0.198853	0.179459
855	0.198031	0.194251	0.198689	0.199511	0.177651
856	0.195402	0.196881	0.199182	0.197045	0.178966
857	0.1908	0.191786	0.19721	0.19721	0.179459
858	0.195402	0.195895	0.195073	0.195402	0.180938
859	0.198853	0.196388	0.192936	0.192443	0.184718
860	0.192936	0.194251	0.195073	0.19836	0.184225
861	0.196881	0.187513	0.197538	0.197538	0.184718
862	0.198031	0.1908	0.195895	0.19721	0.186691
863	0.197538	0.19573	0.193922	0.193594	0.189649
864	0.19836	0.192936	0.199018	0.19573	0.185869
865	0.195237	0.198524	0.196223	0.199511	0.18817
866	0.198853	0.192608	0.196059	0.19458	0.186362
867	0.195237	0.19721	0.198031	0.19836	0.186855
868	0.198524	0.194087	0.195237	0.199346	0.185212
869	0.19836	0.196881	0.198196	0.198524	0.18817
870	0.197867	0.197703	0.194416	0.198853	0.187348
871	0.195073	0.197703	0.197703	0.20099	0.186691
872	0.198031	0.184061	0.198689	0.196881	0.188992
873	0.19721	0.194087	0.198853	0.196552	0.188827
874	0.196059	0.194744	0.198524	0.200497	0.192936
875	0.196881	0.198031	0.19836	0.196388	0.187677
876	0.197867	0.19721	0.19573	0.200825	0.195566
877	0.195566	0.19721	0.198689	0.201976	0.194909
878	0.198031	0.19721	0.198524	0.201812	0.191293
879	0.19573	0.193594	0.197045	0.199675	0.19458
880	0.193429	0.196388	0.198196	0.199018	0.19458
881	0.201319	0.195237	0.198031	0.198524	0.193265
882	0.19573	0.195566	0.197867	0.199182	0.197045
883	0.199182	0.190964	0.198524	0.195566	0.197538
884	0.195566	0.189649	0.194416	0.198853	0.197703
885	0.201483	0.194087	0.197867	0.197374	0.196223
886	0.202962	0.198524	0.197703	0.196223	0.193265
887	0.197867	0.195566	0.200661	0.200825	0.197374
888	0.197867	0.199346	0.199018	0.201154	0.19458
889	0.199346	0.196881	0.203455	0.201154	0.193758
890	0.196717	0.19721	0.200661	0.198853	0.197538
891	0.199511	0.198524	0.20477	0.198689	0.196223
892	0.200825	0.19573	0.19721	0.198031	0.192443
893	0.193758	0.19836	0.199675	0.200004	0.196717
894	0.198689	0.192443	0.200661	0.195237	0.195895
895	0.196717	0.194087	0.194416	0.19836	0.198031
896	0.197867	0.193429	0.199018	0.19836	0.196223
897	0.194909	0.198524	0.197045	0.199675	0.195895
898	0.199018	0.1908	0.198853	0.200004	0.197538
899	0.196059	0.196388	0.195402	0.199839	0.199018
900	0.199182	0.193265	0.193265	0.197867	0.197045
901	0.198524	0.192772	0.193594	0.199346	0.197703
902	0.19721	0.196717	0.195402	0.200497	0.196223
903	0.197538	0.192608	0.197703	0.196388	0.199018
904	0.198031	0.198031	0.198524	0.199511	0.197867
905	0.199511	0.197703	0.197538	0.19836	0.197045
906	0.200825	0.195566	0.198853	0.201647	0.197045
907	0.194744	0.196388	0.196223	0.199018	0.196881
908	0.197045	0.197045	0.199675	0.202469	0.197374
909	0.197703	0.19458	0.198524	0.199675	0.196717
910	0.193594	0.19458	0.196223	0.197045	0.198689
911	0.195895	0.193101	0.195402	0.198031	0.198031
912	0.200332	0.196717	0.197538	0.20099	0.201483
913	0.195073	0.197045	0.198689	0.20099	0.197374
914	0.199346	0.196059	0.199346	0.199182	0.19721
915	0.199675	0.197045	0.201812	0.197538	0.196881
916	0.193922	0.196881	0.19573	0.200332	0.200332
917	0.20477	0.193265	0.197703	0.201154	0.196552
918	0.201976	0.195073	0.197045	0.206249	0.19721
919	0.200332	0.196388	0.199511	0.199675	0.199346
920	0.200004	0.198689	0.195566	0.202305	0.198031
921	0.198853	0.204113	0.199182	0.201812	0.196059
922	0.199346	0.195402	0.197703	0.200004	0.196223
923	0.199018	0.197045	0.198853	0.200004	0.197867
924	0.197538	0.197538	0.197045	0.200004	0.197703
925	0.196717	0.198689	0.199839	0.199182	0.198524
926	0.199511	0.19573	0.198196	0.196059	0.198689
927	0.196388	0.199346	0.196059	0.202962	0.19836
928	0.195895	0.195237	0.201483	0.200497	0.199675
929	0.195895	0.195237	0.198853	0.195566	0.197703
930	0.198196	0.196388	0.199675	0.203126	0.199018
931	0.197703	0.199675	0.199675	0.203126	0.203784
932	0.122592	0.192772	0.19836	0.199839	0.197703
933	0.101554	0.195402	0.19458	0.199675	0.201483
934	0.022169	0.196881	0.197374	0.20099	0.203455
935	0.003761	0.196059	0.197045	0.196717	0.199018
936	0.001132	0.198196	0.196388	0.199511	0.197374
937	0.00031	0.19721	0.198196	0.199018	0.198031
938	0.002118	0.200332	0.195402	0.197703	0.200004
939	0.005898	0.201319	0.199675	0.193758	0.198524
940	0.01313	0.198689	0.203126	0.197703	0.199018
941	0.020033	0.194744	0.202962	0.199511	0.197045
942	0.006884	0.199346	0.198524	0.19836	0.201483
943	0.003926	0.196388	0.201647	0.198524	0.197374
944	0.002118	0.197703	0.195073	0.200661	0.201647
945	0.003926	0.196881	0.19836	0.199182	0.202469
946	0.00672	0.19836	0.199182	0.199018	0.197703
947	0.008692	0.198524	0.199018	0.199511	0.195402
948	0.012472	0.19721	0.196552	0.200004	0.199511
949	0.017896	0.198524	0.196388	0.198853	0.199839
950	0.021348	0.200825	0.196059	0.200825	0.198853
951	0.031373	0.193101	0.202305	0.19573	0.195566
952	0.032031	0.196717	0.199511	0.202633	0.195073
953	0.039756	0.197045	0.197703	0.200168	0.194416
954	0.045015	0.196552	0.200168	0.199346	0.193429
955	0.045015	0.199346	0.198853	0.196881	0.195566
956	0.052247	0.196552	0.198689	0.191293	0.202305
957	0.056027	0.199839	0.196223	0.201319	0.196059
958	0.054876	0.197867	0.197703	0.19573	0.196388
959	0.05274	0.197045	0.19573	0.199511	0.197374
960	0.059643	0.195073	0.199839	0.197867	0.195073
961	0.063752	0.200661	0.194251	0.198031	0.198031
962	0.068518	0.19836	0.201319	0.199346	0.194087
963	0.038934	0.198031	0.200004	0.203948	0.197045
964	0.049288	0.199018	0.19836	0.199839	0.200004
965	0.054383	0.200661	0.202469	0.199675	0.198196
966	0.067203	0.196223	0.199346	0.202633	0.198031
967	0.064409	0.195895	0.201154	0.199675	0.199346
968	0.07197	0.199675	0.200168	0.204113	0.192443
969	0.072463	0.199182	0.197538	0.197045	0.195566
970	0.08216	0.200497	0.199675	0.199018	0.197374
971	0.084789	0.200497	0.198524	0.193594	0.194087
972	0.084296	0.202962	0.196717	0.195895	0.196059
973	0.090213	0.197703	0.200661	0.19721	0.195073
974	0.088077	0.197538	0.197538	0.201647	0.198031
975	0.0935	0.198524	0.195237	0.197538	0.199018
976	0.094487	0.199182	0.198853	0.197045	0.199675
977	0.098102	0.19721	0.201647	0.19836	0.194909
978	0.100403	0.200168	0.198689	0.199346	0.18817
979	0.103362	0.197374	0.202962	0.199018	0.193429
980	0.106649	0.200332	0.199675	0.200332	0.199675
981	0.109607	0.198689	0.195566	0.198853	0.192115
982	0.111908	0.195895	0.199018	0.201483	0.199346
983	0.114374	0.19836	0.198524	0.200497	0.203948
984	0.113881	0.198853	0.200168	0.199018	0.192772
985	0.117332	0.199346	0.199018	0.201647	0.198031
986	0.121112	0.19836	0.199675	0.202798	0.196881
987	0.118483	0.199675	0.199018	0.197045	0.199839
988	0.120784	0.194909	0.204606	0.19836	0.197045
989	0.117825	0.200661	0.195895	0.199018	0.192443
990	0.120291	0.197703	0.205592	0.198853	0.194416
991	0.119304	0.196388	0.198689	0.19836	0.196223
992	0.093993	0.196881	0.199346	0.197374	0.198196
993	0.08709	0.196552	0.201154	0.19836	0.196059
994	0.086762	0.19836	0.199346	0.199018	0.197045
995	0.083639	0.195237	0.200661	0.199182	0.197703
996	0.050603	0.19836	0.198689	0.202962	0.195566
997	0.038769	0.197867	0.198524	0.202633	0.196717
998	0.045179	0.197703	0.199018	0.203126	0.197538
999	0.051261	0.198031	0.202305	0.199675	0.197374
1000	0.051918	0.200661	0.201154	0.202469	0.196717
1001	0.061615	0.199018	0.201154	0.200825	0.194251
1002	0.065395	0.198689	0.197867	0.198689	0.194416
1003	0.069833	0.198524	0.197538	0.197374	0.193429
1004	0.071312	0.196717	0.197867	0.197538	0.203291
1005	0.075421	0.198689	0.202305	0.201812	0.176008
1006	0.077229	0.197867	0.199346	0.194087	0.161544
1007	0.081995	0.195895	0.196552	0.189156	0.164174
1008	0.081502	0.197538	0.194251	0.199346	0.166475
1009	0.087255	0.195073	0.19573	0.197703	0.165817
1010	0.067861	0.193101	0.198853	0.196552	0.166146
1011	0.022498	0.197374	0.194251	0.199839	0.168447
1012	0.004255	0.196059	0.194087	0.198689	0.168776
1013	0.003104	0.197703	0.195895	0.198524	0.170913
1014	-1.9e-05	0.195073	0.193758	0.201154	0.171734
1015	0.003104	0.200497	0.197538	0.201319	0.173049
1016	0.005405	0.197045	0.199018	0.200168	0.169598
1017	0.011322	0.197867	0.19836	0.202469	0.175843
1018	0.018554	0.199675	0.200661	0.199511	0.174693
1019	0.012308	0.195566	0.196388	0.197374	0.176829
1020	0.010993	0.194744	0.199018	0.196717	0.178966
1021	0.007213	0.200825	0.196552	0.201976	0.180938
1022	0.008363	0.195402	0.199018	0.195566	0.18061
1023	0.008363	0.19836	0.192443	0.199839	0.183239
1024	0.008528	0.196388	0.194909	0.197703	0.182582
1025	0.006062	0.196223	0.196059	0.194416	0.183732
1026	0.012801	0.197538	0.19721	0.196059	0.185047
1027	0.009843	0.198853	0.196059	0.198524	0.185047
1028	0.012308	0.197045	0.19836	0.198031	0.18817
1029	0.013294	0.196388	0.199839	0.197374	0.186526
1030	0.010664	0.198031	0.19721	0.202798	0.188499
1031	0.010664	0.19721	0.202305	0.200004	0.190471
1032	0.017567	0.199182	0.195402	0.200825	0.191128
1033	0.019211	0.200825	0.197867	0.200661	0.190635
1034	0.006556	0.201483	0.195566	0.201483	0.190964
1035	0.008035	0.197867	0.199018	0.197703	0.187348
1036	0.00935	0.20099	0.195073	0.201483	0.194744
1037	0.01691	0.199018	0.195237	0.199839	0.188827
1038	0.018389	0.201483	0.200332	0.201319	0.192279
1039	0.022169	0.194909	0.19573	0.202305	0.193594
1040	0.022991	0.195402	0.196059	0.200332	0.196388
1041	0.017403	0.194909	0.199511	0.200661	0.192608
1042	0.018225	0.194744	0.197374	0.197538	0.191457
1043	0.019868	0.197045	0.19573	0.199675	0.196388
1044	0.022169	0.194087	0.196552	0.195237	0.193429
1045	0.021183	0.197538	0.192443	0.201647	0.196717
1046	0.023484	0.197703	0.194416	0.200004	0.191786
1047	0.022991	0.196881	0.199018	0.200168	0.19458
1048	0.01428	0.198031	0.196717	0.199018	0.192936
1049	0.002447	0.200004	0.198853	0.199675	0.195566
1050	0.004255	0.191128	0.200332	0.198853	0.192279
1051	0.001296	0.204277	0.195073	0.199675	0.193265
1052	0.00146	0.198524	0.197867	0.19836	0.189978
1053	0.005076	0.198196	0.194416	0.201976	0.189978
1054	0.006556	0.198689	0.197374	0.197374	0.191457
1055	0.008528	0.19573	0.193922	0.199839	0.192115
1056	0.007213	0.193922	0.195895	0.203291	0.19836
1057	0.010993	0.196059	0.196388	0.197374	0.046823
1058	0.001625	0.197867	0.19721	0.197374	0.0105
1059	-0.001005	0.193429	0.193922	0.195237	0.017567
1060	-0.000183	0.195895	0.196388	0.198853	0.025292
1061	-0.001334	0.194251	0.196388	0.196223	0.031867
1062	-0.000676	0.19721	0.192936	0.200661	0.039263
1063	-0.000841	0.196717	0.198689	0.197374	0.046494
1064	0.000146	0.192115	0.19573	0.201812	0.051754
1065	-0.000841	0.197703	0.197867	0.200497	0.056684
1066	0.000146	0.198196	0.19458	0.199346	0.061286
1067	0.000803	0.195895	0.200497	0.199675	0.067203
1068	-0.000347	0.198853	0.198196	0.200168	0.072956
1069	0.002447	0.196717	0.200661	0.196717	0.074928
1070	0.000146	0.197867	0.199182	0.195566	0.081009
1071	-0.001005	0.19836	0.199511	0.199346	0.08709
1072	-0.001662	0.19573	0.200332	0.200332	0.093172
1073	0.000967	0.198031	0.19573	0.202305	0.094158
1074	-0.000183	0.197374	0.13459	0.199346	0.102869
1075	0.000639	0.199511	0.134261	0.199675	0.105992
1076	-0.000347	0.19836	0.115031	0.197703	0.110265
1077	0.000146	0.195237	0.101718	0.199675	0.11273
1078	-1.9e-05	0.199346	0.093172	0.199346	0.117496
1079	0.001296	0.199018	0.030716	0.198196	0.118976
1080	-0.001662	0.196881	0.003104	0.19721	0.117332
1081	-0.001169	0.197538	0.000967	0.198196	0.125714
1082	-0.001005	0.200332	0.002775	0.198524	0.077886
1083	-0.002977	0.198689	0.000803	0.197538	0.00409
1084	0.001625	0.19721	-1.9e-05	0.200004	0.017239
1085	-0.001991	0.201812	-0.000841	0.196552	0.026607
1086	0.000639	0.196059	-0.000676	0.198689	0.030059
1087	-0.000512	0.199346	-0.000512	0.199839	0.039263
1088	-0.001334	0.197374	-0.000841	0.199018	0.046659
1089	-0.000841	0.196552	-0.000512	0.201154	0.053562
1090	0.000639	0.19836	-0.000183	0.197867	0.057671
1091	-0.001498	0.19721	0.00031	0.196223	0.066217
1092	0.000639	0.196388	-0.000183	0.199018	0.024799
1093	0.00031	0.197374	-0.000347	0.197374	0.028579
1094	0.00031	0.197045	-0.000347	0.200825	0.03236
1095	0.000474	0.196717	-0.000676	0.199182	0.020526
1096	0.000146	0.19836	-0.000841	0.197045	0.02973
1097	0.000967	0.195566	-0.001169	0.198031	0.04107
1098	0.001132	0.19836	-0.000676	0.199675	0.038276
1099	0.001789	0.196059	-0.000512	0.196388	0.051096
1100	0.000474	0.200004	-0.000512	0.205921	0.05915
1101	0.006556	0.192772	-0.000183	0.196223	0.060465
1102	0.007213	0.199346	-0.000512	0.195566	0.067368
1103	0.016417	0.197045	-0.000183	0.200332	0.073284
1104	0.019868	0.19836	-0.000347	0.199182	0.078708
1105	0.025785	0.198031	-0.000183	0.198524	0.086269
1106	0.033346	0.193429	-0.001005	0.19721	0.088241
1107	0.036304	0.196881	-0.000841	0.19836	0.002775
1108	0.04633	0.193429	-0.001169	0.199182	0.009185
1109	0.055698	0.197867	-0.000676	0.198853	0.017567
1110	0.054383	0.193922	-0.000676	0.200332	0.02332
1111	0.0603	0.195402	-0.000347	0.20855	0.030552
1112	0.069997	0.195237	-1.9e-05	0.196552	0.028579
1113	0.069504	0.199675	-0.000512	0.199346	0.002447
1114	0.078215	0.193594	-1.9e-05	0.197703	0.005898
1115	0.082653	0.199675	-0.000183	0.200497	0.003104
1116	0.091857	0.198031	-0.000183	0.196552	0.003761
1117	0.093829	0.198031	-0.000512	0.199839	0.006556
1118	0.097938	0.199346	-0.000841	0.196388	0.01691
1119	0.099417	0.193922	-0.001005	0.199675	0.023649
1120	0.104841	0.199346	-0.000183	0.201154	0.030387
1121	0.105334	0.193429	-0.000347	0.20099	0.032853
1122	0.109936	0.199511	-0.000183	0.20362	0.045837
1123	0.117496	0.196552	0.006227	0.201319	0.047809
1124	0.120455	0.198853	0.012144	0.205921	0.058657
1125	0.12292	0.196717	0.021348	0.199346	0.061615
1126	0.126207	0.199018	0.026278	0.202633	0.069669
1127	0.131467	0.19721	0.032031	0.20099	0.071477
1128	0.132946	0.197045	0.040742	0.200497	0.077722
1129	0.138863	0.195895	0.0437	0.198689	0.086762
1130	0.138699	0.199346	0.056027	0.199675	0.08972
1131	0.146588	0.196552	0.059643	0.19721	0.091528
1132	0.139192	0.193594	0.06293	0.199018	0.098924
1133	0.149217	0.199675	0.070819	0.197538	0.100732
1134	0.149382	0.194087	0.075421	0.193922	0.096459
1135	0.14971	0.19836	0.081667	0.196717	0.106978
1136	0.149546	0.196717	0.088898	0.197703	0.110429
1137	0.150368	0.198853	0.090706	0.198853	0.112237
1138	0.151847	0.198031	0.095473	0.196552	0.11536
1139	0.151847	0.200497	0.098924	0.198031	0.121277
1140	0.156285	0.196552	0.103691	0.198853	0.124728
1141	0.158586	0.19836	0.100732	0.200168	0.128673
1142	0.164831	0.196388	0.108621	0.200661	0.12933
1143	0.15875	0.196881	0.113059	0.201812	0.131467
1144	0.166639	0.197374	0.117825	0.190964	0.132946
1145	0.166804	0.197374	0.119633	0.198853	0.137055
1146	0.169598	0.196388	0.123742	0.198524	0.13837
1147	0.166311	0.198031	0.125879	0.196717	0.129001
1148	0.171406	0.195566	0.132124	0.199346	0.124893
1149	0.172227	0.195566	0.131302	0.199839	0.131138
1150	0.172885	0.200168	0.136233	0.196717	0.130152
1151	0.173049	0.199018	0.139685	0.197045	0.132289
1152	0.170255	0.19836	0.142314	0.199839	0.139356
1153	0.16779	0.195895	0.142479	0.199511	0.135904
1154	0.174693	0.199675	0.149217	0.20362	0.140342
1155	0.178309	0.198689	0.152011	0.185212	0.130974
1156	0.178309	0.199675	0.146423	0.194251	0.007213
1157	0.179295	0.197374	0.153491	0.193758	0.01576
1158	0.174857	0.195237	0.151354	0.199839	0.022827
1159	0.181267	0.196881	0.156449	0.193758	0.029401
1160	0.17535	0.195566	0.155627	0.200332	0.036797
1161	0.180281	0.197374	0.163845	0.200004	0.046823
1162	0.177487	0.19573	0.16253	0.199511	0.052082
1163	0.183732	0.197703	0.164174	0.199182	0.057999
1164	0.185212	0.194909	0.167132	0.199511	0.065395
1165	0.187841	0.200661	0.165489	0.200497	0.068847
1166	0.188006	0.201483	0.166311	0.184883	0.077229
1167	0.188006	0.20214	0.167461	0.197867	0.077722
1168	0.187348	0.198031	0.169762	0.199346	0.08331
1169	0.183897	0.199675	0.168776	0.200661	0.086269
1170	0.185376	0.196881	0.174693	0.198524	0.090213
1171	0.186362	0.196388	0.169269	0.200004	0.079201
1172	0.188334	0.196717	0.173542	0.199018	0.082653
1173	0.187513	0.19836	0.176336	0.193922	0.093993
1174	0.188663	0.196388	0.176008	0.198853	0.0935
1175	0.186691	0.200497	0.180116	0.20477	0.099582
1176	0.19195	0.202305	0.177487	0.196552	0.100732
1177	0.189156	0.198031	0.176665	0.192772	0.109279
1178	0.188827	0.199018	0.181596	0.197703	0.107635
1179	0.187348	0.196223	0.179295	0.198196	0.110922
1180	0.193101	0.195566	0.179623	0.201319	0.118976
1181	0.194251	0.199839	0.178309	0.197703	0.12292
1182	0.192772	0.197374	0.183404	0.200004	0.124728
1183	0.193594	0.196059	0.178966	0.201154	0.130152
1184	0.191457	0.196059	0.18061	0.202798	0.137712
1185	0.193594	0.195073	0.184061	0.202305	0.128837
1186	0.192936	0.197374	0.184061	0.201812	0.134754
1187	0.191786	0.197867	0.185705	0.198689	0.138041
1188	0.193594	0.199018	0.181267	0.196059	0.143794
1189	0.19458	0.196552	0.184225	0.195566	0.141328
1190	0.193758	0.200332	0.184883	0.199018	0.144287
1191	0.196059	0.189978	0.18817	0.19836	0.146095
1192	0.192443	0.20099	0.182582	0.201154	0.14856
1193	0.198689	0.197538	0.187513	0.198689	0.151847
1194	0.189978	0.196223	0.190142	0.199675	0.151683
1195	0.192443	0.197538	0.186198	0.199839	0.156613
1196	0.194087	0.196552	0.188499	0.200497	0.156285
1197	0.193594	0.196223	0.190307	0.201812	0.161051
1198	0.192608	0.198853	0.185376	0.196881	0.160887
1199	0.197374	0.196717	0.188499	0.200168	0.164667
1200	0.192772	0.193922	0.190471	0.197703	0.164503
1201	0.194744	0.197374	0.187841	0.198853	0.162695
1202	0.19836	0.192936	0.190307	0.199018	0.163681
1203	0.190635	0.197538	0.190964	0.199018	0.166639
1204	0.196717	0.192936	0.193594	0.196552	0.168118
1205	0.194416	0.194251	0.192608	0.198196	0.169926
1206	0.194744	0.195402	0.1908	0.196881	0.176994
1207	0.195895	0.199675	0.191293	0.198524	0.174857
1208	0.19458	0.196388	0.1908	0.198524	0.17157
1209	0.191457	0.199182	0.186855	0.196717	0.177322
1210	0.193758	0.196881	0.191293	0.201483	0.174035
1211	0.191621	0.196552	0.189485	0.201483	0.175186
1212	0.192608	0.199018	0.191621	0.198689	0.178144
1213	0.197703	0.196717	0.193265	0.198196	0.178144
1214	0.199675	0.19458	0.193101	0.199511	0.178309
1215	0.196881	0.196059	0.195237	0.198689	0.17798
1216	0.19836	0.19573	0.193429	0.198853	0.178309
1217	0.199182	0.193101	0.19836	0.19836	0.178802
1218	0.193922	0.195237	0.194416	0.200661	0.181431
1219	0.198689	0.193265	0.193101	0.197045	0.180774
1220	0.197538	0.19721	0.193265	0.199018	0.184061
1221	0.19836	0.192608	0.196388	0.197374	0.186198
1222	0.195073	0.195073	0.194416	0.199182	0.186033
1223	0.198689	0.194416	0.19573	0.198031	0.183897
1224	0.199018	0.19573	0.192279	0.197867	0.186855
1225	0.196881	0.198524	0.193594	0.201319	0.186198
1226	0.19721	0.202305	0.196388	0.198689	0.185869
1227	0.198196	0.200497	0.197867	0.196881	0.184554
1228	0.191457	0.197867	0.197867	0.200497	0.187841
1229	0.193265	0.198031	0.200661	0.199675	0.190635
1230	0.196059	0.197703	0.201647	0.199018	0.188334
1231	0.196223	0.19721	0.196881	0.198524	0.18932
1232	0.193922	0.194416	0.198196	0.201483	0.191457
1233	0.194909	0.196223	0.197703	0.206414	0.186691
1234	0.198031	0.195237	0.196881	0.199839	0.192443
1235	0.195402	0.196388	0.200332	0.201647	0.194251
1236	0.199675	0.190964	0.197867	0.200168	0.192115
1237	0.196717	0.196388	0.193758	0.199182	0.196223
1238	0.199346	0.194744	0.20099	0.196552	0.189814
1239	0.196223	0.195402	0.197045	0.198196	0.195073
1240	0.201976	0.196059	0.197045	0.199018	0.191293
1241	0.198524	0.194251	0.202798	0.197703	0.193594
1242	0.197703	0.197045	0.201647	0.19836	0.192279
1243	0.196717	0.195402	0.199839	0.197374	0.194251
1244	0.19458	0.196881	0.199675	0.198524	0.194744
1245	0.197703	0.196717	0.201812	0.199018	0.192608
1246	0.194251	0.199346	0.200825	0.197374	0.194087
1247	0.195895	0.195237	0.200004	0.200332	0.192772
1248	0.196552	0.197703	0.197703	0.199511	0.195402
1249	0.198196	0.193101	0.203784	0.198031	0.19195
1250	0.19458	0.197867	0.199675	0.198853	0.192608
1251	0.201483	0.19458	0.20214	0.200004	0.191457
1252	0.197045	0.195895	0.200004	0.201319	0.196552
1253	0.198031	0.194087	0.198524	0.199675	0.194744
1254	0.198196	0.194744	0.201319	0.19721	0.195402
1255	0.195402	0.198196	0.202633	0.19573	0.200168
1256	0.199675	0.193429	0.197045	0.197374	0.193429
1257	0.198524	0.196059	0.199018	0.195895	0.193758
1258	0.195073	0.194087	0.199182	0.197045	0.192279
1259	0.200825	0.193922	0.194416	0.197703	0.195566
1260	0.196388	0.195566	0.199675	0.196881	0.194416
1261	0.196717	0.193101	0.19836	0.199675	0.197703
1262	0.197374	0.190635	0.200332	0.200497	0.197045
1263	0.196223	0.197374	0.199675	0.204277	0.197538
1264	0.196388	0.195402	0.202305	0.200661	0.195237
1265	0.192936	0.194909	0.200004	0.199182	0.199839
1266	0.197045	0.196223	0.20477	0.197374	0.191621
1267	0.194909	0.197374	0.200825	0.20099	0.195073
1268	0.197703	0.196552	0.202305	0.19721	0.196552
1269	0.198524	0.19721	0.198853	0.201154	0.193922
1270	0.201976	0.190471	0.198196	0.200332	0.197703
1271	0.200825	0.197703	0.200004	0.197374	0.200004
1272	0.197045	0.195237	0.201154	0.198524	0.200004
1273	0.200004	0.195073	0.197045	0.199839	0.198031
1274	0.20099	0.195895	0.200332	0.199346	0.201154
1275	0.19836	0.19573	0.202633	0.196388	0.197703
1276	0.199018	0.196388	0.200168	0.200825	0.201154
1277	0.198689	0.195402	0.201976	0.198031	0.197703
1278	0.198853	0.200004	0.201319	0.199018	0.199182
1279	0.196881	0.19573	0.204113	0.195402	0.201319
1280	0.193922	0.199839	0.200825	0.200825	0.200004
1281	0.198853	0.196223	0.198196	0.195895	0.199018
1282	0.193758	0.198031	0.202633	0.194909	0.201812
1283	0.196552	0.195895	0.20214	0.196552	0.200168
1284	0.194416	0.197538	0.198689	0.201812	0.197703
1285	0.197703	0.199839	0.20362	0.201812	0.200168
1286	0.197374	0.196059	0.196717	0.199182	0.203784
1287	0.19836	0.193758	0.200004	0.198853	0.200661
1288	0.198196	0.203455	0.200004	0.200825	0.201483
1289	0.200825	0.193265	0.199018	0.199182	0.200661
1290	0.201319	0.197374	0.199018	0.197045	0.200004
1291	0.198853	0.197538	0.194744	0.197538	0.203291
1292	0.19836	0.192936	0.196717	0.197374	0.199839
1293	0.195402	0.197867	0.198853	0.19836	0.202469
1294	0.197703	0.194744	0.198689	0.194909	0.200004
1295	0.196059	0.197045	0.198196	0.200661	0.201812
1296	0.198031	0.195402	0.204277	0.196881	0.200661
1297	0.195566	0.198689	0.196388	0.199018	0.201483
1298	0.199346	0.195566	0.20214	0.198196	0.199675
1299	0.196881	0.199675	0.199182	0.201483	0.200168
1300	0.201812	0.19836	0.198689	0.202633	0.195895
1301	0.199839	0.197374	0.19721	0.200168	0.199182
1302	0.198853	0.197374	0.198524	0.197538	0.201812
1303	0.19836	0.196388	0.197538	0.203126	0.199346
1304	0.197538	0.196552	0.196881	0.199346	0.206414
1305	0.197703	0.19721	0.198524	0.197703	0.20214
1306	0.199675	0.196717	0.191457	0.198031	0.199839
1307	0.197703	0.19195	0.200004	0.196223	0.201647
1308	0.199675	0.197867	0.196223	0.198524	0.204606
1309	0.198689	0.191786	0.191786	0.198853	0.200661
1310	0.19573	0.19458	0.192772	0.20099	0.20214
1311	0.198524	0.19458	0.196552	0.192608	0.20099
1312	0.192279	0.196388	0.191786	0.190142	0.200497
1313	0.193265	0.196552	0.193101	0.19195	0.199675
1314	0.19573	0.197374	0.195237	0.198524	0.201976
1315	0.196059	0.198196	0.198031	0.197538	0.199018
1316	0.194909	0.19573	0.195237	0.19721	0.198689
1317	0.197867	0.19458	0.19836	0.202469	0.198524
1318	0.196059	0.198524	0.189485	0.200661	0.198853
1319	0.197045	0.197374	0.195073	0.199675	0.199839
1320	0.198031	0.19573	0.196552	0.201647	0.196881
1321	0.19836	0.199182	0.193429	0.202633	0.003104
1322	0.199675	0.196881	0.197045	0.196059	0.002447
1323	0.199346	0.198031	0.199346	0.201319	0.003268
1324	0.199018	0.19721	0.193429	0.197045	0.005734
1325	0.199675	0.199839	0.194416	0.200497	0.015595
1326	0.199675	0.193922	0.196388	0.19836	0.021676
1327	0.198853	0.193922	0.192279	0.198853	0.026936
1328	0.196552	0.194909	0.197703	0.199675	0.033181
1329	0.202305	0.192115	0.180281	0.200497	0.043043
1330	0.202305	0.198031	0.192115	0.195895	0.049453
1331	0.198689	0.195402	0.192772	0.196388	0.053726
1332	0.199839	0.198196	0.193429	0.201483	0.058657
1333	0.196881	0.199182	0.193594	0.200004	0.066053
1334	0.198196	0.197538	0.19458	0.201319	0.06934
1335	0.197045	0.200497	0.195566	0.197703	0.071805
1336	0.198031	0.19721	0.192115	0.199346	0.080681
1337	0.196717	0.197374	0.195073	0.199018	0.085611
1338	0.197867	0.198031	0.19458	0.195895	0.041892
1339	0.200004	0.195895	0.193429	0.198689	0.047973
1340	0.198031	0.197538	0.188663	0.200168	0.055863
1341	0.197703	0.195402	0.194087	0.198031	0.061615
1342	0.195237	0.194744	0.191786	0.200168	0.070162
1343	0.197867	0.196717	0.193922	0.19836	0.07312
1344	0.198031	0.200004	0.189649	0.199018	0.080516
1345	0.19836	0.192772	0.193922	0.197374	0.08331
1346	0.199018	0.197374	0.192115	0.197538	0.088898
1347	0.200332	0.196881	0.191293	0.197538	0.096623
1348	0.197045	0.196388	0.193922	0.197538	0.097774
1349	0.196223	0.196881	0.193758	0.196223	0.099089
1350	0.199182	0.198031	0.196059	0.199675	0.108457
1351	0.198689	0.197703	0.193758	0.199018	0.113388
1352	0.197045	0.19836	0.192608	0.198031	0.111251
1353	0.198196	0.200168	0.193922	0.199675	0.118154
1354	0.198031	0.198689	0.195402	0.200332	0.118647
1355	0.195895	0.199675	0.192936	0.198031	0.123742
1356	0.200004	0.196881	0.190307	0.194087	0.123249
1357	0.19836	0.199511	0.190635	0.200332	0.132946
1358	0.197703	0.196388	0.193429	0.195402	0.132289
1359	0.195566	0.196059	0.191621	0.199511	0.134097
1360	0.197045	0.193101	0.19458	0.197867	0.135411
1361	0.195402	0.194744	0.193429	0.200825	0.085283
1362	0.195402	0.193594	0.193429	0.201812	0.086762
1363	0.200825	0.196717	0.193101	0.198689	0.092679
1364	0.19836	0.197045	0.191786	0.196881	0.100732
1365	0.197867	0.197703	0.195237	0.199346	0.098595
1366	0.200004	0.200168	0.192608	0.19836	0.104019
1367	0.198031	0.201154	0.195895	0.196881	0.105827
1368	0.196223	0.201647	0.19458	0.201483	0.1101
1369	0.200004	0.197703	0.193594	0.198524	0.112073
1370	0.196059	0.201154	0.19573	0.199018	0.114209
1371	0.199839	0.19573	0.197538	0.19836	0.085611
1372	0.195402	0.199839	0.193265	0.201812	0.095308
1373	0.198853	0.199511	0.19458	0.197374	0.098267
1374	0.197374	0.199018	0.193594	0.202305	0.102376
1375	0.197703	0.200004	0.195566	0.197703	0.106485
1376	0.197538	0.202962	0.194744	0.200004	0.112073
1377	0.199018	0.199511	0.195402	0.199182	0.114867
1378	0.19836	0.198524	0.195402	0.197538	0.116017
1379	0.201812	0.202305	0.192772	0.199018	0.122427
1380	0.207235	0.199346	0.194744	0.201647	0.005734
1381	0.200004	0.19721	0.19573	0.200332	0.015266
1382	0.20099	0.197538	0.200168	0.20214	0.01954
1383	0.19721	0.202633	0.193922	0.199018	0.031373
1384	0.201976	0.197374	0.19721	0.196223	0.03236
1385	0.198689	0.199511	0.199839	0.202633	0.039263
1386	0.198689	0.198689	0.195566	0.195566	0.048795
1387	0.19573	0.200661	0.194909	0.198031	0.05389
1388	0.200168	0.199675	0.19721	0.198031	0.05537
1389	0.197538	0.201154	0.196881	0.200497	0.066875
1390	0.200168	0.201154	0.197867	0.197867	0.071312
1391	0.200497	0.198853	0.195402	0.20099	0.076407
1392	0.192936	0.197867	0.197538	0.199182	0.077065
1393	0.194251	0.197867	0.197703	0.20099	0.081831
1394	0.20214	0.199511	0.195566	0.201812	0.087419
1395	0.199182	0.19836	0.196059	0.199182	0.093665
1396	0.199018	0.196223	0.193101	0.199182	0.096952
1397	0.198689	0.197538	0.186526	0.198689	-0.00725
1398	0.196223	0.199182	0.194744	0.198031	0.001954
1399	0.196717	0.197867	0.197045	0.197374	0.007706
1400	0.196388	0.201812	0.192608	0.199346	-0.000512
1401	0.199346	0.196059	0.196552	0.195073	0.005076
1402	0.188334	0.197867	0.194909	0.199839	0.001625
1403	0.196552	0.196552	0.199182	0.193265	0.002775
1404	0.197538	0.196717	0.197045	0.199675	0.008199
1405	0.198689	0.200004	0.199346	0.199839	0.000803
1406	0.196717	0.199511	0.197703	0.196881	0.003104
1407	0.199346	0.197538	0.203948	0.197374	-0.000183
1408	0.193265	0.202962	0.195237	0.199675	-0.000676
1409	0.196223	0.201154	0.198853	0.200168	-0.000183
1410	0.196388	0.200497	0.19721	0.201154	-1.9e-05
1411	0.197538	0.200332	0.196552	0.19573	0.003926
1412	0.199182	0.200497	0.196552	0.196388	0.013294
1413	0.189156	0.198031	0.196223	0.199839	0.021183
1414	0.19836	0.19836	0.199018	0.203126	0.028415
1415	0.200168	0.198689	0.197045	0.205099	0.022169
1416	0.200168	0.196223	0.201483	0.201812	0.035482
1417	0.19721	0.202469	0.200825	0.200497	0.042385
1418	0.199675	0.19836	0.200332	0.197703	-0.001169
1419	0.198524	0.199675	0.195073	0.198853	-0.001169
1420	0.197374	0.198689	0.199182	0.198689	0.002447
1421	0.200168	0.202962	0.196388	0.197538	0.012637
1422	0.197703	0.195237	0.199511	0.198524	-1.9e-05
1423	0.198689	0.203948	0.198853	0.198524	0.00031
1424	0.196059	0.198524	0.198524	0.200497	0.006884
1425	0.192443	0.205099	0.19836	0.198689	-0.000183
1426	0.199346	0.201647	0.199675	0.202469	0.010007
1427	0.194744	0.19836	0.201647	0.202469	0.021841
1428	0.198853	0.202798	0.19721	0.200661	0.028744
1429	0.196552	0.196388	0.20099	0.196552	0.033839
1430	0.194251	0.19836	0.197867	0.20099	-0.001662
1431	0.19836	0.199839	0.197867	0.199182	0.005898
1432	0.199346	0.200661	0.198524	0.198196	0.001625
1433	0.199675	0.198196	0.199018	0.198524	0.001789
1434	0.198689	0.202469	0.196223	0.197538	0.013459
1435	0.198853	0.198031	0.199346	0.19836	0.003597
1436	0.197538	0.200825	0.198689	0.198031	0.009843
1437	0.200168	0.198853	0.199018	0.198689	0.020197
1438	0.200004	0.200332	0.195402	0.196717	0.0271
1439	0.199675	0.200497	0.20099	0.197867	0.008199
1440	0.195402	0.199182	0.201154	0.19836	0.004912
1441	0.197867	0.199346	0.199018	0.200168	0.008692
1442	0.199675	0.200168	0.200168	0.197867	0.01691
1443	0.196552	0.201483	0.201483	0.19721	0.002118
1444	0.200825	0.198196	0.200168	0.201319	-0.000347
1445	0.198196	0.206414	0.196388	0.201319	0.001132
1446	0.200168	0.196388	0.200168	0.196388	0.006062
1447	0.196388	0.199675	0.197538	0.200332	0.011322
1448	0.194909	0.198196	0.203126	0.201647	0.017896
1449	0.198689	0.199346	0.198689	0.199182	0.027922
1450	0.197703	0.197867	0.199346	0.196717	0.031538
1451	0.197045	0.201319	0.199511	0.199018	0.040906
1452	0.200004	0.196059	0.198031	0.198524	0.004419
1453	0.197703	0.198196	0.197374	0.19721	-0.003799
1454	0.200168	0.195402	0.19458	0.194744	0.005898
1455	0.198853	0.196552	0.198524	0.196552	0.006556
1456	0.199018	0.188992	0.199018	0.195895	0.017896
1457	0.198031	0.1908	0.19721	0.196059	0.026936
1458	0.198524	0.196223	0.200004	0.199675	0.033017
1459	0.194416	0.197374	0.198031	0.199839	0.037783
1460	0.196223	0.200661	0.197045	0.199346	0.052082
1461	0.196388	0.198853	0.19721	0.199511	0.050274
1462	0.192936	0.20099	0.195895	0.20099	0.059807
1463	0.196717	0.19836	0.199675	0.200497	0.061122
1464	0.194744	0.200825	0.199346	0.199675	0.066053
1465	0.19836	0.200497	0.200332	0.199675	0.069176
1466	0.19836	0.201647	0.197045	0.201319	0.076572
1467	0.200497	0.187019	0.205263	0.198196	0.081995
1468	0.199018	0.199511	0.195566	0.19836	0.087255
1469	0.201812	0.195402	0.203126	0.199511	0.091035
1470	0.199182	0.198031	0.199018	0.19836	0.097116
1471	0.199346	0.198689	0.198524	0.195566	0.105498
1472	0.198689	0.196552	0.201976	0.199675	0.105992
1473	0.19836	0.200661	0.198196	0.199346	0.108786
1474	0.197867	0.200004	0.197538	0.198524	0.116675
1475	0.196881	0.198196	0.199839	0.199839	0.113716
1476	0.199182	0.199018	0.196388	0.195566	0.113881
1477	0.19836	0.199018	0.19836	0.198196	0.123085
1478	0.199346	0.19458	0.200497	0.200332	0.123578
1479	0.19721	0.190635	0.197867	0.199346	0.030223
1480	0.20362	0.202798	0.201647	0.19573	0.006884
1481	0.199839	0.201976	0.19836	0.193265	0.01576
1482	0.197374	0.198524	0.200168	0.195895	0.02447
1483	0.197538	0.199346	0.198031	0.200004	0.033346
1484	0.199511	0.19721	0.199018	0.195895	0.038769
1485	0.195566	0.199839	0.196717	0.193594	0.050768
1486	0.202962	0.199018	0.196881	0.192772	0.04896
1487	0.197374	0.197867	0.196552	0.191786	0.058164
1488	0.199182	0.19721	0.196717	0.19195	0.0603
1489	0.199346	0.200825	0.197703	0.190471	0.063094
1490	0.197867	0.197045	0.195237	0.192279	0.070326
1491	0.200168	0.198031	0.199675	0.18932	0.075257
1492	0.196717	0.198196	0.198689	0.193101	0.080023
1493	0.197374	0.198524	0.196223	0.189814	0.085283
1494	0.198031	0.200332	0.197703	0.192443	0.091199
1495	0.201319	0.200168	0.200332	0.044029	0.092843
1496	0.204277	0.200332	0.19458	0.00031	0.105663
1497	0.200168	0.200168	0.196059	-0.005607	0.101225
1498	0.199511	0.201812	0.192608	-0.000347	0.103526
1499	0.19836	0.199675	0.19573	-0.000841	0.10895
1500	0.199346	0.200661	0.199182	0.000639	0.115524
1501	0.19836	0.199182	0.194087	0.001954	0.114045
1502	0.199346	0.196388	0.197538	0.000967	0.120619
1503	0.200168	0.199675	0.199018	0.001954	0.123413
1504	0.197538	0.198853	0.199018	-0.003306	0.127029
1505	0.198196	0.199675	0.194744	0.00031	0.131302
1506	0.200004	0.198689	0.197045	0.000803	0.132124
1507	0.19836	0.199182	0.194744	0.000803	0.144451
1508	0.198524	0.194087	0.195073	-0.021385	0.134261
1509	0.19836	0.200825	0.193758	0.000803	0.145108
1510	0.198689	0.197045	0.194087	-1.9e-05	0.14215
1511	0.196552	0.197703	0.196552	0.000967	0.142643
1512	0.200825	0.195402	0.195402	0.00031	0.146588
1513	0.197703	0.202962	0.196552	0.000146	0.148231
1514	0.198689	0.19836	0.199839	-0.000183	0.144944
1515	0.196388	0.202469	0.198524	0.000474	0.152833
1516	0.19458	0.201154	0.201976	0.000474	0.144122
1517	0.19721	0.200004	0.198689	0.000639	0.146588
1518	0.198689	0.199675	0.197538	-0.000676	0.145766
1519	0.198524	0.199511	0.194251	0.002118	0.151025
1520	0.199675	0.197538	0.195073	0.001625	0.152505
1521	0.199675	0.198689	0.193265	0.00146	0.154312
1522	0.199511	0.199182	0.197045	0.003597	0.159736
1523	0.201154	0.198196	0.194416	0.000803	0.1576
1524	0.200332	0.199018	0.19458	0.003433	0.163516
1525	0.200825	0.196552	0.200004	0.002447	0.16138
1526	0.197867	0.199346	0.193758	0.005898	0.162859
1527	0.199018	0.199182	0.196881	0.009678	0.167132
1528	0.199018	0.199839	0.199346	0.013294	0.165489
1529	0.200825	0.202305	0.19721	0.017567	0.151354
1530	0.197374	0.206742	0.196881	0.020526	0.166475
1531	0.199675	0.201812	0.19836	0.026936	0.167132
1532	0.199839	0.198031	0.197374	0.033674	0.168447
1533	0.199346	0.201976	0.199675	0.035811	0.170913
1534	0.200168	0.19836	0.196881	0.046494	0.170255
1535	0.201154	0.200497	0.19721	0.051589	0.168447
1536	0.196059	0.197045	0.197538	0.058328	0.171406
1537	0.199346	0.200825	0.19721	0.065395	0.173542
1538	0.200332	0.198689	0.198196	0.065888	0.173049
1539	0.199839	0.199018	0.196717	0.07049	0.177158
1540	0.199675	0.196881	0.19573	0.079366	0.170091
1541	0.200168	0.199346	0.192279	0.084296	0.177815
1542	0.197703	0.19836	0.19836	0.082324	0.176336
1543	0.199346	0.197538	0.195895	0.090378	0.179623
1544	0.203126	0.198031	0.196388	0.092021	0.178802
1545	0.19573	0.203455	0.194744	0.097938	0.176172
1546	0.190471	0.197538	0.203126	0.103197	0.178473
1547	0.186033	0.20099	0.200332	0.104512	0.18176
1548	0.187513	0.200825	0.204934	0.109607	0.179623
1549	0.185212	0.200825	0.199839	0.114209	0.180281
1550	0.190142	0.201483	0.200004	0.114209	0.183568
1551	0.189156	0.197374	0.198196	0.118647	0.179295
1552	0.185047	0.199346	0.196059	0.124728	0.181596
1553	0.1908	0.195566	0.199346	0.122756	0.181267
1554	0.183404	0.198853	0.197703	0.12933	0.182746
1555	0.187348	0.198031	0.198031	0.12933	0.181596
1556	0.192608	0.197867	0.196223	0.131138	0.181924
1557	0.191457	0.196223	0.201483	0.132946	0.184061
1558	0.187348	0.20099	0.193594	0.135904	0.186691
1559	0.187184	0.193101	0.195895	0.138863	0.18817
1560	0.186855	0.196388	0.194416	0.141657	0.185212
1561	0.187513	0.197374	0.195566	0.139192	0.182417
1562	0.185869	0.201154	0.193429	0.144287	0.184883
1563	0.187841	0.202962	0.197538	0.143794	0.182253
1564	0.18817	0.200825	0.198524	0.146588	0.186362
1565	0.18932	0.200661	0.199182	0.14856	0.186362
1566	0.188499	0.199839	0.197374	0.150532	0.186033
1567	0.187841	0.204113	0.199675	0.154312	0.18554
1568	0.188499	0.199018	0.202469	0.156285	0.183404
1569	0.188663	0.203455	0.196059	0.158914	0.190635
1570	0.191457	0.198031	0.203126	0.158257	0.186691
1571	0.190142	0.196717	0.200332	0.163188	0.187019
1572	0.188827	0.199839	0.201483	0.162366	0.188334
1573	0.190635	0.201483	0.197374	0.163845	0.193758
1574	0.193922	0.200004	0.198524	0.165489	0.192443
1575	0.192279	0.201483	0.196881	0.165324	0.192936
1576	0.196223	0.200661	0.198853	0.165489	0.191128
1577	0.193101	0.199346	0.19721	0.168447	0.192772
1578	0.195402	0.204606	0.199182	0.169105	0.19195
1579	0.196059	0.199018	0.198524	0.165982	0.192279
1580	0.193758	0.198689	0.200661	0.171734	0.192279
1581	0.195402	0.198196	0.199675	0.1742	0.191621
1582	0.193429	0.199839	0.19836	0.178309	0.192608
1583	0.193429	0.199346	0.200661	0.176994	0.194909
1584	0.193594	0.199511	0.19836	0.176336	0.190635
1585	0.189485	0.202633	0.202469	0.178637	0.186198
1586	0.187184	0.203291	0.196881	0.176994	0.192115
1587	0.195073	0.200168	0.204277	0.179952	0.190635
1588	0.196388	0.201976	0.19721	0.177487	0.193594
1589	0.193101	0.20214	0.202469	0.180281	0.193758
1590	0.194416	0.199346	0.200497	0.180445	0.194744
1591	0.19721	0.198853	0.198031	0.181924	0.194416
1592	0.194416	0.200661	0.197703	0.181596	0.196552
1593	0.197703	0.201812	0.199182	0.183732	0.194087
1594	0.19573	0.197867	0.197538	0.183075	0.19573
1595	0.196717	0.200332	0.195566	0.182253	0.196223
1596	0.197538	0.200661	0.197703	0.184061	0.195402
1597	0.196223	0.201319	0.195237	0.184718	0.196552
1598	0.19721	0.201483	0.201812	0.183404	0.192936
1599	0.200004	0.203291	0.200825	0.186691	0.195402
1600	0.196717	0.201154	0.205099	0.182746	0.193758
1601	0.197538	0.203126	0.202962	0.188499	0.196223
1602	0.198689	0.200332	0.204441	0.185047	0.194744
1603	0.194909	0.201812	0.201154	0.187513	0.195073
1604	0.197045	0.198031	0.195237	0.188827	0.195073
1605	0.196388	0.201483	0.203455	0.189156	0.195073
1606	0.197045	0.199675	0.19721	0.187348	0.194416
1607	0.187513	0.200825	0.19836	0.188992	0.198031
1608	0.198524	0.201647	0.199018	0.192608	0.195073
1609	0.196223	0.201976	0.196717	0.192279	0.195895
1610	0.198196	0.200825	0.196388	0.1908	0.193758
1611	0.199018	0.201647	0.198853	0.191621	0.193429
1612	0.202633	0.200168	0.201483	0.18932	0.197045
1613	0.200004	0.200004	0.20099	0.191786	0.192115
1614	0.200497	0.201976	0.199018	0.194744	0.200168
1615	0.20099	0.202305	0.202962	0.187841	0.193922
1616	0.200497	0.200825	0.199346	0.192608	0.195402
1617	0.200661	0.199839	0.201483	0.191457	0.195566
1618	0.199675	0.204113	0.202469	0.192115	0.195895
1619	0.202798	0.202469	0.205263	0.192936	0.192443
1620	0.199346	0.199675	0.197703	0.194251	0.194909
1621	0.203291	0.200332	0.204277	0.193594	0.195402
1622	0.199675	0.202798	0.205263	0.196717	0.196552
1623	0.202469	0.201319	0.202305	0.19195	0.196059
1624	0.200825	0.201647	0.202469	0.19573	0.199511
1625	0.203291	0.205263	0.201647	0.195566	0.198031
1626	0.202962	0.20099	0.199839	0.193922	0.200168
1627	0.204934	0.200661	0.200497	0.196059	0.199018
1628	0.204934	0.20099	0.200497	0.194087	0.199182
1629	0.202469	0.201976	0.200497	0.19573	0.201812
1630	0.206907	0.199182	0.20214	0.196552	0.195402
1631	0.20362	0.203784	0.198524	0.197867	0.19836
1632	0.204606	0.200661	0.202469	0.194087	0.196059
1633	0.202633	0.201976	0.203455	0.199511	0.197703
1634	0.20362	0.199839	0.206249	0.196223	0.19573
1635	0.203948	0.202469	0.199839	0.197374	0.19836
1636	0.210194	0.199346	0.20214	0.194087	0.19721
1637	0.203126	0.201319	0.200004	0.195237	0.198031
1638	0.204934	0.199346	0.203126	0.193429	0.196223
1639	0.203291	0.199346	0.201976	0.197703	0.19573
1640	0.200661	0.202305	0.19836	0.19836	0.203291
1641	0.206085	0.199675	0.199675	0.195566	0.196059
1642	0.205263	0.200497	0.201319	0.195895	0.198524
1643	0.199511	0.19836	0.202469	0.191786	0.197703
1644	0.205263	0.199018	0.203948	0.196388	0.199511
1645	0.206249	0.19836	0.206742	0.197867	0.198031
1646	0.203948	0.198689	0.201647	0.197045	0.199675
1647	0.206249	0.196059	0.201976	0.196223	0.199675
1648	0.20362	0.200332	0.196223	0.19836	0.200497
1649	0.207071	0.195895	0.201812	0.195895	0.197867
1650	0.203784	0.196059	0.197867	0.198689	0.199839
1651	0.204113	0.200332	0.199675	0.196552	0.205921
1652	0.204934	0.20214	0.198689	0.193265	0.198853
1653	0.206249	0.200825	0.200332	0.194416	0.196059
1654	0.202962	0.196059	0.20099	0.195895	0.198689
1655	0.199511	0.198031	0.200332	0.197703	0.19721
1656	0.207564	0.197867	0.201154	0.195073	0.195402
1657	0.206742	0.19573	0.029237	0.191621	0.199346
1658	0.204113	0.197538	0.038112	0.198031	0.197045
1659	0.203126	0.200661	0.040084	0.199018	0.200497
1660	0.206907	0.198196	0.052082	0.198524	0.19836
1661	0.201976	0.19836	0.047973	0.199839	0.199018
1662	0.202469	0.200661	0.058985	0.199346	0.201647
1663	0.20362	0.198196	0.06556	0.198031	0.201154
1664	0.204606	0.195566	0.072463	0.199839	0.197703
1665	0.202798	0.197703	0.0769	0.197867	0.198853
1666	0.202962	0.196552	0.088241	0.200004	0.196388
1667	0.20362	0.193758	0.08709	0.197045	0.199182
1668	0.204606	0.196223	0.090871	0.197703	0.195073
1669	0.203784	0.196881	0.093829	0.196223	0.198524
1670	0.202633	0.196717	0.098431	0.196881	0.197867
1671	0.20099	0.197703	0.103362	0.199018	0.19721
1672	0.200825	0.19458	0.108457	0.198853	0.198853
1673	0.19836	0.200497	0.111087	0.200004	0.19195
1674	0.202469	0.201154	0.115031	0.196881	0.197045
1675	0.201976	0.198853	0.121441	0.197538	0.196552
1676	0.20099	0.20099	0.122756	0.200004	0.19721
1677	0.200497	0.195895	0.127194	0.19836	0.199675
1678	0.200497	0.197703	0.127687	0.198196	0.198524
1679	0.199511	0.195237	0.132453	0.201319	0.197703
1680	0.19836	0.196717	0.136726	0.201812	0.201319
1681	0.200168	0.194909	0.13574	0.201647	0.200497
1682	0.19836	0.193594	0.141821	0.200661	0.202305
1683	0.198689	0.191128	0.141	0.199346	0.200497
1684	0.196059	0.196881	0.142643	0.206907	0.201647
1685	0.197703	0.193922	0.146095	0.194251	0.202469
1686	0.198031	0.195895	0.147409	0.192443	0.198689
1687	0.200661	0.198689	0.149382	0.200332	0.199839
1688	0.197867	0.196223	0.150204	0.19836	0.19836
1689	0.200661	0.195073	0.152011	0.202633	0.198689
1690	0.193922	0.196388	0.157764	0.197045	0.197045
1691	0.194744	0.196552	0.158093	0.197703	0.199018
1692	0.192608	0.195237	0.158257	0.199182	0.197703
1693	0.192608	0.198524	0.163681	0.199182	0.200004
1694	0.195402	0.192772	0.163188	0.198524	0.199346
1695	0.192608	0.196552	0.160887	0.201976	0.200332
1696	0.195073	0.198853	0.169762	0.197374	0.195895
1697	0.191457	0.197867	0.168776	0.199182	0.202305
1698	0.196059	0.195895	0.169598	0.198689	0.19836
1699	0.193265	0.19721	0.162859	0.195566	0.201483
1700	0.193265	0.193265	0.168447	0.199839	0.198853
1701	0.194087	0.192608	0.171241	0.197703	0.196881
1702	0.189814	0.192279	0.172063	0.198524	0.205263
1703	0.194744	0.195402	0.17535	0.195895	0.200004
1704	0.192443	0.194416	0.176994	0.196388	0.20099
1705	0.195237	0.192608	0.174364	0.196059	0.198524
1706	0.193429	0.19573	0.17535	0.190635	0.200004
1707	0.191786	0.192608	0.177815	0.194087	0.198689
1708	0.188006	0.194416	0.176665	0.195566	0.199511
1709	0.189814	0.197374	0.180774	0.196552	0.01313
1710	0.186691	0.199675	0.181596	0.199675	0.000146
1711	0.1908	0.195073	0.181596	0.19836	0.005405
1712	0.188663	0.198196	0.183732	0.200497	0.021841
1713	0.190635	0.192936	0.183239	0.198196	0.025292
1714	0.187019	0.195895	0.033181	0.204606	0.034332
1715	0.191128	0.194416	0.040577	0.202305	0.040742
1716	0.189814	0.195237	0.044851	0.199018	0.044851
1717	0.19458	0.196223	0.051918	0.188827	0.051754
1718	0.192115	0.195073	0.058985	0.197045	0.058164
1719	0.194909	0.195895	0.063259	0.197538	0.064409
1720	0.192443	0.194251	0.07197	0.197867	0.06671
1721	0.187841	0.197045	0.081338	0.202305	0.074435
1722	0.192608	0.195402	0.082488	0.19836	0.079859
1723	0.190635	0.193594	0.086597	0.199839	0.082488
1724	0.192608	0.198853	0.091692	0.197045	0.090706
1725	0.191293	0.195073	0.095308	0.198853	0.094158
1726	0.192279	0.192443	0.090049	0.200497	0.095801
1727	0.188992	0.198689	0.103362	0.200332	0.106156
1728	0.192936	0.197045	0.107635	0.197045	0.107306
1729	0.192279	0.197703	0.111744	0.199182	0.109279
1730	0.191786	0.197703	0.114209	0.202798	0.114702
1731	0.192936	0.192115	0.118483	0.200825	0.117003
1732	0.192279	0.192772	0.120455	0.200497	0.121441
1733	0.195402	0.195566	0.120291	0.200168	0.124728
1734	0.195073	0.195073	0.127358	0.20477	0.133603
1735	0.194744	0.196881	0.129166	0.193265	0.132453
1736	0.192936	0.19458	0.131631	0.197045	0.136562
1737	0.192443	0.194251	0.129001	0.196881	0.135904
1738	0.191786	0.196717	0.132453	0.197374	0.139685
1739	0.196717	0.195402	0.140178	0.199511	0.140013
1740	0.192608	0.19573	0.140342	0.195895	0.146588
1741	0.195566	0.194909	0.142314	0.196223	0.146095
1742	0.193101	0.195237	0.146095	0.197867	0.146752
1743	0.191786	0.19573	0.14971	0.197374	0.149053
1744	0.191621	0.19573	0.14478	0.198689	0.152669
1745	0.193429	0.196552	0.153491	0.200497	0.151354
1746	0.190142	0.194744	0.153655	0.198853	0.156778
1747	0.190635	0.197867	0.155627	0.20099	0.158093
1748	0.192936	0.194416	0.161215	0.200497	0.158421
1749	0.194251	0.199346	0.157764	0.200332	0.162202
1750	0.195237	0.196717	0.156942	0.198689	0.161709
1751	0.197703	0.19458	0.1576	0.198689	0.159572
1752	0.192115	0.193101	0.163516	0.197374	0.161051
1753	0.198524	0.196717	0.165489	0.198031	0.166146
1754	0.195237	0.193594	0.16253	0.193101	0.165324
1755	0.195402	0.194251	0.160558	0.199675	0.168447
1756	0.194744	0.193758	0.169598	0.196717	0.167625
1757	0.192115	0.195895	0.167625	0.19836	0.172392
1758	0.200004	0.187348	0.170255	0.19721	0.173214
1759	0.195073	0.193101	0.168447	0.197538	0.173214
1760	0.192443	0.195237	0.17272	0.198524	0.173049
1761	0.195402	0.195237	0.1742	0.198524	0.174364
1762	0.195895	0.192608	0.175021	0.199675	0.176665
1763	0.191621	0.193922	0.176501	0.199839	0.174035
1764	0.193265	0.197045	0.178473	0.201154	0.173871
1765	0.193758	0.192608	0.17798	0.201483	0.174693
1766	0.197374	0.195237	0.170419	0.200497	0.177158
1767	0.197045	0.192608	0.178144	0.198031	0.172885
1768	0.196388	0.194087	0.180116	0.200004	0.176665
1769	0.200168	0.19458	0.179295	0.199511	0.180774
1770	0.19458	0.194087	0.182253	0.199511	0.183075
1771	0.19836	0.194909	0.18061	0.200168	0.18176
1772	0.201154	0.196552	0.176336	0.199018	0.184554
1773	0.19573	0.196059	0.183075	0.198689	0.181431
1774	0.198689	0.190635	0.180116	0.198196	0.185212
1775	0.197538	0.1908	0.182089	0.196717	0.183897
1776	0.197538	0.194251	0.184225	0.194744	0.184718
1777	0.202469	0.192443	0.18439	0.199511	0.185705
1778	0.195073	0.195237	0.186198	0.200497	0.185212
1779	0.197703	0.197867	0.185869	0.197703	0.186033
1780	0.196881	0.19573	0.186855	0.203126	0.186526
1781	0.196552	0.195402	0.186855	0.204441	0.178309
1782	0.197703	0.197538	0.187513	0.199511	0.178473
1783	0.197045	0.20362	0.18554	0.202633	0.181267
1784	0.19721	0.195073	0.188827	0.201319	0.174693
1785	0.197045	0.197538	0.185212	0.200661	0.176665
1786	0.200332	0.196717	0.186033	0.19721	0.181431
1787	0.200661	0.196552	0.189156	0.200497	0.180445
1788	0.200825	0.191457	0.187677	0.200004	0.183404
1789	0.197867	0.194416	0.186526	0.199018	0.182582
1790	0.200004	0.191786	0.18932	0.192443	0.184883
1791	0.198853	0.192115	0.186691	0.200168	0.183897
1792	0.198689	0.193758	0.186526	0.194744	0.186362
1793	0.198031	0.195895	0.19195	0.196223	0.183732
1794	0.198689	0.195073	0.188006	0.200168	0.184225
1795	0.198689	0.195237	0.191457	0.202305	0.187348
1796	0.199346	0.196717	0.193758	0.196717	0.185376
1797	0.197867	0.196717	0.190307	0.198031	0.185705
1798	0.199346	0.197703	0.192443	0.20099	0.187184
1799	0.192443	0.192443	0.194744	0.197374	0.185869
1800	0.196717	0.199018	0.19195	0.201319	0.189649
1801	0.200497	0.198031	0.192115	0.196881	0.012637
1802	0.198031	0.193922	0.192608	0.200497	0.017074
1803	0.200497	0.193922	0.192115	0.196881	0.024635
1804	0.197703	0.194909	0.189978	0.196059	0.035647
1805	0.20099	0.194744	0.189649	0.19836	0.039756
1806	0.200661	0.192936	0.189814	0.200497	0.04748
1807	0.203948	0.1908	0.192279	0.197045	0.057671
1808	0.197703	0.190142	0.189156	0.196059	0.061451
1809	0.196881	0.192772	0.189485	0.196717	0.066217
1810	0.189814	0.192608	0.191786	0.201154	0.071312
1811	0.199182	0.195237	0.192936	0.19836	0.080352
1812	0.199839	0.193265	0.190964	0.196881	0.082324
1813	0.202962	0.198031	0.192443	0.201647	0.084132
1814	0.201976	0.193922	0.192608	0.200332	0.087255
1815	0.20099	0.198689	0.189814	0.200497	0.092514
1816	0.205099	0.195073	0.194087	0.198853	0.095473
1817	0.200661	0.197703	0.191293	0.202798	0.10254
1818	0.205263	0.19458	0.194416	0.198031	0.103362
1819	0.202469	0.197703	0.193101	0.200168	0.107471
1820	0.203291	0.196881	0.194744	0.199346	0.115524
1821	0.194251	0.197703	0.195237	0.200332	0.122098
1822	0.201812	0.192608	0.196059	0.199675	0.124564
1823	0.204113	0.19458	0.194909	0.198689	0.128015
1824	0.206907	0.19195	0.194251	0.199018	0.131796
1825	0.202469	0.18932	0.195237	0.199346	0.130974
1826	0.205427	0.192936	0.193758	0.200004	0.136069
1827	0.208057	0.192936	0.19458	0.197867	0.138863
1828	0.203455	0.196881	0.192772	0.199839	0.139849
1829	0.207893	0.193922	0.19458	0.194909	0.139685
1830	0.205427	0.196388	0.194416	0.201647	0.144122
1831	0.205921	0.200661	0.194744	0.204113	0.145437
1832	0.199675	0.19573	0.193758	0.197703	0.148889
1833	0.204606	0.19721	0.198524	0.19836	0.147574
1834	0.204934	0.195566	0.195566	0.201647	0.156613
1835	0.210029	0.196388	0.198031	0.200332	0.153819
1836	0.203291	0.195566	0.197374	0.201154	0.155956
1837	0.207564	0.196552	0.196223	0.198689	0.159079
1838	0.210358	0.194416	0.197045	0.200168	0.161215
1839	0.208715	0.193594	0.192279	0.199346	0.161709
1840	0.207728	0.19573	0.195895	0.195566	0.162366
1841	0.210194	0.193758	0.196552	0.20099	0.167625
1842	0.209536	0.200661	0.189485	0.20099	0.165489
1843	0.205756	0.193922	0.192279	0.199511	0.170748
1844	0.207728	0.194416	0.195895	0.196881	0.170913
1845	0.206742	0.196881	0.194744	0.199346	0.176008
1846	0.209865	0.193758	0.19836	0.200661	0.169433
1847	0.207564	0.196059	0.195073	0.197867	0.172392
1848	0.209043	0.195566	0.195073	0.19836	0.17535
1849	0.209372	0.191621	0.198853	0.199675	0.172392
1850	0.20855	0.196059	0.202633	0.196059	0.17535
1851	0.208222	0.198689	0.196223	0.199018	0.178637
1852	0.211344	0.196223	0.201319	0.196717	0.182089
1853	0.208879	0.196388	0.199346	0.198853	0.179788
1854	0.212988	0.193265	0.196717	0.196223	0.181267
1855	0.211016	0.194909	0.199511	0.195566	0.184061
1856	0.210851	0.190964	0.195073	0.196717	0.186526
1857	0.21381	0.195402	0.196059	0.199346	0.18554
1858	0.210523	0.193265	0.197374	0.200497	0.18554
1859	0.215946	0.195566	0.195073	0.198196	0.186526
1860	0.216111	0.196717	0.193265	0.199675	0.186855
1861	0.213317	0.195566	0.196717	0.199018	0.185047
1862	0.212988	0.19836	0.194416	0.199675	0.190471
1863	0.215782	0.196223	0.201976	0.19836	0.081667
1864	0.212002	0.185869	0.193101	0.200825	0.085611
1865	0.215946	0.195895	0.194909	0.195895	0.085283
1866	0.212988	0.19836	0.201483	0.193265	0.101225
1867	0.213481	0.197374	0.196223	0.198196	0.10139
1868	0.215125	0.19721	0.19836	0.199675	0.105005
1869	0.215453	0.19836	0.202305	0.199346	0.105992
1870	0.213152	0.201812	0.199018	0.200497	0.114374
1871	0.212988	0.196059	0.19836	0.199346	0.120291
1872	0.21496	0.197703	0.202798	0.198524	0.120291
1873	0.215453	0.199675	0.19836	0.20099	0.125057
1874	0.217426	0.194909	0.199346	0.198196	0.126372
1875	0.216275	0.184225	0.198689	0.201319	0.131302
1876	0.215782	0.191293	0.19573	0.19836	0.134425
1877	0.21381	0.196388	0.198524	0.200004	0.141164
1878	0.219727	0.194909	0.199346	0.197867	0.140835
1879	0.215453	0.200661	0.196717	0.199182	0.145602
1880	0.21874	0.193429	0.199346	0.197374	0.141821
1881	0.216932	0.196881	0.197703	0.203126	0.14856
1882	0.214303	0.195073	0.197867	0.197867	0.152176
1883	0.217097	0.19836	0.19836	0.204277	0.155627
1884	0.219069	0.195402	0.200332	0.19721	0.155463
1885	0.216768	0.197867	0.199839	0.197045	0.155299
1886	0.21874	0.193265	0.201647	0.19836	0.155627
1887	0.211673	0.193758	0.199018	0.196059	0.15875
1888	0.213481	0.198689	0.20099	0.200497	0.162859
1889	0.216275	0.196388	0.201483	0.19721	0.161215
1890	0.216111	0.199018	0.201154	0.201483	0.166475
1891	0.22137	0.194251	0.201483	0.202469	0.164338
1892	0.214796	0.195566	0.197703	0.20099	0.167132
1893	0.216604	0.195073	0.199346	0.200661	0.168612
1894	0.087419	0.195566	0.199511	0.201319	0.170748
1895	0.093007	0.194744	0.201976	0.198031	0.170913
1896	0.030387	0.200004	0.199018	0.197867	0.175021
1897	0.042057	0.194744	0.197374	0.197703	0.172392
1898	0.047973	0.195895	0.194909	0.197703	0.179623
1899	0.054548	0.195237	0.20099	0.195895	0.176829
1900	0.060629	0.196223	0.202633	0.198031	0.175843
1901	0.066053	0.19721	0.201154	0.198524	0.17798
1902	0.070983	0.196388	0.20099	0.199346	0.177158
1903	0.079694	0.19721	0.202469	0.197703	0.183075
1904	0.085776	0.193758	0.197374	0.197538	0.176008
1905	0.08594	0.197045	0.199346	0.200168	0.181267
1906	0.0935	0.196717	0.201483	0.199182	0.179952
1907	0.095801	0.196881	0.196388	0.19573	0.183075
1908	0.099746	0.190307	0.198853	0.197703	0.182911
1909	0.100403	0.197538	0.197703	0.201154	0.184554
1910	0.105005	0.197867	0.201812	0.199346	0.18554
1911	0.111744	0.196059	0.20214	0.198689	0.184554
1912	0.113716	0.19836	0.199839	0.201812	0.185212
1913	0.116182	0.196059	0.198689	0.200497	0.186855
1914	0.122427	0.193101	0.202633	0.196388	0.187513
1915	0.125221	0.194087	0.200497	0.196223	0.193429
1916	0.129659	0.196881	0.202305	0.196223	0.186526
1917	0.133932	0.196223	0.200661	0.196223	0.184718
1918	0.131796	0.197374	0.200168	0.198031	0.183404
1919	0.026443	0.196388	0.198853	0.197045	0.181103
1920	0.030552	0.196881	0.199182	0.200332	0.182582
1921	0.037455	0.196717	0.201812	0.196223	0.163516
1922	0.04255	0.197703	0.199675	0.197538	0.156285
1923	0.049781	0.19836	0.197538	0.200661	0.159408
1924	0.053562	0.194909	0.195402	0.199346	0.163516
1925	0.059807	0.19195	0.201483	0.200004	0.162695
1926	0.064409	0.197703	0.195895	0.202798	0.162202
1927	0.069504	0.199018	0.201812	0.198853	0.163845
1928	0.073778	0.195237	0.199018	0.200168	0.165324
1929	0.080023	0.193922	0.197867	0.199675	0.166475
1930	0.082982	0.196388	0.19836	0.194744	0.168283
1931	0.088734	0.192772	0.199346	0.199675	0.167461
1932	0.090871	0.195566	0.199018	0.199018	0.168283
1933	0.091528	0.197703	0.199675	0.196388	0.167132
1934	0.098267	0.19573	0.199182	0.196881	0.168118
1935	0.097774	0.200497	0.197045	0.200825	0.170748
1936	0.103033	0.195073	0.202469	0.196552	0.16894
1937	0.106485	0.197867	0.197045	0.199182	0.159901
1938	0.102376	0.200168	0.197045	0.198524	0.168118
1939	0.106978	0.197374	0.197045	0.197703	0.17157
1940	0.110758	0.196881	0.197703	0.196552	0.170091
1941	0.113223	0.199839	0.200661	0.196881	0.172885
1942	0.117168	0.195402	0.199182	0.19836	0.171406
1943	0.120291	0.196717	0.198031	0.197867	0.173707
1944	0.122098	0.196717	0.199675	0.196059	0.1742
1945	0.120948	0.197045	0.199675	0.20214	0.17535
1946	0.125714	0.197045	0.200004	0.197538	0.009185
1947	0.127358	0.200168	0.196717	0.197538	0.017732
1948	0.128837	0.20099	0.197045	0.200004	0.017732
1949	0.131631	0.197045	0.194416	0.197703	0.030387
1950	0.134097	0.199182	0.196388	0.199018	0.038441
1951	0.136069	0.194909	0.197045	0.197045	0.043536
1952	0.135247	0.197045	0.196881	0.199675	0.053069
1953	0.137548	0.196552	0.196059	0.19458	0.052082
1954	0.140013	0.195402	0.19721	0.199182	0.061944
1955	0.137548	0.193922	0.197045	0.195237	0.067039
1956	0.138534	0.196552	0.192443	0.200332	0.073778
1957	0.138699	0.194744	0.196388	0.197867	0.075585
1958	0.138534	0.19721	0.197867	0.197703	0.083639
1959	0.145766	0.197374	0.195895	0.197538	0.091528
1960	0.137877	0.199839	0.197703	0.201976	0.084296
1961	0.144615	0.199346	0.197374	0.198689	0.094487
1962	0.148396	0.196388	0.198853	0.200168	0.099417
1963	0.148889	0.199511	0.197374	0.20214	0.103197
1964	0.152011	0.199346	0.194744	0.195237	0.107799
1965	0.155134	0.197374	0.200497	0.195237	0.109607
1966	0.155134	0.195402	0.198524	0.196388	0.11651
1967	0.155956	0.19721	0.193758	0.199182	0.119962
1968	0.156778	0.197045	0.201319	0.19836	0.119962
1969	0.156942	0.197045	0.199839	0.199511	0.125386
1970	0.15875	0.197538	0.196552	0.198853	0.125386
1971	0.159572	0.19836	0.195402	0.200661	0.127687
1972	0.158914	0.197538	0.195237	0.197045	0.130645
1973	0.162202	0.199675	0.195237	0.19836	0.136069
1974	0.162366	0.199182	0.193758	0.19836	0.136726
1975	0.160558	0.196223	0.196388	0.19836	0.140178
1976	0.165817	0.196717	0.198689	0.199346	0.141657
1977	0.16253	0.199182	0.19721	0.20099	0.143465
1978	0.164174	0.197703	0.197045	0.200825	0.143465
1979	0.165653	0.198524	0.196388	0.198689	0.146752
1980	0.166804	0.19721	0.195073	0.200497	0.149382
1981	0.16894	0.197374	0.198031	0.194744	0.152011
1982	0.170255	0.199346	0.199018	0.201319	0.154148
1983	0.172227	0.199839	0.194251	0.19836	0.157271
1984	0.171406	0.197374	0.193594	0.200004	0.159408
1985	0.172227	0.199018	0.196059	0.198031	0.160394
1986	0.171241	0.199018	0.192608	0.197703	0.16253
1987	0.173542	0.195566	0.198196	0.197374	0.163845
1988	0.175679	0.19836	0.192279	0.199839	0.164667
1989	0.175021	0.197045	0.192115	0.198196	0.166968
1990	0.171899	0.197703	0.191786	0.197703	0.168612
1991	0.17535	0.196388	0.192936	0.19836	0.168447
1992	0.173378	0.198853	0.19458	0.196059	0.168612
1993	0.174528	0.197867	0.194744	0.194087	0.169105
1994	0.176829	0.199018	0.195073	0.195895	0.170913
1995	0.174528	0.202633	0.195566	0.19836	0.172227
1996	0.177487	0.195895	0.195073	0.193922	0.173378
1997	0.177487	0.201319	0.196059	0.202633	0.175021
1998	0.182089	0.198689	0.196881	0.197703	0.172392
1999	0.179952	0.198196	0.194087	0.200004	0.175515
2000	0.176829	0.198031	0.199182	0.202469	0.176008
2001	0.185047	0.197867	0.196059	0.194251	0.177487
2002	0.181431	0.193101	0.19458	0.192443	0.178144
2003	0.179459	0.196552	0.193101	0.198853	0.180116
2004	0.179459	0.197703	0.195402	0.195895	0.180938
2005	0.181924	0.196223	0.189156	0.19573	0.181924
2006	0.184225	0.195073	0.194087	0.196881	0.180774
2007	0.182089	0.197703	0.193101	0.198031	0.179295
2008	0.182746	0.199018	0.195073	0.198689	0.176829
2009	0.183075	0.197374	0.194744	0.19721	0.179623
2010	0.184061	0.199018	0.19573	0.201154	0.180938
2011	0.184061	0.199018	0.197374	0.199675	0.183732
2012	0.187184	0.198853	0.196223	0.200332	0.187841
2013	0.184225	0.196881	0.19836	0.198031	0.180281
2014	0.184061	0.198853	0.193758	0.198196	0.185869
2015	0.185376	0.19836	0.203291	0.201483	0.186033
2016	0.184883	0.198524	0.197374	0.198524	0.186691
2017	0.18817	0.196881	0.197374	0.199018	0.182582
2018	0.187677	0.199511	0.198689	0.200168	0.186526
2019	0.188827	0.194416	0.19836	0.200497	0.186691
2020	0.188827	0.197703	0.196059	0.198524	0.189649
2021	0.191621	0.196059	0.197374	0.201976	0.187348
2022	0.190142	0.195402	0.195402	0.199675	0.191457
2023	0.190964	0.19573	0.193758	0.197867	0.1908
2024	0.190307	0.199182	0.197538	0.199675	0.18932
2025	0.189814	0.200825	0.201976	0.199675	0.189814
2026	0.188827	0.199182	0.197374	0.197538	0.190964
2027	0.1908	0.199182	0.196552	0.197703	0.189978
2028	0.1908	0.198524	0.198853	0.198196	0.189156
2029	0.190471	0.199018	0.196059	0.199675	0.192443
2030	0.189814	0.196552	0.201812	0.197867	0.188663
2031	0.19195	0.199346	0.199346	0.196881	0.193101
2032	0.191128	0.197867	0.198689	0.199346	0.189485
2033	0.187841	0.199346	0.198524	0.202305	0.19195
2034	0.191786	0.198689	0.197538	0.193922	0.191621
2035	0.191786	0.196717	0.200332	0.20099	0.194416
2036	0.194416	0.196388	0.189156	0.200332	0.193758
2037	0.1908	0.19458	0.192443	0.199346	0.195566
2038	0.197374	0.196552	0.194909	0.197703	0.194087
2039	0.196717	0.196552	0.193594	0.197703	0.193922
2040	0.194087	0.198524	0.19195	0.198853	0.195073
2041	0.195237	0.199511	0.194251	0.19721	0.192936
2042	0.19458	0.197045	0.193922	0.198031	0.195073
2043	0.192279	0.19836	0.194909	0.196388	0.191293
2044	0.193101	0.199018	0.194416	0.205756	0.19573
2045	0.196223	0.19721	0.193594	0.200332	0.194416
2046	0.190142	0.196717	0.193758	0.199018	0.195073
2047	0.19458	0.196717	0.195402	0.199839	0.196552
2048	0.190635	0.201154	0.193922	0.20099	0.19721
2049	0.195073	0.197374	0.197045	0.198031	0.19195
2050	0.193101	0.200004	0.198031	0.203126	0.194416
2051	0.194416	0.197045	0.19836	0.191786	0.195237
2052	0.192936	0.198524	0.198524	0.197045	0.194744
2053	0.19721	0.19458	0.197867	0.199018	0.193922
2054	0.189156	0.196552	0.193429	0.19721	0.193101
2055	0.194251	0.196059	0.195895	0.200825	0.196881
2056	0.193101	0.196388	0.19573	0.196881	0.195237
2057	0.196059	0.198689	0.193594	0.198196	0.197045
2058	0.193429	0.198853	0.193265	0.194251	0.199511
2059	0.194744	0.199346	0.191457	0.200168	0.200497
2060	0.196059	0.200004	0.194744	0.195402	0.194416
2061	0.194416	0.199675	0.192115	0.198196	0.196717
2062	0.191786	0.199018	0.196223	0.196223	0.193265
2063	0.192443	0.202469	0.196881	0.198031	0.196223
2064	0.201319	0.196388	0.200168	0.197374	0.1908
2065	0.190471	0.200661	0.198524	0.202305	0.19458
2066	0.193758	0.198031	0.201319	0.198689	0.194416
2067	0.196223	0.198853	0.197538	0.201812	0.194744
2068	0.19458	0.197703	-0.051134	0.199182	0.193429
2069	0.19573	0.199675	-0.040779	0.199511	0.195073
2070	0.193429	0.200004	-0.033055	0.205592	0.197867
2071	0.198524	0.199346	-0.021221	0.194909	0.193101
2072	0.198196	0.198689	-0.013167	0.200332	0.200004
2073	0.19836	0.198853	-0.004128	0.198689	0.192443
2074	0.198689	0.201154	0.00672	0.199182	0.199675
2075	0.199839	0.198524	0.013787	0.197867	0.197374
2076	0.196388	0.203784	0.016581	0.198689	0.199018
2077	0.200004	0.196881	0.027922	0.195566	0.201812
2078	0.196552	0.20099	0.032524	0.199182	0.197867
2079	0.198031	0.199839	0.04255	0.198524	0.197703
2080	0.199346	0.197374	0.046987	0.201812	0.201319
2081	0.193758	0.201154	0.055041	0.205921	0.196717
2082	0.196059	0.199018	0.0603	0.195566	0.199511
2083	0.197374	0.200825	0.068354	0.197538	0.19573
2084	0.195237	0.20099	0.071805	0.198031	0.195895
2085	0.197374	0.201154	0.07953	0.198689	0.197703
2086	0.199182	0.196059	0.085283	0.19573	0.195895
2087	0.195073	0.19573	0.087255	0.199018	0.199182
2088	0.199839	0.196881	0.095308	0.196059	0.19836
2089	0.20099	0.197374	0.096788	0.196881	0.198689
2090	0.198196	0.196388	0.101061	0.198853	0.197867
2091	0.198524	0.200825	0.102869	0.195073	0.197374
2092	0.199675	0.19836	0.105827	0.201976	0.200825
2093	0.196552	0.199675	0.110593	0.19721	0.198853
2094	0.199018	0.194909	0.115524	0.195895	0.197045
2095	0.196881	0.200168	0.117661	0.199182	0.199839
2096	0.199018	0.197045	0.121277	0.194416	0.199018
2097	0.19721	0.198524	0.120455	0.196223	0.196717
2098	0.197538	0.19836	0.129495	0.196388	0.197045
2099	0.196059	0.199018	0.133439	0.193594	0.19836
2100	0.197867	0.19836	0.136398	0.201319	0.197867
2101	0.196388	0.200004	0.136069	0.196223	0.19836
2102	0.196388	0.198524	0.139356	0.192608	0.19721
2103	0.198689	0.197538	0.141164	0.191786	0.195402
2104	0.192608	0.198196	0.137384	0.193922	0.176829
2105	0.199346	0.197867	0.146423	0.19195	0.178473
2106	0.197703	0.196059	0.145273	0.196552	0.18176
2107	0.19836	0.196223	0.148231	0.193101	0.18061
2108	0.19721	0.191457	0.149875	0.194909	0.178966
2109	0.19573	0.199018	0.154641	0.195402	0.182746
2110	0.195402	0.198196	0.152998	0.193922	0.185212
2111	0.199839	0.194744	0.157928	0.193101	0.173542
2112	0.188663	0.197374	0.158586	0.196223	0.177158
2113	0.197045	0.195895	0.159901	0.194744	0.178637
2114	0.199018	0.199839	0.159736	0.191293	0.17798
2115	0.199182	0.199675	0.158257	0.193265	0.007213
2116	0.200661	0.202469	0.166475	0.194416	0.004255
2117	0.198196	0.199839	0.166804	0.195402	0.011651
2118	0.19836	0.203455	0.169926	0.194909	0.016581
2119	0.199675	0.200825	0.170091	0.195402	0.022169
2120	0.196881	0.199346	0.172063	0.195237	0.02973
2121	0.195073	0.200497	0.171734	0.194744	0.04107
2122	0.202962	0.197867	0.174364	0.194744	0.043536
2123	0.198689	0.198689	0.174857	0.197045	0.051425
2124	0.198196	0.196388	0.175021	0.194416	0.058492
2125	0.198524	0.198689	0.17272	0.186033	0.065395
2126	0.20214	0.197374	0.173214	0.194087	0.001789
2127	0.19836	0.199839	0.1742	0.194416	0.006062
2128	0.200497	0.197703	0.182089	0.195073	0.010993
2129	0.200332	0.20099	0.176501	0.196223	0.022334
2130	0.204606	0.198031	0.179295	0.193922	0.028251
2131	0.200168	0.198031	0.181267	0.197703	0.031045
2132	0.19836	0.203291	0.179295	0.199346	0.043207
2133	0.20099	0.200825	0.182417	0.196717	0.045508
2134	0.198031	0.199182	0.183897	0.199839	0.053069
2135	0.198196	0.200004	0.18554	0.192936	0.059807
2136	0.200168	0.202469	0.18176	0.188992	0.064738
2137	0.200825	0.19721	0.186855	0.195895	0.066546
2138	0.198853	0.199018	0.188006	0.197045	0.077065
2139	0.204606	0.199839	0.188334	0.195402	0.075257
2140	0.196881	0.202633	0.185212	0.198524	0.082324
2141	0.201812	0.199182	0.187019	0.196552	0.086762
2142	0.197374	0.198853	0.187841	0.200004	0.09235
2143	0.198524	0.199182	0.18817	0.196059	0.096459
2144	0.197538	0.200332	0.186691	0.198853	0.102869
2145	0.199346	0.197703	0.18817	0.198524	0.105334
2146	0.198196	0.199182	0.187348	0.195566	0.110429
2147	0.201483	0.199018	0.188827	0.190307	0.112566
2148	0.203291	0.197703	0.190471	0.195402	0.11651
2149	0.199018	0.200168	0.189978	0.199182	0.121277
2150	0.199511	0.199675	0.192608	0.199511	0.12177
2151	0.198689	0.20099	0.188499	0.200168	0.125879
2152	0.19836	0.197867	0.189156	0.196388	0.127029
2153	0.196881	0.200332	0.189485	0.196717	0.131302
2154	0.193922	0.195566	0.188334	0.196223	0.130974
2155	0.196059	0.20099	0.191293	0.197374	0.049124
2156	0.198196	0.19836	0.195566	0.197045	0.025292
2157	0.195237	0.199511	0.189814	0.199839	0.035482
2158	0.197703	0.201319	0.192936	0.194909	0.040084
2159	0.20099	0.200661	0.193265	0.19721	0.045179
2160	0.199018	0.198031	0.193758	0.199511	0.051918
2161	0.19573	0.200004	0.194251	0.198853	0.061122
2162	0.197538	0.196059	0.193594	0.198031	0.066381
2163	0.200497	0.19721	0.192115	0.200004	0.070655
2164	0.203291	0.199018	0.191457	0.196059	0.078708
2165	0.203455	0.196223	0.190964	0.198031	0.081009
2166	0.198524	0.198689	0.191128	0.199511	0.085776
2167	0.200332	0.198524	0.198524	0.197867	0.089063
2168	0.19836	0.199018	0.192443	0.201154	0.095308
2169	0.199675	0.199675	0.195237	0.193101	0.095144
2170	0.19836	0.20099	0.194744	0.199018	0.101225
2171	0.201319	0.198031	0.19721	0.197374	0.102704
2172	0.19836	0.198853	0.19458	0.200497	0.112566
2173	0.202798	0.201647	0.198031	0.200332	0.112566
2174	0.195237	0.19836	0.19573	0.201976	0.116346
2175	0.200168	0.199675	0.199839	0.201319	0.120455
2176	0.19721	0.195895	0.199511	0.200661	0.121934
2177	0.196388	0.194744	0.199182	0.202305	0.127194
2178	0.198853	0.197538	0.198524	0.200168	0.130809
2179	0.198524	0.198196	0.195237	0.20214	0.130152
2180	0.202469	0.198853	0.196552	0.198853	0.136398
2181	0.199018	0.200661	0.196552	0.197045	0.14215
2182	0.201812	0.196717	0.196717	0.195895	0.138205
2183	0.19836	0.199346	0.19458	0.198689	0.142807
2184	0.20099	0.197374	0.19721	0.200332	0.143629
2185	0.199839	0.19836	0.195402	0.199675	0.146259
2186	0.200825	0.197703	0.19573	0.196388	0.146423
2187	0.19836	0.196223	0.194251	0.199018	0.153162
2188	0.199511	0.200661	0.196552	0.200332	0.15119
2189	0.196881	0.205427	0.194909	0.200004	0.153984
2190	0.199511	0.202305	0.195895	0.201812	0.155299
2191	0.197867	0.201483	0.199018	0.199675	0.157764
2192	0.195402	0.200497	0.197538	0.200332	0.158421
2193	0.197867	0.201154	0.199346	0.200004	0.159243
2194	0.196552	0.201319	0.196552	0.200004	0.163188
2195	0.198689	0.199511	0.199675	0.201154	0.162366
2196	0.200497	0.199675	0.193594	0.201154	0.164174
2197	0.199346	0.19721	0.198689	0.197538	0.166475
2198	0.198853	0.19836	0.197045	0.200661	0.170584
2199	0.199839	0.19573	0.200825	0.198031	0.164996
2200	0.196223	0.199511	0.196881	0.203948	0.173049
2201	0.202469	0.199018	0.196059	0.20099	0.170091
2202	0.198524	0.197374	0.195237	0.198031	0.173707
2203	0.199182	0.19721	0.196059	0.197538	0.171406
2204	0.196388	0.197374	0.196881	0.196388	0.173049
2205	0.197867	0.196223	0.196881	0.200332	0.173707
2206	0.197045	0.199346	0.19836	0.200661	0.179459
2207	0.197703	0.200825	0.196717	0.201319	0.174693
2208	0.196388	0.197374	0.198524	0.20099	0.180774
2209	0.196717	0.200168	0.197374	0.201319	0.183075
2210	0.194416	0.19836	0.201154	0.202798	0.176665
2211	0.196223	0.199018	0.198689	0.203291	0.183568
2212	0.200168	0.200004	0.199182	0.199839	0.182089
2213	0.201976	0.202305	0.199182	0.20099	0.18176
2214	0.200497	0.197538	0.199346	0.200497	0.177158
2215	0.201812	0.199346	0.195402	0.205921	0.185705
2216	0.199511	0.196059	0.195073	0.201976	0.181267
2217	0.200497	0.198031	0.196717	0.199675	0.182089
2218	0.201319	0.196223	0.19573	0.202962	0.18176
2219	0.199018	0.197703	0.194087	0.202469	0.184718
2220	0.200332	0.197867	0.198031	0.201154	0.187019
2221	0.199511	0.198031	0.199511	0.203291	0.183732
2222	0.199511	0.198524	0.199182	0.200497	0.187841
2223	0.198196	0.19836	0.199182	0.202305	0.188663
2224	0.195402	0.199182	0.199018	0.202633	0.186855
2225	0.198031	0.198689	0.199346	0.201319	0.186526
2226	0.200332	0.205099	0.201154	0.203455	0.191128
2227	0.197538	0.199346	0.201319	0.201647	0.190964
2228	0.197538	0.201319	0.203455	0.203126	0.190471
2229	0.197538	0.19836	0.20099	0.201812	0.192772
2230	0.203126	0.197703	0.199018	0.204934	0.192936
2231	0.196717	0.198689	0.20099	0.204441	0.18932
2232	0.197867	0.196552	0.198524	0.207728	0.190635
2233	0.20214	0.195566	0.201154	0.200168	0.191621
2234	0.198853	0.199346	0.196388	0.200661	0.192115
2235	0.20099	0.197538	0.197867	0.199182	0.191293
2236	0.198689	0.19721	0.197045	0.197374	0.192936
2237	0.201319	0.196552	0.195566	0.19836	0.194909
2238	0.202633	0.196388	0.197703	0.199511	0.191786
2239	0.197703	0.200497	0.196388	0.198196	0.195073
2240	0.198524	0.19721	0.19836	0.197867	0.191786
2241	0.198031	0.19458	0.198853	0.201154	0.192772
2242	0.197045	0.197374	0.201154	0.199182	0.193429
2243	0.196881	0.201154	0.199346	0.200825	0.194251
2244	0.197867	0.197045	0.198524	0.20099	0.190964
2245	0.201976	0.200497	0.19836	0.202633	0.197045
2246	0.199511	0.199839	0.200004	0.199346	0.194087
2247	0.194909	0.198853	0.198524	0.202469	0.1908
2248	0.200332	0.197867	0.198196	0.199675	0.194744
2249	0.197703	0.198031	0.197045	0.200825	0.194251
2250	0.200497	0.195237	0.200825	0.198031	0.194087
2251	0.200661	0.195566	0.197374	0.191786	0.195237
2252	0.200497	0.194744	0.198853	0.201647	0.194909
2253	0.20099	0.194416	0.199182	0.196881	0.195237
2254	0.203291	0.194744	0.197374	0.196388	0.195402
2255	0.198031	0.195566	0.20099	0.198031	0.190964
2256	0.196388	0.196717	0.194744	0.197703	0.196881
2257	0.198524	0.193101	0.198524	0.199018	0.192443
2258	0.195895	0.197538	0.197374	0.200332	0.192608
2259	0.200825	0.193265	0.198196	0.197045	0.191621
2260	0.198853	0.201976	0.198196	0.199675	0.196388
2261	0.19836	0.196388	0.200332	0.200004	0.193265
2262	0.194416	0.200168	0.199018	0.202798	0.198196
2263	0.197867	0.196388	0.203291	0.203948	0.196388
2264	0.196717	0.200661	0.198689	0.200825	0.195895
2265	0.196059	0.197538	0.20477	0.203784	0.194416
2266	0.196059	0.197867	0.209701	0.200825	0.194909
2267	0.198853	0.196881	0.197374	0.201319	0.195895
2268	0.199675	0.19721	0.200168	0.199346	0.197045
2269	0.200004	0.19836	0.200332	0.200825	0.196388
2270	0.198524	0.19721	0.200825	0.199018	0.195895
2271	0.200004	0.198196	0.196223	0.199182	0.196388
2272	0.199511	0.198196	0.200661	0.197867	0.194416
2273	0.198853	0.198689	0.197374	0.20477	0.200332
2274	0.19721	0.196059	0.199675	0.19836	0.198196
2275	0.200332	0.193922	0.200497	0.201319	0.203291
2276	0.199018	0.195073	0.198031	0.199182	0.202305
2277	0.199346	0.197867	0.199346	0.20099	0.195402
2278	0.198031	0.19721	0.199182	0.198524	0.195402
2279	0.196388	0.197045	0.195566	0.201319	0.199182
2280	0.198196	0.200004	0.200661	0.201319	0.193265
2281	0.198196	0.199675	0.199346	0.201483	0.194909
2282	0.199018	0.197867	0.199675	0.199675	0.197045
2283	0.198524	0.200497	0.201647	0.199839	0.196552
2284	0.202469	0.196059	0.200825	0.201483	0.199675
2285	0.201319	0.199511	0.202962	0.198853	0.199346
2286	0.200168	0.192772	0.198031	0.197045	0.196059
2287	0.201812	0.196059	0.195237	0.19573	0.20099
2288	0.19836	0.197045	0.187019	0.201647	0.199182
2289	0.197538	0.197374	0.19573	0.198031	0.196388
2290	0.197703	0.196223	0.195402	0.197867	0.198689
2291	0.198853	0.194416	0.200661	0.199839	0.195895
2292	0.197045	0.19458	0.195073	0.201154	0.197703
2293	0.200497	0.195073	0.198689	0.195237	0.199511
2294	0.19836	0.19836	0.197703	0.198524	0.197374
2295	0.201154	0.195073	0.199675	0.199182	0.196059
2296	0.196388	0.197538	0.199018	0.199346	0.199018
2297	0.197703	0.197045	0.199182	0.19836	0.197538
2298	0.19836	0.200497	0.20477	0.20099	0.197045
2299	0.198196	0.197374	0.191786	0.201154	0.199018
2300	0.199511	0.200004	0.200661	0.200497	0.197374
2301	0.194744	0.1908	0.200825	0.197538	0.200332
2302	0.200332	0.192279	0.199346	0.20099	0.20099
2303	0.201812	0.196059	0.197538	0.20099	0.199675
2304	0.204441	0.193922	0.200004	0.196881	0.199182
2305	0.199182	0.196059	0.197703	0.198031	0.207893
2306	0.200497	0.192608	0.197867	0.200825	0.200497
2307	0.199675	0.196552	0.196059	0.194744	0.203948
2308	0.198853	0.19458	0.19836	0.191293	0.198689
2309	0.196059	0.197045	0.194909	0.197374	0.198853
2310	0.198196	0.197045	0.196717	0.199018	0.19721
2311	0.197703	0.19836	0.197538	0.196223	0.200661
2312	0.19836	0.193758	0.199839	0.198853	0.202962
2313	0.195566	0.200825	0.200168	0.200168	0.200168
2314	0.200332	0.200497	0.199675	0.199511	0.19573
2315	0.197703	0.19836	0.199511	0.198031	0.198524
2316	0.194087	0.20099	0.201154	0.200332	0.197374
2317	0.197045	0.196552	0.202305	0.201154	0.19836
2318	0.197045	0.197538	0.201319	0.200825	0.199839
2319	0.199511	0.196388	0.202469	0.197867	0.197045
2320	0.199346	0.19573	0.198524	0.202798	0.202469
2321	0.20099	0.197374	0.200004	0.200332	0.199182
2322	0.198031	0.196717	0.197045	0.201647	0.202305
2323	0.201647	0.192608	0.199839	0.201154	0.201647
2324	0.197867	0.198196	0.197045	0.203126	0.202305
2325	0.200661	0.196717	0.200497	0.19836	0.199675
2326	0.201319	0.198689	0.195402	0.198524	0.194744
2327	0.201812	0.200332	0.201154	0.199182	0.198031
2328	0.200825	0.196388	0.198524	0.19836	0.199675
2329	0.197703	0.196223	0.196059	0.199511	0.197045
2330	0.198524	0.19573	0.19836	0.197374	0.198031
2331	0.199675	0.193594	0.199018	0.201319	0.201976
2332	0.197703	0.195895	0.200825	0.198689	0.200332
2333	0.19836	0.201319	0.200168	0.200497	0.199182
2334	0.199018	0.193429	0.202962	0.19836	0.200332
2335	0.197374	0.199018	0.20099	0.202798	0.19836
2336	0.200332	0.197538	0.200497	0.19573	0.196223
2337	0.197374	0.19458	0.203291	0.195402	0.198196
2338	0.196881	0.196223	0.19836	0.192608	0.197374
2339	0.198031	0.193594	0.199018	0.198031	0.198524
2340	0.203126	0.193101	0.199018	0.197867	0.199839
2341	0.196717	0.197538	0.199675	0.197374	0.198031
2342	0.199675	0.195402	0.197374	0.200168	0.198196
2343	0.199675	0.195237	0.19721	0.200004	0.201812
2344	0.199675	0.197045	0.199182	0.19836	0.200332
2345	0.200825	0.196717	0.198031	0.197374	0.199346
2346	0.198196	0.198689	0.199346	0.200825	0.196223
2347	0.199675	0.198031	0.20099	0.196717	0.197045
2348	0.198031	0.19836	0.201319	0.200825	0.194416
2349	0.198853	0.19721	0.197867	0.197374	0.196223
2350	0.199675	0.197374	0.199018	0.199675	0.195237
2351	0.197867	0.197703	0.200825	0.198031	0.193922
2352	0.195566	0.202469	0.19836	0.198196	0.195566
2353	0.19836	0.194251	0.198524	0.199182	0.192936
2354	0.197045	0.193429	0.201647	0.198689	0.196059
2355	0.20099	0.196223	0.198689	0.199675	0.199511
2356	0.200497	0.194416	0.196717	0.197045	0.198689
2357	0.203126	0.194087	0.195895	0.201154	0.008692
2358	0.198689	0.197045	0.199018	0.20099	0.019047
2359	0.201647	0.195237	0.199839	0.201812	0.026443
2360	0.197703	0.197867	0.19836	0.201154	0.032524
2361	0.200004	0.196223	0.198689	0.201483	0.037619
2362	0.197703	0.197867	0.200004	0.199182	0.048302
2363	0.197538	0.198689	0.199182	0.197374	0.04896
2364	0.201154	0.196881	0.199511	0.199018	0.057999
2365	0.196717	0.19836	0.198524	0.199839	0.06293
2366	0.198196	0.197538	0.19721	0.197703	0.066875
2367	0.200661	0.198689	0.195566	0.20099	0.07575
2368	0.201647	0.19721	0.200168	0.200497	0.071148
2369	0.198524	0.199182	0.196717	0.197703	0.083968
2370	0.200332	0.197538	0.202305	0.199346	0.082324
2371	0.198689	0.201812	0.200825	0.200168	0.08857
2372	0.200004	0.195895	0.196552	0.199346	0.095473
2373	0.19721	0.197374	0.201647	0.202469	0.100732
2374	0.199839	0.19573	0.200168	0.198853	0.100568
2375	0.199346	0.198031	0.199182	0.201319	0.104512
2376	0.199346	0.197703	0.19836	0.20099	0.108786
2377	0.201647	0.195402	0.201154	0.198689	0.113059
2378	0.200497	0.199675	0.19836	0.199839	0.118318
2379	0.20099	0.197374	0.196223	0.197703	0.117332
2380	0.198689	0.200661	0.196223	0.198524	0.125714
2381	0.200825	0.20477	0.202305	0.197703	0.124893
2382	0.197867	0.199346	0.199511	0.200004	0.126372
2383	0.205263	0.197538	0.197374	0.197867	0.128015
2384	0.198031	0.200661	0.201647	0.198524	0.135904
2385	0.19721	0.19721	0.204277	0.194251	0.132453
2386	0.196881	0.200497	0.197867	0.202798	0.139849
2387	0.200004	0.199018	0.201812	0.20477	0.141986
2388	0.196717	0.201319	0.201976	0.205921	0.144122
2389	0.20214	0.199511	0.197867	0.200004	0.14478
2390	0.199511	0.201483	0.199018	0.202469	0.14971
2391	0.200825	0.198853	0.198196	0.200497	0.150861
2392	0.200004	0.20099	0.199182	0.201647	0.153819
2393	0.200332	0.194909	0.198031	0.201154	0.154806
2394	0.206907	0.197374	0.199346	0.199675	0.155299
2395	0.192443	0.204606	0.197374	0.198853	0.16138
2396	0.20099	0.198853	0.201319	0.196388	0.157271
2397	0.197374	0.196717	0.195402	0.200825	0.163352
2398	0.201154	0.201319	0.198853	0.198524	0.162859
2399	0.199839	0.199182	0.202633	0.199182	0.163681
2400	0.198524	0.20214	0.19836	0.194909	0.165653
2401	0.198196	0.202633	0.198524	0.199018	0.165817
2402	0.204934	0.195895	0.200168	0.197703	0.166968
2403	0.195073	0.203291	0.198524	0.196059	0.168118
2404	0.196059	0.200497	0.198689	0.197867	0.165982
2405	0.188663	0.19721	0.199346	0.199839	0.170584
2406	0.195895	0.202962	0.200332	0.201483	0.17272
2407	0.196881	0.200168	0.197703	0.203948	0.172885
2408	0.196881	0.20099	0.19836	0.204934	0.1742
2409	0.200497	0.200661	0.199839	0.19836	0.179952
2410	0.197867	0.200168	0.200004	0.197538	0.179295
2411	0.199346	0.199839	0.200332	0.200661	0.17913
2412	0.197374	0.200825	0.199346	0.199182	0.180116
2413	0.200332	0.201647	0.200168	0.199182	0.176336
2414	0.201154	0.201976	0.197045	0.199182	0.178966
2415	0.198524	0.202962	0.200497	0.196388	0.179623
2416	0.189978	0.197538	0.198524	0.201483	0.181431
2417	0.201154	0.200004	0.203455	0.19721	0.183568
2418	0.20099	0.201319	0.202962	0.200168	0.18061
2419	0.198689	0.201319	0.198689	0.200332	0.184554
2420	0.199675	0.203126	0.199018	0.199675	0.184718
2421	0.199182	0.201483	0.200825	0.200661	0.183239
2422	0.196881	0.201483	0.199346	0.202633	0.187677
2423	0.198524	0.203126	0.200825	0.197703	0.184554
2424	0.197867	0.201812	0.200168	0.200497	0.185705
2425	0.196223	0.201812	0.199675	0.197867	0.181596
2426	0.200332	0.203455	0.200332	0.200004	0.185376
2427	0.195566	0.199675	0.198031	0.200168	0.189978
2428	0.197045	0.200497	0.199182	0.198524	0.18554
2429	0.199182	0.201154	0.202798	0.202469	0.190471
2430	0.201812	0.194087	0.19836	0.201154	0.192608
2431	0.199018	0.201319	0.199018	0.199018	0.190471
2432	0.202305	0.203784	0.202798	0.19721	0.188499
2433	0.196388	0.199839	0.200168	0.200497	0.192608
2434	0.200825	0.202798	0.201319	0.194251	0.190635
2435	0.199839	0.204934	0.200661	0.198031	0.190964
2436	0.200497	0.20099	0.199675	0.195402	0.188663
2437	0.197538	0.197703	0.199018	0.195073	0.190964
2438	0.202633	0.201647	0.196717	0.200825	0.187677
2439	0.199675	0.201812	0.200168	0.200332	0.188827
2440	0.195566	0.201647	0.199675	0.202633	0.193922
2441	0.201154	0.198853	0.201647	0.202798	0.189156
2442	0.196223	0.20362	0.197045	0.200332	0.193922
2443	0.199511	0.199346	0.203948	0.197374	0.192443
2444	0.198524	0.200332	0.199675	0.202962	0.194251
2445	0.200004	0.201647	0.199346	0.199182	0.191621
2446	0.200332	0.201319	0.199018	0.199839	0.194909
2447	0.200168	0.199018	0.199182	0.200168	0.193429
2448	0.198524	0.189649	0.198689	0.199018	0.195566
2449	0.199511	0.197045	0.193594	0.197045	0.191786
2450	0.199182	0.195895	0.200004	0.196223	0.195895
2451	0.20362	0.198031	0.197867	0.198524	0.194744
2452	0.197538	0.198196	0.197374	0.199182	0.198031
2453	0.199511	0.198689	0.199346	0.198031	0.197538
2454	0.199018	0.199182	0.199675	0.196059	0.195402
2455	0.196552	0.197045	0.198196	0.200661	0.194416
2456	0.197045	0.200168	0.19836	0.203126	0.193265
2457	0.197703	0.203126	0.19836	0.19458	0.196388
2458	0.198031	0.20099	0.198524	0.195237	0.192936
2459	0.194087	0.199346	0.197374	0.198031	0.19721
2460	0.200497	0.19836	0.20099	0.199839	0.199182
2461	0.19721	0.201154	0.200661	0.200825	0.196388
2462	0.199346	0.20099	0.201319	0.203126	0.196717
2463	0.198031	0.200825	0.202962	0.202798	0.197045
2464	0.199182	0.199511	0.197045	0.201154	0.193922
2465	0.199018	0.201483	0.199182	0.199182	0.197045
2466	0.202798	0.19836	0.196388	0.201483	0.194909
2467	0.201154	0.200332	0.196223	0.20099	0.196223
2468	0.204277	0.201154	0.196552	0.197045	0.19721
2469	0.197374	0.200332	0.197703	0.198031	0.196717
2470	0.200004	0.201976	0.197374	0.200332	0.198196
2471	0.201154	0.200004	0.200661	0.198031	0.197045
2472	0.198689	0.200661	0.199018	0.203126	0.197867
2473	0.199839	0.200825	0.20099	0.200661	0.196388
2474	0.196223	0.201483	0.199018	0.202305	0.201319
2475	0.19573	0.201319	0.201647	0.198524	0.193758
2476	0.197703	0.202469	0.199511	0.199839	0.201483
2477	0.200497	0.199675	0.199675	0.19836	0.200497
2478	0.194087	0.201812	0.200004	0.202962	0.195895
2479	0.199018	0.201319	0.199346	0.199182	0.199182
2480	0.19836	0.205756	0.198031	0.196059	0.199018
2481	0.200332	0.19573	0.19458	0.199182	0.198031
2482	0.200004	0.200168	0.197703	0.200004	0.202305
2483	0.202305	0.201647	0.20099	0.198031	0.201812
2484	0.200497	0.20099	0.201319	0.199182	0.198853
2485	0.199346	0.200497	0.19458	0.204934	0.205592
2486	0.20214	0.198524	0.200332	0.199839	0.198689
2487	0.200497	0.200661	0.199182	0.199839	0.200332
2488	0.198524	0.198031	0.199675	0.195566	0.199018
2489	0.197374	0.198689	0.197045	0.19721	0.197374
2490	0.199182	0.204113	0.199511	0.196223	0.194416
2491	0.19836	0.201154	0.201483	0.19836	0.19836
2492	0.201483	0.197703	0.204277	0.199018	0.197867
2493	0.195566	0.203948	0.203126	0.197374	0.198031
2494	0.202633	0.199346	0.204606	0.198196	0.196059
2495	0.19721	0.202305	0.201976	0.202469	0.199018
2496	0.19836	0.199018	0.202962	0.199675	0.19836
2497	0.197703	0.199675	0.201483	0.200497	0.198196
2498	0.197703	0.19836	0.197045	0.201812	0.199511
2499	0.200661	0.199839	0.199675	0.199346	0.200004
