Ladekurvenmessung

Zeit: 2018_05_04 09.52.35

Info: FVA3, v = 0.1, T = 23, F = 20, h = 10.2

Ladewiderstand[Ohm]: 1012700

Störkapazität[pF]: 0.000000

Entladezeit[ms]: 200

Abtastrate[Hz]: 250000

Anzahl der Messwerte: 2500.000000

Verzögerung[ms]: 3

Ladespannung[V]: 0.200000


	Kurve_1	Kurve_2	Kurve_3	Kurve_4	Kurve_5
0	-0.000676	-0.001169	0.000146	-0.000676	-1.9e-05
1	0.000967	0.000146	0.000146	-0.000183	-1.9e-05
2	0.000146	0.000146	0.002282	-1.9e-05	-0.000512
3	-0.000183	-0.000512	-0.000347	0.000146	-0.000347
4	-0.00347	0.001296	0.001625	0.000474	-0.000347
5	0.000639	0.000639	0.001954	0.000474	-0.000347
6	-0.001169	-0.001169	0.000146	0.000146	0.000146
7	0.000639	0.000639	0.00146	0.000474	0.000146
8	-0.001334	-0.000841	-0.000512	-1.9e-05	0.00031
9	0.00031	-0.001005	-0.000347	-0.000183	0.000474
10	-0.000512	-0.000841	-0.002484	-0.000512	0.000474
11	-0.001498	-0.000183	0.001132	-0.000512	0.00031
12	-0.003635	0.000967	-0.000347	-0.000512	-0.000183
13	-0.001827	-0.000347	0.000146	-0.000183	-0.000183
14	-0.003635	0.00146	0.000146	0.000146	-0.000183
15	-0.002484	-0.000676	0.000146	0.00031	-0.000512
16	-0.002813	0.001789	0.000146	0.000474	-0.000347
17	-0.002155	-0.000183	0.000967	0.00031	-1.9e-05
18	0.000639	0.000967	0.002282	0.000146	0.000146
19	-0.001827	-0.000183	0.001954	-1.9e-05	0.00031
20	-0.000512	-0.000676	-0.000512	-0.000183	0.00031
21	-0.001662	-0.000512	0.001954	-0.000512	0.00031
22	-0.000183	-1.9e-05	-1.9e-05	-0.000512	0.00031
23	-0.003306	-0.000183	-0.002977	-0.000347	0.000146
24	-0.001991	-0.000347	0.000967	-1.9e-05	-0.000183
25	-0.00232	0.000639	-0.000183	0.000146	-0.000512
26	-0.002484	-0.000512	0.002447	0.00031	-0.000512
27	-0.001991	-0.001169	-1.9e-05	0.00031	-0.000676
28	-0.001005	-0.001498	0.002447	0.000474	-0.000183
29	-0.003799	0.000967	0.000967	0.00031	0.00031
30	-0.005114	-0.001827	0.001789	-1.9e-05	0.000146
31	-0.000676	-0.000512	0.000146	-1.9e-05	0.00031
32	-0.002484	-0.001991	0.00146	-0.000347	0.000146
33	-0.001662	-1.9e-05	0.002118	-0.000512	0.000146
34	-0.000183	0.000474	-0.002484	-0.000512	-1.9e-05
35	-0.006264	0.000146	0.001789	-0.000183	-0.000183
36	-0.006593	0.002447	-0.001005	0.000146	-0.000347
37	-0.000841	-1.9e-05	0.000474	0.000146	-0.000512
38	0.002282	0.002775	0.003433	0.00031	-0.000512
39	0.000803	-0.001662	0.001132	0.000474	-1.9e-05
40	0.001625	-0.000841	0.002118	0.00031	0.00031
41	-0.000347	-0.002977	0.002775	0.000146	0.00031
42	0.000474	-0.001827	-1.9e-05	-0.000347	0.00031
43	-0.000183	0.00146	0.001296	-0.000512	0.000639
44	-0.00232	-0.000841	0.001625	-0.000512	0.00031
45	-0.001005	-0.002813	-0.001498	-0.000676	-0.000183
46	-0.00347	0.000474	-0.001005	-1.9e-05	-0.000183
47	-0.00347	-0.000183	0.00031	0.00031	-0.000347
48	-0.00232	0.002611	-0.001827	0.000146	-0.000347
49	-0.001334	-0.001498	0.000967	0.000474	-0.000512
50	-1.9e-05	-0.002813	0.002775	0.000474	-1.9e-05
51	-0.005114	0.003268	0.001954	0.000146	0.00031
52	-0.003306	0.00031	0.003761	-0.000183	0.00031
53	-0.001498	0.000639	0.000803	-0.000512	0.00031
54	0.00146	-1.9e-05	0.001132	-0.000347	0.000474
55	0.001132	0.002118	0.000146	-0.000347	0.00031
56	-1.9e-05	-0.000841	-0.000841	-0.000512	-1.9e-05
57	-0.001498	0.000639	-0.002484	-1.9e-05	-0.000347
58	-0.001169	0.00146	0.00294	0.000146	-0.000183
59	-0.001334	-1.9e-05	0.000967	0.000146	-0.000347
60	-0.003142	-0.000183	-0.002484	0.000146	-0.000347
61	-0.002155	0.001132	0.00294	0.00031	-0.000183
62	-0.005607	-0.001005	0.004748	0.000146	0.000146
63	-0.001827	0.000474	0.002447	0.000146	0.00031
64	-0.005443	-0.001827	-0.002484	-0.000347	0.000474
65	0.00146	-0.001827	0.000967	-0.000347	0.00031
66	-0.004949	-0.000512	-0.001827	-0.000347	0.00031
67	-0.002648	0.000803	-0.003306	-0.000512	-1.9e-05
68	-0.005114	0.002118	-0.000841	-0.000183	-0.000347
69	-0.002648	-0.000841	0.000803	0.000146	-0.000512
70	-0.001334	0.000146	-0.001334	0.00031	-0.000183
71	0.000639	0.00031	-0.000841	0.00031	-0.000512
72	-0.001498	0.001789	-0.001005	0.000474	0.000146
73	0.000803	0.000639	0.000474	0.000146	-1.9e-05
74	-0.000347	0.000967	0.00146	-1.9e-05	0.00031
75	-0.000347	0.001132	-0.000676	-0.000512	0.000146
76	-0.000183	0.002282	-0.001991	-0.000512	0.000146
77	-0.000676	-0.001662	0.001954	-0.000512	0.00031
78	0.001789	-0.002484	-0.000347	-0.000512	-1.9e-05
79	-0.001005	-0.001827	-0.001498	-0.000183	-0.000183
80	0.000146	-0.001169	0.000967	-1.9e-05	-0.000512
81	-0.002155	-0.000512	0.001954	0.000474	-0.000676
82	0.001954	-0.000676	0.000146	0.00031	-0.000347
83	-0.00232	0.00031	0.000146	0.00031	-1.9e-05
84	0.004748	-0.003963	0.003597	0.000474	0.000146
85	0.004419	0.002447	-0.001662	-1.9e-05	0.000474
86	-0.000512	0.000474	-0.000183	-0.000512	0.000146
87	0.00146	-0.000512	-0.000676	-0.000512	0.000474
88	-0.000676	-0.000347	-0.001005	-0.000347	0.00031
89	-0.001169	0.000639	-0.002155	-0.000512	-0.000183
90	0.00031	-0.003635	0.001954	-0.000183	-0.000347
91	0.000474	-0.003635	0.000967	0.000146	-0.000512
92	-0.00232	-0.001991	0.000803	0.000474	-0.000512
93	0.001789	-1.9e-05	-0.000512	0.00031	-0.000676
94	-0.002484	-0.003635	0.002775	0.000474	-1.9e-05
95	-0.000347	-0.000676	0.005076	0.00031	0.000146
96	-0.001827	0.001296	-0.002648	-1.9e-05	0.000474
97	-0.001991	0.00146	0.000474	-0.000347	0.00031
98	-0.001991	-0.001005	-0.001498	-0.000347	0.00031
99	-0.003635	-0.003635	-0.003963	-0.000512	0.00031
100	-0.002813	0.001132	-0.003142	-0.000512	-1.9e-05
101	-0.001005	0.002447	0.001132	-0.000183	-0.000347
102	-0.001169	0.001296	-0.000512	0.000146	-1.9e-05
103	-0.002813	0.000146	0.000474	0.00031	-0.000512
104	-0.001005	0.000967	0.000146	0.00031	-0.000347
105	-0.000183	-0.000183	-1.9e-05	0.00031	-0.000183
106	-0.004292	0.000146	-1.9e-05	0.000474	0.000146
107	-0.003306	-0.000347	-0.000347	-1.9e-05	0.000146
108	-0.005771	0.00146	-0.000512	-0.000512	0.000146
109	-0.002813	-1.9e-05	-0.000183	-0.000512	0.000474
110	-0.001991	-0.000183	-0.000183	-0.000512	0.00031
111	-0.002484	-0.000183	-0.001334	-0.000347	-0.000183
112	-0.000347	-0.002484	0.000146	-0.000183	-0.000347
113	-0.003963	-0.002155	0.00031	0.000146	-0.000347
114	-0.001334	-0.001169	0.000146	0.000146	-0.000512
115	-0.001827	-0.001827	0.000146	0.00031	-0.000676
116	-0.003306	-0.002648	0.00031	0.00031	-0.000183
117	-0.005114	-0.000512	0.00031	0.000474	0.000146
118	-0.005114	-0.000676	-0.000512	-1.9e-05	0.000146
119	-0.007086	0.000967	-0.000512	-0.000183	0.00031
120	-0.00347	-0.001169	-0.000347	-0.000183	0.000474
121	-0.005607	-0.001169	-0.000347	-0.000347	0.000474
122	-0.00347	-0.001005	-0.000512	-0.000676	-0.000183
123	-0.00347	0.00031	-0.000183	-0.000347	-0.000347
124	-0.004949	-0.000841	0.000146	-1.9e-05	-0.000512
125	-0.003963	-0.000183	0.00031	0.000146	-0.000183
126	-0.003963	0.002447	0.000803	0.000474	-0.000512
127	-0.001334	-0.00347	0.000474	0.00031	-1.9e-05
128	-0.004456	0.000474	-0.000183	0.000474	0.000146
129	-0.000676	-0.00232	-1.9e-05	-1.9e-05	0.00031
130	-0.002648	0.001132	-0.000512	-0.000347	0.000146
131	-0.003635	-1.9e-05	0.000474	-0.000512	0.000474
132	-0.003635	-0.000512	-0.001334	-0.000676	0.000146
133	-0.004292	-0.000512	-0.001169	-0.000512	-0.000183
134	-0.005771	0.001132	-1.9e-05	-0.000183	-0.000183
135	-0.002155	-0.001991	0.00031	0.00031	-0.000347
136	-0.003635	0.000803	0.000146	0.00031	-0.000347
137	-0.004785	-0.001498	0.000639	0.00031	-0.000512
138	-0.002155	-0.001334	0.000146	0.000474	-1.9e-05
139	-0.005114	-0.001169	-0.000183	0.000474	0.000146
140	-0.005114	-0.001991	-0.000512	-0.000183	0.00031
141	-0.006429	-0.005443	-0.000512	-0.000183	0.00031
142	-0.002484	-0.002648	-0.000512	-0.000347	0.000474
143	-0.004785	-0.000512	0.00031	-0.000512	0.000474
144	-0.007415	-0.003799	0.001132	-0.000512	-1.9e-05
145	-0.002648	0.000474	0.000967	-0.000183	-0.000347
146	-0.003963	0.00146	-1.9e-05	0.000146	-0.000512
147	-0.004621	0.001296	0.000474	0.000474	-0.000512
148	-0.004292	0.000474	0.003268	0.000146	-0.000676
149	-0.004949	0.002611	0.00031	0.000474	0.000146
150	-0.004456	0.000639	-0.002648	0.000474	0.000146
151	-0.003306	0.005076	-0.000841	-1.9e-05	0.000146
152	-0.002648	0.000146	-1.9e-05	-0.000183	0.00031
153	-0.004949	-0.000347	-0.00232	-0.000183	0.000474
154	-0.00988	-0.001827	-0.000183	-0.000347	0.000639
155	-0.004292	-0.001334	-0.001662	-0.000676	-1.9e-05
156	-0.009716	-0.001498	-0.001169	-0.000183	-0.000347
157	-0.001991	-0.001827	-0.000183	0.00031	-0.000512
158	-0.005114	0.000639	0.000967	0.000474	-0.000512
159	-0.006757	-0.000183	-1.9e-05	0.000146	-0.000512
160	-0.0061	0.000146	0.000803	0.000474	-0.000183
161	-0.005114	0.001132	0.000146	0.00031	-1.9e-05
162	-0.006593	0.001296	-0.000183	0.000146	0.000146
163	-0.004785	-1.9e-05	-0.000347	-0.000347	0.000474
164	-0.005278	0.000146	-0.002155	-0.000347	0.00031
165	-0.005771	-0.000183	0.004255	-0.000347	0.000146
166	-0.005443	-0.00232	0.00031	-0.000512	-1.9e-05
167	-0.0061	-1.9e-05	-1.9e-05	-1.9e-05	-0.000183
168	-0.006757	-1.9e-05	-0.000676	0.000146	-0.000347
169	-0.005607	-0.001169	-0.000676	0.00031	-0.000676
170	-0.006429	-0.001991	0.000146	0.00031	-0.000676
171	-0.005936	-0.00232	0.00146	0.00031	-0.000183
172	-0.005278	0.000474	0.002447	0.00031	0.000146
173	-0.006757	-0.003142	-0.003306	-0.000183	0.000474
174	-0.004785	-0.000676	0.001132	-0.000347	0.00031
175	-0.005936	-0.001005	-0.003306	-0.000347	0.00031
176	-0.006593	-0.003963	-0.000512	-0.000347	0.000474
177	-0.006429	-0.002648	-0.000676	-0.000676	-0.000183
178	-0.005278	-0.001169	-0.001005	-0.000183	-0.000183
179	-0.006429	-0.000841	-0.001005	0.000146	-0.000512
180	-0.003963	-1.9e-05	0.001296	0.00031	-0.000347
181	-0.003635	0.002447	0.002775	0.000146	-0.000512
182	-0.003306	-0.001662	0.000639	0.000639	-0.000347
183	-0.00347	0.001132	-1.9e-05	0.00031	-1.9e-05
184	-0.008565	-1.9e-05	-1.9e-05	-1.9e-05	0.000146
185	-0.008072	0.000474	-0.004292	-0.000183	0.00031
186	-0.006757	-0.001169	-0.000676	-0.000347	0.00031
187	-0.005278	0.00031	-0.000183	-0.000347	0.00031
188	-0.007744	-0.00232	-0.00347	-0.000512	-1.9e-05
189	-0.005607	-0.003142	-0.000676	-0.000183	-1.9e-05
190	-0.00873	0.000474	-0.000183	0.000146	-0.000512
191	-0.005607	-0.003306	0.001296	0.00031	-0.000512
192	-0.007744	-0.001827	-0.001005	0.00031	-0.000676
193	-0.006757	-0.002155	0.003433	0.000474	-1.9e-05
194	-0.004621	-1.9e-05	0.001132	0.00031	-1.9e-05
195	-0.005936	-0.001827	0.000146	-1.9e-05	0.00031
196	-0.005771	0.000803	-0.001334	-0.000512	0.000146
197	-0.005114	0.000803	-0.000183	-0.000512	0.00031
198	-0.007579	0.003761	-0.000512	-0.000676	0.000474
199	-0.007579	-0.001169	0.000967	-0.000512	-1.9e-05
200	-0.006264	0.000146	-0.000676	-0.000183	-0.000347
201	-0.004128	0.005405	0.001296	0.000146	-0.000347
202	-0.006429	0.000146	0.00146	0.000474	-0.000512
203	-0.009223	-0.002155	-0.00347	-1.9e-05	-0.000512
204	-0.006264	-0.002648	-0.000347	0.00031	-0.000183
205	-0.007908	-0.000676	-0.001005	0.000146	0.000146
206	-0.004621	-0.002648	-0.000676	-1.9e-05	0.00031
207	-0.00988	0.000803	0.000803	-0.000183	0.00031
208	-0.006922	-0.001827	-0.001827	-0.000512	0.000474
209	-0.011031	0.000803	-0.000841	-0.000512	0.000474
210	-0.005771	-0.000676	0.000967	-0.000676	0.000146
211	-0.005607	0.002282	-0.001991	-0.000183	-0.000347
212	-0.008072	-0.001662	-0.000183	0.000146	-0.000347
213	-0.005114	0.002447	0.000146	-1.9e-05	-0.000347
214	-0.006264	0.002282	-1.9e-05	0.00031	-0.000512
215	-0.0061	0.001625	0.002775	0.000146	-1.9e-05
216	-0.005771	0.000803	0.000639	0.000474	-1.9e-05
217	-0.004456	0.001954	0.000639	0.000146	0.00031
218	-0.006429	-0.001005	0.001132	-0.000183	0.00031
219	-0.00347	-0.001005	0.001296	-0.000347	0.000474
220	-0.004456	-0.000183	0.000146	-0.000512	0.00031
221	-0.004949	-0.001169	-0.000841	-0.000512	0.000146
222	-0.005771	-0.000676	-0.00347	-0.000183	-0.000347
223	0.001625	-0.002484	-0.002155	-1.9e-05	-0.000512
224	-0.005771	-1.9e-05	0.000967	0.000146	-0.000512
225	-0.002813	-0.004621	-0.002484	0.000146	-0.000347
226	-0.004292	-0.002648	-0.001169	0.00031	-0.000347
227	-0.003799	-0.000841	0.002118	0.000474	0.000146
228	-0.004292	0.00031	-0.000841	0.000146	0.00031
229	-0.005936	-1.9e-05	-0.001169	-0.000183	0.000474
230	-0.001169	-0.001498	0.000803	-0.000841	0.00031
231	0.001132	0.001625	-0.000676	-0.000347	0.000474
232	0.00031	-1.9e-05	0.005241	-0.000512	-1.9e-05
233	0.000474	0.000639	0.001132	-0.000183	-0.000183
234	0.000474	-0.000676	0.000639	0.000146	-0.000183
235	0.000146	0.00031	0.001789	0.00031	-0.000512
236	0.00031	-0.000512	0.001625	0.00031	-0.000183
237	-0.000183	-1.9e-05	0.000146	0.000474	-1.9e-05
238	-1.9e-05	-1.9e-05	0.002447	0.000474	0.000146
239	-0.000676	0.000474	-0.000183	-1.9e-05	0.000474
240	-0.000512	-0.001169	-0.000183	-0.000347	0.00031
241	0.000146	0.003926	0.00294	-0.000347	0.000474
242	-1.9e-05	-0.000512	-0.001662	-0.000347	0.000146
243	-0.000183	-0.001498	0.000146	-0.000676	-1.9e-05
244	-0.000841	-0.003142	-0.001827	-0.000347	-0.000183
245	0.000146	-0.002155	-0.000841	-1.9e-05	-0.000347
246	-0.002648	-0.003142	-0.000183	0.000146	-0.000347
247	-0.001498	-0.000183	-0.000512	0.000146	0.000146
248	-0.001662	0.000967	0.001296	0.000474	-1.9e-05
249	-0.001334	0.001789	0.00146	0.00031	0.000146
250	-0.000347	0.000474	0.000146	-1.9e-05	0.00031
251	-0.00232	0.000474	0.000967	-0.000512	0.000146
252	-0.005771	-0.002155	-0.000347	-0.000512	0.00031
253	-0.001991	-0.002813	0.002282	-0.000512	0.000474
254	-0.004456	0.001132	-1.9e-05	-0.000512	-0.000183
255	-0.001991	0.00146	0.006227	-0.000347	-0.000183
256	-0.005771	0.001132	-0.001662	0.000146	-0.000512
257	-0.004949	-0.001827	-1.9e-05	0.00031	-0.000676
258	-0.005114	0.004912	0.000474	0.000474	0.000146
259	-0.002155	-0.003306	0.001132	0.000474	-0.000183
260	-0.0061	0.004255	0.000146	0.00031	-1.9e-05
261	-0.004785	-0.000183	0.000146	0.000146	0.00031
262	-0.003142	-0.002648	-0.001498	-0.000183	0.000474
263	-0.005936	0.001625	-0.000676	-0.000512	0.00031
264	-0.005278	0.001789	-0.000841	-0.000512	0.000474
265	-0.00725	0.000146	-1.9e-05	-0.000512	-0.000183
266	-0.004456	-0.000183	-1.9e-05	-0.000183	-0.000183
267	-0.006922	0.000474	0.000474	0.000146	-0.000512
268	-0.004785	-0.000512	0.00031	0.000146	-0.000512
269	-0.005278	-0.000347	0.00031	0.000474	-1.9e-05
270	-0.002648	-0.001498	0.000474	0.00031	-0.000183
271	-0.004785	0.00146	-1.9e-05	0.00031	0.000146
272	-0.003635	-1.9e-05	-0.000512	-1.9e-05	0.000474
273	-0.004456	0.001625	-0.000347	-0.000347	0.00031
274	-0.00347	-0.003799	-0.000347	-0.000347	0.000146
275	-0.004292	0.001296	-0.000347	-0.000841	0.00031
276	-0.006264	0.00031	-0.000183	-0.000512	-0.000183
277	-0.003306	0.000639	-1.9e-05	-1.9e-05	-0.000347
278	-0.004292	0.000146	0.000639	0.000146	-0.000347
279	-0.002813	0.000967	0.000474	0.00031	-0.001169
280	-0.007415	0.00031	0.000146	0.000146	-0.004292
281	-0.002155	-0.001498	0.000639	0.000474	0.000474
282	-0.005936	0.000967	0.000146	0.000474	0.002282
283	-0.0061	-0.000676	-0.000347	-0.000183	0.000639
284	-0.008401	0.000474	-0.002648	-0.000183	0.002282
285	-0.005771	-0.000676	-0.00232	-0.000512	-1.9e-05
286	-0.0061	0.000639	-0.000512	-0.000183	0.003104
287	-0.004292	-0.001662	0.000474	-0.000512	-0.000676
288	-0.00725	0.002611	-0.001169	-0.000183	0.002447
289	-0.004949	-0.000841	0.000639	0.000146	-0.002648
290	-0.004621	-1.9e-05	0.000474	0.000146	-0.001498
291	-0.006264	0.001789	0.000474	0.00031	-0.00988
292	-0.003963	0.003761	0.000474	0.000474	-0.00347
293	-0.005771	0.000146	0.000146	0.00031	-0.002648
294	-0.007086	-0.000512	-0.000183	-1.9e-05	-0.00347
295	-0.006593	-0.000347	-0.000512	-0.000183	-1.9e-05
296	-0.005771	-0.001169	-0.000512	-0.000512	-0.00232
297	-0.008401	0.002282	-0.000512	-0.000512	-0.000512
298	-0.005936	-0.000841	-0.000347	-0.000347	-0.001005
299	-0.00725	0.000803	-1.9e-05	-0.000183	0.000803
300	-0.007908	-1.9e-05	0.00031	0.000146	0.000474
301	-0.011195	0.000803	0.000146	0.00031	0.000474
302	-0.00725	0.000146	0.00031	0.00031	-0.007086
303	-0.006264	0.002611	0.00031	0.000474	-0.001169
304	-0.006922	0.000639	0.000146	0.00031	0.002118
305	-0.005936	0.001296	-0.000183	-0.000183	0.002775
306	-0.005114	-0.001334	-0.000347	-0.000347	0.003926
307	-0.003142	0.000146	-0.000676	-0.000512	-0.000347
308	-0.006593	0.003761	-0.000512	-0.000512	-0.00347
309	-0.004456	-0.000183	-0.000512	-0.000512	-0.002155
310	-0.007908	0.000474	0.000146	-0.000512	-0.001991
311	-0.006593	-0.001005	0.000146	0.000146	-0.001991
312	-0.005936	-0.001169	0.000146	0.000474	-0.001005
313	-0.00725	0.002447	-0.001334	0.000146	-0.006429
314	-0.00988	0.004583	0.001132	0.000474	-0.001498
315	-0.008894	-0.00347	0.001296	0.00031	-0.000512
316	-0.009058	0.002282	-0.001662	-1.9e-05	-0.000512
317	-0.008894	-0.001498	-0.000841	-0.000512	-1.9e-05
318	-0.008072	-0.000512	-0.001498	-0.000512	0.000967
319	-0.008072	0.004583	-0.000183	-0.000512	-0.002484
320	-0.004949	0.00031	-0.00232	-0.000676	0.002118
321	-0.005443	-1.9e-05	0.000146	-0.000347	-0.001827
322	-0.006922	0.001296	-0.001991	-1.9e-05	-0.001169
323	0.000803	0.001789	0.00146	0.00031	-0.001498
324	0.000474	0.001132	0.000803	0.00031	-0.009058
325	-0.000183	-0.000676	0.002775	0.000474	-0.003142
326	-0.000183	-0.001334	0.00146	0.000474	-0.002813
327	-0.000347	-0.00232	-0.000347	0.000146	-0.006264
328	-0.000512	-0.000183	0.002447	-1.9e-05	-0.002648
329	-0.004621	-0.000512	-0.000183	-0.000347	-0.00232
330	-0.003635	0.001296	0.000639	-0.000512	-0.004456
331	-0.007086	-1.9e-05	0.002611	-0.000347	0.002611
332	-0.006429	-1.9e-05	0.000474	-0.000347	0.000803
333	-0.006757	0.001625	-0.001334	0.000146	0.00031
334	-0.004128	0.000474	-0.000347	0.000474	0.00146
335	-0.007579	0.000803	-0.00232	0.00031	-0.00232
336	-0.007415	-0.000347	-1.9e-05	0.00031	-0.003306
337	-0.000676	0.00031	0.000639	0.000639	-0.000183
338	-0.000512	-0.000347	0.002118	-1.9e-05	0.00294
339	0.00031	0.00031	0.000474	-0.000183	-0.002648
340	-0.000676	-0.000347	-1.9e-05	-0.000347	0.001296
341	0.000146	0.005241	0.000474	-0.000512	-0.002977
342	-0.000512	-0.000676	0.003104	-0.000841	-0.003635
343	0.000474	0.000474	-0.000183	-0.000347	-0.001005
344	-0.000512	0.000803	-0.001827	0.000146	-0.000841
345	0.000474	-0.000183	-0.001005	0.00031	-0.006429
346	-0.002484	0.000803	0.002775	0.000474	-0.000676
347	-0.000676	0.00031	-0.000347	0.000146	-0.002648
348	-0.002813	-0.000183	0.004912	0.000474	0.000639
349	-0.001827	-0.000183	-0.001005	-1.9e-05	-0.001498
350	-0.004621	0.000474	-0.002813	-0.000183	0.001296
351	-0.005607	-0.000347	0.001296	-0.000512	-0.000512
352	-0.004128	0.002611	-0.000512	-0.000676	0.000639
353	-0.003799	-0.000347	0.002447	-0.000347	0.000639
354	-0.002648	0.000967	-0.000841	-0.000183	0.001132
355	-0.001991	-0.000183	-0.003142	0.000146	-0.001334
356	-0.001498	0.000474	-0.000841	-1.9e-05	-0.001334
357	-0.003799	0.000474	0.000639	0.000474	-0.000676
358	0.000474	0.000474	0.00031	0.00031	-0.002648
359	-0.003142	0.000146	0.000474	0.000474	-0.001827
360	-0.000512	-0.000183	0.00031	0.000146	-0.002648
361	-0.000512	-0.000676	-0.000347	-0.000347	-0.00232
362	-0.002155	-0.000512	-0.000183	-0.000347	-0.001005
363	-0.003963	0.00294	-0.000676	-0.000512	-0.000512
364	-0.005443	-0.000183	0.000639	-0.000512	-0.000841
365	-0.005936	0.000146	-0.000183	-0.000347	-0.002155
366	-0.004949	-0.000512	0.000146	-1.9e-05	-0.006429
367	-0.005936	0.000803	-0.000347	0.00031	-0.00347
368	-0.007086	0.00031	0.000967	0.000146	-0.001991
369	-0.001991	0.000803	-0.000512	0.000639	-0.003142
370	-0.004621	-1.9e-05	0.000967	0.00031	-1.9e-05
371	-0.000347	-0.000183	-0.000676	-1.9e-05	-0.001827
372	-0.002813	-1.9e-05	-0.000347	-0.000183	-0.001498
373	-0.004128	-0.000183	-0.000347	-0.000347	-0.000183
374	-0.005936	0.00409	-0.000841	-0.000183	-0.000512
375	-0.000841	-0.000347	-0.000183	-0.000512	-0.003142
376	-0.007415	0.000474	-1.9e-05	-0.000347	-0.000841
377	-0.004292	0.000639	0.000146	0.000146	-0.001334
378	-0.005771	0.000474	0.000474	0.000146	-0.002155
379	-0.004785	-1.9e-05	0.00031	0.00031	-0.005114
380	-0.004785	-1.9e-05	0.00031	0.00031	-0.001169
381	-0.006264	-0.000183	0.00031	0.000803	-0.000841
382	-0.00347	-0.000347	-0.000183	0.000146	-0.004292
383	-0.005607	-0.000347	-0.000183	-0.000183	0.001625
384	-0.001991	-0.000347	-0.000676	-0.000183	-0.001334
385	-0.004785	0.003104	-0.000347	-0.000512	-0.000183
386	-0.004621	-1.9e-05	-0.000347	-0.000512	-0.000841
387	-0.005114	-0.000183	0.000146	-0.000183	-0.000183
388	-0.004292	0.000474	-1.9e-05	-1.9e-05	0.000474
389	-0.006922	-1.9e-05	0.00031	0.00031	-0.001827
390	-0.006264	0.000639	0.000474	0.000474	0.000146
391	-0.007086	0.001296	0.00031	0.000474	-0.001005
392	-0.002648	-0.000347	0.000146	0.000639	-0.00232
393	-0.003963	-0.000512	-0.000347	0.000146	0.000146
394	-0.003799	-0.000676	-1.9e-05	-0.000183	-0.004128
395	-0.003963	-0.000347	-0.000841	-0.000512	-0.003963
396	-0.007908	0.002282	-0.000347	-0.000676	-0.003635
397	-0.004128	-0.000183	-0.000183	-0.000512	-0.001169
398	-0.004128	-0.000347	-1.9e-05	-0.000183	-0.000841
399	-0.005114	0.00031	0.00031	0.000146	-0.001334
400	-0.009387	0.000474	0.000474	-1.9e-05	-0.001498
401	-0.008237	0.00031	0.000146	0.000474	0.000146
402	-0.004949	0.000146	0.000803	0.00031	-0.001334
403	-0.004292	0.000146	0.000474	0.000639	-0.003963
404	-0.006429	-0.000183	-0.000676	0.00031	0.000146
405	-0.002648	-0.000347	-0.000512	-0.000183	-0.001334
406	-0.006593	-0.000841	-0.000183	-0.000347	-0.001662
407	-0.006593	0.001625	-0.000347	-0.000183	-0.001827
408	-0.00725	-0.000183	-0.000347	-0.000512	0.000967
409	-0.007744	0.000146	0.00031	-0.000347	-0.000512
410	-0.006264	0.000146	0.00031	0.00031	0.000639
411	-0.005114	-0.000512	0.000474	0.000146	-0.001827
412	-0.007415	0.00031	0.00031	0.000474	0.00031
413	-0.003963	0.000639	0.000639	0.00031	-0.001334
414	-0.004621	-1.9e-05	-1.9e-05	0.000639	-0.00232
415	-0.005607	-0.000347	-0.000347	0.000146	-0.004949
416	-0.005114	-0.000347	-0.000183	-1.9e-05	-0.001827
417	-0.003963	-0.000676	-0.000841	-0.000183	-0.001498
418	-0.003306	0.000803	-0.000841	-0.000512	-1.9e-05
419	-0.005771	-1.9e-05	-0.000347	-0.000512	-0.000841
420	-0.004785	0.000474	-0.000183	-0.000347	-0.001827
421	-0.007086	0.00031	0.000146	-1.9e-05	-0.001498
422	-0.004949	0.000474	0.000146	0.00031	-0.004621
423	-0.006429	0.000474	0.00031	0.000474	-0.003635
424	-0.004785	0.000474	0.000474	0.000474	-0.00347
425	-0.002648	-1.9e-05	0.00031	0.000474	-0.001827
426	-0.003142	0.00031	0.000146	-1.9e-05	-0.00232
427	-0.003306	-0.000183	-0.000512	-0.000183	-0.000841
428	-0.005278	0.00031	-0.000183	-0.000512	-0.000676
429	-0.003142	-0.000841	-0.000512	-0.000512	-0.000183
430	-0.00232	0.000146	-0.000183	-0.000512	0.001789
431	-0.00725	0.000474	-0.000183	0.00146	-0.000347
432	-0.003799	-0.000183	0.000146	-1.9e-05	0.000474
433	-0.004949	0.00031	0.000146	0.000146	-0.000841
434	-0.006922	0.00031	0.000474	-0.000183	-0.000841
435	-0.002484	0.00031	0.00031	0.000474	-0.003142
436	-0.005771	-0.000512	0.00031	0.00031	-0.000841
437	-0.004785	-0.000183	-0.000512	0.000146	-0.007415
438	-0.005443	-0.000183	-0.000347	-0.000347	0.000967
439	-0.005443	-0.000512	-0.000512	-0.000347	-0.001498
440	-0.006593	-0.001005	-0.000676	-0.000347	-0.001498
441	-0.005114	-0.000183	-0.000183	-0.000512	-0.000676
442	-0.005443	0.000146	0.000146	-0.000347	-1.9e-05
443	-0.004785	-1.9e-05	0.000474	0.000146	0.000146
444	-0.006429	0.000639	0.00031	0.00031	0.004419
445	-0.005771	0.00031	0.00031	0.000146	0.005405
446	-0.003963	0.00031	0.000474	0.000474	0.001789
447	-0.006264	-0.000512	0.000146	0.000474	0.001625
448	-0.004128	-1.9e-05	-0.000347	0.000146	-0.000841
449	-0.001827	-0.000512	-0.000512	-0.000347	-0.000183
450	-0.001334	-0.000676	-0.000347	-0.000183	-0.001005
451	-0.003306	-0.00232	-0.000841	-0.000347	0.00031
452	-1.9e-05	0.000146	-0.000512	-0.000512	-0.004456
453	-0.001005	-1.9e-05	0.000146	-0.000512	0.000474
454	-0.000841	0.00031	0.000146	0.000146	-0.001169
455	-0.003306	-1.9e-05	0.00031	0.00031	-0.001005
456	-0.002813	0.000146	0.000474	0.00031	-0.00232
457	-0.00232	-1.9e-05	0.00031	0.000474	-0.000512
458	-0.003799	0.000146	0.00031	0.000474	-0.002648
459	-0.001662	-1.9e-05	-0.000347	0.00031	0.000146
460	-0.002977	-0.000676	-1.9e-05	-0.000347	-1.9e-05
461	-0.000512	-0.000183	-0.000676	-0.000347	-0.001662
462	-0.004292	-0.00347	-0.000512	-0.000512	-1.9e-05
463	-0.002813	0.000146	-0.000512	-0.000512	0.001954
464	-0.002977	0.00031	0.000146	-0.000183	0.002611
465	-0.003306	0.00031	0.000146	-1.9e-05	0.002775
466	-0.004292	0.00031	0.00031	0.000146	0.003433
467	-0.003799	0.000803	0.000474	0.000146	-0.001169
468	-0.001498	-0.000347	0.00031	0.000474	-0.001498
469	-0.003142	-0.000512	0.00031	0.000146	-0.003306
470	-0.002813	-0.000347	-0.000347	0.000146	-0.002155
471	-0.002977	-0.000347	-1.9e-05	-0.000183	-0.002484
472	-0.004292	-0.000183	-0.000512	-0.000183	-0.001827
473	-0.003963	-0.002813	-0.000676	-0.00232	-0.003799
474	-0.001827	-0.000347	-0.000347	-0.001005	-0.000347
475	-0.002648	-1.9e-05	-1.9e-05	-0.001169	0.000474
476	-0.002484	0.00031	0.00031	-0.003306	-0.001005
477	-0.001991	-0.000183	0.00031	0.002118	-0.002648
478	-0.00347	0.000474	0.000474	-0.001169	-0.000512
479	-0.001498	-1.9e-05	0.000639	0.003926	-0.001005
480	-0.001169	-1.9e-05	-1.9e-05	0.00409	0.000146
481	-0.00232	-1.9e-05	-0.000183	0.002775	0.000146
482	-0.001498	-0.000183	-0.000347	0.005241	0.000474
483	-0.001005	-0.000347	-0.000347	0.002282	-0.001169
484	-0.004785	-0.002484	-0.000512	0.003433	-0.001827
485	-0.002155	-0.000841	-0.000347	0.006227	0.001132
486	0.002282	0.000146	0.000146	0.001625	-0.001005
487	-0.002813	0.000474	0.000146	-0.000512	-0.000512
488	0.000639	-0.000183	0.00031	0.00146	-0.001827
489	-0.00347	0.000639	0.00031	0.003104	0.000639
490	0.000803	-0.000512	0.000474	0.00146	-0.001991
491	0.001954	0.000146	0.000146	0.002447	-0.001991
492	-0.003142	-0.000841	-0.000183	0.001132	0.004419
493	0.000639	-0.000183	-0.000347	-0.003142	-0.001334
494	-0.003635	-0.000183	-0.000512	0.00409	-0.004456
495	0.001625	-0.001991	-0.000183	0.001789	-0.000183
496	-0.002484	-0.000512	-0.000347	0.002611	0.001625
497	-1.9e-05	0.000146	0.000146	0.003597	0.002282
498	0.000146	0.000146	-1.9e-05	0.003268	0.002775
499	0.000474	0.000803	0.00031	0.001132	-0.000347
500	-0.003963	0.000474	0.00031	0.002611	0.002611
501	-0.002484	-1.9e-05	0.000474	0.003597	-0.002977
502	0.000803	-0.000183	0.000146	0.003597	-0.001169
503	0.002447	-0.000512	-0.000183	0.001296	-0.001005
504	-0.001498	-0.000183	-0.000512	0.000474	-0.001005
505	-0.001005	-0.000676	-0.000512	-0.000841	-0.000841
506	0.000967	-0.001662	-0.000676	-1.9e-05	0.002282
507	-0.001662	-0.000841	-0.000347	-0.001827	0.002118
508	-0.001334	0.000639	-1.9e-05	-0.00232	-0.002977
509	-1.9e-05	0.00031	0.000146	-0.003963	-0.003142
510	0.00146	0.000639	0.00031	-0.001662	-0.000841
511	-0.001334	0.000474	0.000474	-0.001169	-0.000347
512	0.00031	0.000474	0.000146	-0.002813	-0.002484
513	-0.001498	-1.9e-05	0.000146	-0.000676	0.000146
514	-0.000347	0.000474	-0.000347	-0.000347	-0.001662
515	-0.000512	-1.9e-05	-0.000512	0.00146	-0.000512
516	-0.000512	0.00031	-0.000512	0.000474	-0.006757
517	-0.000347	-0.001827	-0.000512	0.001625	-0.001169
518	0.000639	-0.000347	-0.000183	-1.9e-05	-0.000676
519	0.00031	0.00031	-1.9e-05	-0.001991	-0.000512
520	0.000474	0.00031	-1.9e-05	-0.000347	-0.000347
521	0.00031	0.00031	0.000474	0.000146	-0.000512
522	0.000146	0.000146	0.000474	0.001132	-0.001005
523	-0.000183	0.000146	0.000474	-0.000512	-0.001169
524	-0.000347	-0.000347	0.00031	0.000803	-0.003963
525	-0.000347	-0.000183	-0.000183	0.000803	-0.002155
526	-0.000512	-0.000512	-0.000347	-0.000841	-0.001005
527	-0.000676	-0.000347	-0.000512	-0.002813	-0.002648
528	-0.001827	-0.001005	-0.000676	-0.000347	-0.003142
529	0.00031	-0.000183	-0.000347	-0.001005	-0.001005
530	0.000474	0.00031	0.000146	0.00146	0.00146
531	-0.000512	0.000474	0.000146	-0.001991	-0.001334
532	0.000146	0.000474	0.00031	0.001296	0.001132
533	-0.001498	0.000639	0.000639	0.000967	-0.000676
534	-0.000183	0.000474	0.000146	-0.003799	0.001625
535	-0.001827	-0.000183	0.000146	-0.000512	-0.001334
536	-0.000676	-0.000183	-0.000347	0.002118	-0.000183
537	-0.000676	-0.000676	-0.000512	-1.9e-05	0.002775
538	-0.000512	-0.000183	-0.000676	-0.002813	-0.000676
539	0.000146	-0.000841	-0.000512	-0.000183	-0.000512
540	-0.003306	-0.000512	-0.000183	-0.001005	0.000474
541	0.000474	-0.000347	0.000146	0.000803	-0.000183
542	-1.9e-05	0.000803	-1.9e-05	-0.001334	0.000803
543	-1.9e-05	-0.000183	0.00031	-0.002813	0.001954
544	0.00031	-0.000183	0.00031	-0.001005	-0.001827
545	-0.001991	0.000146	0.00031	0.001625	0.000474
546	-0.000347	0.000474	0.000146	-0.000841	-0.002484
547	-0.000512	-0.001005	-1.9e-05	0.00294	-0.004456
548	-0.000676	-1.9e-05	-0.000347	0.001132	-0.002155
549	-0.000347	-0.000347	-0.000512	0.000967	-0.003963
550	0.000146	-0.000841	-0.000512	0.001296	-0.000183
551	0.000146	0.000146	-0.000183	-0.000676	0.001296
552	-0.001169	-0.000183	0.00031	0.006062	-0.001662
553	0.000146	0.000474	0.000474	-0.002155	0.000803
554	-0.001005	0.000146	0.000474	0.000146	0.00146
555	0.000146	0.00031	0.000474	0.000803	0.00146
556	-0.000183	0.00031	0.00031	-0.000512	0.00031
557	-0.000183	-0.000183	0.000146	-0.00232	-0.002155
558	-0.000512	-0.000347	-0.000183	0.003926	-0.000183
559	-0.000841	-0.001498	-0.000512	-0.000676	-0.002155
560	0.00146	-0.000512	-0.000676	0.001789	-0.001498
561	-0.001991	-0.000676	-0.000512	-0.000512	-0.000183
562	-0.006264	-0.000347	-0.000347	0.002282	0.001296
563	0.00031	-0.000183	-1.9e-05	-0.000183	-0.003635
564	0.00031	-1.9e-05	0.000146	0.000474	-0.004292
565	0.000474	0.000639	0.000146	-0.000183	-0.005278
566	0.000639	0.000474	0.00031	-0.000841	0.000146
567	0.000474	0.000146	0.000474	0.001954	0.000803
568	-0.000512	0.00031	0.000474	0.002611	0.006227
569	-0.001334	-0.000676	-0.000183	0.002118	0.000639
570	0.001132	0.00031	-0.000347	0.00146	0.00146
571	-0.000676	-0.000183	-0.000347	-0.001005	-0.002977
572	-0.003142	-0.001005	-0.000347	0.00031	-0.001169
573	0.00031	-1.9e-05	-0.000183	0.000639	0.001132
574	0.001625	0.00031	0.000146	0.00294	-0.001498
575	-0.004292	-1.9e-05	0.00031	0.001789	-0.001662
576	-0.003306	0.000146	0.000474	-0.003963	-0.002648
577	-0.001498	0.000146	0.000146	-0.000676	-0.001662
578	-0.003799	0.000146	0.00031	0.000967	-0.001498
579	-0.002648	-1.9e-05	0.000146	0.000803	-0.001498
580	0.000474	-0.000347	-0.000183	-0.001169	-0.001991
581	-0.002155	-1.9e-05	-0.000512	0.000639	-0.001662
582	0.00031	-0.000512	-0.000347	-0.000512	-0.002484
583	-0.001334	-0.000512	-0.000347	-0.002155	-0.000347
584	-0.000512	-1.9e-05	-0.000347	-1.9e-05	-0.001169
585	-0.000183	0.000803	-1.9e-05	-0.001662	0.002282
586	0.001296	-0.001498	0.000146	0.001625	-0.000512
587	0.000474	-0.000512	0.00031	-0.002484	0.000639
588	-0.001334	0.000474	0.000474	-0.002648	0.001132
589	0.001789	0.000474	0.000474	0.000803	-0.001169
590	0.000474	-1.9e-05	0.00031	0.000639	-0.000183
591	0.001625	-0.000512	-0.000347	-0.004456	-0.000841
592	-0.000183	-0.000676	-0.000512	-0.001334	-0.000347
593	0.001132	-0.000512	-0.000183	-0.005607	-0.001498
594	0.000146	-0.001005	-0.000512	-0.000841	0.001625
595	-0.001334	-1.9e-05	-0.000512	0.000803	-0.000512
596	-0.001169	0.000146	-1.9e-05	-0.000512	-0.001169
597	-0.001827	-0.000183	0.00031	-0.000347	-0.006757
598	-0.001334	0.000146	0.000146	0.00031	-0.002648
599	-0.003799	-0.000183	0.000146	-0.000676	-0.002155
600	-0.001005	0.000803	0.000474	0.00031	-0.000676
601	-0.005771	-0.000512	0.00031	0.000967	0.00146
602	-0.006593	0.00031	-1.9e-05	-0.004128	-0.001169
603	-0.001498	-0.000512	-0.000347	-0.001662	-0.001169
604	-0.004949	-0.000183	-0.000676	-0.001334	0.001132
605	-0.000347	-0.000512	-0.000676	0.002447	0.000474
606	-0.001498	-0.000183	-0.000347	-0.001169	-1.9e-05
607	-0.003635	-1.9e-05	0.000146	0.003433	0.00146
608	-0.000676	-1.9e-05	0.00031	-0.000841	-0.001334
609	-0.002155	-0.000183	0.000474	-0.000183	-0.001005
610	-0.001662	-1.9e-05	0.000474	0.000474	-0.001169
611	-0.002484	0.000474	0.00031	0.00146	-0.002484
612	-0.004949	-0.000183	0.000146	0.000639	-0.002813
613	-0.000347	-1.9e-05	-0.000183	-0.00232	-0.001662
614	-0.004128	-0.000676	-1.9e-05	-0.000183	-0.005278
615	-0.004949	-0.000347	-0.000512	0.00146	-0.001334
616	-0.001169	-0.000183	-0.000512	-0.003142	-0.001005
617	-0.005607	-0.000676	-0.000347	-0.003799	0.003268
618	-0.007744	0.000146	-1.9e-05	0.000146	0.000639
619	-0.004292	0.000474	0.000146	-0.002648	-0.003799
620	-0.004456	-0.000183	0.000474	-0.002484	0.001132
621	-0.004949	0.001132	0.000474	-0.003306	-0.001991
622	-0.002155	0.00031	0.000639	0.000146	0.000639
623	-0.000347	-0.000183	0.000146	-0.002813	-0.002813
624	-0.001169	0.00031	-0.000347	-0.001169	-1.9e-05
625	-0.000183	-0.000512	-0.000183	-0.000512	-0.000347
626	-0.002813	-1.9e-05	-0.000512	-1.9e-05	-0.002977
627	-0.001169	-0.001498	-0.000347	-0.002155	-0.002155
628	-0.003635	-0.000512	-0.000347	0.004748	-0.002648
629	-0.003306	0.00031	0.000146	0.002118	-0.004456
630	-0.002155	-1.9e-05	0.00031	-0.000512	-0.001005
631	-0.002648	0.000146	0.000146	-0.000676	-0.00232
632	-0.002648	0.000474	0.00031	-0.003635	-0.00232
633	-0.003963	-0.000183	0.000474	-0.001991	0.001789
634	-0.004128	-1.9e-05	0.000146	-0.000183	-0.00232
635	-0.007086	-0.000347	-0.000347	-0.00347	-1.9e-05
636	-0.00347	-0.000183	-0.000183	-0.005936	-0.001498
637	-0.0061	-0.000841	-0.000512	0.00031	-0.000841
638	-0.002813	-0.000183	-0.000676	-0.003142	0.000146
639	0.00031	-0.000183	-0.000183	-0.003142	-0.000183
640	0.000639	-1.9e-05	-0.000183	-0.003635	-0.000183
641	0.000474	0.000146	0.000146	-0.004292	-0.000841
642	0.001132	-1.9e-05	0.00031	-0.000676	-0.004128
643	-1.9e-05	0.000803	0.00031	0.001789	-0.001991
644	-1.9e-05	-1.9e-05	0.000474	-0.001005	-0.001334
645	0.001296	-1.9e-05	-1.9e-05	0.000146	-0.001827
646	-0.00232	-1.9e-05	-1.9e-05	-0.001498	-0.001334
647	0.000639	-0.000512	-0.000347	-0.001498	-0.000676
648	-0.002155	-0.001169	-0.000347	0.00294	-0.00347
649	-0.002813	0.001132	-0.000512	-0.001005	-0.000183
650	0.002447	-0.002155	-0.000512	-0.000676	-0.000183
651	-0.003306	-0.000347	-1.9e-05	-0.001334	-0.002648
652	-0.006922	-0.000347	0.000146	-0.00232	0.00031
653	-0.003306	0.000474	0.000146	-0.002977	-0.001498
654	-0.006264	0.000639	0.00031	0.002447	-1.9e-05
655	-0.002155	0.000474	0.00031	0.000639	0.000967
656	-0.000841	0.000474	0.00031	-0.003306	0.002447
657	-0.004128	-0.000512	-0.000183	0.001789	-0.002977
658	0.000474	-0.000183	-0.000347	-1.9e-05	-0.001169
659	-0.003635	-0.000512	-0.000347	0.001132	-0.00232
660	-0.002648	0.000146	-0.000347	0.002447	0.000474
661	-0.005443	-0.002155	-0.000183	0.002118	0.000474
662	-0.000512	0.000639	-0.000183	0.000146	-0.001334
663	0.000146	-1.9e-05	0.00031	0.001625	-0.003306
664	-0.003306	0.000474	0.000146	-0.00232	0.002775
665	-0.004621	-0.000676	0.000803	0.002611	0.002611
666	-0.003799	-0.000347	0.000474	-0.002813	0.001296
667	-0.003799	-0.000183	0.00031	-0.001662	-1.9e-05
668	-0.006429	-0.000841	-0.000347	-0.005114	-0.00232
669	-0.008072	-0.000512	-0.000512	-0.001498	-0.00232
670	-0.003799	-0.001498	-0.000347	-0.003306	-0.000676
671	-0.007086	-0.001498	-0.000512	0.000146	0.001789
672	-0.005607	-0.000676	-0.000183	-0.001991	0.001132
673	-0.002813	0.000474	-0.000183	-0.001991	-0.001827
674	-0.005114	0.00031	0.000146	-0.001498	-0.002155
675	-0.003142	0.000803	0.000146	-0.002813	-0.002155
676	-0.003142	-1.9e-05	0.000474	0.002118	-0.001169
677	-0.001169	0.000474	0.00031	0.002775	-0.002484
678	-0.001662	0.000639	0.000146	-1.9e-05	-0.000841
679	-0.00232	-0.000183	-0.000183	-0.000183	-0.002484
680	-0.002155	-0.000347	-0.000347	0.00294	-0.001169
681	-0.001498	-0.000512	-0.000676	-1.9e-05	-0.006264
682	-0.00347	-0.001005	-0.000347	0.003104	0.003597
683	-0.002484	-0.000512	-0.000183	-0.001662	-0.00232
684	-0.006264	0.000146	-1.9e-05	-0.004292	-0.000841
685	-0.001827	-0.000183	0.000146	-0.002977	-0.000841
686	-0.003963	0.000474	0.000146	-0.000512	-0.000183
687	-0.005278	0.00031	0.00031	-0.003635	-0.001005
688	-0.004456	0.000474	0.000639	-0.002155	0.000639
689	-0.004621	0.000146	0.000146	-0.000841	-0.002484
690	-0.00347	-0.000512	-0.000183	-0.000512	-1.9e-05
691	-0.005278	-0.000512	-0.000183	-0.002484	0.00146
692	-0.002484	0.000146	-0.000512	0.001625	0.00146
693	-0.005278	-0.000347	-0.000512	0.001789	0.000967
694	-0.005278	-0.000512	-0.000183	-1.9e-05	0.000803
695	-0.005114	0.00031	-0.000183	-0.003963	-0.001991
696	-0.003635	0.00031	0.00031	-1.9e-05	0.000474
697	-0.004621	0.000146	0.000474	0.00146	0.002611
698	-0.002813	0.000146	0.00031	0.000803	0.000474
699	-0.003799	0.000474	0.000639	-0.000183	0.000639
700	-0.004949	-0.000183	0.00031	-0.002484	-0.001334
701	-0.00232	-0.000183	-0.000512	0.000639	-0.000676
702	-0.007086	-0.000512	-0.000183	-0.000841	0.000639
703	-0.006429	-0.000512	-0.000512	0.001789	0.001296
704	-0.003142	-0.000676	-0.000512	0.003104	-0.000676
705	-0.006922	-0.000347	-0.000183	0.001132	-0.001169
706	-0.007908	-1.9e-05	-1.9e-05	-0.001827	-0.001005
707	-0.005443	0.000146	0.000146	-0.000512	-0.001827
708	-0.003142	0.000146	0.00031	-0.000347	-0.001827
709	-0.005771	0.00031	0.000474	-0.001991	-0.001662
710	-0.005936	0.00031	0.00031	0.000639	-0.000183
711	-0.003306	0.00031	0.000474	0.000474	-0.002977
712	-0.004949	-1.9e-05	-0.000347	-0.000512	0.000474
713	-0.003142	-0.000183	-0.000347	-0.000347	-0.000841
714	-0.006593	-0.000512	-0.000347	0.001789	0.003926
715	-0.005278	-0.000512	-0.000512	0.003268	-1.9e-05
716	-0.007908	-0.000512	-0.000183	-0.000183	0.001296
717	-0.006757	-1.9e-05	-1.9e-05	0.00031	0.001296
718	-0.004621	0.000146	-1.9e-05	-0.004621	-0.000183
719	-0.007744	0.00031	0.00031	0.00031	-0.000183
720	-0.007086	0.00031	0.00031	-0.002977	-1.9e-05
721	-0.006922	0.000146	0.00031	-0.001169	-0.002155
722	-0.00873	-0.000183	0.000474	-0.000841	-0.004949
723	-0.009058	-0.000512	-0.000347	-0.003635	-0.002155
724	-0.00347	-0.000512	-0.000183	-0.000512	-0.00347
725	-0.004128	-0.000512	-0.000676	-0.001991	-0.000676
726	-0.005607	-0.000347	-0.000676	-0.001169	-0.001991
727	-0.005936	-0.000512	-0.000183	0.003597	-0.001991
728	-0.005114	0.000146	-1.9e-05	-0.001827	-0.002977
729	-0.007086	0.00031	0.00031	-0.000512	0.00031
730	-0.003306	0.000146	0.000474	-0.001169	-0.001662
731	-0.006757	0.000474	0.000146	-0.000347	0.001625
732	-0.002813	0.000474	0.00031	-0.003799	0.00031
733	-0.005114	-0.000183	0.00031	0.002775	-0.001169
734	-0.00347	-0.000347	-0.000183	-0.003142	-0.001169
735	-0.004785	-0.000183	-0.000347	-0.001169	-0.000676
736	-0.004621	-0.000676	-0.000512	-0.000512	-0.002155
737	-0.005278	-0.000347	-0.000347	-0.00347	-0.000183
738	-0.007415	-0.000841	-0.000347	-0.00232	-0.005936
739	-0.007086	0.000146	0.000146	-0.001169	-0.001005
740	-0.0061	0.000146	0.000146	-0.001005	-0.002977
741	-0.006264	0.00031	0.000146	-0.002648	-0.002813
742	-0.007908	0.00031	0.00031	0.002447	-1.9e-05
743	-0.005607	0.000146	0.000474	-0.003142	-0.001498
744	-0.008237	-1.9e-05	0.00031	0.002611	-0.001334
745	-0.007579	-0.000183	-0.000183	-0.002977	-0.001169
746	-0.006922	-0.000183	-0.000183	0.00031	-0.000676
747	-0.003799	-0.000347	-0.000347	-0.000512	0.000146
748	-0.007415	-0.000347	-0.000512	-0.002155	0.004583
749	-0.006429	-0.000512	-0.000347	-0.002155	0.000803
750	-0.005936	-1.9e-05	0.000146	0.004255	-0.000347
751	-0.000183	0.00031	0.000146	0.000474	0.003761
752	0.010664	0.00031	0.00031	0.0105	0.00935
753	0.013294	0.000474	0.000474	0.018389	0.015595
754	0.020855	0.00031	0.00031	0.025128	0.025128
755	0.004255	0.000146	0.00031	0.03351	0.029237
756	0.011322	-0.000183	-0.000183	0.035318	0.034332
757	0.017732	-0.000512	-0.000347	0.042878	0.041728
758	0.024799	-0.000347	-0.000512	0.047809	0.047645
759	0.022827	-0.000676	-0.000676	0.055698	0.05652
760	0.020197	-0.000347	-0.000183	0.059478	0.0603
761	0.018718	0.00031	-0.000183	0.066546	0.065395
762	0.024306	0.00031	-1.9e-05	0.069504	0.069833
763	0.00031	0.00031	0.00031	0.074928	0.079201
764	-0.00347	0.000639	0.000474	0.080516	0.079037
765	0.005076	0.000474	0.000474	0.091364	0.090871
766	0.017239	-1.9e-05	-1.9e-05	0.089063	0.088077
767	0.005569	-0.000347	-0.000347	0.094322	0.091857
768	0.005734	-0.000512	-0.000512	0.09876	0.097116
769	0.015431	-0.000183	-0.000512	0.101225	0.099253
770	0.020197	-0.000512	-0.000676	0.106156	0.10254
771	0.025785	-0.000183	-0.000347	0.107471	0.105663
772	0.025457	0.000146	-1.9e-05	0.114867	0.109114
773	0.03236	0.000146	0.000146	0.108293	0.113716
774	0.001954	0.000474	0.000146	0.117661	0.11651
775	0.000474	0.000474	0.000146	0.121112	0.117661
776	0.002282	0.00031	0.000146	0.123085	0.124399
777	0.005405	-1.9e-05	0.000146	0.123742	0.126207
778	0.01428	-0.000183	-0.000183	0.12818	0.132124
779	0.017732	-0.000183	-0.000347	0.130809	0.132289
780	0.025292	-0.000512	-0.000676	0.132617	0.136562
781	0.030716	-0.000676	-0.000347	0.137384	0.138041
782	0.038605	-0.000183	-0.000183	0.140342	0.142479
783	0.045508	-0.000183	0.000146	0.146259	0.143958
784	0.050439	0.00031	0.00031	0.142479	0.145766
785	0.053726	0.00031	0.000474	0.143958	0.147903
786	0.058492	0.000474	0.00031	0.146588	0.148396
787	0.065231	0.000474	0.00031	0.150368	0.150204
788	0.070326	-1.9e-05	0.000146	0.149875	0.149217
789	0.073613	-0.000347	-0.000183	0.150368	0.151518
790	0.03729	-0.000183	-0.000347	0.15497	0.154148
791	0.002447	-0.000512	-0.000347	0.157271	0.154312
792	0.000146	-0.000676	-0.000347	0.156613	0.156778
793	-1.9e-05	-0.000347	-0.000183	0.160394	0.160229
794	0.000967	0.000146	-1.9e-05	0.164831	0.157764
795	-1.9e-05	0.00031	0.00031	0.16401	0.164338
796	0.001789	0.00031	0.000474	0.159901	0.162202
797	0.009843	0.000474	0.00031	0.166804	0.167461
798	0.017239	0.00031	0.00031	0.166475	0.169926
799	0.025128	0.000146	0.000146	0.165489	0.170419
800	0.031045	-1.9e-05	-1.9e-05	0.166968	0.169598
801	0.0105	-0.000183	-0.000183	0.168118	0.171406
802	0.001132	-0.000512	-0.000183	0.171734	0.171241
803	0.001625	-0.000512	-0.000347	0.173049	0.170748
804	0.00031	-1.9e-05	-0.000347	0.175186	0.174528
805	0.001296	-1.9e-05	-1.9e-05	0.17157	0.173214
806	0.000639	0.00031	0.000146	0.171077	0.170419
807	0.001625	0.000146	0.000146	0.172392	0.173542
808	0.001789	0.000474	0.000474	0.178637	0.175843
809	0.009021	-1.9e-05	0.000474	0.176829	0.175021
810	0.013294	-1.9e-05	0.000146	0.174693	0.179295
811	0.01691	-1.9e-05	-0.000183	0.176829	0.176008
812	0.019047	-0.000183	-0.000676	0.176008	0.179623
813	0.023156	-0.000676	-0.000183	0.173378	0.179295
814	0.028251	-0.000347	-0.000512	0.162859	0.17798
815	0.024799	-0.000183	-0.000512	0.169269	0.182746
816	0.007213	0.00031	-1.9e-05	0.164667	0.182746
817	0.002282	-1.9e-05	0.000146	0.169762	0.180938
818	0.000474	0.000474	0.000146	0.167625	0.182417
819	0.005241	0.000146	0.00031	0.170584	0.182089
820	0.010664	0.000474	0.000474	0.17157	0.182089
821	0.014609	0.000146	0.00031	0.173542	0.185212
822	0.023649	-0.000183	-0.000183	0.171241	0.182253
823	0.027758	-0.000512	-0.000347	0.176172	0.182417
824	0.036304	-0.000512	-0.000676	0.174693	0.184883
825	0.03992	-0.000512	-0.000512	0.177651	0.185047
826	0.044522	-0.000347	-0.000512	0.17535	0.184883
827	0.051096	0.000146	-0.000183	0.175515	0.186033
828	0.056027	0.00031	0.000146	0.175021	0.186198
829	0.060629	0.000474	0.00031	0.178802	0.188499
830	0.064245	0.00031	0.000474	0.177651	0.188827
831	0.070655	0.000146	0.00031	0.178966	0.189814
832	0.072956	0.00031	0.00031	0.183075	0.188334
833	0.07838	-1.9e-05	-0.000183	0.179623	0.186362
834	0.069669	-0.000512	-0.000512	0.186033	0.187841
835	0.075092	-0.000512	-0.000347	0.180116	0.189485
836	0.047809	-0.000512	-0.000512	0.182417	0.190471
837	0.04633	-0.000347	-0.000183	0.182746	0.189814
838	0.052575	0.000146	0.000146	0.184225	0.191457
839	0.058985	0.000146	0.00031	0.181924	0.190307
840	0.065395	0.00031	0.00031	0.186691	0.192936
841	0.065724	0.000146	0.000474	0.182746	0.189156
842	0.070162	0.000146	0.000474	0.182582	0.195237
843	0.073942	0.000146	0.00031	0.184883	0.189156
844	0.078708	-1.9e-05	-0.000183	0.18061	0.189485
845	0.080681	-0.000512	-0.000347	0.187841	0.190142
846	0.087419	-0.000512	-0.000347	0.185376	0.190471
847	0.087255	-0.000676	-0.000512	0.187184	0.191128
848	0.088077	-0.000347	-0.000512	0.187841	0.193758
849	0.0769	-1.9e-05	-0.000183	0.186691	0.193101
850	0.07953	0.00031	0.00031	0.187841	0.19195
851	0.080187	0.000474	0.00031	0.188499	0.194087
852	0.082488	0.00031	0.00031	0.187841	0.191293
853	0.072134	0.000474	0.000474	0.188334	0.197538
854	0.003433	-1.9e-05	0.00031	0.189485	0.18932
855	0.008528	-0.000183	-0.000347	0.188663	0.190964
856	0.016253	-0.000347	-0.000512	0.186855	0.190307
857	0.024142	-0.000512	-0.000512	0.192936	0.192443
858	0.027922	-0.000512	-0.000183	0.194251	0.193265
859	0.035647	-0.000347	-0.000183	0.19573	0.192279
860	0.038769	0.000146	-1.9e-05	0.18817	0.192443
861	0.044686	0.000146	0.00031	0.190471	0.191621
862	0.049124	0.000146	0.00031	0.191786	0.191293
863	0.054383	0.00031	0.000474	0.18817	0.191293
864	0.058492	0.00031	-1.9e-05	0.188663	0.190142
865	0.065231	0.00031	0.000146	0.193758	0.190307
866	0.068518	-0.000347	-0.000347	0.189649	0.19195
867	0.067696	-0.000183	-0.000347	0.190471	0.1908
868	0.07049	-0.000347	-0.000347	0.193758	0.192772
869	0.053397	-0.000512	-0.000676	0.190964	0.193265
870	0.055041	-0.000183	-0.000347	0.192443	0.193429
871	0.000967	-0.000183	-1.9e-05	0.192279	0.19458
872	0.000474	0.00031	0.00031	0.195237	0.19573
873	0.001954	0.00031	0.000146	0.192115	0.193594
874	0.002447	0.000639	0.000146	0.193922	0.195895
875	0.00935	0.00031	0.000474	0.192608	0.194087
876	0.016746	-1.9e-05	0.000146	0.192279	0.1908
877	0.020197	-0.000512	-0.000183	0.194251	0.193265
878	0.028908	-0.000183	-0.000512	0.194087	0.193758
879	0.035811	-0.000512	-0.000512	0.195237	0.19195
880	0.037783	-0.000512	-0.000347	0.193922	0.1908
881	0.041728	-0.000347	-0.000183	0.195237	0.193429
882	0.045672	-1.9e-05	-1.9e-05	0.193101	0.193265
883	0.048631	0.000146	0.000146	0.189649	0.194744
884	0.000474	0.00031	0.00031	0.194416	0.194416
885	0.000146	0.000639	0.000146	0.195237	0.197538
886	0.008035	0.000474	0.000474	0.190471	0.193922
887	0.014445	0.00031	0.00031	0.192608	0.195073
888	0.022498	-0.000183	-0.000183	0.191786	0.19195
889	0.025457	-0.000347	-0.000347	0.19573	0.198031
890	0.040577	-0.000512	-0.000347	0.197867	0.197374
891	0.040742	-0.000512	-0.000512	0.195073	0.197703
892	0.039591	-0.000512	-0.000347	0.195073	0.196388
893	0.049781	0.00031	-1.9e-05	0.195237	0.198196
894	0.050439	0.000146	-1.9e-05	0.193922	0.196059
895	0.056027	0.00031	0.000146	0.194087	0.195895
896	0.058328	0.000639	0.00031	0.19573	0.19721
897	0.055863	0.000474	0.000474	0.194087	0.194087
898	0.051425	-0.000183	0.000146	0.194909	0.195402
899	0.053397	-0.000183	-0.000183	0.193594	0.193429
900	0.052904	-0.000347	-0.000183	0.198031	0.196388
901	0.059643	-0.000512	-0.000512	0.194251	0.196881
902	0.0603	-0.000512	-0.000676	0.197374	0.197703
903	0.062766	-0.000347	-0.000183	0.19458	0.194416
904	0.063916	0.000146	-1.9e-05	0.196388	0.199018
905	0.064738	0.000146	0.00031	0.195073	0.196881
906	0.069997	0.00031	0.000474	0.196223	0.198196
907	0.069669	0.000146	0.00031	0.198689	0.196717
908	0.071477	0.00031	0.000639	0.198196	0.198031
909	0.063094	0.000146	0.000146	0.19836	0.197867
910	0.065888	-1.9e-05	-0.000183	0.195073	0.197374
911	0.065231	-0.000347	-0.000183	0.200004	0.197538
912	0.074106	-0.000347	-0.000347	0.198524	0.196717
913	0.069176	-0.000676	-0.000347	0.195073	0.194251
914	0.074435	-0.000512	-0.000512	0.19458	0.194909
915	0.0769	0.000146	-1.9e-05	0.197867	0.197867
916	0.080023	0.00031	0.000146	0.197703	0.194416
917	0.083968	0.000474	0.00031	0.196388	0.196059
918	0.083803	0.00031	0.00031	0.194416	0.197374
919	0.082324	0.00031	0.000474	0.196552	0.196717
920	0.085776	0.000146	0.000474	0.195237	0.196717
921	0.085776	-0.000183	-1.9e-05	0.19458	0.199346
922	0.086926	-0.000347	-0.000347	0.197374	0.195073
923	0.095308	-0.000512	-0.000183	0.194909	0.195895
924	0.089885	-0.000347	-0.000183	0.196552	0.196059
925	0.092186	-0.000183	-0.000512	0.197867	0.196552
926	0.0935	-1.9e-05	-1.9e-05	0.200004	0.197703
927	0.095473	0.000146	0.000146	0.197703	0.196717
928	0.095473	0.00031	0.00031	0.197045	0.196881
929	0.097445	0.000474	0.00031	0.194909	0.195402
930	0.096623	0.00031	0.00031	0.198689	0.199182
931	0.090542	-1.9e-05	0.000474	0.195237	0.195237
932	0.081995	-0.000183	-0.000183	0.195402	0.197045
933	0.084954	-0.000183	-0.000347	0.195566	0.196881
934	0.085118	-0.000512	-0.000347	0.192772	0.197867
935	0.080187	-0.000512	-0.000512	0.195073	0.197374
936	0.077229	-0.000347	-0.000512	0.195402	0.195895
937	0.052247	-1.9e-05	-0.000183	0.195895	0.198689
938	0.033017	0.000474	0.00031	0.193922	0.197374
939	0.018389	0.000474	0.000146	0.196552	0.19721
940	0.003104	0.00031	0.000474	0.195237	0.199675
941	0.00935	0.00031	0.000474	0.196717	0.197045
942	0.002775	0.000146	0.00031	0.196223	0.196717
943	-0.000347	-1.9e-05	-0.000183	0.198689	0.20099
944	-0.000347	-0.000512	-0.000347	0.199675	0.199018
945	0.00294	-0.000676	-0.000347	0.199346	0.199346
946	0.003926	-0.000512	-0.000512	0.196552	0.19721
947	0.008199	-0.000512	-0.000512	0.197703	0.196881
948	0.01691	0.000146	-0.000183	0.198524	0.198031
949	0.007377	0.00031	0.00031	0.194087	0.198031
950	0.001789	0.000474	0.000146	0.188827	0.19721
951	0.000474	0.00031	0.000474	0.136726	0.198524
952	-1.9e-05	0.00031	0.000474	0.113552	0.196059
953	-0.000512	0.000146	0.00031	0.09991	0.197538
954	-1.9e-05	-0.000347	-1.9e-05	0.100075	0.19836
955	0.001954	-0.000347	-0.000183	0.100403	0.198031
956	-0.002155	-0.000512	-0.000347	0.106156	0.199018
957	0.000967	-0.000347	-0.000347	0.111744	0.196552
958	0.00146	-0.000347	-0.000512	0.116182	0.197703
959	0.000474	0.00031	-1.9e-05	0.110758	0.200168
960	0.00031	0.000474	0.000146	0.094815	0.198853
961	0.00031	0.000146	0.000474	0.031538	0.19836
962	0.000474	0.00031	-1.9e-05	0.027429	0.198853
963	-1.9e-05	0.000474	0.000474	0.001132	0.193594
964	-0.000347	-1.9e-05	0.000146	0.001296	0.195895
965	-0.000347	-1.9e-05	-1.9e-05	0.003926	0.198853
966	0.000474	-0.000183	-0.000347	0.008363	0.196552
967	-0.004949	-0.000512	-0.000347	0.019704	0.195895
968	0.008857	-0.000347	-0.000347	0.022663	0.200168
969	0.020855	-0.000347	-0.000347	0.00409	0.193922
970	0.026443	0.00031	-0.000183	0.001789	0.199675
971	0.03236	-1.9e-05	0.00031	0.000146	0.196881
972	0.038605	0.000146	0.00031	-0.001498	0.196717
973	0.040413	0.000474	0.00031	0.000639	0.202469
974	0.047316	0.00031	0.000474	0.00031	0.198524
975	0.049946	0.00031	0.00031	0.000803	0.196388
976	0.051589	0.00031	-1.9e-05	-0.000183	0.198196
977	0.05537	-0.000183	-0.000183	-0.000183	0.199839
978	0.048631	-0.000512	-0.000512	0.000474	0.198524
979	0.046166	-0.000512	-0.000347	0.003597	0.199346
980	0.032195	-0.000347	-0.000512	-0.000512	0.19836
981	0.002775	-1.9e-05	0.000146	0.000146	0.199675
982	0.000803	0.00031	0.00031	-0.000347	0.198196
983	0.005734	0.000146	0.00031	0.000967	0.198689
984	0.012144	0.00031	0.00031	-0.006593	0.198031
985	0.020526	0.000639	0.000474	0.003268	0.19836
986	0.024799	-1.9e-05	0.000146	0.013294	0.199018
987	0.03236	-0.000512	-1.9e-05	0.018389	0.199346
988	0.036469	-0.000512	-0.000347	0.025128	0.199839
989	0.035811	-0.000347	-0.000512	0.033181	0.200168
990	0.04748	-0.000347	-0.000512	0.041399	0.200168
991	0.053233	0.000146	-0.000347	0.044193	0.196881
992	0.057342	0.000146	-0.000183	0.05274	0.199346
993	0.063259	0.000639	0.00031	0.056027	0.197703
994	0.069669	0.000803	0.000474	0.061944	0.198524
995	0.06556	0.000639	0.000474	0.072298	0.19836
996	0.051096	0.000474	0.000474	0.074764	0.200168
997	0.056684	0.000146	0.00031	0.079859	0.19721
998	0.06293	-0.000183	-0.000183	0.081667	0.199018
999	0.063259	-0.000183	-0.000347	0.087748	0.200004
1000	0.055205	-0.000183	-0.000512	0.0935	0.197045
1001	0.062766	-0.000183	-0.000512	0.097609	0.200661
1002	0.073778	-0.000512	-0.000183	0.099746	0.198689
1003	0.074599	-0.000347	0.000146	0.103691	0.19836
1004	0.079201	0.000474	-1.9e-05	0.105005	0.197867
1005	0.086597	-0.000347	0.000474	0.111251	0.200497
1006	0.082324	0.00031	0.00031	0.112237	0.196223
1007	0.089556	0.000639	0.000639	0.118154	0.200332
1008	0.092843	0.00031	0.000146	0.120455	0.197374
1009	0.094487	0.000146	-0.000183	0.123249	0.198031
1010	0.097774	0.000146	-0.000183	0.127194	0.199182
1011	0.093172	-0.000183	-0.000512	0.127522	0.19721
1012	0.102869	-0.000841	-0.000183	0.13311	0.197867
1013	0.107799	0.000146	-0.000183	0.134097	0.196881
1014	0.111415	-1.9e-05	-1.9e-05	0.137712	0.196223
1015	0.11158	0.000146	0.000146	0.139356	0.201483
1016	0.118647	0.000474	0.000146	0.140506	0.196717
1017	0.118318	0.00146	0.00031	0.140835	0.19721
1018	0.124235	0.000639	0.000474	0.146588	0.200168
1019	0.127029	0.000803	0.000474	0.146752	0.197045
1020	0.117496	-0.001169	-1.9e-05	0.148067	0.198524
1021	0.119469	-0.000347	-0.000183	0.150861	0.197374
1022	0.108786	-0.000183	-0.000512	0.15234	0.197867
1023	0.095144	-0.000512	-0.000512	0.153491	0.195073
1024	0.068682	0.00031	-1.9e-05	0.153655	0.19836
1025	0.031538	-0.000183	-1.9e-05	0.15612	0.201154
1026	0.006556	0.000639	-1.9e-05	0.158257	0.19721
1027	0.013294	0.00031	0.000146	0.159901	0.197538
1028	0.019047	0.000639	0.000146	0.159408	0.19836
1029	0.025292	0.000639	0.000639	0.164667	0.199018
1030	0.034003	0.000474	0.00031	0.163352	0.198031
1031	0.037126	-1.9e-05	-1.9e-05	0.16516	0.198689
1032	0.045179	0.000146	-0.000347	0.167625	0.198853
1033	0.046823	-0.000347	-0.000183	0.155792	0.200004
1034	0.057835	0.000146	-0.000183	0.128015	0.198031
1035	0.062108	-0.000183	0.000146	0.064574	0.198196
1036	0.066546	-0.000183	0.000146	0.029401	0.198853
1037	0.062437	0.00031	-1.9e-05	0.024635	0.202305
1038	0.065231	0.00031	0.00031	0.023156	0.199511
1039	0.068518	0.00031	0.000474	0.027758	0.199675
1040	0.076243	0.000474	0.000474	0.032853	0.199346
1041	0.076736	0.000474	0.000146	0.043536	0.19836
1042	0.072627	-0.000183	-1.9e-05	0.046166	0.196388
1043	0.0769	-0.000347	-0.000347	0.054383	0.197867
1044	0.07838	-0.000512	-0.000183	0.058657	0.198031
1045	0.084132	-0.000183	-0.000347	0.062273	0.196717
1046	0.086762	-1.9e-05	-0.000512	0.065888	0.198031
1047	0.092679	0.00031	-1.9e-05	0.068354	0.198853
1048	0.087419	0.000146	0.000146	0.071148	0.201154
1049	0.067532	0.000474	0.000474	0.069176	0.196717
1050	0.066546	0.000803	0.000146	0.077722	0.201319
1051	0.036962	0.000967	0.000474	0.079859	0.199675
1052	0.031045	0.00031	0.00031	0.085283	0.199839
1053	0.035154	-0.000183	-1.9e-05	0.087255	0.199675
1054	0.03614	-0.000183	-0.000183	0.094158	0.197538
1055	0.040742	-0.000841	-0.000512	0.096952	0.197703
1056	0.045015	-1.9e-05	-0.000347	0.097774	0.197703
1057	0.046823	-1.9e-05	-0.000183	0.099253	0.196059
1058	0.057177	-1.9e-05	-0.000183	0.103855	0.199346
1059	0.059478	-0.000183	0.000146	0.10254	0.196388
1060	0.061451	0.00031	0.000474	0.107306	0.197703
1061	0.058492	0.000474	0.00031	0.109607	0.196223
1062	0.063916	-1.9e-05	0.00031	0.112894	0.199675
1063	0.05274	0.000474	0.000146	0.115689	0.197045
1064	0.026771	0.000803	-1.9e-05	0.117003	0.195566
1065	0.001625	-0.000512	-0.000347	0.126372	0.197867
1066	0.005734	0.000146	-0.000347	0.122756	0.197374
1067	-0.001498	-0.000841	-0.000347	0.126865	0.197538
1068	0.008363	-1.9e-05	-0.000347	0.127522	0.195237
1069	0.016581	0.000967	0.000146	0.134261	0.199182
1070	0.020855	0.000146	0.000146	0.133932	0.198689
1071	0.030223	0.000639	0.000639	0.135247	0.199346
1072	0.036962	0.001296	0.00031	0.138863	0.196059
1073	0.042878	-1.9e-05	0.000474	0.139849	0.199675
1074	0.046823	0.000639	0.000474	0.139027	0.196059
1075	0.05274	0.000639	-0.000183	0.140013	0.192443
1076	0.056684	-0.000183	-0.000347	0.137712	0.193265
1077	0.059478	-0.000183	-0.000347	0.128673	0.194416
1078	0.01576	-0.000512	-0.000347	0.086597	0.195073
1079	0.005241	-0.000183	-0.000512	0.061286	0.197045
1080	0.014445	-0.000183	-1.9e-05	0.060793	0.201154
1081	0.022334	0.001132	0.000146	0.059972	0.199018
1082	0.018882	0.000639	0.000474	0.063752	0.201319
1083	0.000803	0.000639	0.00031	0.06293	0.199346
1084	0.000967	0.00031	0.000474	0.068025	0.199018
1085	0.008363	0.00031	0.000474	0.070655	0.197703
1086	0.013623	-0.000183	-1.9e-05	0.069176	0.19836
1087	0.022991	-0.000183	-0.000183	0.071805	0.196717
1088	0.028086	-0.000512	-0.000347	0.070326	0.199839
1089	0.03236	-0.000347	-0.000676	0.065724	0.198196
1090	0.03992	-0.000183	-0.000347	0.064574	0.197374
1091	0.042714	0.000146	-1.9e-05	0.064409	0.197374
1092	0.053397	0.000639	-1.9e-05	0.063916	0.197374
1093	0.041564	-0.000841	0.00031	0.06671	0.197374
1094	0.027429	0.001132	0.00031	0.067861	0.19836
1095	0.011651	0.000146	0.00031	0.068518	0.197867
1096	0.015102	0.000146	0.000474	0.061615	0.196388
1097	0.022169	-0.000183	-1.9e-05	0.057835	0.200004
1098	0.029237	-0.000347	-0.000512	0.007542	0.197703
1099	0.023156	-1.9e-05	-0.000347	0.003597	0.199346
1100	0.020362	-0.000347	-0.000347	0.006062	0.198524
1101	0.022663	0.000639	-0.000347	0.010993	0.200497
1102	0.000639	0.000146	-0.000183	0.013623	0.197374
1103	0.003268	0.000474	-1.9e-05	0.017567	0.200004
1104	0.010336	0.000146	0.00031	0.014445	0.197867
1105	0.016253	0.000639	0.00031	0.012308	0.199346
1106	0.022334	0.000474	0.000474	0.007377	0.197867
1107	0.030716	0.000474	0.000474	0.011651	0.196059
1108	0.032688	-0.000347	-1.9e-05	0.017403	0.197374
1109	0.039427	-0.000347	-0.000183	0.018061	0.198853
1110	0.037126	-0.001005	-0.000347	0.022991	0.195073
1111	0.020855	-0.000183	-0.000183	0.027429	0.196059
1112	0.017732	-0.000676	-0.000676	0.035154	0.197538
1113	0.022827	-0.000183	-1.9e-05	0.039756	0.199346
1114	0.027265	0.000474	0.000146	0.045508	0.196717
1115	0.02973	0.000639	0.00031	0.049781	0.195895
1116	0.028086	0.00146	0.000474	0.055863	0.199511
1117	0.039098	-0.000841	0.00031	0.055698	0.19721
1118	0.042714	0.000474	0.00031	0.060958	0.199018
1119	0.045179	0.00031	-1.9e-05	0.066381	0.199346
1120	0.050768	-1.9e-05	-0.000347	0.065067	0.200497
1121	0.028086	-0.000512	-0.000347	0.058657	0.199675
1122	0.001954	0.000803	-0.000347	0.05389	0.199018
1123	0.004255	-0.000676	-0.000512	0.05537	0.198524
1124	0.003104	0.000803	-0.000183	0.059972	0.195895
1125	0.007377	0.00031	0.000146	0.064738	0.196388
1126	0.001789	-0.000512	0.00031	0.063259	0.195237
1127	0.004748	-0.000183	0.00031	0.054876	0.197538
1128	0.011486	0.000803	0.000474	0.049946	0.198853
1129	0.00935	0.000146	0.00031	0.056191	0.195402
1130	0.014938	-0.000512	-0.000183	0.054055	0.19458
1131	0.01576	0.000146	-0.000512	0.034989	0.197045
1132	0.022498	-0.000512	-0.000183	0.017732	0.195566
1133	0.0271	-0.000347	-0.000512	0.01313	0.199839
1134	0.032195	-0.000512	-0.000512	0.015102	0.195402
1135	0.038605	-1.9e-05	0.000146	0.02069	0.199675
1136	0.000967	0.000639	0.000146	0.029237	0.19721
1137	0.000967	0.000803	0.000146	0.031702	0.199511
1138	0.005898	0.000146	0.000474	0.04255	0.198853
1139	0.014938	0.000803	0.00031	0.025292	0.198196
1140	0.017732	0.000146	0.00031	0.021841	0.202962
1141	0.006884	0.000146	-1.9e-05	0.022005	0.196223
1142	0.000639	0.001296	-0.000347	0.029237	0.198196
1143	0.007049	-0.000841	-0.000347	0.03236	0.198853
1144	0.008857	-0.000512	-0.000347	0.040906	0.198689
1145	0.01691	-0.000676	-0.000676	0.044358	0.197867
1146	0.016581	-1.9e-05	0.000146	0.04748	0.201154
1147	0.003433	0.00031	-1.9e-05	0.055041	0.19721
1148	0.001625	0.000639	0.000146	0.0603	0.200004
1149	0.009843	-0.000676	0.00031	0.062601	0.197045
1150	0.01576	0.000639	0.00031	0.069176	0.198853
1151	0.020526	0.000967	0.000474	0.074764	0.199346
1152	0.028579	-1.9e-05	-0.000183	0.076572	0.198031
1153	0.031209	-0.000512	-0.000183	0.085776	0.199346
1154	0.035647	-1.9e-05	-0.000183	0.089063	0.199018
1155	0.038112	-0.001005	-0.000512	0.094158	0.19836
1156	0.045508	0.000146	-0.000512	0.097774	0.196717
1157	0.038605	0.000474	-1.9e-05	0.100732	0.200661
1158	0.025128	0.000639	0.00031	0.102704	0.198031
1159	0.020526	0.000474	0.000474	0.101061	0.199018
1160	0.02332	0.000474	0.000474	0.101554	0.197538
1161	0.026443	0.00031	0.00031	0.108621	0.199182
1162	0.031538	0.000803	0.000474	0.111415	0.197045
1163	0.027265	-0.000183	-1.9e-05	0.115195	0.200332
1164	0.027758	-0.000512	-0.000183	0.117168	0.200825
1165	0.033017	-0.000512	-0.000676	0.121441	0.197867
1166	0.032195	-0.000347	-0.000512	0.122098	0.197703
1167	0.03614	-0.000347	-0.000676	0.125879	0.197703
1168	0.039263	-1.9e-05	0.000146	0.127358	0.198031
1169	0.043865	0.000639	0.000146	0.127687	0.196552
1170	0.047316	0.000146	0.00031	0.132617	0.200004
1171	0.056027	0.001296	0.00031	0.137712	0.195073
1172	0.057013	0.000474	0.000474	0.139192	0.196881
1173	0.060136	0.001789	0.000146	0.139192	0.195402
1174	0.038276	-1.9e-05	-0.000183	0.146095	0.183239
1175	0.028086	-0.001827	-0.000347	0.14593	0.174035
1176	0.030716	-0.000183	-0.000347	0.147245	0.176336
1177	0.030059	-0.000676	-0.000183	0.150532	0.175679
1178	0.025621	0.001132	-0.000347	0.151847	0.176994
1179	0.031045	-0.000347	0.000146	0.152998	0.17798
1180	0.036797	0.000967	0.000146	0.155792	0.178966
1181	0.044029	0.000474	0.00031	0.154806	0.176829
1182	0.045179	0.000474	0.00031	0.156942	0.17798
1183	0.028908	-0.000183	0.000639	0.159572	0.178637
1184	0.005898	0.000803	0.00031	0.159572	0.173214
1185	0.001954	-0.000183	-1.9e-05	0.017403	0.156449
1186	0.000474	-1.9e-05	-0.000183	-0.003799	0.144122
1187	0.001132	-0.000347	-0.000512	0.00294	0.05274
1188	0.002282	0.00031	-0.000347	0.00146	0.026936
1189	0.001296	-1.9e-05	-0.000183	0.011486	0.02447
1190	0.00294	0.000146	-1.9e-05	0.018718	0.034661
1191	0.003597	0.000146	0.000146	0.025785	0.040413
1192	0.003926	0.000803	0.00031	0.034496	0.044851
1193	0.001954	0.000803	0.000146	0.038934	0.053726
1194	0.003433	0.000639	0.000474	0.04633	0.057506
1195	0.000803	0.000639	0.00031	0.055205	0.063752
1196	0.000639	-0.000183	0.000146	0.055863	0.067696
1197	0.002447	-0.000512	-0.000183	0.064409	0.06556
1198	0.00031	-0.000347	-0.000347	0.069833	0.067203
1199	-0.000676	-0.000347	-0.000512	0.074435	0.059972
1200	0.003433	-0.000347	-0.000347	0.080023	0.040249
1201	0.007706	0.000146	-1.9e-05	0.075257	0.034168
1202	0.00294	0.00031	0.000146	0.087255	0.034825
1203	-1.9e-05	0.000146	0.00031	0.089556	0.039263
1204	0.001789	0.000474	0.000474	0.094158	0.045344
1205	0.010171	0.000474	0.000474	0.097609	0.053726
1206	0.010829	0.000146	0.00031	0.104019	0.056356
1207	0.018718	-1.9e-05	-0.000183	0.105005	0.0603
1208	0.026771	-0.000183	-0.000347	0.107306	0.069504
1209	0.031045	-0.000347	-0.000347	0.115031	0.071641
1210	0.036469	-0.000512	-0.000183	0.118647	0.078051
1211	0.036633	-1.9e-05	-0.000183	0.121277	0.080681
1212	0.042221	-1.9e-05	-1.9e-05	0.126372	0.08972
1213	0.047809	0.000146	0.000146	0.126372	0.091692
1214	0.050932	0.00031	0.00031	0.128837	0.093829
1215	0.053726	0.000474	0.00031	0.132946	0.101061
1216	0.057671	0.000639	0.000474	0.13311	0.100239
1217	0.057999	0.000474	0.000474	0.137055	0.101554
1218	0.058985	-1.9e-05	-1.9e-05	0.137055	0.102047
1219	0.051425	-0.000347	-0.000347	0.13952	0.107306
1220	0.0437	-0.000512	-0.000183	0.144451	0.109772
1221	0.040084	-0.000512	-0.000512	0.143136	0.110758
1222	0.046494	-0.000183	-0.000347	0.143794	0.112073
1223	0.04896	-1.9e-05	-1.9e-05	0.150861	0.119962
1224	0.054383	0.000474	0.000146	0.147903	0.120291
1225	0.060793	0.000474	0.000474	0.151354	0.125386
1226	0.058164	0.00031	0.000146	0.153984	0.128837
1227	0.061451	0.000474	0.00031	0.156778	0.137548
1228	0.012144	0.00031	0.00031	0.156942	0.134425
1229	-0.000347	-0.000347	-0.000183	0.158586	0.13574
1230	0.006391	0.000474	-0.000512	0.159901	0.135411
1231	0.013459	-0.000512	-0.000676	0.164996	0.13196
1232	0.017567	-0.000512	-0.000347	0.164667	0.132453
1233	0.022334	0.000146	-0.000512	0.164338	0.13459
1234	0.024799	-1.9e-05	-0.000183	0.168283	0.140178
1235	0.034332	0.00031	0.000146	0.164996	0.139356
1236	0.040249	0.00031	0.000146	0.167625	0.142479
1237	0.043043	0.000474	0.00031	0.16779	0.139685
1238	0.038112	0.00031	0.000474	0.168612	0.143301
1239	0.01428	0.00031	0.000474	0.16894	0.141821
1240	0.020362	-0.000183	-1.9e-05	0.172063	0.145602
1241	0.026443	-0.000512	-0.000183	0.172063	0.14856
1242	0.034003	-0.000347	-0.000512	0.174528	0.150204
1243	0.038934	-0.000676	-0.000347	0.17535	0.151683
1244	0.045179	-0.000183	-0.000347	0.176829	0.152505
1245	0.049781	0.000146	-0.000183	0.180281	0.1576
1246	0.054383	0.00031	0.000146	0.177651	0.155956
1247	0.057999	0.00031	0.000474	0.178637	0.160887
1248	0.064409	0.00031	0.000146	0.177651	0.160229
1249	0.059807	0.00031	0.00031	0.179952	0.162037
1250	0.064902	0.00031	0.00031	0.180774	0.16253
1251	0.06556	-0.000183	-1.9e-05	0.18439	0.164174
1252	0.064574	-0.000512	-0.000183	0.179788	0.164503
1253	-1.9e-05	-0.000347	-0.000347	0.184061	0.168776
1254	0.004912	-0.000347	-0.000512	0.181924	0.166311
1255	0.010829	-0.000183	-0.000676	0.183897	0.164831
1256	0.015102	0.000146	-1.9e-05	0.184883	0.168283
1257	0.019047	0.000146	0.000146	0.184883	0.171077
1258	0.024635	0.00031	0.00031	0.18061	0.176008
1259	0.031538	0.000474	0.000474	0.183239	0.171899
1260	0.037455	0.00031	0.00031	0.186362	0.170419
1261	0.045344	0.00031	0.00031	0.185047	0.177158
1262	0.047809	-1.9e-05	-1.9e-05	0.189814	0.175186
1263	0.054383	-0.000347	-0.000183	0.188334	0.176665
1264	0.057835	-0.000347	-0.000347	0.186691	0.175843
1265	0.06408	-0.000347	-0.000183	0.18817	0.176008
1266	0.064245	-0.000183	-0.000676	0.19195	0.178473
1267	0.066875	0.00031	-0.000183	0.188499	0.178966
1268	0.05274	0.00031	0.000146	0.190635	0.180281
1269	0.052575	0.000146	0.00031	0.192279	0.179952
1270	0.05537	0.000474	0.00031	0.190964	0.183568
1271	0.039263	0.000639	0.000474	0.190635	0.181103
1272	0.012308	-1.9e-05	0.000474	0.195237	0.181267
1273	0.010829	-0.000512	-1.9e-05	0.188992	0.17913
1274	0.015102	-0.000183	-0.000347	0.191457	0.182089
1275	0.019868	-0.000347	-0.000183	0.191786	0.183404
1276	0.023156	-0.000676	-0.000512	0.189485	0.182911
1277	0.029401	-0.000183	-0.000512	0.190964	0.187513
1278	0.037783	0.00031	-1.9e-05	0.191786	0.183404
1279	0.037619	0.000474	0.000146	0.191457	0.185376
1280	0.041235	0.000474	0.000146	0.191786	0.188992
1281	0.041564	0.00031	0.000474	0.191457	0.188499
1282	0.04107	0.000639	0.000639	0.192443	0.186198
1283	0.049453	0.000639	0.000146	0.192608	0.191786
1284	0.052411	0.000639	-1.9e-05	0.192443	0.189156
1285	0.055863	-0.000512	-0.000183	0.195402	0.190471
1286	0.060958	-0.001005	-0.000347	0.191128	0.189978
1287	0.063094	0.000639	-0.000347	0.193265	0.189485
1288	0.061286	-0.001498	-0.000512	0.194416	0.187513
1289	0.063752	0.000146	-0.000183	0.193594	0.190307
1290	0.069504	0.000639	0.000146	0.192608	0.1908
1291	0.058328	0.000639	0.000639	0.192936	0.188827
1292	0.003433	-1.9e-05	0.000474	0.193265	0.191786
1293	-0.00347	0.000474	0.00031	0.194087	0.190635
1294	0.000639	0.001296	0.000474	0.194416	0.192443
1295	0.002447	0.000146	-0.000183	0.1908	0.192772
1296	-0.000841	0.000146	-0.000183	0.195895	0.19458
1297	0.004255	0.000474	-0.000512	0.19721	0.192115
1298	0.013623	-0.000676	-1.9e-05	0.195566	0.197045
1299	0.01954	-0.000512	-0.000676	0.195402	0.192443
1300	0.026771	-1.9e-05	-1.9e-05	0.199182	0.193265
1301	0.031867	0.000146	0.000146	0.196552	0.194744
1302	0.037455	0.000474	0.000146	0.199018	0.194744
1303	0.043207	0.000146	0.000474	0.193101	0.196881
1304	0.045837	0.000803	0.000639	0.197045	0.194251
1305	0.007542	-1.9e-05	0.000474	0.195073	0.193265
1306	0.013623	0.000146	-0.000183	0.194909	0.193594
1307	0.001625	-0.000512	-0.000183	0.195566	0.192443
1308	0.001132	-0.000841	-0.000347	0.195402	0.192772
1309	0.007213	-0.000347	-0.000347	0.192772	0.194909
1310	0.007377	-0.001334	-0.000676	0.194744	0.193429
1311	0.013294	0.000146	-1.9e-05	0.19573	0.192443
1312	0.023977	0.00031	0.00031	0.193922	0.194416
1313	0.0271	-1.9e-05	0.00031	0.196881	0.19721
1314	0.026936	0.000639	0.00031	0.193101	0.194087
1315	0.001625	0.000474	0.000474	0.194744	0.200661
1316	-0.000183	0.000474	0.00031	0.194744	0.192772
1317	-0.000347	-1.9e-05	-0.000183	0.195073	0.197703
1318	-1.9e-05	-0.000512	-0.000183	0.197374	0.194909
1319	0.002775	-0.000183	-0.000183	0.196717	0.195237
1320	0.012637	-0.000183	-0.000512	0.197045	0.196388
1321	0.017403	-0.000183	-0.000676	0.196717	0.193265
1322	0.019704	-0.000347	-0.000183	0.19721	0.19573
1323	0.024964	0.00031	-1.9e-05	0.191128	0.193429
1324	0.029401	0.00031	0.00031	0.19458	0.194251
1325	0.031045	0.00031	0.00031	0.194909	0.194744
1326	0.03351	0.000146	0.00031	0.194087	0.195566
1327	0.038441	0.000146	0.00031	0.195237	0.193265
1328	0.035482	-0.000183	0.000146	0.194909	0.194744
1329	0.000803	-0.000183	-0.000512	0.195895	0.194416
1330	0.004583	-0.000347	-0.000183	0.198031	0.196388
1331	0.007542	-0.000347	-0.000347	0.19458	0.191786
1332	0.013294	-0.000347	-0.000512	0.195402	0.192608
1333	0.019047	-1.9e-05	-0.000183	0.194744	0.196717
1334	0.025621	0.000146	-1.9e-05	0.19573	0.19836
1335	0.034168	0.000474	0.000967	0.195895	0.198689
1336	0.040249	0.000146	0.00031	0.195566	0.199346
1337	0.044851	0.000474	0.00031	0.196059	0.199675
1338	0.043043	0.000474	0.000474	0.196223	0.196223
1339	0.044029	-0.000183	-0.000347	0.199018	0.197703
1340	0.053069	-0.000347	-0.000347	0.195895	0.197045
1341	0.052904	-0.000512	-0.000347	0.197538	0.197703
1342	0.054219	-0.000347	-0.000347	0.197374	0.195566
1343	0.047809	-0.000183	0.000146	0.199018	0.196881
1344	0.052247	0.000146	-0.000183	0.195895	0.195895
1345	0.049617	0.000146	-1.9e-05	0.196223	0.197867
1346	0.060136	0.00031	0.000474	0.192279	0.193594
1347	0.064409	0.000474	0.000474	0.195895	0.195895
1348	0.067368	0.000474	0.000474	0.193758	0.198031
1349	0.074106	0.00031	0.00031	0.19573	0.196223
1350	0.074764	-1.9e-05	-1.9e-05	0.195566	0.198031
1351	0.075585	-0.000347	-1.9e-05	0.197538	0.19836
1352	0.074106	-0.000512	-0.000347	0.200004	0.197703
1353	0.070655	-0.000347	-0.000676	0.199182	0.195895
1354	0.04896	-0.000512	-1.9e-05	0.197374	0.196717
1355	0.027922	-1.9e-05	0.000146	0.200332	0.200004
1356	0.005241	0.000146	0.00031	0.19721	0.197374
1357	0.002118	0.00031	0.000146	0.193758	0.197045
1358	0.000803	0.000474	-1.9e-05	0.201812	0.197867
1359	0.004255	0.00031	0.00031	0.196552	0.197867
1360	0.007213	0.00031	0.000474	0.196388	0.19573
1361	0.010993	-0.000183	-1.9e-05	0.195402	0.195073
1362	0.017732	-0.000347	-0.000183	0.196059	0.197867
1363	0.023484	-0.000347	-0.000347	0.195073	0.196223
1364	0.032031	-1.9e-05	-0.000347	0.196552	0.195237
1365	0.034003	-0.000347	0.000146	0.193922	0.195566
1366	0.03614	-0.000183	-0.000183	0.197867	0.201647
1367	0.023977	-1.9e-05	-1.9e-05	0.193758	0.197045
1368	0.005076	0.000146	0.00031	0.193265	0.202798
1369	0.001296	-1.9e-05	0.00031	0.194251	0.20099
1370	0.001954	0.000967	0.000474	0.196388	0.200497
1371	0.001296	0.000146	0.000639	0.195237	0.199511
1372	0.001132	-1.9e-05	-1.9e-05	0.192115	0.193594
1373	0.000967	-0.000347	-1.9e-05	0.193758	0.198196
1374	0.00294	-0.000183	-0.000512	0.199182	0.193922
1375	0.005076	-0.000676	-0.000676	0.199018	0.196717
1376	0.008528	-1.9e-05	0.000146	0.193922	0.197703
1377	0.007049	-0.000183	-0.000512	0.203291	0.19721
1378	0.005898	0.000146	-1.9e-05	0.19458	0.194416
1379	0.007377	0.000146	0.001789	0.196388	0.191293
1380	0.006556	0.000146	0.000639	0.196717	0.19721
1381	0.00031	0.000639	0.000474	0.196881	0.200004
1382	-0.000183	0.000474	0.00031	0.196388	0.19836
1383	-0.004456	-1.9e-05	-0.000183	0.194909	0.19836
1384	-1.9e-05	-0.000183	-0.000183	0.195402	0.199839
1385	0.003268	-0.000183	-0.000512	0.196223	0.198689
1386	0.001296	-0.000512	-0.000347	0.198031	0.201154
1387	0.001296	-1.9e-05	0.001296	0.195566	0.197703
1388	0.00146	-1.9e-05	-0.000183	0.200332	0.201647
1389	0.002775	0.000146	0.000146	0.194251	0.199511
1390	0.002447	0.000639	-1.9e-05	0.19836	0.200332
1391	0.004583	0.00031	0.001789	0.196388	0.19836
1392	0.002118	0.000474	0.000639	0.199511	0.199675
1393	0.003597	0.000474	0.000474	0.196223	0.198031
1394	0.000639	-0.000183	-0.000512	0.199018	0.197703
1395	-0.000512	-0.000347	-0.000183	0.199018	0.197703
1396	-0.001169	-0.000512	-0.000512	0.197867	0.200497
1397	-0.000512	-0.000841	-0.000347	0.196223	0.198031
1398	-0.000183	0.000474	0.000146	0.19836	0.196717
1399	0.000146	-0.000183	-1.9e-05	0.203291	0.199018
1400	0.000803	0.000146	0.000146	0.193594	0.198853
1401	0.000146	0.000146	0.000474	0.195566	0.200004
1402	0.000146	0.000803	-1.9e-05	0.193594	0.19836
1403	0.00031	0.000146	0.00031	0.196881	0.199018
1404	0.00031	0.000474	0.000474	0.196059	0.198031
1405	-0.001334	0.00031	0.000146	0.197867	0.199511
1406	0.004255	-0.000512	0.000146	0.197045	0.197703
1407	0.009185	0.00031	-0.000347	0.200497	0.200004
1408	0.012472	-0.000512	-0.000347	0.199182	0.196717
1409	0.012801	-0.000183	-0.001334	0.198196	0.199018
1410	0.018554	-1.9e-05	-1.9e-05	0.202962	0.200497
1411	0.016088	0.000146	0.000474	0.198196	0.197045
1412	0.008857	-1.9e-05	0.000146	0.19836	0.19721
1413	0.008363	0.000474	-1.9e-05	0.194087	0.198689
1414	0.006227	0.000474	0.000474	0.197374	0.198689
1415	0.004912	0.00031	0.000146	0.195895	0.196388
1416	0.006391	-1.9e-05	-1.9e-05	0.196388	0.195402
1417	0.009514	-0.000183	-0.000183	0.195073	0.194909
1418	0.009678	-0.000512	-0.000347	0.195895	0.200168
1419	0.014938	-0.000512	-1.9e-05	0.193922	0.196717
1420	0.008363	-0.000512	-0.001991	0.198689	0.198031
1421	0.010007	0.00031	0.000146	0.20099	0.19573
1422	0.006391	-1.9e-05	0.000146	0.195402	0.198689
1423	0.002447	0.000474	0.00031	0.199018	0.196223
1424	0.001132	0.00031	0.000474	0.199675	0.195402
1425	-0.000183	0.000474	0.006556	0.197703	0.200168
1426	0.000146	0.000803	-0.001334	0.199346	0.198031
1427	-0.000347	-1.9e-05	0.008692	0.197703	0.199675
1428	-0.000347	-0.000183	-0.001169	0.198689	0.197867
1429	-0.000512	-0.000183	0.000474	0.199182	0.197538
1430	-0.000347	-0.000183	-0.000512	0.195402	0.197867
1431	0.000146	-0.000512	-0.003799	0.199182	0.192772
1432	0.00031	0.00031	-0.000512	0.20099	0.195073
1433	0.000474	0.00031	0.000146	0.196059	0.197867
1434	0.00031	0.000146	0.00031	0.196552	0.196552
1435	0.00031	0.00031	0.000146	0.195402	0.199511
1436	0.000146	0.000474	0.000474	0.193101	0.199018
1437	-0.000183	0.000146	0.000474	0.197867	0.198853
1438	-0.000347	-1.9e-05	0.000146	0.192772	0.198853
1439	-0.000512	-0.000347	-1.9e-05	0.194909	0.198853
1440	-0.000512	-0.000347	-0.000347	0.197045	0.197374
1441	-0.000183	-1.9e-05	-0.000512	0.198524	0.194251
1442	0.000146	-0.000841	-0.000676	0.198853	0.195895
1443	0.00031	0.00031	-0.000183	0.200661	0.198524
1444	0.00031	0.00031	0.000639	0.195237	0.197703
1445	0.000474	0.000146	0.000803	0.198196	0.197045
1446	0.000474	0.000146	0.000803	0.200661	0.198853
1447	0.000146	0.00031	0.000803	0.198853	0.196881
1448	-0.000183	0.000146	0.000146	0.198031	0.197703
1449	-0.000512	-1.9e-05	0.000146	0.197045	0.196881
1450	-0.000512	-0.000347	-0.000183	0.201154	0.198689
1451	-0.000347	-0.000183	-0.000512	0.195566	0.197045
1452	-0.000512	-1.9e-05	-0.000512	0.194087	0.199018
1453	0.000146	-0.001498	-0.001005	0.195402	0.197045
1454	0.000146	0.000967	-1.9e-05	0.194416	0.197867
1455	0.000474	-0.000347	0.00031	0.194744	0.198196
1456	0.000967	0.000474	0.00031	0.196388	0.198853
1457	0.000967	0.00031	0.000639	0.196552	0.198689
1458	-0.000512	0.001625	0.00031	0.197045	0.199675
1459	0.000803	0.002447	0.000474	0.198196	0.196223
1460	0.000803	-0.000347	-1.9e-05	0.198853	0.198031
1461	-0.000183	0.000146	-0.000183	0.19836	0.199346
1462	-0.000183	0.000146	-0.000347	0.199182	0.199839
1463	-0.000512	-0.000183	-0.000512	0.196552	0.198031
1464	-1.9e-05	0.001296	-0.000676	0.197703	0.197538
1465	0.00031	-0.000183	-0.000183	0.195237	0.199018
1466	0.000803	-1.9e-05	0.000146	0.193429	0.197045
1467	-1.9e-05	0.00146	0.000146	0.198196	0.199018
1468	0.00146	0.001789	0.00031	0.192772	0.197867
1469	-0.000183	0.002118	0.000474	0.200497	0.199018
1470	0.000474	-0.000841	0.00031	0.196552	0.202633
1471	-0.000676	0.001296	-0.000183	0.196552	0.200825
1472	-0.000512	-0.000183	-0.000183	0.197045	0.197045
1473	0.000803	-1.9e-05	-0.000183	0.197045	0.200497
1474	0.00146	0.000146	-0.000512	0.194744	0.198031
1475	-0.000512	0.000146	-0.000512	0.194744	0.197374
1476	-0.001334	-1.9e-05	-0.000183	0.189485	0.197045
1477	-0.001334	0.00146	0.000146	0.196552	0.19573
1478	0.00294	0.000474	0.000146	0.196552	0.200332
1479	0.005569	0.001132	-1.9e-05	0.198689	0.195566
1480	0.010007	0.000474	0.000474	0.200332	0.201976
1481	0.009021	0.003597	0.00031	0.196717	0.197045
1482	0.013459	0.001132	-1.9e-05	0.197045	0.200661
1483	0.016253	0.000639	-0.000183	0.19721	0.198524
1484	0.001296	-0.000841	-0.000676	0.197538	0.198031
1485	0.000146	-0.000841	-0.000183	0.197703	0.19721
1486	-1.9e-05	-1.9e-05	-0.000676	0.195402	0.201812
1487	0.000146	-0.002484	-0.000183	0.184225	0.196059
1488	-1.9e-05	0.001132	0.000146	0.195073	0.197703
1489	0.00031	-0.001169	0.000146	0.196717	0.201976
1490	0.000474	0.001625	0.000146	0.196059	0.199839
1491	0.000146	0.001954	0.000474	0.19836	0.20362
1492	-0.000183	0.000639	0.000474	0.197374	0.200497
1493	-0.000512	0.00031	-1.9e-05	0.195237	0.200332
1494	-0.000512	0.000639	-0.000347	0.196717	0.199346
1495	-0.000347	0.000474	-0.000347	0.195895	0.199182
1496	0.000146	-0.000347	-0.000512	0.197538	0.198031
1497	-1.9e-05	0.000474	-0.000512	0.199839	0.199675
1498	0.000474	0.000146	-1.9e-05	0.187841	0.198524
1499	0.00031	0.00031	0.000146	0.199511	0.199346
1500	0.000639	0.00031	-1.9e-05	0.19721	0.198689
1501	0.000639	0.000474	0.00031	0.196059	0.199346
1502	0.000474	0.00031	0.00031	0.195402	0.19836
1503	-0.000676	0.000803	0.00031	0.198524	0.197374
1504	0.000474	-0.001169	-0.000183	0.195237	0.196388
1505	-0.000183	-0.000347	-0.000347	0.197703	0.196388
1506	-0.001169	-0.000841	0.005898	0.196552	0.197374
1507	0.001625	-0.000347	0.009185	0.196717	0.196059
1508	-0.001169	0.001296	0.00146	0.198524	0.197703
1509	0.002447	0.001132	0.009185	0.186198	0.19836
1510	0.003433	0.000146	0.015102	0.19836	0.198853
1511	0.003268	0.000639	0.02595	0.197045	0.19836
1512	0.001296	0.000474	0.030059	0.19836	0.200168
1513	0.005405	0.000639	0.037783	0.198853	0.200332
1514	0.00294	0.000474	0.044686	0.198524	0.198853
1515	0.003597	-0.000183	0.052082	0.197045	0.197538
1516	0.003597	-0.000512	0.057013	0.199182	0.198031
1517	0.002118	-0.000676	0.061286	0.198031	0.198689
1518	0.004912	-1.9e-05	0.067532	0.203291	0.199346
1519	0.003268	0.00031	0.069997	0.201812	0.197374
1520	0.003597	0.000146	0.075092	0.187677	0.199018
1521	0.003433	-0.000841	0.080023	0.196717	0.200004
1522	0.004912	0.000967	0.082653	0.197867	0.198031
1523	0.001132	0.000146	0.089227	0.19836	0.194087
1524	0.002775	0.000474	0.092186	0.196223	0.197045
1525	0.000146	0.000146	0.098595	0.197045	0.197703
1526	-0.002813	0.000146	0.104512	0.197374	0.195237
1527	0.000146	-1.9e-05	0.10254	0.200661	0.196059
1528	0.000146	-1.9e-05	0.108293	0.199839	0.19573
1529	0.000803	-0.000183	0.111087	0.199182	0.199839
1530	0.001954	0.000967	0.116182	0.198689	0.199018
1531	0.000146	0.00031	0.123249	0.193594	0.200661
1532	0.00146	0.000146	0.123413	0.192608	0.198524
1533	0.00031	0.000803	0.124728	0.197045	0.199675
1534	0.002447	0.000474	0.128673	0.195566	0.198196
1535	0.000803	0.00031	0.130152	0.198196	0.198853
1536	0.00031	0.000803	0.135904	0.196059	0.196881
1537	0.002118	0.000639	0.134918	0.194416	0.19573
1538	-0.000841	-0.000676	0.135247	0.198689	0.196388
1539	0.001132	-0.000183	0.143301	0.198031	0.193922
1540	0.000803	-0.000183	0.141657	0.198689	0.19458
1541	0.000474	-0.000183	0.144615	0.197374	0.193429
1542	-0.000347	0.000639	0.145108	0.195073	0.192936
1543	0.003761	-0.000183	0.149217	0.195402	0.196717
1544	0.00031	-0.000512	0.149546	0.197867	0.200825
1545	0.000967	0.000967	0.152833	0.196388	0.194416
1546	0.00146	0.001954	0.151683	0.195566	0.199018
1547	-1.9e-05	0.000803	0.1576	0.198524	0.196388
1548	-0.000512	0.000803	0.161215	0.197045	0.19836
1549	0.000146	-0.000512	0.159901	0.199346	0.197538
1550	-0.000676	0.000639	0.160558	0.199839	0.199839
1551	0.000474	-0.000183	0.162695	0.199018	0.197045
1552	0.00294	0.001625	0.164667	0.199675	0.195566
1553	0.003268	0.000639	0.162695	0.194909	0.199182
1554	0.003761	0.000803	0.167954	0.195073	0.197045
1555	0.005405	-0.000183	0.166146	0.19836	0.197045
1556	0.005569	0.001132	0.168776	0.196552	0.196223
1557	0.007377	0.001132	0.168447	0.201319	0.197703
1558	0.009843	0.00031	0.171241	0.196881	0.194744
1559	0.006391	0.008363	0.172063	0.198853	0.198196
1560	0.002775	0.000146	0.171241	0.197374	0.195073
1561	0.002775	0.003926	0.154641	0.200004	0.19721
1562	0.005405	0.00787	0.053397	0.196059	0.197703
1563	0.005241	0.016088	0.006062	0.19836	0.197538
1564	0.00672	0.025785	0.011651	0.196223	0.198196
1565	0.012472	0.028415	0.019868	0.198196	0.200004
1566	0.015595	0.034989	0.027593	0.196388	0.19721
1567	0.019704	0.040906	0.036797	0.199675	0.198196
1568	0.019704	0.048467	0.04107	0.201154	0.198853
1569	0.019047	0.049946	0.049124	0.198524	0.195402
1570	0.01428	0.053397	0.053233	0.199182	0.199675
1571	0.016253	0.048138	0.060465	0.198031	0.195402
1572	0.019211	0.029894	0.065067	0.198524	0.196223
1573	0.023977	0.005405	0.070819	0.19721	0.197703
1574	0.025128	0.012308	0.073613	0.199182	0.196059
1575	0.0271	0.019211	0.079694	0.201319	0.195402
1576	0.022991	0.023484	0.085611	0.195895	0.19836
1577	0.028579	0.02595	0.091528	0.193758	0.196059
1578	0.031373	0.034168	0.095966	0.197538	0.197867
1579	0.028415	0.03236	0.096294	0.194087	0.19836
1580	0.034496	0.041235	0.102376	0.195073	0.197867
1581	0.030716	0.05011	0.107142	0.193594	0.197867
1582	0.03088	0.054055	0.110758	0.195402	0.199182
1583	0.027593	0.056849	0.112237	0.196059	0.200004
1584	0.019868	0.060793	0.118976	0.193429	0.199839
1585	0.008035	0.066217	0.118154	0.19573	0.198689
1586	0.005076	0.0437	0.116346	0.192443	0.197538
1587	0.00031	0.04748	0.120291	0.192608	0.199839
1588	0.000474	0.054876	0.126536	0.18932	0.195402
1589	0.000474	0.054548	0.125879	0.194909	0.193101
1590	0.00031	0.057177	0.13196	0.189978	0.198689
1591	-0.000183	0.062601	0.133932	0.192608	0.198689
1592	-0.000183	0.058985	0.138041	0.190142	0.199346
1593	-0.000676	0.034661	0.140671	0.19195	0.200004
1594	0.000146	0.019704	0.13952	0.191786	0.197703
1595	-0.001005	0.019704	0.142972	0.191457	0.198031
1596	0.00031	0.014773	0.143794	0.188992	0.197045
1597	-1.9e-05	0.00672	0.143301	0.188499	0.197867
1598	0.000803	0.01428	0.147574	0.16138	0.19836
1599	0.000967	0.022498	0.148724	0.160558	0.197867
1600	0.000474	0.026114	0.14856	0.16401	0.19836
1601	0.000146	0.032853	0.153984	0.165324	0.199839
1602	-0.000183	0.030716	0.152998	0.169105	0.198853
1603	-0.000512	0.033839	0.155627	0.166804	0.194909
1604	-0.000512	0.035647	0.156942	0.16894	0.198196
1605	-0.000347	0.031702	0.159736	0.169433	0.198031
1606	-0.000347	0.023813	0.160065	0.170419	0.197538
1607	0.000146	0.012308	0.163516	0.16894	0.198031
1608	0.00031	0.012308	0.16253	0.168776	0.199018
1609	0.00031	0.010993	0.166639	0.165653	0.196388
1610	0.000146	0.010171	0.165817	0.130974	0.198524
1611	0.000639	0.008857	0.165982	0.132124	0.19573
1612	0.000146	0.008528	0.169762	0.130809	0.199346
1613	-0.000183	0.005241	0.169105	0.133603	0.197045
1614	-0.000347	0.007542	0.171899	0.136069	0.196059
1615	-0.000512	0.008692	0.171241	0.141	0.19836
1616	-0.000347	0.015595	0.172885	0.141	0.197867
1617	-0.000183	0.021183	0.172392	0.147245	0.199182
1618	0.000146	0.028251	0.173542	0.147574	0.198524
1619	0.000146	0.032195	0.174035	0.146095	0.197867
1620	0.000639	0.034661	0.173049	0.147574	0.198196
1621	0.00031	0.039427	0.174528	0.153326	0.197045
1622	0.000474	0.024635	0.177815	0.152505	0.196552
1623	0.000146	0.00672	0.176172	0.157107	0.199675
1624	-0.000347	0.005734	0.180774	0.1576	0.193594
1625	-0.000347	0.0105	0.179459	0.162202	0.195237
1626	-0.000347	0.014938	0.180116	0.159901	0.199018
1627	-0.000512	0.016581	0.181431	0.159408	0.195402
1628	-0.000183	0.017896	0.182089	0.160722	0.193594
1629	0.000146	0.015595	0.181924	0.164174	0.194087
1630	0.00031	0.016417	0.180938	0.162202	0.200332
1631	0.000639	0.001789	0.182582	0.164174	0.197374
1632	0.00031	0.00031	0.181431	0.167461	0.199675
1633	0.00031	0.002282	0.182253	0.167132	0.198196
1634	0.000146	0.004255	0.184554	0.17157	0.200004
1635	0.000146	0.008035	0.187184	0.168118	0.196388
1636	-0.000183	0.005734	0.186526	0.171406	0.200332
1637	-0.000841	0.001296	0.183897	0.1742	0.197703
1638	-0.000512	0.004748	0.184718	0.173707	0.201976
1639	0.00031	0.002775	0.186855	0.174364	0.200497
1640	0.000146	0.001296	0.188992	0.177322	0.196388
1641	0.00031	0.003268	0.187841	0.176336	0.197703
1642	0.00031	0.007049	0.189814	0.177487	0.197867
1643	0.000146	0.007377	0.18932	0.176008	0.194416
1644	0.000474	0.002118	0.189814	0.177651	0.195237
1645	0.000146	-0.000676	0.18817	0.178473	0.201319
1646	-0.000512	0.00146	0.192443	0.179788	0.195237
1647	-0.000183	-0.000347	0.188499	0.182417	0.198031
1648	-0.000512	-0.000183	0.185047	0.183075	0.196388
1649	-0.001005	0.000474	0.192443	0.182582	0.198853
1650	0.001296	-0.000347	0.190471	0.180774	0.199182
1651	0.001296	-0.000183	0.188663	0.187184	0.196717
1652	0.001625	0.000967	0.190471	0.183732	0.198689
1653	0.008363	-0.000512	0.186198	0.184061	0.200332
1654	0.012472	0.003761	0.192115	0.184225	0.19836
1655	0.010336	0.000146	0.191293	0.187677	0.199346
1656	0.004255	0.002118	0.19195	0.186033	0.201976
1657	-0.000183	0.002282	0.195566	0.187513	0.19836
1658	-0.000512	0.000967	0.195566	0.189978	0.195566
1659	-0.000347	0.002611	0.192936	0.188827	0.19836
1660	0.000639	0.000474	0.193922	0.187513	0.197538
1661	0.006227	-0.000347	0.194251	0.188992	0.197867
1662	0.006391	0.002118	0.192443	0.1908	0.19721
1663	0.014116	0.000639	0.194416	0.186198	0.197703
1664	0.017732	-1.9e-05	0.191457	0.188827	0.198853
1665	0.019868	0.00031	0.19195	0.187348	0.196388
1666	0.020526	0.000967	0.193922	0.189978	0.199839
1667	0.025785	0.000146	0.191786	0.192772	0.201647
1668	0.022005	0.001789	0.18932	0.190471	0.197045
1669	0.00146	0.000803	0.194416	0.190635	0.199018
1670	0.000639	-0.000183	0.191621	0.190142	0.199346
1671	-1.9e-05	0.00031	0.192115	0.189156	0.200497
1672	-0.000347	0.001789	0.192279	0.190142	0.197703
1673	0.000639	0.001954	0.193429	0.194744	0.195566
1674	0.000146	0.000803	0.193922	0.192443	0.198853
1675	0.00031	0.00031	0.196388	0.192443	0.197703
1676	0.00031	-0.000347	0.194909	0.193429	0.195073
1677	-0.002155	0.001296	0.192443	0.193922	0.197703
1678	0.007542	0.000474	0.195402	0.194416	0.203784
1679	0.009843	0.002447	0.196552	0.195073	0.195237
1680	0.013952	0.009185	0.199346	0.195402	0.199346
1681	0.016746	0.013459	0.195073	0.196223	0.196717
1682	0.016088	0.015102	0.193101	0.192608	0.196223
1683	0.018061	0.017567	0.194416	0.193758	0.199346
1684	0.018882	0.024306	0.194087	0.193101	0.193922
1685	0.019047	0.028251	0.193265	0.193101	0.198524
1686	0.025128	0.03088	0.194744	0.189978	0.198524
1687	0.027922	0.03729	0.196388	0.191293	0.199675
1688	0.023977	0.043207	0.193922	0.192115	0.198524
1689	0.007377	0.049288	0.190635	0.193922	0.201812
1690	-0.000347	0.051261	0.19721	0.194416	0.194744
1691	0.005076	0.061122	0.197538	0.198853	0.199346
1692	0.00672	0.064738	0.196881	0.197538	0.199675
1693	0.009514	0.068682	0.196223	0.194909	0.198689
1694	0.010993	0.074599	0.195073	0.196388	0.200661
1695	0.013294	0.065395	0.195073	0.19458	0.195402
1696	0.005241	0.070326	0.195895	0.193758	0.20099
1697	0.001789	0.003761	0.195895	0.195073	0.197374
1698	0.000639	0.005734	0.19573	0.19721	0.198196
1699	0.000474	0.010336	0.199182	0.194251	0.196059
1700	0.000146	0.004255	0.195402	0.196059	0.203455
1701	-0.000183	0.008692	0.199511	0.195073	0.19721
1702	-0.000347	0.000967	0.193922	0.198853	0.197374
1703	-0.000347	0.002447	0.196388	0.194909	0.196059
1704	-0.000512	0.004419	0.197538	0.196059	0.198853
1705	-0.000183	0.010336	0.199018	0.194909	0.199018
1706	0.000146	0.012144	0.194909	0.193758	0.196552
1707	0.00031	0.000639	0.194744	0.196223	0.197867
1708	0.000146	0.008199	0.197703	0.193265	0.198524
1709	0.000474	0.017896	0.194744	0.197703	0.198853
1710	0.000639	0.003761	0.195566	0.196388	0.197538
1711	-1.9e-05	0.001296	0.196059	0.195073	0.203291
1712	-0.000183	0.002282	0.199511	0.195895	0.194087
1713	-0.000183	0.010993	0.196717	0.198853	0.200004
1714	-0.000347	0.00787	0.197374	0.195895	0.19721
1715	-0.000512	0.015595	0.195402	0.197538	0.195402
1716	-0.000347	0.022334	0.19721	0.197538	0.197703
1717	-1.9e-05	0.021676	0.196717	0.200497	0.195402
1718	0.000146	0.026443	0.195895	0.197045	0.196059
1719	0.000474	0.033839	0.194251	0.196223	0.196881
1720	0.000474	0.036962	0.193265	0.195237	0.197045
1721	0.002118	0.0437	0.193758	0.198524	0.19721
1722	0.004255	0.049124	0.192443	0.191293	0.199346
1723	0.011651	0.05537	0.197045	0.196717	0.197045
1724	0.011322	0.061122	0.197045	0.197538	0.198196
1725	0.020526	0.063094	0.193265	0.197703	0.199018
1726	0.022005	0.066875	0.197045	0.195895	0.197867
1727	0.022663	0.067203	0.199018	0.200168	0.194909
1728	0.018061	0.065724	0.196059	0.201319	0.199346
1729	0.020362	0.013294	0.199511	0.196388	0.19836
1730	0.019704	0.000967	0.195237	0.199018	0.200332
1731	0.020362	0.00031	0.199018	0.194416	0.197867
1732	0.023977	-0.000512	0.196388	0.196552	0.197374
1733	0.005569	0.00031	0.192279	0.194416	0.196059
1734	0.011322	0.000639	0.189156	0.194251	0.19573
1735	0.01428	-0.000183	0.183897	0.197703	0.195237
1736	0.016581	0.000146	0.181431	0.19573	0.19836
1737	0.01691	-0.001662	0.181431	0.193758	0.197374
1738	0.014773	-0.000512	0.183732	0.195402	0.194251
1739	0.016417	-1.9e-05	0.182089	0.196881	0.197045
1740	0.021183	-0.001005	0.185047	0.193922	0.199182
1741	0.018389	0.002447	0.181924	0.200004	0.198196
1742	0.023156	0.000967	0.184061	0.199346	0.198689
1743	0.022334	0.000803	0.181267	0.198524	0.20099
1744	0.021512	0.003433	0.186198	0.196552	0.1908
1745	0.022827	0.00146	0.188006	0.199511	0.198031
1746	0.022334	0.000803	0.18554	0.197703	0.197374
1747	0.021019	0.000146	0.189978	0.20099	0.196388
1748	0.019211	0.000146	0.193594	0.197703	0.198689
1749	0.018718	0.001789	0.190471	0.199018	0.197867
1750	0.015102	0.00294	0.188499	0.199511	0.195895
1751	0.017896	-0.001005	0.18932	0.196388	0.199675
1752	0.015266	0.001625	0.186691	0.19721	0.197374
1753	0.011651	0.000474	0.187513	0.196552	0.196552
1754	0.011979	-0.000183	0.185376	0.196223	0.196552
1755	0.012637	-0.000512	0.185212	0.195237	0.1908
1756	0.005898	0.000967	0.18817	0.195566	0.197867
1757	0.00935	0.000803	0.188992	0.201812	0.197538
1758	0.006391	0.010336	0.187841	0.201483	0.199018
1759	0.010993	0.013294	0.1908	0.196388	0.195402
1760	0.005241	0.012801	0.189649	0.196717	0.198524
1761	0.005076	0.003268	0.187841	0.199182	0.196881
1762	0.009678	0.00294	0.191457	0.198196	0.201154
1763	0.010829	0.003761	0.19195	0.199511	0.198196
1764	0.009678	0.004748	0.190471	0.198853	0.197703
1765	0.002118	0.005898	0.191786	0.198031	0.199182
1766	0.002118	0.015924	0.192608	0.199511	0.191786
1767	-0.000841	0.021019	0.193265	0.199346	0.197045
1768	0.005076	0.027593	0.194744	0.202633	0.197538
1769	0.003761	0.033839	0.190142	0.198689	0.197374
1770	0.00146	0.010336	0.192279	0.19721	0.19721
1771	-0.000183	0.003761	0.193101	0.198031	0.193265
1772	0.000146	-0.000183	0.191621	0.198031	0.190471
1773	0.000146	0.000474	0.192936	0.199346	0.199675
1774	0.000474	0.000803	0.1908	0.196223	0.195895
1775	-0.000183	0.000639	0.188663	0.197538	0.195402
1776	0.002611	0.000803	0.193429	0.19458	0.19836
1777	0.007213	0.000967	0.191457	0.200332	0.192115
1778	0.005405	0.000639	0.192443	0.19836	0.197703
1779	0.006391	0.000639	0.194251	0.19573	0.201647
1780	0.008692	-0.000347	0.195237	0.19836	0.198524
1781	0.007542	0.000639	0.19721	0.199675	0.198524
1782	0.006062	0.002118	0.199839	0.196388	0.199511
1783	0.009185	0.007213	0.19458	0.198853	0.196552
1784	0.001132	0.001625	0.19836	0.19721	0.199018
1785	0.00031	-0.000347	0.196388	0.19836	0.198031
1786	0.00031	0.00031	0.19458	0.197538	0.195566
1787	0.000474	0.000474	0.195895	0.195237	0.197703
1788	0.001132	-0.000183	0.19458	0.193758	0.190142
1789	0.006556	0.00294	0.195237	0.195402	0.196388
1790	-0.001005	0.004748	0.197374	0.199182	0.200661
1791	0.000803	0.003433	0.196388	0.198689	0.195895
1792	0.003104	0.010664	0.193758	0.200168	0.199511
1793	0.003104	0.019704	0.196059	0.19573	0.196717
1794	0.003926	0.022498	0.193429	0.197867	0.196881
1795	0.00409	0.012472	0.195237	0.197045	0.201647
1796	0.008035	0.009021	0.197045	0.19836	0.201647
1797	0.012144	0.013459	0.197538	0.19836	0.198524
1798	0.016417	0.016581	0.196223	0.198031	0.200168
1799	0.014445	0.020197	0.199839	0.199018	0.192279
1800	0.017074	0.025621	0.198031	0.197867	0.196717
1801	0.01691	0.031867	0.19573	0.200004	0.198689
1802	0.02069	0.03351	0.196881	0.197703	0.197538
1803	0.01954	0.04107	0.195566	0.196881	0.200004
1804	0.017567	0.044686	0.196552	0.196059	0.196717
1805	0.019047	0.053562	0.194909	0.197045	0.196223
1806	0.020197	0.056849	0.20214	0.195895	0.199018
1807	0.00031	0.061944	0.196388	0.198853	0.197867
1808	0.002118	0.06293	0.196717	0.19458	0.196552
1809	0.002447	0.072463	0.195895	0.197703	0.196388
1810	0.006884	0.074106	0.196223	0.195895	0.191457
1811	0.007706	0.0769	0.19573	0.195895	0.195566
1812	0.008035	0.081831	0.194909	0.198853	0.198196
1813	0.016581	0.084789	0.197045	0.197538	0.201319
1814	0.018882	0.089227	0.196223	0.197374	0.197045
1815	0.01576	0.089227	0.196059	0.199018	0.198524
1816	0.009185	0.093172	0.195895	0.199018	0.195895
1817	0.013952	0.087255	0.198689	0.196223	0.197045
1818	0.013787	0.088405	0.191786	0.204606	0.200661
1819	0.019704	0.090378	0.195073	0.195402	0.198031
1820	0.019704	0.089885	0.194416	0.19573	0.19721
1821	0.019704	0.095473	0.195566	0.19573	0.192936
1822	0.024142	0.092679	0.194416	0.197538	0.193758
1823	0.025292	0.096788	0.199839	0.19836	0.194251
1824	0.020362	0.099417	0.200004	0.198196	0.195895
1825	0.018389	0.099582	0.196059	0.196059	0.193594
1826	0.01576	0.107142	0.196552	0.196881	0.196552
1827	0.013459	0.110922	0.195566	0.195237	0.195566
1828	0.021183	0.108786	0.19836	0.194416	0.19721
1829	0.018554	0.112566	0.19573	0.19836	0.20214
1830	0.02069	0.114538	0.180445	0.193922	0.198196
1831	0.018882	0.117825	0.002611	0.193101	0.200332
1832	0.019868	0.11914	0.014116	0.198031	0.192608
1833	0.019047	0.115524	0.018882	0.195237	0.198853
1834	0.021512	0.117168	0.027922	0.200661	0.197538
1835	0.000474	0.117332	0.034661	0.20099	0.200825
1836	0.001789	0.111415	0.041892	0.192936	0.19836
1837	-0.000183	0.109607	0.045015	0.197867	0.200004
1838	0.003268	0.11651	0.053562	0.194251	0.201154
1839	0.010336	0.103526	0.0603	0.19458	0.201319
1840	0.010171	0.102376	0.059643	0.194416	0.198031
1841	0.0105	0.094322	0.069011	0.19195	0.199511
1842	0.012965	0.085776	0.073778	0.192443	0.194251
1843	0.014938	0.081667	0.077065	0.195073	0.195566
1844	0.010336	0.075257	0.082982	0.194744	0.19836
1845	0.010664	0.075585	0.088241	0.196717	0.197045
1846	0.011322	0.081174	0.092679	0.197374	0.196717
1847	0.016253	0.081009	0.099089	0.194416	0.19836
1848	0.012801	0.081009	0.098924	0.19721	0.201483
1849	0.01576	0.091528	0.105827	0.193758	0.197374
1850	0.018225	0.08857	0.109607	0.194744	0.201647
1851	0.0105	0.09235	0.108457	0.195895	0.199675
1852	0.003597	0.097609	0.11158	0.193101	0.200497
1853	0.004583	0.099417	0.116675	0.193594	0.199839
1854	0.001625	0.105005	0.117168	0.195237	0.198689
1855	0.000146	0.105663	0.126207	0.186691	0.19573
1856	0.000146	0.111251	0.128015	0.187184	0.196881
1857	-0.000183	0.113059	0.126865	0.189649	0.19836
1858	-0.000676	0.113716	0.130974	0.187019	0.197374
1859	-0.000183	0.114702	0.130316	0.184554	0.196223
1860	-1.9e-05	0.118154	0.134918	0.186855	0.19721
1861	0.00031	0.109607	0.136891	0.180281	0.199675
1862	0.000474	0.110429	0.137877	0.158586	0.197374
1863	0.00031	0.115689	0.138041	0.094651	0.199182
1864	0.000474	0.116839	0.141493	0.058985	0.197538
1865	0.000474	0.117825	0.143136	0.002447	0.199675
1866	-0.000183	0.11799	0.147245	0.000803	0.198524
1867	-0.000183	0.120619	0.148067	0.003761	0.199346
1868	-0.000676	0.118483	0.147245	0.000967	0.198689
1869	-0.000183	0.121441	0.147903	-1.9e-05	0.199346
1870	-0.000183	0.117168	0.145273	-0.000183	0.197867
1871	-1.9e-05	0.106978	0.147081	-0.001005	0.198853
1872	0.000146	0.064738	0.147245	0.00031	0.201976
1873	0.000146	0.050274	0.140671	0.000639	0.198031
1874	0.000146	0.035811	0.136891	0.005241	0.197045
1875	0.000474	0.022498	0.136233	0.001625	0.196388
1876	0.000474	0.015431	0.141493	-0.000512	0.194744
1877	-0.000183	0.00935	0.141821	0.000474	0.195237
1878	-0.000347	0.011651	0.144944	0.000639	0.196388
1879	-0.000183	0.008035	0.145273	0.001296	0.196717
1880	-0.000512	0.002611	0.147245	0.003597	0.200004
1881	-0.000183	0.000803	0.150697	0.002775	0.196552
1882	0.000146	0.006227	0.149546	0.011815	0.197867
1883	0.00031	-0.000183	0.155627	0.018554	0.200004
1884	0.000146	0.001296	0.152011	0.024635	0.197374
1885	0.000474	0.000146	0.151683	0.030552	0.199839
1886	0.000474	0.001296	0.151683	0.038605	0.201976
1887	0.00031	0.00031	0.151025	0.0437	0.199182
1888	-1.9e-05	0.001132	0.152505	0.053397	0.203455
1889	-0.000183	0.000146	0.158421	0.058985	0.196388
1890	-0.000347	-1.9e-05	0.156613	0.063094	0.200332
1891	-0.000512	-0.000512	0.158257	0.068518	0.198853
1892	-0.000347	-0.000512	0.159901	0.071312	0.196717
1893	-1.9e-05	0.004419	0.157271	0.07953	0.199346
1894	0.00031	-0.000676	0.165489	0.081009	0.19836
1895	0.000146	0.000474	0.159736	0.089391	0.197374
1896	0.00031	0.000474	0.164338	0.090542	0.190964
1897	0.00031	-0.000347	0.166146	0.095473	0.199182
1898	0.00031	0.000474	0.166804	0.097938	0.199182
1899	-1.9e-05	0.000967	0.161709	0.104677	0.196059
1900	-0.000183	0.000146	0.167297	0.106649	0.199675
1901	-0.000183	-0.000183	0.16138	0.109607	0.200004
1902	-0.000347	-0.000183	0.161873	0.115689	0.200004
1903	-0.000347	0.000146	0.160394	0.119469	0.200661
1904	-0.000183	0.003926	0.00031	0.121441	0.200497
1905	0.00031	0.000639	0.000803	0.125714	0.199839
1906	0.00031	0.000146	0.001132	0.129659	0.200332
1907	0.000474	0.000639	0.000803	0.132453	0.197374
1908	0.000474	0.000146	0.005569	0.13311	0.199511
1909	0.000474	0.001132	0.001296	0.135411	0.19721
1910	-0.000183	0.000803	0.000639	0.138205	0.197538
1911	-0.000183	-0.000183	0.006227	0.139192	0.195566
1912	-0.000676	-0.000512	-0.000183	0.143465	0.199839
1913	-0.000347	-0.000512	-0.000183	0.144287	0.196552
1914	-0.000512	0.003926	-0.000676	0.14593	0.19836
1915	0.000146	0.005405	-0.000676	0.146423	0.196717
1916	-1.9e-05	0.014116	-0.000183	0.148067	0.20214
1917	0.00031	0.020526	0.001954	0.149217	0.197538
1918	0.00031	0.0271	-1.9e-05	0.148231	0.201647
1919	0.000474	0.035318	0.001132	0.153162	0.200004
1920	0.00031	0.039591	0.004748	0.156613	0.199511
1921	0.000146	0.045508	0.00294	0.157271	0.199018
1922	-0.000512	0.051096	0.003926	0.159572	0.198853
1923	-0.000183	0.060136	0.00146	0.162695	0.20099
1924	0.00031	0.067368	0.001625	0.163188	0.19721
1925	0.00294	0.072791	0.000967	0.164667	0.199346
1926	-1.9e-05	0.070983	0.010336	0.162859	0.196881
1927	0.000803	0.077558	0.000803	0.166639	0.197538
1928	0.00031	0.081338	0.004419	0.170255	0.199511
1929	0.000474	0.089885	0.003104	0.167132	0.198853
1930	0.000474	0.090542	0.00787	0.169433	0.19721
1931	0.000146	0.097116	0.011486	0.170748	0.199675
1932	-0.000183	0.097774	0.006884	0.167132	0.195237
1933	0.000146	0.105498	0.007049	0.16779	0.199675
1934	-0.000512	0.107799	0.000146	0.168447	0.19836
1935	-0.000512	0.1101	0.00409	0.169926	0.197867
1936	0.000146	0.114209	0.007377	0.167954	0.199839
1937	0.000146	0.110758	0.014773	0.17157	0.199346
1938	0.00031	0.120784	0.021512	0.177651	0.202633
1939	0.00031	0.122098	0.026936	0.177487	0.194087
1940	0.00031	0.126207	0.031373	0.176994	0.201483
1941	0.00031	0.127029	0.040577	0.176172	0.198689
1942	0.00031	0.130974	0.045672	0.179295	0.198524
1943	-1.9e-05	0.133439	0.053069	0.177322	0.197703
1944	-0.000512	0.139192	0.058821	0.181596	0.19721
1945	-0.000347	0.140506	0.064245	0.18061	0.196223
1946	-1.9e-05	0.141	0.068518	0.180938	0.200332
1947	-1.9e-05	0.142643	0.076736	0.181596	0.199182
1948	0.000146	0.138699	0.083968	0.182253	0.200825
1949	-1.9e-05	0.142643	0.083475	0.178309	0.197374
1950	0.00031	0.149217	0.086104	0.184554	0.198853
1951	0.00031	0.150697	0.090871	0.184554	0.200004
1952	0.000474	0.15234	0.093172	0.183568	0.198196
1953	0.000474	0.157271	0.096623	0.184225	0.19836
1954	-0.000183	0.152998	0.09991	0.183897	0.19721
1955	-0.000347	0.161873	0.098267	0.187184	0.197045
1956	-0.000183	0.160065	0.036469	0.187348	0.196223
1957	-0.000512	0.16401	0.008363	0.186198	0.199839
1958	-1.9e-05	0.162037	0.019211	0.186198	0.19836
1959	-1.9e-05	0.159572	0.018554	0.187841	0.199346
1960	0.000146	0.163516	-1.9e-05	0.188827	0.199346
1961	0.00031	0.168447	0.00031	0.181596	0.199839
1962	0.000639	0.167954	0.005241	0.179952	0.199511
1963	0.00031	0.170419	0.007706	0.182746	0.200332
1964	0.00031	0.169926	0.002447	0.182582	0.196552
1965	-0.000183	0.169433	0.000639	0.182417	0.195566
1966	-0.000347	0.17272	0.000639	0.183404	0.197045
1967	-0.000347	0.172227	0.002282	0.18817	0.19836
1968	-0.000183	0.172885	0.000639	0.181596	0.199839
1969	-0.000347	0.176665	0.002447	0.181431	0.196717
1970	0.000146	0.170584	0.005569	0.184225	0.199018
1971	0.000474	0.174693	0.011979	0.183568	0.196717
1972	0.00031	0.177487	0.005734	0.187513	0.200168
1973	0.00031	0.178473	0.016253	0.185705	0.200497
1974	0.000639	0.177651	0.020855	0.187348	0.198031
1975	0.000146	0.181596	0.006884	0.187348	0.197867
1976	-1.9e-05	0.182089	0.002775	0.188499	0.200168
1977	-1.9e-05	0.182582	0.006227	0.189485	0.198853
1978	-0.000512	0.18439	0.002611	0.192772	0.200332
1979	-0.000347	0.18061	0.010336	0.1908	0.199346
1980	-0.000183	0.184225	0.014116	0.188663	0.199675
1981	-1.9e-05	0.178802	0.021348	0.189156	0.198689
1982	0.000146	0.182417	0.03236	0.186855	0.200004
1983	0.000474	0.185212	0.011979	0.1908	0.198524
1984	0.000474	0.183568	0.00146	0.185705	0.198853
1985	0.000474	0.187513	0.003433	0.190471	0.199182
1986	0.00031	0.18554	0.010829	0.186855	0.197045
1987	-0.000183	0.185212	0.002611	0.1908	0.197867
1988	-0.000183	0.187841	0.015102	0.190142	0.198689
1989	-0.000347	0.188827	0.019211	0.195073	0.194909
1990	-0.000676	0.185212	0.028251	0.192443	0.198853
1991	-0.000512	0.190307	0.033839	0.192608	0.199018
1992	0.000146	0.183404	0.039756	0.192279	0.199018
1993	0.00031	0.189156	0.046001	0.192936	0.20362
1994	0.000474	0.187348	0.052575	0.192936	0.199511
1995	0.000146	0.190307	0.043865	0.19458	0.197867
1996	0.00031	0.191457	0.049453	0.193265	0.203291
1997	0.00031	0.191621	0.056356	0.19573	0.201154
1998	-0.000347	0.194416	0.06408	0.193101	0.198524
1999	-0.000183	0.193265	0.070655	0.192608	0.197703
2000	-0.000347	0.193101	0.070819	0.196881	0.200497
2001	-0.000512	0.19458	0.078051	0.194251	0.196388
2002	-0.000347	0.192115	0.07838	0.192443	0.196223
2003	-1.9e-05	0.18932	0.084954	0.193429	0.199018
2004	-1.9e-05	0.191293	0.088734	0.194251	0.198524
2005	0.000146	0.192936	0.054219	0.193429	0.196881
2006	0.00031	0.193594	0.00031	0.196881	0.199511
2007	0.00031	0.192608	0.003268	0.191128	0.196552
2008	0.000146	0.191786	0.000639	0.194909	0.199182
2009	-1.9e-05	0.192772	0.000474	0.194744	0.198031
2010	-0.000347	0.192936	0.008199	0.194909	0.19721
2011	-0.000512	0.194251	0.000146	0.195895	0.200004
2012	-0.000512	0.195566	-0.000512	0.198031	0.19836
2013	-0.000347	0.194744	0.000146	0.196059	0.203291
2014	-0.000183	0.191128	-0.000347	0.198196	0.199018
2015	0.000146	0.193101	0.003104	0.197374	0.199018
2016	-1.9e-05	0.193594	0.001296	0.19573	0.188006
2017	0.000474	0.195402	-0.001498	0.195895	0.155627
2018	0.000474	0.193594	0.005734	0.199018	0.09613
2019	0.000146	0.194087	0.002447	0.198524	0.034989
2020	-1.9e-05	0.194744	0.002282	0.197045	0.006556
2021	-0.000676	0.197703	0.004748	0.196388	0.004583
2022	-0.000512	0.194416	0.001296	0.196552	0.006556
2023	-0.000347	0.196881	-0.001169	0.196717	0.020526
2024	-0.001005	0.195073	0.000639	0.195237	0.01691
2025	0.000146	0.19195	-0.001005	0.197374	0.024142
2026	0.000146	0.196223	0.001296	0.195895	0.03351
2027	0.000474	0.196223	0.000639	0.198031	0.039263
2028	0.00031	0.196717	0.001789	0.197374	0.045015
2029	0.000474	0.19721	0.001789	0.196223	0.048467
2030	0.00031	0.19573	0.002282	0.196223	0.043043
2031	-1.9e-05	0.196552	0.000474	0.19721	0.033346
2032	-0.000347	0.200004	0.001625	0.196059	0.015266
2033	-0.000347	0.197703	0.001132	0.193101	0.005734
2034	-0.000183	0.196059	-0.000183	0.196223	0.004912
2035	-0.000676	0.195566	-0.000347	0.193922	0.007377
2036	-0.000183	0.196552	-0.000347	0.199346	0.014445
2037	0.000146	0.190142	0.00031	0.196223	0.017567
2038	0.000146	0.197867	0.000146	0.196717	0.024142
2039	0.000639	0.196223	0.000146	0.193101	0.023156
2040	0.00031	0.196223	0.000146	0.197867	0.031867
2041	0.000146	0.195895	-1.9e-05	0.195402	0.036633
2042	-0.000347	0.195237	0.00031	0.195073	0.036962
2043	-0.000183	0.196881	0.00031	0.196552	0.038934
2044	-0.000347	0.195566	-0.000183	0.196388	0.045508
2045	-0.000183	0.194909	-0.000347	0.197538	0.051589
2046	-0.000347	0.196717	-0.000512	0.195566	0.055534
2047	0.000146	0.200332	-0.000512	0.196717	0.064738
2048	0.000474	0.196388	-0.000183	0.196223	0.065395
2049	0.00031	0.197045	0.000146	0.197538	0.07312
2050	0.00031	0.198196	0.000474	0.193758	0.079859
2051	0.000474	0.200168	0.00031	0.196717	0.080516
2052	0.000146	0.196059	0.000474	0.195566	0.08709
2053	-0.000183	0.199346	0.00031	0.196223	0.093993
2054	-0.000183	0.200332	0.000146	0.199018	0.093007
2055	-0.000512	0.199182	-0.000183	0.194087	0.098431
2056	-0.000347	0.195566	-0.000347	0.194416	0.100896
2057	-0.000183	0.199346	-0.000512	0.196059	0.103855
2058	0.000146	0.19836	-0.000512	0.195566	0.111744
2059	0.000146	0.192608	-1.9e-05	0.192608	0.111908
2060	0.00031	0.197045	0.000146	0.194087	0.116346
2061	0.000474	0.196881	0.000146	0.192608	0.120784
2062	0.000474	0.19836	-1.9e-05	0.196059	0.123413
2063	0.00031	0.198853	0.000803	0.195895	0.127687
2064	-1.9e-05	0.198196	0.000967	0.193594	0.132124
2065	-0.000183	0.197703	0.002118	0.193429	0.130152
2066	-0.000676	0.201154	0.000474	0.195402	0.138699
2067	-0.000347	0.196881	0.00294	0.194251	0.136891
2068	-0.000512	0.200497	-0.001498	0.194416	0.138041
2069	0.000146	0.196388	0.000639	0.192608	0.137055
2070	-1.9e-05	0.197867	0.00146	0.196223	0.137877
2071	0.00031	0.19836	0.001625	0.195895	0.13196
2072	0.00031	0.197374	0.002775	0.196059	0.03992
2073	0.000474	0.196552	-0.000676	0.196552	0.046166
2074	0.00031	0.197703	0.000803	0.192443	0.00146
2075	-1.9e-05	0.193594	0.00031	0.194087	0.006884
2076	-0.000183	0.196388	0.000474	0.191457	0.009514
2077	-0.000512	0.197374	-0.000512	0.193922	0.017239
2078	-0.000347	0.196059	-0.000183	0.193429	0.011815
2079	-0.000347	0.20099	-1.9e-05	0.192115	0.019047
2080	-1.9e-05	0.198853	0.000146	0.194251	0.021841
2081	0.000146	0.197867	-0.000512	0.193758	0.025785
2082	0.00031	0.197538	-1.9e-05	0.190964	0.023649
2083	0.000474	0.199839	-1.9e-05	0.191128	0.025457
2084	0.00031	0.197703	0.00146	0.19195	0.01691
2085	0.000474	0.200497	0.000146	0.188499	0.009678
2086	-1.9e-05	0.199346	0.00146	0.189649	0.010007
2087	-0.000183	0.200004	0.000146	0.194251	0.003597
2088	-0.000183	0.202305	-1.9e-05	0.194909	0.003104
2089	-0.000512	0.199182	0.000146	0.193265	0.001296
2090	-0.000347	0.197045	-0.000512	0.194087	0.003104
2091	-0.000183	0.201154	-0.000841	0.192772	0.005734
2092	-1.9e-05	0.189978	-0.000347	0.196552	0.012144
2093	0.000146	0.195895	0.000474	0.194087	0.013294
2094	0.000474	0.196059	-0.001005	0.194416	0.018554
2095	0.00031	0.193101	0.001132	0.192443	0.022334
2096	0.000474	0.199018	0.000146	0.195073	0.030387
2097	-0.000183	0.194251	0.000803	0.194909	0.038934
2098	-0.000512	0.200168	-0.000512	0.194744	0.041564
2099	-0.000183	0.20099	0.000639	0.195073	0.045508
2100	-0.000512	0.20099	-0.000841	0.19836	0.056027
2101	-0.000183	0.199346	-0.000347	0.195895	0.059643
2102	0.000146	0.201319	0.001132	0.196388	0.068189
2103	0.00031	0.19836	-0.000512	0.195402	0.073778
2104	0.000146	0.200497	-1.9e-05	0.195895	0.072791
2105	0.00031	0.200332	0.000639	0.195073	0.082982
2106	0.000474	0.197867	0.000803	0.193265	0.082653
2107	0.00031	0.199346	0.000474	0.194909	0.090378
2108	-0.000347	0.198689	0.000474	0.193594	0.095144
2109	-0.000347	0.200332	0.00031	0.19458	0.095308
2110	-0.000347	0.196552	-0.000676	0.19573	0.09876
2111	-0.000512	0.197374	-0.000183	0.194087	0.103197
2112	-1.9e-05	0.197867	-0.000347	0.193758	0.103691
2113	0.000146	0.199018	-0.000676	0.19573	0.113388
2114	-1.9e-05	0.198689	-0.000183	0.194744	0.116182
2115	0.00031	0.198031	-1.9e-05	0.194416	0.117825
2116	0.000639	0.197703	0.000474	0.192936	0.118483
2117	0.00031	0.199511	0.000146	0.193265	0.124893
2118	0.000474	0.202469	0.00031	0.195073	0.127029
2119	-1.9e-05	0.202633	0.000639	0.19721	0.12818
2120	-0.000183	0.199675	0.000474	0.193429	0.132124
2121	-0.000347	0.200497	-0.000183	0.1908	0.135904
2122	-0.000676	0.200004	-0.000347	0.193265	0.133932
2123	0.00031	0.196881	-0.000183	0.194416	0.133275
2124	-1.9e-05	0.200332	-0.000676	0.192279	0.132617
2125	-1.9e-05	0.194251	-0.000183	0.193758	0.132289
2126	0.000474	0.19573	-1.9e-05	0.195237	0.134097
2127	0.000474	0.197045	-1.9e-05	0.194087	0.130809
2128	0.000474	0.198196	0.000146	0.194087	0.124071
2129	0.00031	0.196717	0.000474	0.194087	0.120619
2130	-1.9e-05	0.200004	0.00031	0.194744	0.127358
2131	-0.000347	0.198689	0.000146	0.193429	0.12933
2132	-0.000512	0.19836	-0.000183	0.192772	0.132453
2133	-0.000347	0.199182	-0.000183	0.192772	0.135411
2134	-0.000512	0.199675	-0.000512	0.193429	0.138041
2135	0.000146	0.196223	-0.000512	0.201812	0.142314
2136	0.000803	0.200004	-0.000347	0.196223	0.141657
2137	0.00031	0.199346	0.000146	0.194251	0.146095
2138	0.001789	0.199346	0.000474	0.195402	0.14856
2139	0.00146	0.198689	0.000474	0.196388	0.150861
2140	0.003104	0.197374	0.000474	0.193758	0.152011
2141	0.000474	0.199511	0.00031	0.195237	0.155134
2142	0.001132	0.192443	0.000146	0.194087	0.153655
2143	-0.000512	0.197045	-0.000841	0.195073	0.156285
2144	0.000146	0.199675	-0.000183	0.193922	0.156613
2145	-0.000512	0.197867	-0.000512	0.191621	0.160558
2146	0.000639	0.197867	-0.000512	0.188006	0.160558
2147	-0.000676	0.197538	-0.000347	0.194909	0.161873
2148	0.00031	0.196881	0.000474	0.191621	0.161709
2149	0.000967	0.20362	0.000146	0.192115	0.16401
2150	-0.000347	0.199018	0.000146	0.196059	0.169433
2151	0.002611	0.200004	0.000474	0.195073	0.169598
2152	0.003433	0.20099	0.000146	0.195895	0.169269
2153	0.007213	0.201812	0.000474	0.196059	0.170584
2154	0.00031	0.200004	-0.000183	0.194909	0.172885
2155	0.008035	0.199346	-0.000347	0.197374	0.170748
2156	-0.000183	0.200497	-0.000347	0.196388	0.174364
2157	0.004912	0.198031	-0.000512	0.197374	0.174528
2158	0.004255	0.197374	-0.000512	0.196717	0.178966
2159	0.004255	0.200168	-1.9e-05	0.195237	0.177651
2160	0.001789	0.19836	0.000146	0.196223	0.17798
2161	0.003104	0.19836	0.000474	0.197045	0.1742
2162	-0.000841	0.197538	0.000474	0.197374	0.176008
2163	0.00031	0.198524	0.000474	0.194416	0.177815
2164	-0.000183	0.201154	0.00031	0.197374	0.176994
2165	-0.000676	0.197045	-1.9e-05	0.19458	0.179459
2166	-1.9e-05	0.19836	-0.000512	0.195237	0.18061
2167	-0.000183	0.194909	-0.000347	0.196223	0.180445
2168	0.00031	0.200825	-0.000512	0.197538	0.182253
2169	0.00146	0.199018	-0.000347	0.196717	0.184883
2170	0.003104	0.198196	0.000146	0.197045	0.179459
2171	0.001954	0.199346	0.000146	0.195895	0.184061
2172	0.004912	0.199018	0.000639	0.195566	0.182582
2173	0.00294	0.199346	0.000474	0.197703	0.177651
2174	0.008857	0.19836	0.000474	0.200168	0.182089
2175	0.00787	0.199346	0.00031	0.20099	0.186855
2176	0.007542	0.195402	-0.000183	0.19573	0.184061
2177	0.008528	0.197045	-0.000183	0.199839	0.185212
2178	0.009021	0.198853	-0.000183	0.193594	0.183075
2179	0.006227	0.198689	-0.000512	0.193594	0.188006
2180	0.005734	0.197374	-0.000512	0.198196	0.187841
2181	0.001132	0.199182	-1.9e-05	0.194251	0.185869
2182	0.00031	0.196881	0.000474	0.194087	0.187677
2183	0.00031	0.19573	0.00031	0.193101	0.188499
2184	0.000146	0.202469	0.00031	0.192443	0.188663
2185	-0.000183	0.196059	0.00031	0.193594	0.188992
2186	-0.000347	0.200332	-1.9e-05	0.195237	0.189485
2187	-0.000347	0.19836	-1.9e-05	0.19195	0.189814
2188	-0.000347	0.198689	-0.000183	0.194744	0.188334
2189	-0.000512	0.198196	-0.000347	0.194909	0.191457
2190	-0.000183	0.199675	-0.000347	0.196552	0.192936
2191	0.000146	0.196223	-0.000183	0.196717	0.191786
2192	0.00031	0.196059	-1.9e-05	0.198196	0.189814
2193	0.000474	0.195895	0.000146	0.196552	0.191457
2194	0.000474	0.197374	0.000474	0.195566	0.188663
2195	0.001296	0.198031	0.000639	0.200497	0.187513
2196	0.001954	0.199675	0.000474	0.199346	0.1908
2197	0.005569	0.199346	0.000474	0.19721	0.188499
2198	0.004583	0.196717	-0.000183	0.198689	0.190142
2199	-0.000841	0.203948	-0.000347	0.197538	0.191457
2200	-0.000676	0.199018	-0.000512	0.196223	0.19195
2201	-1.9e-05	0.197867	-0.000512	0.197374	0.193758
2202	0.000146	0.196717	-1.9e-05	0.198196	0.194087
2203	0.000146	0.197703	-0.000676	0.197045	0.194416
2204	0.000474	0.197045	0.000639	0.196223	0.190964
2205	0.000474	0.199346	0.000474	0.197538	0.19195
2206	0.000474	0.19721	0.000474	0.19721	0.1908
2207	0.000474	0.20214	0.000474	0.199346	0.195237
2208	-0.000183	0.199511	0.000474	0.197703	0.192443
2209	0.000146	0.197045	-0.000183	0.19836	0.192608
2210	-0.000676	0.200004	-0.000512	0.198196	0.191621
2211	0.000146	0.19836	-0.000347	0.199018	0.188499
2212	0.000146	0.199346	-0.000347	0.200661	0.18932
2213	-1.9e-05	0.204441	0.000146	0.199018	0.191293
2214	-1.9e-05	0.198031	0.00031	0.19836	0.188992
2215	0.00031	0.19836	0.000146	0.197374	0.187348
2216	0.000474	0.197703	0.00031	0.198031	0.189156
2217	0.00031	0.194744	0.000474	0.197374	0.080352
2218	-1.9e-05	0.199018	0.000146	0.198031	0.001625
2219	-0.000183	0.19721	0.00031	0.198524	0.00409
2220	-0.000512	0.198853	-0.000183	0.198689	0.011979
2221	-0.000347	0.197538	-1.9e-05	0.19573	0.016417
2222	-0.000512	0.198689	-0.000347	0.197538	0.000967
2223	0.000146	0.197374	-0.000183	0.20099	0.0105
2224	0.000146	0.201483	-1.9e-05	0.192772	0.020526
2225	0.000146	0.197867	0.000146	0.193758	0.022005
2226	0.00031	0.19721	0.000146	0.199675	0.03236
2227	0.00031	0.196552	0.000474	0.198196	0.037619
2228	0.000146	0.198689	0.000474	0.198853	0.041399
2229	-1.9e-05	0.200332	0.000639	0.200168	0.049124
2230	-0.000183	0.198196	0.000474	0.198196	0.056027
2231	-0.000347	0.201154	-0.000183	0.197703	0.060958
2232	-0.000512	0.198853	-0.000347	0.198524	0.060136
2233	-0.000183	0.198031	-0.000512	0.201976	0.072298
2234	-0.000183	0.19836	-0.000512	0.195237	0.075257
2235	0.00031	0.200004	-0.000512	0.197045	0.010829
2236	0.00031	0.197867	0.000639	0.194744	0.003597
2237	0.00031	0.199346	0.000146	0.197045	0.01428
2238	0.00031	0.19721	0.00031	0.193758	0.021019
2239	0.000146	0.198196	0.000474	0.19836	0.023649
2240	-1.9e-05	0.196717	0.00031	0.199346	0.035482
2241	-0.000347	0.196881	0.000146	0.19836	0.042714
2242	-0.000347	0.195566	-0.000183	0.199182	0.046166
2243	-0.000512	0.199675	-0.000512	0.200825	0.052411
2244	-0.000347	0.196881	-0.000183	0.201483	0.059314
2245	-0.000183	0.198196	-1.9e-05	0.201812	0.064574
2246	0.000146	0.201647	-0.000347	0.196717	0.06934
2247	0.00031	0.198853	0.000474	0.199346	0.074928
2248	0.000474	0.199675	0.000146	0.200661	0.078708
2249	0.00031	0.198853	0.000146	0.196881	0.081995
2250	0.00031	0.195895	0.000474	0.200168	0.087748
2251	-0.000183	0.197045	0.000474	0.198031	0.092514
2252	-0.000347	0.200004	-1.9e-05	0.199182	0.094322
2253	-0.000512	0.193429	-1.9e-05	0.196059	0.09498
2254	-0.000347	0.199675	-0.000347	0.199675	0.100403
2255	-0.000512	0.199346	-0.000347	0.198853	0.106649
2256	-1.9e-05	0.199511	-0.000512	0.19721	0.11158
2257	0.000146	0.199511	-0.000676	0.199182	0.114209
2258	0.00031	0.199511	0.00031	0.199346	0.11651
2259	0.00031	0.198853	0.00031	0.198196	0.121605
2260	0.00031	0.199839	0.002447	0.199511	0.129495
2261	0.00031	0.202469	0.001625	0.199018	0.12818
2262	-1.9e-05	0.200004	0.000639	0.199346	0.129823
2263	-0.000183	0.204277	-0.000183	0.201647	0.132289
2264	-0.000347	0.198196	-0.000347	0.19836	0.132782
2265	-0.000512	0.201154	-0.000512	0.200497	0.137055
2266	-0.000512	0.199675	0.000967	0.198524	0.139356
2267	-1.9e-05	0.200004	0.005569	0.197703	0.141
2268	0.000146	0.197374	0.009514	0.200168	0.142643
2269	0.000146	0.199346	0.011322	0.200661	0.145273
2270	0.000474	0.197538	0.01954	0.196717	0.144451
2271	0.00031	0.198689	0.018554	0.198689	0.146916
2272	0.00031	0.197045	0.017732	0.196388	0.146259
2273	-1.9e-05	0.198689	0.014773	0.198853	0.155627
2274	-0.000347	0.199675	0.018882	0.202469	0.152833
2275	-0.000347	0.197867	0.028251	0.198031	0.154477
2276	-0.000512	0.197538	0.0271	0.19573	0.156449
2277	-0.000512	0.19836	0.035811	0.198524	0.158914
2278	-1.9e-05	0.198689	0.035811	0.198853	0.162037
2279	0.000146	0.201812	0.04255	0.197045	0.163516
2280	0.000474	0.200497	0.044851	0.20477	0.163845
2281	0.000474	0.198689	0.050274	0.197045	0.164831
2282	0.00031	0.199839	0.050768	0.197374	0.164667
2283	0.00031	0.198524	0.05274	0.195402	0.167132
2284	-0.000183	0.201319	0.047152	0.196717	0.169762
2285	-0.000183	0.200168	0.031867	0.19721	0.166968
2286	-0.000347	0.199839	0.034003	0.195237	0.169762
2287	-0.000347	0.197867	0.035318	0.196223	0.169926
2288	-0.000347	0.199018	0.035811	0.198031	0.169926
2289	-0.000183	0.195402	0.038441	0.196881	0.176994
2290	0.000146	0.198031	0.04107	0.198689	0.170748
2291	0.000146	0.195073	0.044522	0.199018	0.172392
2292	0.00031	0.193594	0.051918	0.196717	0.1742
2293	0.00031	0.197703	0.050439	0.199182	0.176336
2294	0.00031	0.197538	0.057835	0.200661	0.174857
2295	-1.9e-05	0.202305	0.059807	0.194744	0.180445
2296	-1.9e-05	0.201154	0.06293	0.19721	0.180116
2297	-1.9e-05	0.200825	0.008857	0.201647	0.180445
2298	-0.000347	0.200004	0.010171	0.198853	0.175679
2299	-0.000347	0.201154	0.008199	0.201812	0.177322
2300	-0.000183	0.20099	0.009678	0.199346	0.178309
2301	0.000146	0.201319	0.019211	0.198689	0.17913
2302	0.000146	0.202633	0.025785	0.19836	0.172063
2303	0.000474	0.199675	0.032031	0.197374	0.178637
2304	0.000474	0.198524	0.038441	0.19721	0.178966
2305	0.000146	0.199182	0.045837	0.199346	0.17535
2306	-1.9e-05	0.19836	0.050274	0.198196	0.182417
2307	-0.000347	0.199018	0.05537	0.196223	0.177322
2308	-0.000347	0.19836	0.062766	0.198031	0.181267
2309	-0.000512	0.199511	0.067861	0.195073	0.178144
2310	-0.000347	0.200497	0.069833	0.200168	0.183897
2311	-0.000183	0.200825	0.078544	0.199018	0.182746
2312	0.00031	0.200332	0.081338	0.199346	0.187184
2313	0.00031	0.197703	0.086104	0.198031	0.184225
2314	0.000474	0.200004	0.087584	0.199675	0.18439
2315	0.00031	0.196223	0.082653	0.198689	0.178966
2316	0.000146	0.202305	0.084789	0.199346	0.135904
2317	-1.9e-05	0.200497	0.07838	0.198196	0.136398
2318	-0.000183	0.201976	0.067696	0.199182	0.135576
2319	-0.000512	0.201647	0.070326	0.19721	0.137548
2320	-0.000183	0.199018	0.071312	0.196717	0.140178
2321	-0.000676	0.199346	0.051425	0.198196	0.142972
2322	0.000146	0.198524	0.050768	0.19721	0.14478
2323	0.00031	0.199675	0.041564	0.193101	0.147738
2324	0.00031	0.197867	0.043043	0.196552	0.144122
2325	0.00031	0.195237	0.049781	0.201319	0.150039
2326	0.000474	0.194909	0.057671	0.199346	0.14971
2327	0.000146	0.198196	0.060793	0.200661	0.150697
2328	-0.000183	0.197867	0.067203	0.197374	0.15875
2329	-0.000347	0.199839	0.067368	0.197374	0.158093
2330	-0.000512	0.19836	0.0769	0.195237	0.157271
2331	-0.000347	0.200004	0.081831	0.199182	0.162202
2332	-0.000183	0.198031	0.086762	0.197045	0.162202
2333	-0.000183	0.200332	0.092514	0.198031	0.164831
2334	0.000146	0.200004	0.09498	0.197374	0.166475
2335	0.000146	0.201483	0.09613	0.198524	0.166311
2336	0.000474	0.199839	0.101718	0.198524	0.167954
2337	0.000474	0.197374	0.104677	0.19721	0.166311
2338	0.000474	0.201647	0.107471	0.196388	0.171077
2339	-0.000183	0.198853	0.11273	0.19721	0.172392
2340	-0.000183	0.200825	0.114209	0.198689	0.171899
2341	-0.000347	0.194909	0.116675	0.195895	0.169926
2342	-0.000512	0.195237	0.121277	0.200168	0.174693
2343	-0.000347	0.196223	0.121441	0.198689	0.170748
2344	-1.9e-05	0.200661	0.124399	0.19573	0.174364
2345	0.00031	0.198853	0.128837	0.19573	0.175021
2346	0.000146	0.19836	0.128673	0.195237	0.179459
2347	0.000474	0.198524	0.130809	0.195237	0.18061
2348	0.00031	0.199675	0.131467	0.194251	0.178144
2349	0.000146	0.199839	0.137384	0.198196	0.178473
2350	0.000146	0.202633	0.141328	0.19721	0.182253
2351	-0.000183	0.201319	0.138205	0.198689	0.179459
2352	-0.000347	0.200497	0.140835	0.197867	0.176829
2353	-0.000512	0.201647	0.141493	0.199511	0.183568
2354	-0.000512	0.19836	0.143794	0.198196	0.182253
2355	-1.9e-05	0.200332	0.140671	0.199346	0.180281
2356	0.000146	0.200661	0.144122	0.197703	0.182582
2357	0.000146	0.199018	0.137219	0.194251	0.181103
2358	0.00031	0.199182	0.133932	0.187677	0.179295
2359	0.000474	0.201154	0.134425	0.178473	0.181596
2360	0.000474	0.199182	0.133932	0.166475	0.183568
2361	-0.000183	0.201319	0.136726	0.16401	0.184718
2362	-0.000183	0.198689	0.135411	0.162859	0.184061
2363	-0.000512	0.199018	0.140178	0.160887	0.186526
2364	-0.000512	0.200332	0.141493	0.167461	0.184718
2365	-0.000512	0.19458	0.141821	0.166804	0.180445
2366	-1.9e-05	0.199182	0.143465	0.170748	0.160558
2367	-1.9e-05	0.202469	0.146588	0.17157	0.159901
2368	0.000474	0.198853	0.140671	0.170748	0.161051
2369	0.00031	0.200168	0.114045	0.171241	0.151354
2370	0.000474	0.201154	0.051754	0.174364	0.126043
2371	0.00031	0.197867	0.035318	0.171899	0.07575
2372	-1.9e-05	0.200332	0.028579	0.176829	0.077393
2373	-0.000183	0.199675	0.03088	0.178309	0.076736
2374	-0.000347	0.197867	0.023484	0.176665	0.077065
2375	-0.000183	0.195237	0.016581	0.178309	0.081667
2376	-0.000512	0.193265	0.013623	0.179295	0.086926
2377	-0.000183	0.191457	0.012965	0.179459	0.068847
2378	0.00031	0.19458	0.022991	0.18061	0.057671
2379	0.00031	0.188992	0.024635	0.178637	0.062273
2380	0.00031	0.19195	0.031867	0.178637	0.067203
2381	0.000474	0.193101	0.031538	0.178802	0.074764
2382	0.00031	0.189978	0.039756	0.178637	0.077558
2383	-1.9e-05	0.188499	0.043371	0.174693	0.085283
2384	-0.000183	0.1908	0.050768	0.163352	0.084461
2385	-0.000347	0.189814	0.055863	0.163516	0.090871
2386	-0.000347	0.190142	0.060793	0.168283	0.094651
2387	-0.000512	0.190471	0.06671	0.169762	0.099417
2388	-0.000183	0.188827	0.071477	0.169105	0.10254
2389	0.00031	0.192443	0.075092	0.172392	0.103033
2390	0.00031	0.18817	0.079694	0.171734	0.111415
2391	0.00031	0.189814	0.082817	0.174528	0.115524
2392	0.000474	0.185047	0.08594	0.175021	0.112401
2393	0.00031	0.187677	0.090378	0.179459	0.120126
2394	-1.9e-05	0.187677	0.093336	0.177815	0.12177
2395	-0.000183	0.189649	0.093336	0.178966	0.119797
2396	-0.000676	0.189814	0.07049	0.173542	0.124071
2397	-0.000676	0.189649	0.016581	0.180774	0.126536
2398	-0.000512	0.189485	-0.001334	0.182746	0.130974
2399	0.000146	0.188827	0.000146	0.181267	0.131467
2400	0.00031	0.194251	-0.000347	0.182911	0.135411
2401	0.000146	0.190471	0.000146	0.182582	0.135904
2402	0.000474	0.187841	0.00031	0.183732	0.140342
2403	0.00031	0.187841	0.000474	0.183897	0.141
2404	0.000474	0.192443	0.00031	0.185212	0.146259
2405	-0.000183	0.19195	0.000474	0.184061	0.142314
2406	-0.000347	0.191457	0.00031	0.185376	0.143301
2407	-0.000347	0.192279	0.000146	0.185869	0.147081
2408	-0.000512	0.195073	-0.000347	0.186526	0.143794
2409	-0.000676	0.191786	-0.000347	0.186198	0.143629
2410	-0.000183	0.193101	-0.000512	0.18817	0.146588
2411	0.000474	0.194909	-0.001005	0.186198	0.147245
2412	0.000146	0.193101	-0.000841	0.18932	0.149217
2413	0.000474	0.190471	0.000639	0.186526	0.150697
2414	0.00031	0.191128	0.00146	0.187841	0.150697
2415	0.000474	0.192772	0.002282	0.189649	0.152833
2416	-1.9e-05	0.194251	0.008363	0.188499	0.156285
2417	-0.000183	0.194909	0.004255	0.18932	0.156449
2418	-0.000347	0.193594	0.014938	0.188499	0.156778
2419	-0.000512	0.196552	0.020362	0.189814	0.159572
2420	-0.000512	0.195895	0.025621	0.190142	0.154641
2421	-1.9e-05	0.197045	0.030059	0.190964	0.161215
2422	0.000146	0.19836	0.038605	0.187841	0.163352
2423	0.00031	0.196717	0.043536	0.193594	0.164667
2424	0.000474	0.193429	0.044358	0.191128	0.163681
2425	0.000474	0.193265	0.043536	0.191621	0.164667
2426	0.00031	0.196059	0.031538	0.190142	0.168776
2427	-0.000183	0.196552	0.03236	0.189649	0.167954
2428	-0.000512	0.197045	0.024799	0.192772	0.168283
2429	-0.000512	0.196717	0.028251	0.188992	0.169269
2430	-0.000183	0.197374	0.000639	0.194087	0.172063
2431	-0.000512	0.195566	0.004255	0.193265	0.170419
2432	-1.9e-05	0.196059	0.007213	0.191457	0.173542
2433	0.000146	0.19721	0.010664	0.190964	0.174528
2434	0.00031	0.198196	0.000474	0.193429	0.175843
2435	0.00031	0.19573	0.003761	0.193101	0.173542
2436	0.000146	0.197867	0.000146	0.192608	0.178144
2437	0.00031	0.197703	0.006391	0.192279	0.176336
2438	-1.9e-05	0.199182	0.00935	0.194251	0.179952
2439	-0.000183	0.199346	0.008528	0.192936	0.175186
2440	-0.000512	0.199839	0.021019	0.196552	0.176994
2441	-0.000512	0.197867	0.025292	0.193101	0.174035
2442	-0.000347	0.196059	0.030716	0.197867	0.174364
2443	-0.000183	0.196552	0.034989	0.200004	0.176665
2444	0.000146	0.197538	0.043043	0.19458	0.176665
2445	0.00031	0.195237	0.044522	0.196881	0.177158
2446	0.000146	0.198196	0.050439	0.194087	0.176501
2447	0.000474	0.200825	0.047973	0.193758	0.175679
2448	0.000474	0.196717	0.009843	0.195073	0.175515
2449	-0.000183	0.200168	0.001132	0.193758	0.177815
2450	-1.9e-05	0.198853	0.002282	0.194909	0.174528
2451	-0.000512	0.202305	0.001954	0.194416	0.175021
2452	-0.000347	0.196223	0.004419	0.194744	0.172556
2453	-0.000347	0.197703	0.004583	0.196717	0.178473
2454	-1.9e-05	0.197703	0.000474	0.195895	0.176172
2455	0.000146	0.201483	-0.003799	0.19836	0.171734
2456	0.000146	0.198853	-0.000347	0.197703	0.172885
2457	0.000474	0.200004	0.008692	0.196059	0.167297
2458	0.000474	0.196717	0.011651	0.198031	0.168118
2459	0.000146	0.199675	0.011158	0.196881	0.166146
2460	-1.9e-05	0.200497	0.008692	0.197045	0.166968
2461	-0.000183	0.202962	0.001789	0.195402	0.169105
2462	-0.000512	0.20214	-0.000841	0.198031	0.163188
2463	-0.000676	0.198689	0.001625	0.196223	0.162859
2464	-0.000512	0.199018	0.000803	0.198196	0.164667
2465	-1.9e-05	0.198196	0.000803	0.200332	0.160394
2466	0.000146	0.201812	-0.000183	0.196881	0.16401
2467	0.000474	0.196388	0.00146	0.195237	0.160065
2468	0.00031	0.198689	0.002611	0.197045	0.155956
2469	0.00031	0.198031	0.006227	0.193922	0.150039
2470	0.000639	0.200168	0.001625	0.195895	0.148396
2471	-0.000183	0.200004	0.00031	0.197374	0.148396
2472	-0.000183	0.201483	0.00031	0.200332	0.146752
2473	-0.000347	0.20099	0.000474	0.195566	0.151518
2474	-0.000347	0.200004	-0.000841	0.197703	0.151847
2475	-0.000183	0.198689	0.002282	0.198031	0.15234
2476	-0.000512	0.20362	0.006227	0.199511	0.147081
2477	-1.9e-05	0.200661	0.006227	0.195402	0.134918
2478	0.000146	0.196881	0.005241	0.194416	0.114045
2479	0.000146	0.20099	0.005076	0.196717	0.070819
2480	0.000474	0.200661	0.008035	0.195402	0.041235
2481	0.00031	0.19836	0.002447	0.198031	0.03614
2482	-0.000183	0.199839	0.002118	0.192443	0.026607
2483	-0.000183	0.202798	0.003268	0.193922	0.030223
2484	-0.000347	0.199511	0.00787	0.193922	0.032195
2485	-0.000183	0.200168	0.005076	0.197703	0.03729
2486	-1.9e-05	0.200497	0.000146	0.193758	0.044029
2487	-0.000183	0.199018	0.004419	0.195895	0.050603
2488	-1.9e-05	0.199018	0.011651	0.197374	0.03088
2489	0.000146	0.198031	0.014938	0.196388	0.010007
2490	0.000474	0.198853	0.015266	0.199346	0.01576
2491	0.00031	0.200661	0.026114	0.198031	0.023156
2492	0.00031	0.20099	0.025621	0.194909	0.03088
2493	-1.9e-05	0.200661	0.03088	0.195566	0.035154
2494	-1.9e-05	0.202469	0.03614	0.198689	0.045179
2495	-0.000183	0.200332	0.037126	0.194909	0.050439
2496	-0.000347	0.198031	0.040413	0.200661	0.05537
2497	0.000146	0.200497	0.041564	0.197045	0.060958
2498	-0.000183	0.202305	0.012144	0.195895	0.065067
2499	0.00031	0.200004	0.003268	0.199346	0.068847
