Ladekurvenmessung

Zeit: 2018_05_04 08.55.03

Info: FVA3, v = 0.1, T = 23, F = 20, h = 17.3

Ladewiderstand[Ohm]: 1012700

Störkapazität[pF]: 0.000000

Entladezeit[ms]: 200

Abtastrate[Hz]: 250000

Anzahl der Messwerte: 2500.000000

Verzögerung[ms]: 3

Ladespannung[V]: 0.200000


	Kurve_1	Kurve_2	Kurve_3	Kurve_4
0	0.001789	0.000474	0.001296	0.003268
1	-0.000183	-0.000841	0.002775	0.00146
2	-0.000183	0.002118	0.00409	0.003926
3	-0.000512	0.001789	0.003104	0.003926
4	-0.000347	0.003104	0.003926	0.00146
5	0.005076	0.002775	-0.00232	0.002447
6	-0.001827	0.000146	0.001625	-0.001991
7	0.001132	-0.001005	0.001296	-0.004128
8	0.00031	0.000967	0.00031	0.003104
9	0.000967	-0.000841	-0.002813	-0.000676
10	-0.001991	0.000967	0.003104	0.000146
11	0.001132	0.001954	-0.000347	0.000803
12	0.003268	0.002611	0.001954	0.004255
13	0.002447	0.001132	0.002118	0.001296
14	0.001296	-0.000183	0.001625	0.00294
15	-0.001005	0.001625	0.001132	0.003761
16	0.00146	0.00146	0.00146	0.001132
17	-0.000676	0.000639	0.002611	0.00409
18	0.00031	0.001789	0.002447	0.002447
19	0.001954	0.000639	0.003268	0.002282
20	0.000803	0.000474	0.000639	0.001625
21	-0.000183	0.001625	0.003761	-0.002155
22	0.001296	0.000803	-0.002977	0.000146
23	0.000803	0.003433	0.000474	0.00294
24	-0.000347	0.00146	-0.000183	0.000146
25	0.00031	0.000639	-0.000347	0.001625
26	-0.000512	0.00146	-1.9e-05	0.000474
27	0.002611	0.001789	-0.00232	0.001625
28	-0.000841	0.002611	-0.000183	-0.000183
29	0.000474	0.000474	0.000146	0.00031
30	0.001625	0.002447	-1.9e-05	0.00031
31	0.001296	0.002282	-1.9e-05	0.000146
32	0.00146	0.005405	0.004748	-0.000183
33	0.000474	0.001954	-0.001991	0.001296
34	-0.001169	0.003104	0.001789	0.002447
35	-1.9e-05	0.003268	-0.001005	0.001132
36	-0.000841	0.003761	0.004419	-0.001498
37	0.000146	0.002447	-0.001005	-0.001827
38	-0.002155	0.00294	0.001296	0.000146
39	-1.9e-05	0.00146	-0.000347	-0.000676
40	-0.001827	0.000803	0.00146	0.00031
41	0.000146	0.00146	-0.001991	-0.001498
42	-1.9e-05	0.000967	-0.00232	0.000803
43	0.000474	0.00146	0.00031	-0.001498
44	0.000803	-0.001498	0.000967	-0.001169
45	-0.000183	0.003597	-0.001662	-0.001334
46	0.000474	-0.001169	0.000967	0.00146
47	-0.001991	0.001132	0.001132	0.001625
48	0.002447	0.001625	0.000803	0.001132
49	0.002447	-0.002813	0.001789	0.000639
50	0.001132	-0.000347	0.002282	0.000474
51	-0.001005	-0.000841	0.002118	0.003926
52	0.000474	-1.9e-05	0.000146	0.000474
53	0.00031	0.001296	0.000803	-0.000347
54	-0.001827	-0.000183	0.00146	-0.003963
55	0.000146	0.004583	0.001132	-0.001334
56	-0.001334	-0.001334	-0.001334	-0.001991
57	-0.000841	-0.000183	0.000967	-0.001991
58	-0.000183	0.001954	0.00031	-0.002648
59	-0.000676	0.000803	-0.001334	-0.000676
60	-0.001498	0.002611	-0.00347	0.002118
61	0.00146	-0.001169	-0.001334	0.00031
62	0.001625	-0.001991	0.00146	0.000639
63	0.000803	-0.001169	0.000474	0.001954
64	-0.001991	0.00031	0.001954	0.001789
65	0.003597	0.002282	-0.000841	0.002611
66	0.001132	0.002118	0.000474	0.003268
67	0.00146	-0.001662	0.000639	0.003268
68	-0.000512	0.000146	0.003104	0.001296
69	0.002282	0.002118	0.000146	0.000146
70	-0.000512	-0.000512	0.001954	0.000474
71	-0.000183	0.002282	-0.001169	-1.9e-05
72	-0.000347	0.001132	0.002447	0.000474
73	-0.001005	0.002447	0.000474	-0.003306
74	-0.001334	0.000803	0.001296	0.001789
75	-0.001498	0.002282	-0.001991	-0.000183
76	0.000639	0.003433	-0.000512	0.001789
77	-0.001169	0.003926	-0.00232	0.000474
78	0.000639	0.000803	-0.000512	0.002447
79	-0.000512	0.003597	-0.001662	-0.001827
80	0.000146	0.002611	-0.000512	0.005898
81	-0.001334	-0.000676	-0.003635	-0.00232
82	0.002118	-0.000183	-0.002484	0.00294
83	-0.000841	0.002447	-0.002484	0.00031
84	0.000803	-0.000512	0.000146	-0.000347
85	-0.002155	0.000639	-0.000676	0.002447
86	-0.003635	0.00146	-1.9e-05	-0.000347
87	-0.001498	0.000639	0.002118	0.00146
88	-1.9e-05	0.000146	-0.001991	-1.9e-05
89	-0.000841	-0.000183	-0.001827	0.000803
90	-0.001005	-0.000347	0.00146	0.001296
91	0.00031	-0.000512	-1.9e-05	-0.000183
92	-0.000347	-0.000183	-0.000183	-0.005114
93	-0.001169	-0.000183	-0.000183	0.000967
94	-0.00232	-1.9e-05	0.000474	-0.001334
95	0.001954	0.000146	-0.000183	-1.9e-05
96	0.00031	0.000146	0.000474	0.00294
97	0.000967	0.000146	0.00031	0.000146
98	0.001789	0.000146	0.003104	0.001789
99	0.001954	0.000146	-0.000676	-0.001005
100	0.001132	-0.000183	-0.001827	0.00031
101	0.000146	-0.000183	-0.000512	-0.001169
102	0.001789	-0.000183	-0.001827	-0.001827
103	-0.000183	-0.000347	-0.003306	-0.003142
104	-0.000183	-0.000183	-0.001169	-0.001827
105	0.000146	-1.9e-05	0.00031	-0.00347
106	0.000146	0.000146	-0.001169	-0.000183
107	-1.9e-05	0.00031	0.000474	-0.001005
108	0.000639	0.00031	0.000967	-0.001498
109	-0.001827	0.00031	0.000639	-0.00347
110	0.000146	-1.9e-05	-0.002648	0.000803
111	-0.000183	-0.000183	-0.001169	-0.000512
112	0.003926	-0.000183	-0.002813	0.000639
113	0.000803	-0.000347	-0.000676	0.00031
114	-0.000676	-0.000347	-0.001169	-0.000841
115	0.00146	-0.000347	-0.000183	0.002282
116	-0.001334	-1.9e-05	0.000639	-0.000183
117	0.000146	0.000146	0.002282	0.001132
118	-0.000183	0.00031	-0.000676	0.000146
119	0.000803	0.000146	0.000474	0.000639
120	0.00031	0.000146	0.001132	-0.000841
121	-0.000347	-0.000183	0.001296	0.002447
122	0.000803	-0.000183	0.000474	0.001954
123	-0.000347	-1.9e-05	0.002447	-0.000676
124	0.00031	-0.000347	0.000967	-0.000512
125	0.000967	-0.000347	-0.00347	-0.001662
126	-0.000841	-0.000183	0.00031	0.000639
127	-1.9e-05	0.000146	0.000967	0.000967
128	0.000967	0.00031	0.001625	0.00146
129	0.001132	0.000146	0.002282	0.000146
130	-1.9e-05	0.001296	0.001954	0.003268
131	-0.004785	0.001132	0.00146	0.000967
132	-0.00232	0.003926	-1.9e-05	0.000803
133	-0.000183	-0.000676	-0.002155	0.001132
134	-0.000183	-0.001169	0.00294	-0.001498
135	0.002611	0.00146	-0.001662	0.000639
136	0.000474	-0.00232	-0.001334	0.001132
137	-0.001005	-1.9e-05	0.000639	-0.001334
138	0.000639	-0.000841	0.001132	0.001954
139	0.001954	-1.9e-05	0.000803	0.000639
140	0.00031	0.000474	-0.000841	0.001789
141	0.000146	0.001625	0.002282	0.001132
142	0.000474	0.00031	-0.000676	-0.000183
143	0.002447	0.002447	-0.000512	-1.9e-05
144	-1.9e-05	0.002118	-0.000183	0.001789
145	-0.000841	-0.000183	-0.000183	0.00294
146	-0.000183	-1.9e-05	0.001625	0.00146
147	-0.001005	-0.000347	0.000967	0.001296
148	-0.000676	0.000639	-0.000841	-0.000347
149	0.00031	-1.9e-05	-0.000512	0.00031
150	0.000146	-0.000183	-0.001662	-0.000183
151	0.00031	-1.9e-05	0.001296	0.000803
152	0.00146	0.000967	0.000474	-1.9e-05
153	-1.9e-05	0.000146	-0.00232	0.001625
154	0.001296	0.000146	-0.004456	0.002118
155	-1.9e-05	-0.000183	-0.001498	0.001954
156	0.00031	-1.9e-05	-0.001662	0.00031
157	-0.000183	-0.001169	-0.00347	0.002447
158	0.000967	0.001296	-0.00232	-0.000183
159	-0.000512	-0.001991	0.001296	-0.001498
160	-0.000347	0.001296	0.000803	0.002447
161	0.00409	0.000803	-0.001169	0.001625
162	0.00031	-0.001005	0.000803	-0.000347
163	0.000474	0.00031	0.00031	0.000146
164	-1.9e-05	-0.000347	0.002775	-0.001005
165	-1.9e-05	0.001296	-0.001169	-0.001827
166	-0.000347	0.000639	0.000474	0.000967
167	0.000146	-0.001498	-0.001005	-0.001662
168	-0.000183	-0.001991	-0.001662	-0.002155
169	-0.001005	-0.000183	-0.000183	0.000474
170	-0.001827	-0.001334	-0.002648	0.001625
171	-1.9e-05	-0.002813	0.000474	0.002447
172	0.000146	-0.003142	-0.001169	0.003104
173	-1.9e-05	-0.001169	0.002611	0.000146
174	0.000474	-0.002484	0.001789	0.001296
175	-1.9e-05	0.000639	-0.001991	0.000639
176	-0.000183	0.000803	-0.001991	-0.001334
177	-0.000347	0.002118	0.002118	0.000803
178	-0.000347	-0.000512	0.001789	-0.001005
179	-0.000183	0.000474	0.000967	0.000967
180	-0.000676	-0.002813	0.001789	-0.000512
181	-1.9e-05	-0.001498	0.000474	0.000967
182	0.000146	-1.9e-05	0.000803	-0.001498
183	-0.000183	-0.00232	0.001789	0.001625
184	0.000146	-0.000512	0.001954	-0.001827
185	0.00031	-0.001662	0.003104	-0.001334
186	-0.001498	-0.00347	0.00031	-0.001169
187	0.001132	-0.00232	-0.000512	-0.001662
188	0.001132	0.000474	-1.9e-05	0.00031
189	-0.000512	-0.000676	-0.000841	0.000474
190	-0.001169	0.000146	0.000803	0.000803
191	-0.006757	-0.007086	-0.004621	0.001296
192	-0.001169	0.00146	0.001132	0.002611
193	0.000146	-0.001005	0.000967	0.000967
194	0.000146	0.001789	0.001132	-0.001005
195	-0.000347	0.001132	-1.9e-05	0.006391
196	-0.000676	0.002611	0.002118	0.000639
197	-1.9e-05	-0.000183	0.000639	-0.000183
198	-0.000841	0.001132	-0.000347	0.000474
199	0.000639	0.00146	0.000639	-0.001827
200	-0.000676	0.001296	-0.000183	0.00146
201	-0.004456	-0.000183	-0.000183	-0.001827
202	0.000803	-0.001827	0.002118	-1.9e-05
203	-1.9e-05	-1.9e-05	0.001789	0.002775
204	-0.000183	-0.001169	-0.00347	0.002447
205	0.000474	0.000967	0.000474	0.002282
206	0.00031	-0.001662	-0.000183	-0.002484
207	0.00146	0.003761	-0.000676	0.00146
208	0.001132	0.00146	-0.000183	-0.000347
209	0.000146	0.003433	0.000146	-1.9e-05
210	-1.9e-05	0.001954	-0.002813	-0.001169
211	0.00146	0.000146	0.00146	0.001625
212	-0.000347	0.000967	-0.000512	-0.000183
213	0.003268	0.005241	0.000803	0.001789
214	-0.001334	-1.9e-05	0.002611	-0.000183
215	-0.001005	-0.001662	-0.000183	0.000639
216	-0.001169	0.001132	0.000474	-0.000512
217	0.000639	0.001132	0.00031	-0.000183
218	-0.000841	-0.001662	-0.000841	-0.000183
219	-0.001498	-0.003635	-0.000676	-0.000676
220	-1.9e-05	-1.9e-05	-0.001991	-0.002648
221	0.000967	-0.001334	0.000474	-0.001827
222	0.000474	-0.000183	-0.001498	0.001132
223	0.001296	-0.003963	-0.001827	0.000803
224	0.005241	0.002282	0.001625	0.002282
225	0.00031	0.000967	-0.002813	0.000474
226	0.000474	0.000639	-0.001334	0.001296
227	-0.000676	0.001625	-0.000676	0.00031
228	0.001296	0.001296	0.000639	0.00031
229	0.000474	0.000803	-0.001662	0.000146
230	0.00031	0.00031	0.000474	0.001789
231	-1.9e-05	0.002282	-0.000512	-0.001662
232	0.002447	0.000803	0.000967	-0.00232
233	0.000967	0.002775	-0.000841	-0.001662
234	0.000474	0.00031	-0.003142	0.001789
235	-0.00232	0.00031	0.002775	-0.000512
236	-0.001827	-0.005278	-0.001827	-0.001498
237	-0.001169	-0.001005	-0.000841	-0.000183
238	-0.001498	0.001954	-0.000183	-0.000512
239	-0.003799	0.000967	0.00031	0.00031
240	-0.002648	-0.000183	-0.00232	-0.000347
241	-0.001827	-0.000512	0.002282	-0.000347
242	0.000803	0.001296	-0.000676	-0.0061
243	0.001296	0.000639	0.000146	-0.001498
244	-0.000841	0.00031	0.001625	-0.000676
245	0.001789	0.00146	-0.000512	0.004748
246	-0.000512	0.003597	0.003104	0.001625
247	0.000146	-0.001991	0.001132	0.002282
248	-1.9e-05	0.00031	-0.001005	-0.000676
249	-0.000676	0.001132	-0.000512	0.000474
250	0.002282	0.001789	-0.000183	-0.000676
251	-0.001498	0.000146	-0.000841	-0.00232
252	-0.00232	0.001132	0.003268	0.000803
253	-0.001334	0.002282	-0.000512	-0.007579
254	-0.002155	0.000803	0.001296	-0.00347
255	-0.001498	-0.000183	-0.002484	-0.002648
256	-0.001662	0.001132	-0.002648	0.000146
257	0.000474	0.003104	-0.001334	-0.001334
258	0.000639	0.003433	0.00146	-0.000841
259	0.001132	0.00294	-0.003306	-1.9e-05
260	0.00031	-0.001827	-0.003799	0.002775
261	-0.000347	0.00146	-0.001827	0.000967
262	0.00031	-0.001827	-0.001169	-0.000183
263	-0.000183	-0.000676	0.000803	-0.000347
264	0.000146	-1.9e-05	0.000474	0.002282
265	-0.000841	0.00146	0.001625	-0.001169
266	0.000474	-0.000841	-0.000183	-0.001334
267	-0.000347	0.002118	0.003597	0.000146
268	0.000639	0.001296	-0.001498	-0.000183
269	-0.001662	-0.002813	0.005241	-0.001169
270	-0.002155	-0.002155	-0.001334	-0.005278
271	-0.002648	0.000803	0.000146	-0.000512
272	0.000639	0.001132	0.000474	-0.000512
273	-0.002155	0.001296	0.003268	0.000803
274	-0.002977	0.000146	0.001132	-0.001498
275	0.000639	0.002775	0.003433	0.005405
276	-0.001334	0.001296	-0.003963	-0.001827
277	-0.001991	0.001132	-0.000512	-0.000676
278	-0.002155	0.00409	-0.001498	-0.001169
279	-0.002648	0.00146	-0.000512	-0.000347
280	-0.001827	-0.000512	0.001789	0.003268
281	-1.9e-05	-1.9e-05	-0.000183	-0.001827
282	-0.000183	0.001954	0.000474	0.001132
283	0.00031	0.000967	0.001296	0.001625
284	0.00031	0.001789	0.002118	-0.001169
285	-0.002813	0.000639	0.000803	-0.000183
286	-0.00232	0.002775	-0.002155	0.001789
287	-0.001005	0.000639	-0.000841	-0.001169
288	-0.001169	-0.003306	0.000803	0.000146
289	-0.003142	0.000146	0.000146	-0.003963
290	-0.000347	-1.9e-05	0.002447	0.000967
291	-0.003306	-0.001662	0.000146	-0.002484
292	0.002282	-1.9e-05	0.000639	-0.002648
293	0.00031	0.000474	-0.001169	-0.001334
294	-0.001991	-0.002977	-0.001169	-0.000347
295	0.00031	-0.000841	0.00031	-0.003142
296	-0.002977	-0.003799	0.000803	0.001625
297	0.000803	-0.000841	0.000803	0.001954
298	-1.9e-05	0.00031	-0.000676	0.000474
299	0.004419	0.00031	-0.00347	0.00031
300	0.003597	-0.001662	-0.000512	-0.000183
301	0.003268	0.001296	0.000474	0.00031
302	-0.000183	-0.002155	0.000639	-0.000183
303	-0.003306	-0.001169	0.00146	-0.001991
304	-0.001169	0.001132	0.001789	-0.001662
305	-0.000512	-0.001498	0.001132	-0.00347
306	-0.001498	0.001954	-0.001334	-0.003142
307	-0.000512	-0.000512	-0.000512	0.000146
308	-0.001005	0.001625	-1.9e-05	-0.006593
309	0.00146	-0.001991	-0.003635	-0.002648
310	-0.000183	-0.002155	-0.004949	0.000146
311	-0.001991	-0.003142	-0.001827	-0.001991
312	0.000967	-0.000347	0.001296	0.000639
313	0.001296	-0.001662	-0.000183	0.00031
314	0.00031	-0.001827	0.000474	-0.001169
315	0.001954	-0.001005	-1.9e-05	0.00031
316	0.00031	-0.001005	0.001789	0.002282
317	0.001954	-0.000183	0.000146	-0.000347
318	0.00146	0.003104	0.001132	0.000474
319	0.000474	-1.9e-05	-0.000841	0.002118
320	0.001954	0.001625	0.002611	-0.000347
321	-0.000183	0.001789	0.002118	-0.000841
322	-1.9e-05	0.00294	0.002775	-0.000183
323	-1.9e-05	0.003761	-0.000347	-0.000676
324	-0.000676	0.001132	0.005241	-0.001005
325	0.001132	0.003104	0.002118	-0.002813
326	-0.000183	0.000639	0.001625	-0.000676
327	-0.002484	0.00146	-1.9e-05	-0.000512
328	0.002118	-1.9e-05	-0.002813	0.000803
329	-0.002648	0.00146	-1.9e-05	-0.000512
330	0.000146	0.000967	-0.001169	-0.001498
331	0.000146	-1.9e-05	0.004255	-0.001005
332	0.002118	0.002775	-0.004128	0.00031
333	-0.000183	0.00294	0.000474	0.00146
334	-0.002977	0.003104	0.002118	-0.001334
335	-0.000841	0.00409	0.001789	0.001954
336	-0.001498	0.002447	-0.001498	-0.001662
337	-0.000676	0.005076	0.005076	0.002447
338	-0.000183	0.006062	0.001296	0.000146
339	-0.000676	0.000146	0.00146	-0.000347
340	-0.002484	0.00409	0.000146	-0.001498
341	0.002447	0.001296	-0.001498	-0.000676
342	0.00146	0.003926	-0.000841	-0.001991
343	0.001625	0.000474	-0.002484	-0.002813
344	0.00031	0.00031	-0.000512	-0.002484
345	0.000146	0.000146	-0.001005	-0.003963
346	-0.000512	-0.003142	0.002611	0.000146
347	-0.001169	-0.003799	-0.000347	-0.000676
348	0.000639	-0.000347	0.002611	-1.9e-05
349	0.002611	-0.005114	0.000146	-0.001005
350	-0.000841	-0.003306	-0.001827	0.001789
351	-0.000676	-0.003306	-0.001991	-0.000512
352	0.001789	-0.002155	0.00146	0.003104
353	-0.000347	-0.001827	-0.000512	0.00031
354	-1.9e-05	-0.003306	0.001625	0.000146
355	-0.000183	0.000474	0.002118	-0.001169
356	0.002447	-0.003963	-0.000347	-0.004128
357	0.000639	-0.003635	-0.001662	-0.000183
358	-0.001005	-0.00347	-0.001334	-0.004785
359	-0.001334	-0.004456	0.000803	-0.003306
360	0.00031	-0.001169	-0.005114	-0.000512
361	0.000639	-0.001827	-0.006922	0.000474
362	0.000803	-0.002155	-0.003799	-0.001498
363	0.001296	0.001296	0.000639	0.003268
364	0.000474	-0.003142	-0.001169	0.00031
365	-0.000512	-0.001498	-1.9e-05	-0.001498
366	0.000474	-0.001169	-0.001827	-0.000183
367	-0.003142	-0.003306	0.000639	0.003761
368	-0.001498	0.000146	0.000803	0.001132
369	-0.001827	-0.000512	0.002447	0.00146
370	-0.00347	-0.001991	0.001954	0.00031
371	-1.9e-05	-0.003142	0.001625	0.001789
372	-1.9e-05	0.000474	-0.004621	-0.000347
373	0.000803	-0.001498	-0.001334	-1.9e-05
374	-0.000183	-0.000676	0.000474	0.000639
375	0.002611	-0.000183	-0.000347	-1.9e-05
376	-0.001827	-0.000347	0.002118	-0.003306
377	0.000639	-0.000512	0.00146	-0.00232
378	-0.000183	-0.000347	-0.000841	0.000967
379	0.000803	-0.000183	0.002282	-0.003963
380	0.001296	0.000146	-0.001169	0.00031
381	-0.000347	0.000146	0.000474	-0.001662
382	0.002118	0.000474	0.00031	0.000474
383	0.000967	0.00031	0.001296	0.001296
384	0.000146	0.00031	-0.000676	0.001132
385	-0.000183	-0.000183	0.001132	0.000967
386	-0.000347	-0.000183	-1.9e-05	0.000803
387	-0.000512	-0.002155	0.004255	0.000474
388	-0.000183	0.00146	0.002447	-0.000512
389	-0.000347	0.003268	-0.000841	-0.000676
390	-1.9e-05	0.000967	0.002118	-0.001827
391	0.000146	0.001954	0.00146	-0.002484
392	0.000146	-1.9e-05	-1.9e-05	-0.001662
393	0.00031	0.002282	-0.000841	-0.001334
394	0.000146	0.000639	0.003926	-0.001169
395	-1.9e-05	0.001132	0.00031	-0.001991
396	-0.000183	0.000803	-0.001498	-0.001498
397	-0.000183	0.000146	0.00146	-0.001169
398	-0.000512	-0.000347	0.002611	-0.001334
399	-0.000347	-0.000676	0.002282	-0.000512
400	-0.000347	-0.000347	-0.001169	0.00031
401	-0.000183	-1.9e-05	0.000967	0.00031
402	-1.9e-05	-0.000183	-0.000676	-0.001334
403	0.00031	0.000146	0.000639	0.002611
404	0.00031	0.000639	-0.000512	-0.000347
405	0.000474	0.000474	-0.001005	-1.9e-05
406	0.000146	0.000803	-0.001498	-0.001005
407	-0.000183	0.000146	-0.002155	0.004255
408	-0.000183	0.000639	-0.001334	-0.000347
409	-0.000347	-0.001827	-0.000841	-0.002977
410	-0.000512	0.000967	0.002775	0.000803
411	-0.000347	0.000474	0.000639	0.000639
412	-0.000183	-0.000512	0.001132	-0.000512
413	0.00031	0.002447	0.00146	-0.002648
414	0.00031	-1.9e-05	0.002118	0.00294
415	0.00031	0.000803	-0.000183	0.000146
416	0.000146	0.00031	0.000474	-0.001498
417	0.000146	0.001132	-0.000183	-1.9e-05
418	-0.000183	-0.002813	-0.000183	0.003433
419	-0.000183	-1.9e-05	0.001296	0.000967
420	-0.000347	-0.000676	-0.000841	-0.000183
421	-0.000347	-1.9e-05	0.000967	0.00031
422	-0.000183	-0.002813	-0.001169	0.001625
423	-1.9e-05	-0.000841	0.000639	-0.000347
424	0.000146	-0.001005	0.000146	-0.001827
425	0.00031	0.000967	-0.000841	0.001132
426	0.00031	-0.000347	-0.002155	0.002611
427	0.00031	0.000474	0.003597	0.001132
428	0.000146	-0.000676	-0.001827	-0.000676
429	-0.000183	-0.001334	0.001625	0.001296
430	-1.9e-05	0.002775	0.002282	0.000146
431	-0.000347	-0.000841	0.00031	0.002775
432	-0.000347	0.001954	-0.000347	-0.000183
433	-0.000347	0.000146	-0.000841	0.00146
434	0.000146	0.001954	0.000146	-0.000512
435	0.002118	0.000967	0.000146	0.003268
436	-0.000841	0.001954	0.000639	0.000146
437	0.002282	0.000803	-0.001169	0.000639
438	0.000967	-0.00232	0.004912	-0.001498
439	0.001132	0.000146	-0.002155	-0.000512
440	0.000474	0.000474	-0.001169	0.002282
441	0.002611	0.000474	-0.00347	-0.001334
442	0.004583	-1.9e-05	0.000803	-0.000512
443	-0.000841	0.004419	0.000146	-0.000347
444	0.001132	0.001132	0.000803	0.000474
445	0.00031	0.001789	0.000639	0.00146
446	-1.9e-05	0.000967	0.002447	-0.003799
447	-0.002155	-1.9e-05	-0.002155	-0.000347
448	0.003433	0.000146	0.002447	-0.000347
449	-0.001169	0.00031	0.002775	-0.001005
450	0.001296	0.00146	0.000474	0.000146
451	-0.001169	0.00146	0.000474	0.001132
452	-0.000183	-0.001662	-0.000183	-0.002155
453	-0.001005	0.001132	-0.000512	-0.000347
454	-0.001334	-0.001334	-0.002155	-0.002484
455	0.00294	0.000474	-0.002648	-0.001662
456	-0.001991	0.004748	-0.002155	-0.001498
457	0.000146	-0.002648	0.001296	-1.9e-05
458	0.001625	0.000803	-0.001991	-0.003963
459	-0.000512	0.00031	0.001132	-0.000841
460	0.001132	0.00031	-0.005278	0.001296
461	-0.000512	0.001132	0.00146	0.00031
462	-0.000676	0.001625	0.000146	0.00031
463	0.002611	-0.000512	0.000639	0.000639
464	-0.001005	-0.000347	0.003268	-0.001169
465	0.001954	-0.000676	-0.001169	0.000639
466	0.001296	0.001132	-0.000183	-0.002155
467	0.002611	0.000474	0.001296	-0.001169
468	-0.002484	0.001132	0.00146	-0.000676
469	-1.9e-05	-0.001827	-0.000347	0.000146
470	-0.001005	-0.000512	-0.000676	0.000803
471	-0.000512	0.000803	-0.00232	0.00031
472	0.001954	-0.001334	0.00031	0.001954
473	0.000803	-0.000676	-0.002484	-0.000676
474	0.000803	-0.000183	0.000146	0.000967
475	0.000474	0.00031	-0.000841	0.000474
476	0.00146	-0.000183	-0.00232	0.00031
477	0.001625	0.001132	-0.003306	0.000639
478	0.001954	0.001296	0.000146	0.003433
479	0.000146	0.001789	0.000639	0.00409
480	0.000967	0.000474	-1.9e-05	0.003433
481	-0.001827	0.001789	0.005241	-0.00232
482	0.001954	0.001296	-0.000347	0.000967
483	-0.000512	0.00031	0.000146	0.002611
484	-0.000183	0.002447	-0.000512	-0.001991
485	0.000146	0.00146	-0.000183	-0.000183
486	-0.003306	-0.000676	-0.001498	-0.001662
487	-0.001169	0.000146	-0.000347	-0.000183
488	0.000146	0.000146	-0.004292	-0.001662
489	-0.00232	-0.005278	0.001789	-0.000512
490	0.000474	0.000474	-0.005936	0.000474
491	0.000639	-0.001334	-0.001334	-1.9e-05
492	0.00146	-0.000183	-0.001991	-0.001005
493	0.000639	0.002775	-0.003142	0.001296
494	-0.000512	0.001954	0.000474	0.000639
495	0.00409	0.001789	-0.001169	0.003926
496	-0.000841	0.003104	-0.000841	0.004419
497	-0.000183	0.000639	0.000967	0.000474
498	0.000967	0.002282	0.001789	0.000474
499	0.00294	0.001625	-1.9e-05	-0.000512
500	-0.001334	0.001954	0.003268	0.00031
501	-0.001498	-0.000347	0.000474	-0.002155
502	-0.003142	-0.000183	0.00031	0.000967
503	-0.002155	-0.002484	0.000967	-0.001498
504	-0.000676	-0.000347	0.002118	0.001132
505	0.000967	0.002447	-0.003142	-0.004456
506	-0.000512	-0.000183	-0.002155	-0.001662
507	-0.001334	-1.9e-05	-0.003306	-0.002977
508	0.004748	-0.000841	-0.002648	-0.002155
509	-0.001991	-0.000183	-0.003306	-0.00347
510	0.009021	0.003597	-0.004949	0.000474
511	0.000474	0.00294	0.00146	0.00031
512	0.00294	0.003104	0.00146	0.000967
513	0.000967	0.002611	0.001789	0.002282
514	0.001954	-0.000347	0.002447	0.000803
515	0.001132	0.002775	0.001789	0.000803
516	0.001954	-0.000183	0.000474	-0.004456
517	0.003268	0.000803	0.001132	-0.000841
518	-0.004456	0.000967	-0.000512	-0.001991
519	0.000803	-0.002977	-0.002155	-0.000841
520	-1.9e-05	-0.001169	-1.9e-05	-0.002484
521	0.000803	0.000474	-0.000841	0.000639
522	-0.000347	0.000146	-0.001005	-0.00232
523	0.001296	0.000967	0.001625	0.00146
524	-0.000841	0.000803	-0.001662	-0.000676
525	0.001132	0.00146	0.003761	0.000967
526	-0.000183	0.000803	0.002775	-1.9e-05
527	0.002775	0.001625	0.000146	0.001132
528	0.00031	0.001625	-1.9e-05	0.002118
529	0.002611	0.001132	0.002447	0.001132
530	0.002447	0.00294	0.000146	-0.000183
531	0.002611	0.001296	0.000474	-0.000183
532	0.000639	0.003761	-0.000512	-0.001169
533	-0.000841	0.001296	0.000146	0.000803
534	-0.001498	-0.002648	0.002447	0.000803
535	-0.001334	-0.000841	-0.001991	0.000639
536	-0.001334	-0.000676	0.003268	-0.001498
537	-0.001498	-0.001005	-1.9e-05	-0.003306
538	0.000803	-0.001005	-0.001334	0.003761
539	-0.001662	0.000474	-0.001662	0.000803
540	0.00031	-0.001334	-0.004128	-0.001662
541	-1.9e-05	-0.001334	-0.003306	-0.001991
542	0.000967	-0.000676	-0.002484	0.00031
543	-0.001169	-0.000183	-0.001005	0.000639
544	-0.002648	-0.001498	-0.000183	0.002282
545	-0.003306	0.000967	-0.000676	0.001789
546	0.003433	0.000146	-0.001991	-0.001169
547	0.001296	0.000639	0.000639	0.005569
548	0.00031	0.000639	0.00031	-0.000512
549	0.001954	0.002118	-0.000347	0.001296
550	-0.00347	0.000474	-0.001169	0.00031
551	-0.002484	-0.000183	0.000639	-0.001169
552	-0.000676	-0.000512	-0.002155	-0.000676
553	-0.002155	-0.00232	0.000803	0.000474
554	-0.004292	0.000639	-0.00347	-0.003963
555	0.001132	-0.001827	-0.001334	-0.000347
556	0.002118	-0.002813	-0.002155	-0.001005
557	0.005076	-0.002977	-0.001827	0.000146
558	0.000639	-0.000183	-0.003142	-0.003142
559	-0.000183	-0.003306	-0.000347	-0.004292
560	0.000967	0.003597	-0.000841	0.000639
561	0.000474	-0.002813	0.002611	0.002775
562	0.002118	-0.002155	0.00294	0.001625
563	0.001789	-0.001005	-0.000841	0.001132
564	-0.002484	0.000803	0.001296	0.000967
565	-1.9e-05	-0.000183	-0.002484	0.000474
566	0.000146	-0.000183	0.000967	0.000639
567	-0.001334	-0.001827	-0.000183	-0.001169
568	0.001132	-1.9e-05	0.001296	-0.000347
569	-0.001169	0.00146	-0.001169	-0.000183
570	0.00146	-0.002813	0.001789	0.00146
571	-0.000183	-0.000347	0.000639	-0.001827
572	0.002118	-0.000676	-0.000347	0.00146
573	-0.002484	0.001625	-1.9e-05	-0.000841
574	0.00031	0.000146	0.001625	-0.001169
575	-0.001169	0.001625	-0.001991	0.000639
576	-0.001827	-0.001662	0.000474	0.000803
577	-0.000512	0.000803	0.002611	0.002118
578	0.000474	0.00031	-1.9e-05	0.000639
579	0.000967	0.000474	0.002282	-0.001662
580	0.001296	0.001954	0.000967	-0.000183
581	0.000967	0.000639	0.000474	0.001132
582	-0.000183	0.000146	-0.001662	-0.000676
583	0.003433	0.003433	-0.000512	0.000639
584	0.004748	0.001625	-0.001005	0.000803
585	0.00409	-0.000512	0.000967	0.001296
586	-0.004292	-0.002648	0.002447	-0.001169
587	-0.000841	-0.001498	0.001954	0.000639
588	-0.000841	0.00409	-1.9e-05	-0.000841
589	-0.000347	0.00146	0.001132	-0.000183
590	-0.001334	0.000803	-0.001827	-0.000512
591	0.000803	0.000967	-0.003142	-0.001005
592	-0.001498	-0.000183	-0.001005	-0.000347
593	0.001132	0.000639	-0.001662	-0.00232
594	0.000474	0.003433	0.001954	-0.001169
595	0.000639	0.000146	-0.002648	0.000146
596	-1.9e-05	-0.001498	-0.00232	-0.004456
597	-0.006429	-0.005936	-0.001005	-0.003963
598	-0.001991	-0.000183	-0.000676	0.005076
599	-0.001991	-1.9e-05	-0.000512	-0.00725
600	-0.000676	-0.000841	-0.000183	0.004255
601	-0.00347	0.000967	-0.000676	0.001625
602	-1.9e-05	0.000474	-1.9e-05	0.000639
603	-0.005771	0.000146	-0.001005	0.000803
604	0.001132	-0.000183	0.000146	-0.001334
605	-0.000347	-0.000183	0.000639	-0.002813
606	-0.003963	-0.000512	-0.000347	-0.00232
607	-0.002813	-0.000347	-1.9e-05	-0.00347
608	-0.002977	0.000146	-0.001498	-0.003635
609	-0.002648	0.000146	0.002282	-0.001498
610	-0.000347	-0.000183	-0.001991	-0.001005
611	-0.000347	0.000474	-0.001498	0.003926
612	-0.004785	0.000146	-0.000512	0.000146
613	0.001132	0.000146	-1.9e-05	0.003433
614	-0.003142	0.000146	-0.000347	0.000146
615	-0.000183	-1.9e-05	-0.000347	0.00146
616	0.001132	-0.000347	-0.000841	-0.000183
617	0.002775	-0.000347	0.000474	0.001296
618	0.000146	-0.000512	0.000146	-0.000512
619	0.002447	0.001132	0.003104	0.00031
620	-0.000676	-0.000183	0.000639	-0.000183
621	0.001132	0.000146	0.00146	-0.000347
622	0.003268	0.000146	0.002611	0.00031
623	-1.9e-05	0.000146	0.000474	0.000146
624	-0.000512	0.000639	0.00294	-0.000347
625	0.000474	-1.9e-05	0.000474	-0.000347
626	-0.001005	-0.000183	-0.000676	0.00031
627	0.00031	-0.000512	-0.00347	-0.002813
628	0.002447	-0.000183	-0.001169	0.001789
629	-0.00232	-0.001827	-0.002813	0.000639
630	0.005734	0.000639	0.000146	0.001296
631	-0.001991	0.001954	0.00031	-0.000183
632	-0.001334	-0.005443	-1.9e-05	0.002611
633	-0.000347	-0.000183	-0.000347	0.003926
634	-0.00347	0.000803	-0.000347	0.002118
635	-0.004128	0.000146	0.000146	0.001296
636	-0.000183	-0.001169	0.00146	0.003268
637	-0.000512	0.00031	0.001132	-0.000512
638	0.000474	-0.000183	0.000639	-1.9e-05
639	0.000146	-0.000347	0.001296	0.002118
640	0.000803	-0.000347	-0.002648	0.00146
641	-0.000183	-0.001005	0.003597	0.000474
642	-0.002813	-0.000183	0.004255	0.001132
643	-0.000841	0.000146	0.003268	0.001954
644	-0.001827	-1.9e-05	0.005569	-0.000841
645	0.001625	0.000146	0.000474	0.001789
646	-0.00232	0.000146	0.000967	0.001296
647	0.000639	0.000474	0.001132	0.000803
648	-0.000512	-0.000183	-0.001169	-0.007744
649	-0.000347	-0.000183	-0.000183	-0.000676
650	-0.001334	-0.000347	-0.001334	-0.001169
651	0.00031	-0.000183	0.000146	0.00294
652	0.000474	-0.000347	-0.000347	0.000146
653	0.000474	-0.000183	0.004419	-0.000347
654	-0.002977	-1.9e-05	0.001296	-0.005114
655	-0.001498	0.000146	-0.001005	-0.001498
656	0.003268	-1.9e-05	-0.000512	0.004583
657	0.000639	0.000146	0.002282	-0.002977
658	-0.000347	0.00031	0.000146	0.000146
659	0.001132	-0.000183	-0.004456	-0.007086
660	-0.000183	-0.000183	-0.001169	-1.9e-05
661	-0.001005	-0.000183	-0.000347	0.000639
662	-0.001334	-0.000183	-0.000676	-0.000183
663	-0.002813	-0.000512	0.000639	-0.003142
664	0.001132	-1.9e-05	0.001789	0.000474
665	0.000474	-1.9e-05	0.000639	-0.001498
666	0.000474	0.00031	-0.00232	0.000803
667	-0.000347	0.00031	-0.000347	0.002611
668	0.000146	0.00031	0.000967	-0.000512
669	0.000967	0.00031	0.003597	-0.000347
670	0.001625	-0.000183	0.000639	0.003761
671	0.001296	-1.9e-05	0.00146	-0.000512
672	0.001789	-0.000676	0.000639	-0.000841
673	0.000803	-0.000512	0.002447	0.001954
674	0.001789	-0.000512	0.002775	-0.002155
675	-0.000676	0.000146	0.001625	0.001296
676	-0.000841	-1.9e-05	0.002775	-0.002977
677	0.000803	-1.9e-05	0.00146	-0.001169
678	-0.003635	-1.9e-05	-0.000676	0.000967
679	-0.000183	0.000474	0.001789	0.00031
680	-0.005114	-0.000183	0.001296	-0.000676
681	0.000146	-0.000183	0.000967	0.003597
682	0.00031	-0.000347	-0.003306	-0.000347
683	0.000639	-0.000347	-0.004456	0.000474
684	0.000639	-0.000347	-0.001334	-0.000841
685	0.002282	-0.000512	0.001132	0.000639
686	-0.002977	-0.000183	0.00294	0.000474
687	0.000474	0.00031	0.00146	-0.001991
688	0.000146	0.00031	-0.000512	0.001625
689	0.000146	0.00031	0.002118	-0.000676
690	0.000803	0.000146	0.002282	0.001954
691	-0.002648	-1.9e-05	0.001789	-0.001334
692	0.002282	-0.000183	0.002282	0.001132
693	-0.001334	-0.000347	0.000639	-0.002484
694	0.000474	-0.000347	0.000639	-0.001334
695	-0.000347	-0.000512	0.001132	-0.002484
696	0.000146	-0.000183	0.001625	0.001625
697	-0.001498	0.000146	0.00146	-0.002977
698	0.000474	0.000146	0.000639	-0.003306
699	-0.001662	0.000146	0.001296	-0.000347
700	-1.9e-05	0.000146	-1.9e-05	0.001132
701	-0.000841	0.00031	0.000146	0.000967
702	-0.003142	0.00031	-0.002155	-0.000512
703	0.001296	-0.000347	-0.000183	-0.000512
704	-0.001169	-0.000347	-0.001662	-0.002813
705	0.000474	-0.000183	-0.000512	0.000639
706	-0.00232	-0.000512	-0.001991	-0.002484
707	-0.001169	0.000967	-0.001005	-0.000841
708	-0.000347	-1.9e-05	0.001625	-0.002977
709	0.001625	0.000639	0.000639	0.001296
710	-0.001498	-0.000183	-0.002484	0.00031
711	0.001296	-1.9e-05	-0.001827	-0.005607
712	0.001132	-0.001169	0.000474	-0.00347
713	0.00031	-0.004128	-0.000183	-0.000841
714	-0.001991	0.000639	-0.002484	-0.002155
715	0.001296	-0.001169	-0.000512	-0.001334
716	-0.001498	-0.000347	-0.001662	-0.001005
717	-1.9e-05	-0.000183	0.000967	-0.001662
718	0.000803	0.001625	-0.000347	0.001132
719	0.00031	-0.000841	0.00031	0.000639
720	0.00146	-0.001498	-1.9e-05	0.000639
721	0.000803	0.000474	-0.000841	0.000803
722	0.000146	-1.9e-05	0.000967	0.001625
723	0.000639	0.002118	-0.002155	0.002775
724	-1.9e-05	0.000474	-0.001005	0.001625
725	-0.000183	-0.000512	-0.002155	0.001132
726	0.001625	0.000146	-0.001005	0.000639
727	-0.000183	-0.000347	-0.001005	-0.000676
728	0.000803	-0.000512	-0.000676	-0.000183
729	0.000146	-0.000512	0.000967	-0.000841
730	-1.9e-05	0.000146	-0.001662	0.000639
731	-0.002813	0.002447	-0.00232	-0.00232
732	0.000146	0.002118	-0.00232	-0.000676
733	-0.003635	0.000639	0.000967	-0.000512
734	-0.002813	0.000146	0.001296	-0.001827
735	-0.001498	-0.000512	-0.001991	0.000474
736	0.00031	-0.001334	-0.000512	-0.001334
737	-0.001169	-0.000841	-0.000347	-0.002648
738	0.001625	-0.000512	-0.002484	-0.001169
739	0.00031	-0.001334	-0.002977	-0.000183
740	-0.001334	0.002447	-0.000512	-0.002813
741	0.001132	-0.000183	-0.001169	-0.001005
742	-0.003963	0.000146	-0.001005	-0.003635
743	0.000474	0.001132	-0.001005	-0.001334
744	-0.001498	0.000803	-0.001662	-0.000347
745	-0.001169	-0.000347	-0.001991	-0.002155
746	0.000146	0.001132	-0.001334	-0.001334
747	-0.000676	0.000146	-0.000841	-0.003963
748	-0.000676	-0.001005	-0.003142	-0.002155
749	-0.000676	-0.002155	-0.001334	-0.00232
750	-0.001662	-0.002813	-0.000183	-0.000183
751	0.003268	0.001132	0.004419	0.002118
752	0.00935	0.003761	0.012637	0.012144
753	0.017074	0.000639	0.017732	0.015431
754	0.027429	0.000146	0.022498	0.022169
755	0.03236	0.00031	0.029072	0.029894
756	0.040413	0.000146	0.035647	0.037126
757	0.046987	0.000146	0.03992	0.040413
758	0.053562	-0.000183	0.047316	0.048631
759	0.058985	-0.000183	0.056191	0.053562
760	0.064738	-0.000512	0.062437	0.060465
761	0.068025	-0.000512	0.068518	0.066875
762	0.075257	-0.000347	0.072791	0.07312
763	0.079366	-0.000183	0.07953	0.07838
764	0.082982	0.000146	0.083639	0.080023
765	0.087912	0.000146	0.089556	0.08857
766	0.092186	0.000146	0.092514	0.086597
767	0.095308	0.000146	0.090706	0.098267
768	0.100732	0.000146	0.09876	0.099582
769	0.10517	-0.000183	0.104677	0.107471
770	0.106485	-0.000512	0.104019	0.104184
771	0.112894	-0.000512	0.112401	0.110922
772	0.114209	-0.000512	0.115195	0.107635
773	0.120126	-1.9e-05	0.116182	0.113716
774	0.119304	-1.9e-05	0.121605	0.118811
775	0.126536	0.000146	0.12292	0.122756
776	0.12818	0.000146	0.128015	0.126372
777	0.131467	0.000474	0.126536	0.128837
778	0.132617	0.000639	0.124728	0.133275
779	0.136562	-0.000183	0.135411	0.134754
780	0.139849	0.000967	0.136069	0.137712
781	0.141821	0.00031	0.14215	0.138863
782	0.144122	0.001296	0.143629	0.142479
783	0.145437	0.001132	0.141657	0.143465
784	0.148067	0.000639	0.146259	0.149217
785	0.148396	-0.000183	0.149217	0.14593
786	0.148889	0.000146	0.150861	0.150039
787	0.15234	0.000146	0.150697	0.14971
788	0.155627	0.000474	0.153655	0.153162
789	0.15497	0.000803	0.156942	0.153162
790	0.158093	0.000146	0.150861	0.155792
791	0.158421	-0.000183	0.155463	0.1576
792	0.162695	-0.000347	0.153819	0.159079
793	0.164996	0.004912	0.160065	0.161709
794	0.164831	0.004748	0.158586	0.163681
795	0.167297	0.001954	0.15875	0.165653
796	0.168447	0.003926	0.163845	0.164338
797	0.168776	0.002118	0.166146	0.165653
798	0.169269	0.000967	0.164503	0.168283
799	0.169598	0.002118	0.167297	0.168612
800	0.171899	0.000146	0.171899	0.170419
801	0.169926	0.000146	0.169762	0.148396
802	0.1742	-0.000347	0.169105	0.027593
803	0.1742	-0.000512	0.171241	0.002447
804	0.168118	-0.000183	0.171899	0.00146
805	0.177815	-0.000347	0.169433	0.002611
806	0.17535	-0.000347	0.172392	0.003433
807	0.175515	0.000146	0.173049	0.004419
808	0.175515	0.00031	0.173378	0.001789
809	0.17913	0.000146	0.173214	0.001789
810	0.182089	0.000474	0.177158	0.003104
811	0.183897	0.00031	0.179295	0.002611
812	0.184061	0.000146	0.178637	0.002118
813	0.186362	-0.000183	0.179295	0.001625
814	0.186362	-0.000183	0.182089	0.003268
815	0.187184	-0.000512	0.182911	0.000803
816	0.186526	-0.000347	0.185212	0.000146
817	0.186526	-0.000183	0.183239	-1.9e-05
818	0.18817	-0.000183	0.186033	0.00031
819	0.189978	0.000146	0.186526	0.000146
820	0.188006	0.00031	0.185869	-1.9e-05
821	0.185869	0.000146	0.185869	-0.000347
822	0.188499	0.000474	0.186855	-0.000347
823	0.186526	0.000146	0.184718	-0.000512
824	0.190471	-0.000183	0.185705	-0.000183
825	0.190964	-0.000183	0.186855	-1.9e-05
826	0.190964	-0.000347	0.187019	-1.9e-05
827	0.192279	-0.000347	0.188006	0.000146
828	0.19458	-1.9e-05	0.188827	-1.9e-05
829	0.192443	-1.9e-05	0.189814	0.000639
830	0.193429	-1.9e-05	0.189485	0.000146
831	0.196223	0.00031	0.189485	-0.000347
832	0.191621	0.000146	0.189485	-0.000347
833	0.192936	0.000146	0.192608	0.001954
834	0.191786	-1.9e-05	0.19195	0.003268
835	0.195566	-1.9e-05	0.189814	0.002118
836	0.190142	-0.000183	0.192115	-0.000183
837	0.19195	-0.000512	0.191128	0.001625
838	0.191293	-0.000347	0.190471	0.000803
839	0.196223	-0.000347	0.191457	0.002118
840	0.191786	0.000146	0.192115	0.000639
841	0.193101	0.000146	0.191128	0.00146
842	0.190964	-1.9e-05	0.193429	0.003268
843	0.189814	0.000146	0.192279	0.002447
844	0.189814	0.000146	0.195237	0.002611
845	0.145766	-1.9e-05	0.192115	0.001954
846	0.046987	-0.000183	0.192443	0.002775
847	0.015266	-0.000183	0.192772	0.001132
848	0.008528	-0.000512	0.196552	0.004255
849	0.008692	-0.000347	0.194909	0.001132
850	0.007377	-0.000347	0.192608	0.00294
851	0.002775	-0.000183	0.193594	0.002611
852	0.001954	-1.9e-05	0.196223	0.003268
853	0.001132	-1.9e-05	0.195073	0.000967
854	0.002611	0.000146	0.191621	0.000474
855	0.001132	0.00031	0.194416	-0.001005
856	0.004748	0.000146	0.192936	-0.000183
857	0.003761	-0.000512	0.194251	0.00146
858	0.005076	-0.000347	0.086597	0.001789
859	0.00031	-0.000183	0.000146	0.001954
860	0.000803	-0.000347	0.00031	0.000967
861	0.00146	-0.000183	0.000146	0.002447
862	0.00294	-1.9e-05	-0.000676	0.002282
863	0.002775	0.00031	0.001296	0.002775
864	0.003104	-0.000183	-0.000183	0.000967
865	0.005898	0.00031	-0.000512	0.002447
866	0.003761	0.000146	-0.000183	0.001954
867	0.00409	0.000474	-1.9e-05	0.002118
868	-1.9e-05	-0.000183	0.000146	0.001132
869	0.001954	-0.000347	0.000146	0.001296
870	-0.000347	-0.000183	0.00031	0.001625
871	-0.000183	-0.000347	0.000146	0.003104
872	0.00031	-0.000183	-1.9e-05	0.000474
873	-1.9e-05	-1.9e-05	-0.000183	-0.000347
874	0.000474	0.000146	-0.000512	0.004583
875	0.000146	0.00031	-0.000183	0.000474
876	0.00031	0.00031	-0.000347	0.004748
877	0.000474	0.000474	-0.000512	0.001132
878	0.00031	-1.9e-05	-0.000183	0.003104
879	0.000146	-0.000183	0.00031	0.001132
880	-0.000183	-0.000347	0.00031	0.00294
881	-1.9e-05	-0.000512	0.00031	0.002447
882	-0.000183	-0.000512	0.00031	0.002775
883	-0.000183	-0.000347	0.00031	-0.001334
884	0.000146	-1.9e-05	-1.9e-05	0.002447
885	0.000146	-1.9e-05	-0.000512	0.00409
886	0.00031	0.000474	-0.000512	0.001789
887	0.00031	0.000146	-0.000512	0.000803
888	0.000146	0.00031	-0.000183	0.000474
889	-1.9e-05	-1.9e-05	-1.9e-05	-0.001169
890	-0.000347	-0.000183	0.000146	0.00146
891	-0.000183	-0.000347	0.000146	0.002118
892	-0.000347	-0.000183	0.00031	0.000146
893	-0.000347	-0.000512	0.00031	0.00409
894	-0.000512	-0.000183	0.000146	0.00031
895	0.000146	-1.9e-05	-0.000183	0.004748
896	0.000474	-1.9e-05	-0.000183	-0.001498
897	-1.9e-05	0.00031	-0.000347	0.002118
898	0.000146	0.00031	-0.000676	0.000639
899	0.00031	0.00031	-0.000347	0.000474
900	-1.9e-05	-1.9e-05	-0.000183	0.000639
901	-1.9e-05	0.000146	0.00031	-0.001498
902	-1.9e-05	-0.000183	0.00031	0.000639
903	-0.000512	-0.000347	0.000146	0.000639
904	-0.000512	-0.000347	0.000474	0.006227
905	-0.000512	-0.000183	0.000146	0.00031
906	-1.9e-05	0.000146	-1.9e-05	-0.000183
907	0.00031	0.00031	-0.000347	0.002611
908	-1.9e-05	0.000146	-0.000183	0.001296
909	0.00031	0.000146	-0.000512	-0.000512
910	0.000146	0.00031	-0.000183	0.000639
911	0.00031	-0.000183	-1.9e-05	0.000474
912	-0.000512	-0.000183	0.000146	0.000639
913	-0.000183	-0.000183	0.000146	0.000803
914	-1.9e-05	-0.000347	0.000146	0.000146
915	-0.000347	-0.000347	0.000639	0.002118
916	-0.000183	-1.9e-05	0.000639	0.000639
917	-1.9e-05	0.000146	0.002282	0.000146
918	0.000146	0.000146	0.000639	0.000639
919	0.000146	0.000146	0.000967	0.001625
920	0.00031	0.00031	0.001296	0.000639
921	0.000146	0.000146	0.001789	-0.000841
922	-1.9e-05	-1.9e-05	0.00031	-0.000347
923	-1.9e-05	-0.000347	0.003926	0.00409
924	-0.000347	-0.000183	0.00146	-1.9e-05
925	-0.000512	-0.000512	0.002447	0.001296
926	-0.000512	-0.000512	0.001954	-0.000183
927	-0.000347	-0.000183	0.002611	0.00031
928	0.000146	0.000146	0.002611	0.001296
929	-1.9e-05	0.00031	0.002282	-1.9e-05
930	0.000146	0.000146	0.002611	-0.000347
931	0.000146	0.000146	0.002447	0.004255
932	0.000474	0.00031	0.004419	-0.000183
933	0.00031	-0.000183	-0.000512	-0.000183
934	0.000146	-0.000347	0.005405	0.000474
935	-1.9e-05	-0.000347	0.003597	0.001625
936	-0.000347	-0.000347	0.005405	0.003761
937	-0.000347	-0.000512	0.003268	0.000146
938	-0.000676	-0.000841	0.002775	0.000967
939	0.000146	0.000146	0.00409	0.000474
940	0.000146	0.000146	0.003597	0.00031
941	0.00031	0.00031	0.012965	-0.001334
942	0.000146	0.00031	0.019375	-0.000183
943	0.000146	0.00031	0.028744	-0.001334
944	0.000146	-1.9e-05	0.031538	-0.000512
945	-0.000183	-0.000347	0.03992	0.000803
946	-0.000183	-0.000347	0.046001	0.001296
947	-0.000347	-0.000183	0.051261	0.002447
948	-0.000347	-0.000512	0.057013	0.000967
949	-0.000841	-0.000183	0.061944	0.00146
950	0.000639	0.000146	0.069997	0.005405
951	0.000474	0.000146	0.077229	-0.000183
952	0.000146	0.000474	0.077558	-0.000347
953	0.001789	0.000803	0.080845	0.005076
954	-0.000183	-1.9e-05	0.087255	0.000146
955	0.000146	-1.9e-05	0.089556	-0.001169
956	-0.000347	-0.000347	0.095966	0.002447
957	-1.9e-05	-0.000183	0.099746	0.004912
958	-0.000512	-0.000512	0.101061	0.003597
959	0.000146	-0.000347	0.108293	0.00031
960	0.00031	-0.000183	0.112566	0.000146
961	-1.9e-05	-1.9e-05	0.117003	0.00031
962	-1.9e-05	0.000146	0.119304	0.000639
963	-1.9e-05	0.000146	0.123578	-0.000183
964	0.00031	0.000146	0.126043	-1.9e-05
965	0.000639	0.000146	0.126865	0.002611
966	0.000146	-0.000183	0.124235	0.002611
967	0.001296	-1.9e-05	0.120619	0.001789
968	0.000146	-0.000512	0.103526	0.000146
969	0.007377	-0.000512	0.075585	0.000474
970	0.015595	-0.000347	0.064574	0.000474
971	0.020526	-0.000347	0.070819	0.000474
972	0.030223	0.000146	0.074599	-1.9e-05
973	0.035975	0.000146	0.081831	0.000146
974	0.044193	0.000146	0.086269	-0.000183
975	0.048631	0.000474	0.089885	-0.001498
976	0.054712	0.00031	0.0935	0.002118
977	0.061615	-1.9e-05	0.096952	-0.000347
978	0.065724	-0.000347	0.099746	-0.000347
979	0.070162	-0.000347	0.104512	0.000146
980	0.077229	-0.000183	0.104512	0.000146
981	0.080023	-0.000512	0.1101	0.001132
982	0.079694	-0.000347	0.113716	0.001296
983	0.089391	0.000146	0.117661	0.003926
984	0.09235	0.000474	0.117825	0.002775
985	0.097609	0.001132	0.121934	-0.000183
986	0.09991	0.001132	0.1267	0.003104
987	0.104019	0.000639	0.130152	-0.001169
988	0.109936	-1.9e-05	0.130645	0.001132
989	0.114209	-0.000183	0.134918	-1.9e-05
990	0.115524	-0.000183	0.137712	0.001789
991	0.122427	-0.000347	0.140178	0.001625
992	0.114702	-0.001827	0.14215	0.002282
993	0.125879	-0.000183	0.14478	0.001296
994	0.12933	0.00031	0.148396	0.001132
995	0.131796	0.000146	0.14856	0.003926
996	0.13196	0.001954	0.151025	0.00146
997	0.136891	0.00031	0.153491	0.001132
998	0.136891	-0.000183	0.155956	-0.000347
999	0.138699	-1.9e-05	0.156778	-0.000347
1000	0.141164	-0.000183	0.1576	0.001132
1001	0.144122	-0.000183	0.156778	0.003433
1002	0.147738	-0.000512	0.159243	0.003268
1003	0.142314	0.000146	0.160558	0.001954
1004	0.148231	-1.9e-05	0.160394	0.001789
1005	0.155792	0.000146	0.162859	-0.000347
1006	0.155627	0.000146	0.163188	0.006391
1007	0.156449	0.00031	0.168118	0.002447
1008	0.160887	0.00031	0.167461	0.003926
1009	0.159572	-1.9e-05	0.171734	0.002447
1010	0.167132	-1.9e-05	0.171077	0.002282
1011	0.16401	-0.000183	0.173214	0.001132
1012	0.164996	-0.000347	0.175186	0.000967
1013	0.165817	-0.000183	0.176336	0.00294
1014	0.168283	0.00031	0.175515	0.002447
1015	0.167132	-1.9e-05	0.17535	0.003597
1016	0.167461	-1.9e-05	0.176172	0.002611
1017	0.17272	0.00031	0.178966	0.004419
1018	0.170913	-0.000183	0.180116	0.001132
1019	0.174528	0.00031	0.179623	0.000803
1020	0.172885	0.000474	0.180774	0.001625
1021	0.175515	-1.9e-05	0.18176	0.004912
1022	0.179295	-0.000347	0.182417	0.00146
1023	0.178637	-0.000183	0.182417	0.003433
1024	0.179623	-0.000347	0.185376	0.001625
1025	0.185212	-0.000512	0.184554	0.005076
1026	0.178309	-1.9e-05	0.186198	0.005569
1027	0.181103	-1.9e-05	0.186033	0.003268
1028	0.181267	0.000146	0.188499	0.004255
1029	0.182746	0.000146	0.188006	0.000967
1030	0.179623	0.001625	0.1908	0.001625
1031	0.183568	0.00031	0.187348	0.002118
1032	0.183897	0.001625	0.188992	0.00031
1033	0.183239	0.001296	0.188006	-1.9e-05
1034	0.18439	-0.000183	0.188663	0.00294
1035	0.183239	0.00031	0.187019	0.000474
1036	0.183897	-0.000512	0.188827	0.002447
1037	0.181431	0.00031	0.191786	0.001789
1038	0.185705	0.000474	0.188827	0.002282
1039	0.185705	0.001132	0.190964	0.003926
1040	0.187513	0.000639	0.190307	0.001296
1041	0.18817	0.000639	0.191786	0.002775
1042	0.188827	0.00031	0.192608	0.00294
1043	0.18932	-1.9e-05	0.191293	-0.00232
1044	0.188334	-0.000347	0.191621	0.000639
1045	0.189485	0.003104	0.192115	0.003433
1046	0.188992	0.006884	0.191128	0.002775
1047	0.19195	-0.000841	0.193922	0.002282
1048	0.18817	0.000146	0.193594	0.001954
1049	0.190964	-0.000183	0.192279	-0.000512
1050	0.188006	-0.000512	0.193594	0.001789
1051	0.1908	0.001296	0.191457	0.001789
1052	0.1908	0.00031	0.195073	-0.001005
1053	0.187019	0.000803	0.193922	0.001625
1054	0.188992	-0.001169	0.192936	-0.005607
1055	0.190471	0.004419	0.192115	-0.004292
1056	0.190964	-0.000347	0.196059	0.00294
1057	0.193922	-0.000512	0.193429	0.003597
1058	0.195566	-0.000183	0.195237	0.001954
1059	0.194251	-0.000183	0.194909	0.001789
1060	0.192772	-1.9e-05	0.193758	0.001132
1061	0.191457	0.00031	0.19458	0.00146
1062	0.19195	0.000639	0.196223	0.00146
1063	0.193922	0.000146	0.194087	0.000803
1064	0.194251	0.000474	0.198524	0.001132
1065	0.196717	-1.9e-05	0.196223	0.003268
1066	0.199018	-0.000183	0.196717	-0.002484
1067	0.195895	-0.000183	0.192279	0.000967
1068	0.197867	-0.000347	0.198031	0.003597
1069	0.197538	-0.000512	0.198524	0.001789
1070	0.19573	-1.9e-05	0.198031	0.002447
1071	0.19721	0.000146	0.19458	0.002118
1072	0.196881	0.000146	0.198524	0.001296
1073	0.197703	0.000146	0.200168	0.001625
1074	0.19836	-1.9e-05	0.197374	0.000803
1075	0.199018	0.006884	0.199018	0.002611
1076	0.19836	0.002118	0.19836	0.007706
1077	0.198853	-1.9e-05	0.197045	0.000146
1078	0.199839	-0.000183	0.194087	-1.9e-05
1079	0.197703	-0.000183	0.200168	0.00294
1080	0.19836	-0.000347	0.199675	0.001296
1081	0.195895	0.000146	0.199839	0.002447
1082	0.197045	0.000146	0.197867	0.000803
1083	0.197703	0.000146	0.199182	0.002775
1084	0.196717	0.00031	0.200332	0.000803
1085	0.198196	0.00031	0.199839	0.001625
1086	0.195895	0.000474	0.199018	0.000474
1087	0.195895	-0.000183	0.197538	0.004255
1088	0.194744	-0.000512	0.196223	0.00146
1089	0.196717	-0.000512	0.196388	0.000639
1090	0.199018	-0.000183	0.198031	0.002282
1091	0.196881	-0.000512	0.19836	0.001789
1092	0.19721	-1.9e-05	0.200497	0.00146
1093	0.199018	0.000146	0.196552	0.001296
1094	0.197045	0.00031	0.19836	0.00146
1095	0.200661	0.000146	0.197538	0.00294
1096	0.199346	0.000474	0.198524	0.001789
1097	0.196388	0.000146	0.199839	0.000967
1098	0.199675	-0.000183	0.199511	0.003268
1099	0.196881	-0.000347	0.200004	0.001296
1100	0.198524	-0.000512	0.195895	0.002611
1101	0.197045	-0.000347	0.200661	0.000967
1102	0.197867	-0.000347	0.200497	0.000967
1103	0.191457	0.000146	0.20099	0.000967
1104	0.196552	-1.9e-05	0.199839	0.002282
1105	0.195237	0.00031	0.198689	-0.000512
1106	0.196717	0.000146	0.200497	0.000803
1107	0.198196	0.00031	0.197374	0.004255
1108	0.197374	0.000146	0.196388	0.001296
1109	0.199182	-1.9e-05	0.197045	0.002611
1110	0.196059	-0.000347	0.191786	0.001789
1111	0.200168	-0.000512	0.19721	0.002282
1112	0.201154	-0.000512	0.194744	-0.001334
1113	0.202305	-0.000347	0.197374	0.00409
1114	0.197867	-1.9e-05	0.198524	0.004748
1115	0.201319	0.000146	0.199018	0.001132
1116	0.198689	0.000146	0.20214	0.000967
1117	0.200661	0.000146	0.199675	0.000146
1118	0.199839	0.000146	0.197538	0.000803
1119	0.198031	-1.9e-05	0.197867	0.002447
1120	0.199182	-1.9e-05	0.201154	0.003597
1121	0.199511	-0.000183	0.199511	0.000639
1122	0.199675	-0.000512	0.19836	0.001789
1123	0.198031	-0.000512	0.199675	0.00409
1124	0.199182	-0.000512	0.200168	0.002775
1125	0.200332	-1.9e-05	0.198031	0.00031
1126	0.195566	0.000146	0.19836	0.000639
1127	0.199346	0.000146	0.197703	-0.000183
1128	0.201483	0.000146	0.196388	0.003597
1129	0.201483	0.00031	0.198031	0.001954
1130	0.199511	0.000146	0.196881	0.003926
1131	0.199839	-0.000183	0.19836	0.005076
1132	0.201154	-0.000347	0.197045	0.003761
1133	0.202305	-0.000347	0.197867	0.002611
1134	0.198524	-0.000841	0.20099	0.001132
1135	0.200825	-0.000183	0.204606	0.003268
1136	0.198524	-1.9e-05	0.198031	0.002775
1137	0.198853	-0.000183	0.202469	0.002282
1138	0.196388	0.003597	0.197867	0.002775
1139	0.197867	0.003597	0.199511	0.003268
1140	0.19836	0.002282	0.197703	0.00031
1141	0.197703	0.00146	0.19836	0.003268
1142	0.198689	-0.000841	0.196717	0.001789
1143	0.200004	0.00031	0.196717	0.002775
1144	0.199675	-0.000676	0.196881	0.00294
1145	0.199018	-0.000512	0.197045	0.00409
1146	0.200332	0.000639	0.19836	0.002775
1147	0.200004	0.00031	0.199675	0.002118
1148	0.197703	-0.000183	0.200825	0.001625
1149	0.198031	0.001132	0.200661	0.003761
1150	0.196059	0.00294	0.19721	0.005734
1151	0.200661	0.000146	0.199839	0.000474
1152	0.199511	0.000967	0.200168	0.00294
1153	0.193429	-0.000183	0.197867	0.002447
1154	0.199182	-1.9e-05	0.199675	0.002611
1155	0.200332	-0.001498	0.19836	0.004748
1156	0.197867	-0.001498	0.19721	0.002447
1157	0.199346	-0.000183	0.19458	0.000146
1158	0.199511	0.002611	0.19458	0.005898
1159	0.198524	0.001789	0.197867	0.002775
1160	0.198853	0.002611	0.198031	0.002611
1161	0.200497	0.000474	0.199182	0.002447
1162	0.201319	0.00031	0.195895	0.003104
1163	0.19836	0.00031	0.197538	0.006062
1164	0.200168	-1.9e-05	0.19836	0.005241
1165	0.200825	-1.9e-05	0.199839	0.003433
1166	0.200497	-0.000347	0.198196	0.003104
1167	0.200004	-0.000183	0.200332	0.004255
1168	0.201154	-0.000512	0.198031	0.003761
1169	0.200004	0.000474	0.201647	0.002611
1170	0.200168	-1.9e-05	0.198853	0.00294
1171	0.199839	0.00031	0.201976	0.000967
1172	0.197703	0.00031	0.201319	0.000474
1173	0.198689	0.000146	0.191128	0.003761
1174	0.197045	0.00031	0.198031	0.001132
1175	0.199675	-1.9e-05	0.197867	0.003761
1176	0.19721	-0.000512	0.198031	0.000639
1177	0.200825	0.001625	0.199675	0.004419
1178	0.198196	-0.000512	0.197703	0.00672
1179	0.20099	-0.00347	0.19573	0.004419
1180	0.199182	0.001296	0.198689	0.001789
1181	0.20099	0.00031	0.197703	0.005076
1182	0.199018	0.00031	0.199511	0.003761
1183	0.200332	0.000474	0.197374	0.003761
1184	0.199018	0.000639	0.194087	0.003926
1185	0.200332	0.000474	0.199182	0.002447
1186	0.19721	0.000967	0.200497	0.003433
1187	0.197703	-1.9e-05	0.19721	0.001625
1188	0.197045	0.001296	0.199839	0.003597
1189	0.198031	0.000803	0.198031	0.003104
1190	0.199018	0.000639	0.195073	0.00409
1191	0.197045	0.00146	0.19836	0.002611
1192	0.199018	0.001954	0.198196	0.001296
1193	0.19836	0.003104	0.194909	0.003433
1194	0.199018	-0.001005	0.200332	0.003104
1195	0.201483	0.001789	0.201483	0.001954
1196	0.199018	-0.000183	0.194909	0.002118
1197	0.199018	-1.9e-05	0.200661	0.004419
1198	0.200661	-1.9e-05	0.195895	0.000474
1199	0.198031	-0.000183	0.199675	0.002447
1200	0.199182	-0.000347	0.196717	0.003268
1201	0.199839	-1.9e-05	0.199182	0.002447
1202	0.198689	0.000146	0.199182	0.002282
1203	0.197867	0.00031	0.200004	0.00146
1204	0.196388	0.000146	0.197045	0.003433
1205	0.199182	0.000146	0.196552	0.007377
1206	0.19721	0.00031	0.200661	0.004419
1207	0.202962	0.00031	0.197374	0.002282
1208	0.200497	-0.000183	0.196388	0.001132
1209	0.198689	-0.000183	0.197374	0.00294
1210	0.199675	-0.000512	0.198524	0.002447
1211	0.201483	-0.000841	0.199018	0.003268
1212	0.200004	0.000146	0.19836	0.00409
1213	0.197703	-0.000676	0.198524	0.003104
1214	0.196059	0.004583	0.199018	0.00146
1215	0.200332	0.008528	0.197374	0.00409
1216	0.198524	0.004583	0.201154	0.003104
1217	0.198196	0.001296	0.198031	0.00294
1218	0.201976	0.006884	0.196059	0.003761
1219	0.200825	0.00294	0.199511	0.003761
1220	0.200661	0.003761	0.19836	0.006062
1221	0.200004	0.008692	0.195237	0.001132
1222	0.199839	0.005405	0.200004	0.003926
1223	0.201154	0.00294	0.196717	0.003926
1224	0.199018	0.001132	0.19836	0.002447
1225	0.200004	0.005241	0.19836	0.002775
1226	0.196881	0.003433	0.199182	0.004419
1227	0.197374	0.006556	0.202305	0.001625
1228	0.198689	0.016088	0.199675	0.002282
1229	0.19836	0.020526	0.19836	0.005076
1230	0.197374	0.027265	0.197703	0.000967
1231	0.199675	0.035811	0.19721	0.004912
1232	0.200004	0.040577	0.19721	0.001954
1233	0.199511	0.047809	0.196552	0.003433
1234	0.198853	0.052082	0.198196	0.002775
1235	0.199182	0.0603	0.199675	0.00672
1236	0.19573	0.068025	0.200168	0.003268
1237	0.197045	0.069997	0.196717	0.00672
1238	0.197867	0.074764	0.195402	0.004419
1239	0.199018	0.076736	0.19836	0.006884
1240	0.198853	0.081831	0.196388	0.003597
1241	0.198031	0.083475	0.195073	0.00409
1242	0.200332	0.085447	0.196223	0.004912
1243	0.198853	0.079859	0.196388	0.010336
1244	0.198524	0.081338	0.197374	0.011815
1245	0.200661	0.083639	0.197045	0.005405
1246	0.198689	0.084132	0.196388	0.005569
1247	0.198031	0.083968	0.197538	0.005734
1248	0.200004	0.087912	0.199182	0.001789
1249	0.197703	0.093665	0.195237	0.003761
1250	0.199182	0.096952	0.201154	0.007213
1251	0.19836	0.101225	0.19836	0.002611
1252	0.198031	0.10517	0.196552	0.003926
1253	0.200825	0.10895	0.197045	0.003268
1254	0.192936	0.110922	0.196881	0.009514
1255	0.198853	0.114209	0.195237	0.00672
1256	0.201154	0.116675	0.194744	0.005734
1257	0.199182	0.120126	0.19836	0.006884
1258	0.199839	0.122098	0.197374	0.006062
1259	0.201483	0.12818	0.201319	0.010829
1260	0.199346	0.1267	0.192608	0.005898
1261	0.202633	0.133439	0.199182	0.004748
1262	0.201647	0.137877	0.19458	0.004748
1263	0.197703	0.136562	0.198689	0.007706
1264	0.195402	0.142479	0.197045	0.005734
1265	0.201154	0.137055	0.197703	0.010336
1266	0.199182	0.14215	0.19573	0.007706
1267	0.200497	0.14478	0.197374	0.006556
1268	0.19836	0.14478	0.196717	0.008199
1269	0.20099	0.148396	0.196552	0.009021
1270	0.199839	0.152669	0.196881	0.007377
1271	0.198853	0.148231	0.194909	0.00294
1272	0.200332	0.150697	0.196881	0.005898
1273	0.201319	0.153326	0.194744	0.005241
1274	0.200661	0.157928	0.198031	0.001625
1275	0.202305	0.155134	0.195237	0.004583
1276	0.199839	0.15612	0.199182	0.004255
1277	0.197538	0.150532	0.197703	0.003926
1278	0.201976	0.148889	0.19721	0.006884
1279	0.198689	0.141164	0.198196	0.004912
1280	0.198524	0.141328	0.198524	0.008528
1281	0.199182	0.142972	0.197703	0.004583
1282	0.200332	0.141657	0.197703	0.006556
1283	0.199839	0.140671	0.199346	0.010829
1284	0.199018	0.138699	0.19721	0.016746
1285	0.198853	0.134261	0.195895	0.005241
1286	0.198196	0.126372	0.196059	0.005898
1287	0.19836	0.115195	0.195895	0.003761
1288	0.20099	0.104512	0.194416	0.004748
1289	0.200661	0.10517	0.197045	0.005898
1290	0.200004	0.103526	0.19573	0.004583
1291	0.199182	0.110758	0.198031	0.005405
1292	0.200825	0.112566	0.197703	0.004583
1293	0.198853	0.114374	0.199675	0.005898
1294	0.200168	0.091035	0.199182	0.004255
1295	0.199346	0.032031	0.198689	0.011651
1296	0.200497	0.007377	0.196881	0.005241
1297	0.199018	0.001625	0.199346	0.008528
1298	0.199675	0.002447	0.195402	0.003104
1299	0.199346	0.000639	0.197703	0.006227
1300	0.198031	0.003597	0.194744	0.004419
1301	0.197703	0.005405	0.199018	0.005734
1302	0.199346	0.010993	0.197538	0.00935
1303	0.199018	0.012144	0.196552	0.005898
1304	0.198689	0.012965	0.197538	0.00935
1305	0.197867	0.009514	0.195402	0.013294
1306	0.201154	0.014116	0.194416	0.01313
1307	0.19836	0.012144	0.19458	0.00787
1308	0.199018	0.017567	0.197867	0.010336
1309	0.202305	0.022991	0.19458	0.016253
1310	0.19721	0.032524	0.194416	0.021019
1311	0.199839	0.036633	0.194416	0.015266
1312	0.200004	0.040413	0.199839	0.018389
1313	0.198031	0.045508	0.198196	0.023977
1314	0.19721	0.046659	0.19836	0.028908
1315	0.201812	0.043207	0.198689	0.03351
1316	0.197538	0.048631	0.197867	0.032195
1317	0.201319	0.05274	0.194416	0.028086
1318	0.198853	0.049288	0.196552	0.03088
1319	0.197045	0.037619	0.197538	0.030223
1320	0.196223	0.037619	0.196717	0.037783
1321	0.200825	0.035482	0.197703	0.042714
1322	0.199675	0.036962	0.193265	0.04633
1323	0.198196	0.038605	0.198031	0.035647
1324	0.199182	0.038276	0.193265	0.014116
1325	0.200332	0.043043	0.196223	0.009843
1326	0.201154	0.048302	0.197374	0.003926
1327	0.199018	0.053397	0.19836	0.004419
1328	0.201483	0.060958	0.196388	0.007049
1329	0.199675	0.067203	0.199346	0.00672
1330	0.199018	0.069176	0.19836	0.007049
1331	0.200168	0.072627	0.19836	0.013787
1332	0.198689	0.07312	0.199346	0.01576
1333	0.197703	0.075914	0.195237	0.018554
1334	0.19573	0.075421	0.19836	0.017074
1335	0.199511	0.081338	0.196388	0.020033
1336	0.19721	0.086433	0.19721	0.018554
1337	0.199839	0.090049	0.196717	0.018225
1338	0.199182	0.097281	0.197703	0.019868
1339	0.199182	0.099089	0.197045	0.021019
1340	0.199346	0.099746	0.197374	0.03088
1341	0.199018	0.092186	0.194744	0.021019
1342	0.199346	0.037619	0.19836	0.021676
1343	0.199675	0.006556	0.197538	0.025292
1344	0.198031	0.003268	0.198853	0.028086
1345	0.198196	0.009185	0.198196	0.03614
1346	0.199839	0.001625	0.199346	0.041728
1347	0.198031	0.009021	0.200661	0.047809
1348	0.195566	0.006227	0.197867	0.044686
1349	0.199018	0.014938	0.197374	0.047973
1350	0.196388	0.020526	0.194416	0.055698
1351	0.195895	0.029237	0.19836	0.055041
1352	0.197538	0.034003	0.197538	0.057999
1353	0.192443	0.042385	0.197867	0.05915
1354	0.200332	0.044851	0.197703	0.065724
1355	0.198853	0.052575	0.197538	0.073284
1356	0.199018	0.0603	0.196881	0.073778
1357	0.198031	0.06408	0.198853	0.065231
1358	0.198031	0.068682	0.196717	0.067368
1359	0.199346	0.073942	0.195073	0.068189
1360	0.200004	0.07838	0.194416	0.068682
1361	0.200168	0.083146	0.194251	0.074435
1362	0.197703	0.082653	0.199511	0.067039
1363	0.200168	0.070819	0.199018	0.047152
1364	0.201483	0.074599	0.200168	0.021841
1365	0.201319	0.075914	0.196552	0.019047
1366	0.196881	0.081502	0.199182	0.027922
1367	0.194909	0.08216	0.198031	0.034332
1368	0.197374	0.081174	0.19836	0.037126
1369	0.198524	0.080352	0.198689	0.037126
1370	0.192443	0.083968	0.200168	0.046001
1371	0.198031	0.082653	0.199346	0.04633
1372	0.199839	0.08857	0.19836	0.054055
1373	0.197538	0.090871	0.195895	0.058328
1374	0.200004	0.095144	0.199511	0.047645
1375	0.199511	0.09991	0.195566	0.048631
1376	0.198196	0.103526	0.196552	0.056684
1377	0.198031	0.105827	0.197867	0.054055
1378	0.202633	0.108786	0.197867	0.052904
1379	0.197374	0.11536	0.199839	0.05389
1380	0.199018	0.117332	0.197045	0.062766
1381	0.196388	0.119962	0.19836	0.067039
1382	0.196552	0.118976	0.199511	0.06934
1383	0.199018	0.12555	0.198853	0.072134
1384	0.196881	0.126043	0.197045	0.073449
1385	0.19836	0.127522	0.19573	0.077229
1386	0.198031	0.113388	0.197538	0.077229
1387	0.191786	0.09991	0.19836	0.082982
1388	0.194744	0.091528	0.196881	0.051425
1389	0.19721	0.074271	0.197867	0.048138
1390	0.196881	0.070819	0.196717	0.046166
1391	0.19836	0.066217	0.198031	0.038769
1392	0.197045	0.067696	0.196388	0.038934
1393	0.19836	0.063259	0.196223	0.045179
1394	0.198031	0.06671	0.197867	0.049781
1395	0.199182	0.065067	0.198853	0.051754
1396	0.196388	0.044686	0.198853	0.057342
1397	0.199839	0.040906	0.196717	0.063259
1398	0.189978	0.038276	0.199018	0.064738
1399	0.196059	0.048467	0.194251	0.066217
1400	0.196388	0.054712	0.198031	0.068354
1401	0.197045	0.059314	0.19573	0.072134
1402	0.195237	0.067039	0.199839	0.073778
1403	0.195566	0.069504	0.196388	0.076407
1404	0.189814	0.071641	0.198196	0.082324
1405	0.196388	0.078873	0.195895	0.079037
1406	0.199346	0.08216	0.197538	0.078873
1407	0.196223	0.087255	0.197538	0.059478
1408	0.199511	0.091035	0.196717	0.059972
1409	0.195566	0.088077	0.196223	0.062437
1410	0.197045	0.096623	0.198689	0.066875
1411	0.199346	0.105663	0.196717	0.066546
1412	0.197867	0.107799	0.199675	0.054548
1413	0.197374	0.111251	0.200825	0.057013
1414	0.19836	0.111908	0.198689	0.055205
1415	0.198031	0.114045	0.199511	0.059807
1416	0.200004	0.116839	0.197867	0.05389
1417	0.196223	0.124071	0.199346	0.039427
1418	0.199018	0.1267	0.197045	0.018882
1419	0.196881	0.12555	0.20099	0.008199
1420	0.201647	0.131302	0.196717	0.005734
1421	0.196388	0.131796	0.198524	0.005734
1422	0.196552	0.135904	0.197703	0.005076
1423	0.196717	0.137055	0.202305	0.006062
1424	0.194416	0.138699	0.199018	0.003926
1425	0.199182	0.138534	0.200825	0.005898
1426	0.19573	0.134261	0.198689	0.00787
1427	0.19836	0.130809	0.19721	0.005405
1428	0.201812	0.125714	0.19573	0.006062
1429	0.198689	0.102704	0.196881	0.008363
1430	0.199018	0.067532	0.197867	0.015266
1431	0.20099	0.057671	0.197045	0.024964
1432	0.197045	0.049781	0.19836	0.022334
1433	0.198524	0.054219	0.197045	0.024799
1434	0.200661	0.060629	0.197045	0.034989
1435	0.195895	0.062273	0.194744	0.034989
1436	0.195895	0.068847	0.200661	0.040249
1437	0.193922	0.074764	0.198689	0.040906
1438	0.196717	0.079366	0.197867	0.034168
1439	0.19836	0.083968	0.197867	0.040577
1440	0.199018	0.089227	0.196881	0.046659
1441	0.19721	0.091692	0.196552	0.038769
1442	0.200661	0.097609	0.198031	0.016581
1443	0.196717	0.09876	0.200332	0.024964
1444	0.197703	0.100732	0.19721	0.027922
1445	0.19836	0.109114	0.19836	0.015924
1446	0.19573	0.109607	0.195402	0.010336
1447	0.198524	0.112566	0.197703	0.009514
1448	0.19836	0.11536	0.197867	0.00787
1449	0.197374	0.120619	0.19836	0.004912
1450	0.197703	0.123249	0.195566	0.016253
1451	0.197867	0.126372	0.19573	0.025292
1452	0.19721	0.127851	0.197374	0.029072
1453	0.199018	0.130152	0.197867	0.035482
1454	0.196717	0.041235	0.199839	0.034661
1455	0.196388	-1.9e-05	0.200004	0.035482
1456	0.197045	0.000146	0.198524	0.037948
1457	0.198689	0.00031	0.198689	0.02595
1458	0.195237	0.003597	0.196552	0.034661
1459	0.200497	0.008363	0.197538	0.038276
1460	0.199511	0.017239	0.196059	0.044358
1461	0.198853	0.019868	0.198524	0.046166
1462	0.197703	0.027758	0.202962	0.054712
1463	0.199018	0.032031	0.195237	0.058492
1464	0.199346	0.039591	0.199675	0.063587
1465	0.198196	0.042221	0.19836	0.069504
1466	0.198031	0.049946	0.197867	0.072298
1467	0.194416	0.054548	0.197374	0.075585
1468	0.199182	0.0603	0.199839	0.070162
1469	0.196059	0.067861	0.199839	0.071477
1470	0.199182	0.072134	0.200332	0.077886
1471	0.198689	0.079366	0.197867	0.086597
1472	0.201154	0.081009	0.197703	0.073449
1473	0.196881	0.086762	0.199839	0.079201
1474	0.197045	0.088734	0.198853	0.080187
1475	0.197703	0.08857	0.199182	0.06934
1476	0.199182	0.076243	0.199675	0.021841
1477	0.197867	0.078873	0.198853	0.005076
1478	0.19573	0.081009	0.199018	0.005569
1479	0.198853	0.086269	0.195566	0.006884
1480	0.199839	0.090871	0.195073	0.009514
1481	0.198853	0.094815	0.200332	0.016253
1482	0.197703	0.097609	0.195073	0.018389
1483	0.198853	0.101883	0.19721	0.018554
1484	0.19721	0.104841	0.195237	0.006227
1485	0.198031	0.110265	0.199839	0.010336
1486	0.198031	0.113552	0.201647	0.006556
1487	0.199018	0.114209	0.200004	0.011815
1488	0.197867	0.11914	0.198524	0.014609
1489	0.199675	0.120948	0.197045	0.010171
1490	0.201319	0.124728	0.197538	0.00787
1491	0.196881	0.124893	0.196552	0.00787
1492	0.197538	0.126372	0.200661	0.008035
1493	0.199018	0.121112	0.195566	-0.003306
1494	0.197703	0.092514	0.196388	0.001296
1495	0.198524	0.068025	0.197374	0.00294
1496	0.198031	0.059972	0.197703	0.011815
1497	0.198031	0.039756	0.195895	0.016417
1498	0.199182	0.035318	0.197867	0.021676
1499	0.198196	0.020197	0.198031	0.016581
1500	0.198524	0.012472	0.196881	0.024964
1501	0.195566	0.007706	0.195073	0.028908
1502	0.197867	0.002282	0.195895	0.017567
1503	0.19573	0.002447	0.199511	0.007213
1504	0.201812	0.001625	0.196388	0.007213
1505	0.199511	0.002611	0.19721	0.006391
1506	0.199675	-0.000183	0.195895	0.011486
1507	0.19836	0.002118	0.198031	0.020197
1508	0.199675	-0.000183	0.195402	0.0105
1509	0.197538	0.002118	0.199511	0.008528
1510	0.197538	0.005569	0.199182	0.014938
1511	0.197867	0.003104	0.197374	0.015266
1512	0.196881	0.003761	0.200004	0.009185
1513	0.198853	0.008857	0.197703	0.014609
1514	0.195895	0.005241	0.196388	0.019047
1515	0.201812	0.001296	0.197867	0.02595
1516	0.197538	-0.000676	0.196059	0.030552
1517	0.195895	-0.000183	0.197703	0.029894
1518	0.199675	-1.9e-05	0.200332	0.007542
1519	0.202962	0.000639	0.199675	0.003433
1520	0.198853	0.00031	0.200825	0.007542
1521	0.199018	-1.9e-05	0.198689	0.008692
1522	0.20099	0.00031	0.197374	0.005241
1523	0.19721	0.000146	0.199182	0.004912
1524	0.197374	0.00031	0.201319	0.010993
1525	0.197045	0.000146	0.197538	0.010829
1526	0.196552	-1.9e-05	0.199511	0.017732
1527	0.197374	-0.000512	0.195237	0.007706
1528	0.200661	-0.000347	0.200497	0.005405
1529	0.198196	0.001296	0.200497	0.004912
1530	0.199511	-0.001169	0.199839	0.007542
1531	0.196059	0.002282	0.198853	0.001296
1532	0.198524	0.00409	0.199018	0.001954
1533	0.196223	0.012965	0.197703	0.002118
1534	0.198031	0.019868	0.201154	0.00409
1535	0.198196	0.031538	0.199346	0.002118
1536	0.20099	0.032688	0.199839	0.003926
1537	0.199018	0.040742	0.197374	0.003104
1538	0.200661	0.04748	0.198853	0.00294
1539	0.19836	0.054055	0.199018	0.007542
1540	0.199346	0.059478	0.200168	0.004419
1541	0.200168	0.065724	0.196059	0.007706
1542	0.19836	0.069504	0.198689	0.010664
1543	0.198853	0.076243	0.199675	0.014938
1544	0.197867	0.078873	0.197045	0.020855
1545	0.198031	0.083968	0.199018	0.024635
1546	0.196552	0.088077	0.197867	0.022169
1547	0.198196	0.089391	0.198524	0.014938
1548	0.196717	0.097116	0.197045	0.005405
1549	0.197045	0.094487	0.19836	0.008363
1550	0.195073	0.102047	0.200004	0.012308
1551	0.194416	0.10254	0.197538	0.015595
1552	0.197867	0.109936	0.19836	0.01576
1553	0.197374	0.109607	0.196223	0.011979
1554	0.195402	0.112401	0.196223	0.01428
1555	0.199018	0.114045	0.19458	0.016581
1556	0.197538	0.117825	0.19721	0.007706
1557	0.198853	0.119304	0.194416	0.002282
1558	0.198196	0.123085	0.19573	0.002447
1559	0.197538	0.126865	0.195566	0.004255
1560	0.198689	0.130152	0.197867	0.005734
1561	0.197045	0.133603	0.19721	0.003597
1562	0.198031	0.13311	0.19721	0.004583
1563	0.197703	0.141164	0.195895	0.000639
1564	0.196717	0.135576	0.196223	0.002282
1565	0.194416	0.139192	0.196388	0.000967
1566	0.198524	0.141	0.196388	0.002282
1567	0.195895	0.141986	0.197703	0.000967
1568	0.195895	0.14478	0.192772	0.000967
1569	0.194416	0.146588	0.194909	0.004419
1570	0.194744	0.148396	0.195073	0.002118
1571	0.195237	0.151354	0.197045	0.000967
1572	0.197374	0.153655	0.194744	0.004255
1573	0.17798	0.155956	0.196881	0.002447
1574	0.103855	0.157107	0.197045	0.005569
1575	0.079694	0.159079	0.196717	0.00935
1576	0.07312	0.159736	0.197045	0.001954
1577	0.075421	0.162037	0.199018	0.004419
1578	0.077229	0.163516	0.197867	0.00294
1579	0.077065	0.16253	0.189978	0.001296
1580	0.077886	0.162366	0.194416	0.002447
1581	0.081502	0.166639	0.19721	0.004255
1582	0.084625	0.168612	0.198031	0.005076
1583	0.090378	0.168447	0.197045	0.013294
1584	0.092843	0.170748	0.200497	0.017239
1585	0.099089	0.165982	0.196552	0.014609
1586	0.097774	0.167954	0.199182	0.005898
1587	0.101554	0.166311	0.198524	0.006884
1588	0.106978	0.166311	0.197045	0.007213
1589	0.109936	0.164174	0.196717	0.009843
1590	0.114538	0.142314	0.196388	0.017896
1591	0.117003	0.141821	0.196223	0.005734
1592	0.12177	0.143958	0.197374	0.005076
1593	0.122098	0.146752	0.199182	0.007706
1594	0.126372	0.146916	0.197045	0.010171
1595	0.12555	0.15119	0.198689	0.012801
1596	0.127851	0.150532	0.196717	0.0105
1597	0.120455	0.15119	0.19836	0.006062
1598	0.118318	0.15234	0.199511	0.006062
1599	0.115689	0.154312	0.199018	0.009021
1600	0.109936	0.15497	0.197867	0.014445
1601	0.081338	0.158257	0.206578	0.014445
1602	0.068025	0.072298	0.19836	0.011651
1603	0.044686	0.077558	0.199018	0.013459
1604	0.024964	0.078873	0.198689	0.003104
1605	0.027265	0.084789	0.197538	0.008528
1606	0.021676	0.088241	0.196881	0.00672
1607	0.025292	0.006062	0.194251	0.00672
1608	0.022827	0.008528	0.195402	0.007377
1609	0.028579	0.00146	0.197374	0.008035
1610	0.031538	0.009843	0.196717	0.012965
1611	0.040084	0.015924	0.198524	0.013294
1612	0.042385	0.027593	0.19836	0.013623
1613	0.048795	0.032195	0.194744	0.013459
1614	0.047645	0.044029	0.19721	0.013459
1615	0.036797	0.046494	0.196552	0.013787
1616	0.038441	0.052575	0.199346	0.013459
1617	0.042221	0.057013	0.196388	0.012965
1618	0.043207	0.062601	0.196717	0.011651
1619	0.041564	0.065395	0.201154	0.008528
1620	0.036469	0.072791	0.201319	0.009514
1621	0.013787	0.077065	0.194251	0.009514
1622	0.011979	0.081502	0.198031	0.005241
1623	0.012144	0.08709	0.196223	0.003433
1624	0.012144	0.089556	0.195402	0.004912
1625	0.01313	0.095473	0.195895	0.005734
1626	0.013623	0.098267	0.19721	0.011322
1627	0.013952	0.093336	0.197867	0.000803
1628	0.010007	0.090049	0.197374	0.000474
1629	0.004748	0.072791	0.197045	0.000967
1630	0.008035	0.052411	0.198196	0.00031
1631	0.010664	0.028579	0.198031	0.00031
1632	0.016581	0.031867	0.196552	-0.000347
1633	0.025128	0.039756	0.197703	-0.000347
1634	0.029401	0.044851	0.197374	-0.000347
1635	0.035482	0.054548	0.19458	-0.000347
1636	0.042714	0.057671	0.196881	-1.9e-05
1637	0.051425	0.06408	0.196223	0.000474
1638	0.04896	0.068025	0.195566	0.00409
1639	0.059478	0.072791	0.197867	0.005569
1640	0.064574	0.076572	0.193101	0.00672
1641	0.067861	0.083968	0.197374	0.003104
1642	0.071477	0.085611	0.197045	0.000474
1643	0.076736	0.090213	0.195566	-0.000183
1644	0.077229	0.0935	0.195566	-0.000347
1645	0.073942	0.098595	0.199018	-0.000183
1646	0.057999	0.104841	0.196717	-0.000183
1647	0.034989	0.104677	0.19836	-0.000183
1648	0.02332	0.109936	0.198524	-1.9e-05
1649	0.003926	0.111251	0.19836	0.000146
1650	0.001954	0.115689	0.197867	0.000146
1651	0.001296	0.119469	0.193594	0.000146
1652	0.002447	0.119469	0.196552	0.000146
1653	0.001296	0.038934	0.20214	0.000146
1654	0.003761	0.000803	0.195895	-0.000183
1655	0.010829	0.000146	0.197703	-0.000183
1656	0.014116	0.00031	0.196059	-0.000512
1657	0.024142	0.000146	0.19458	-0.000347
1658	0.028908	0.000146	0.195402	-0.000512
1659	0.027265	-1.9e-05	0.196388	0.000146
1660	0.036469	-0.000347	0.194909	0.00031
1661	0.040084	-0.000183	0.197374	0.000146
1662	0.045508	-0.000183	0.196388	0.000146
1663	0.051589	0.003268	0.198031	0.00031
1664	0.055698	-0.000512	0.19836	0.000146
1665	0.060793	0.008692	0.202962	-0.000183
1666	0.063916	0.005241	0.200661	-0.000347
1667	0.069504	0.00294	0.200332	-0.000347
1668	0.073613	0.004912	0.199018	-0.000512
1669	0.077065	0.001789	0.200332	-0.000183
1670	0.081174	0.00409	0.200332	0.000146
1671	0.086597	0.006391	0.199018	0.00031
1672	0.087419	0.010007	0.19836	0.000146
1673	0.095637	0.009678	0.195895	0.00031
1674	0.095473	0.004255	0.196881	0.000146
1675	0.100403	0.004255	0.198853	0.000146
1676	0.102211	0.005569	0.198524	-0.000183
1677	0.110922	0.002447	0.196552	-0.000183
1678	0.113059	0.002118	0.198853	-0.000347
1679	0.114538	0.004255	0.195895	-0.000347
1680	0.115524	0.004748	0.197045	-0.000183
1681	0.115195	0.007706	0.198031	-1.9e-05
1682	0.120784	0.015102	0.198689	0.00031
1683	0.125057	0.021676	0.196223	0.00031
1684	0.127358	0.030716	0.200825	0.00031
1685	0.128344	0.035482	0.19721	0.000474
1686	0.131302	0.042057	0.199182	-0.000183
1687	0.132946	0.044358	0.198689	0.000474
1688	0.136562	0.04896	0.19573	-0.001005
1689	0.137219	0.055205	0.199182	-0.000347
1690	0.137877	0.060629	0.194744	0.001296
1691	0.136562	0.065724	0.196223	-0.000676
1692	0.139356	0.063752	0.195402	0.00031
1693	0.141657	0.01954	0.196223	0.000146
1694	0.143465	0.014773	0.196388	0.000639
1695	0.148067	0.010664	0.196059	0.000146
1696	0.147903	0.003926	0.197374	0.000474
1697	0.148067	0.013294	0.197703	0.00031
1698	0.151847	0.01691	0.19721	-0.000347
1699	0.152833	0.005241	0.198031	-0.000183
1700	0.15234	0.008363	0.200497	-0.000347
1701	0.155956	0.015595	0.196059	-0.000512
1702	0.152669	0.021512	0.197045	0.004255
1703	0.157764	0.026443	0.197045	0.002118
1704	0.155299	0.032853	0.19836	0.000146
1705	0.159408	0.036962	0.195566	-1.9e-05
1706	0.160065	0.046001	0.195895	0.00031
1707	0.16253	0.045179	0.200004	0.000146
1708	0.161709	0.041564	0.195402	0.000146
1709	0.165817	-0.000841	0.195566	-1.9e-05
1710	0.163516	0.000639	0.198196	-0.000347
1711	0.170584	0.000803	0.195237	0.001954
1712	0.168118	0.002775	0.19836	0.003597
1713	0.154312	0.000146	0.197045	0.001132
1714	0.139027	0.005569	0.19836	0.001789
1715	0.097116	0.000146	0.201154	0.00031
1716	0.071805	0.000967	0.20362	0.00031
1717	0.049781	0.001296	0.198196	-1.9e-05
1718	0.029894	0.00935	0.20214	0.000474
1719	0.019868	0.016253	0.202798	0.004912
1720	0.014938	0.017403	0.200168	0.00031
1721	0.000803	0.020362	0.202305	-0.000183
1722	0.001296	0.010007	0.200497	0.00409
1723	0.00031	0.01691	0.199839	0.000146
1724	0.000474	0.021019	0.199346	0.006062
1725	0.000146	0.016253	0.200004	0.005405
1726	0.00031	0.000639	0.20099	0.005569
1727	0.000146	0.003104	0.201812	0.008528
1728	0.000967	0.001625	0.195237	0.010007
1729	0.003104	0.006556	0.199675	0.002282
1730	0.009185	0.011322	0.19836	0.000146
1731	0.016581	0.016088	0.197538	0.00031
1732	0.022991	0.026443	0.200497	-0.000183
1733	0.025785	0.021841	0.201319	0.00031
1734	0.030387	0.029237	0.199675	0.000146
1735	0.027593	0.03614	0.198196	0.008199
1736	0.01576	0.041728	0.19836	0.007049
1737	0.018389	0.037455	0.199018	0.013623
1738	0.025621	0.031209	0.19836	0.021348
1739	0.030059	0.002118	0.196059	0.026771
1740	0.035482	0.003761	0.198689	0.038769
1741	0.042385	0.000803	0.19836	0.042878
1742	0.045837	0.000474	0.199182	0.05011
1743	0.051425	-1.9e-05	0.196552	0.053397
1744	0.056849	0.000639	0.197045	0.062766
1745	0.061779	-0.000183	0.197374	0.064409
1746	0.067203	-1.9e-05	0.199018	0.071641
1747	0.070162	-1.9e-05	0.195237	0.075257
1748	0.076243	-1.9e-05	0.19573	0.080023
1749	0.079037	-0.000512	0.198853	0.084461
1750	0.08331	0.000146	0.196881	0.090542
1751	0.086762	0.001954	0.198031	0.093993
1752	0.091364	-1.9e-05	0.203455	0.096952
1753	0.093336	0.000967	0.198689	0.09876
1754	0.100403	0.00031	0.197867	0.102047
1755	0.104019	0.00031	0.197045	0.105005
1756	0.108293	0.000146	0.194416	0.106978
1757	0.1101	-0.000183	0.19721	0.113552
1758	0.11273	-0.000347	0.195566	0.114702
1759	0.114209	-0.000347	0.198031	0.114867
1760	0.119797	-0.000512	0.198196	0.104841
1761	0.118811	-0.000183	0.196388	0.096459
1762	0.103362	-1.9e-05	0.197867	0.089885
1763	0.103362	-0.000841	0.196059	0.084296
1764	0.10254	0.003433	0.196059	0.076079
1765	0.107964	0.012144	0.202305	0.071641
1766	0.106156	0.01954	0.197703	0.064902
1767	0.114867	0.000639	0.197538	0.063094
1768	0.116182	0.000803	0.195402	0.060465
1769	0.118154	-0.000183	0.195402	0.060958
1770	0.121934	0.00031	0.197867	0.066381
1771	0.121277	0.002282	0.197538	0.069011
1772	0.122098	0.000474	0.197045	0.073449
1773	0.126865	0.000146	0.198689	0.079859
1774	0.119304	0.00031	0.201154	0.085118
1775	0.107635	0.00031	0.199018	0.087255
1776	0.045344	0.000146	0.201976	0.087748
1777	0.010007	-1.9e-05	0.202305	0.084132
1778	0.013952	-1.9e-05	0.200825	0.087748
1779	0.007213	-0.000347	0.200661	0.088405
1780	0.003761	-0.000676	0.199675	0.0935
1781	0.007377	-0.000347	0.197867	0.095308
1782	0.00935	-0.000512	0.19836	0.099746
1783	0.015595	-0.000347	0.199018	0.104677
1784	0.023484	0.000146	0.199182	0.109443
1785	0.031538	0.000146	0.199511	0.112237
1786	0.037783	0.000146	0.198524	0.115524
1787	0.040249	0.00031	0.199839	0.120291
1788	0.047973	0.000146	0.197867	0.121605
1789	0.052411	-0.000183	0.200168	0.123742
1790	0.055863	-0.000512	0.19721	0.127194
1791	0.063259	-0.000347	0.198196	0.127358
1792	0.06671	-0.000347	0.198524	0.119797
1793	0.067696	-0.001005	0.199346	0.122263
1794	0.075421	-0.000183	0.198524	0.121605
1795	0.081502	0.000146	0.199346	0.1267
1796	0.082982	0.000146	0.198196	0.124728
1797	0.089885	0.000146	0.197538	0.12818
1798	0.091857	0.00031	0.19721	0.130152
1799	0.095801	0.000146	0.19836	0.131796
1800	0.099089	-1.9e-05	0.198196	0.136069
1801	0.104512	-0.000183	0.197538	0.136233
1802	0.106649	-0.000512	0.198689	0.139027
1803	0.110593	-0.000347	0.19836	0.138863
1804	0.1101	-0.000347	0.198031	0.145602
1805	0.117661	0.000146	0.194416	0.144451
1806	0.122263	0.000146	0.199675	0.146752
1807	0.122592	0.00031	0.203784	0.146916
1808	0.127358	0.000474	0.200825	0.15234
1809	0.129823	0.00031	0.197374	0.152011
1810	0.131302	0.00031	0.199346	0.151025
1811	0.129166	-1.9e-05	0.198196	0.150532
1812	0.136069	-0.000183	0.19721	0.151683
1813	0.136562	-0.000347	0.196059	0.154477
1814	0.140835	-0.000347	0.198196	0.153491
1815	0.145602	-0.000183	0.197374	0.156449
1816	0.143465	-0.000183	0.197045	0.155956
1817	0.146423	0.000146	0.19836	0.158914
1818	0.148889	-1.9e-05	0.196717	0.160558
1819	0.150861	-1.9e-05	0.197867	0.161051
1820	0.152505	0.000474	0.197045	0.161215
1821	0.153162	0.000146	0.198689	0.164174
1822	0.156449	-1.9e-05	0.196388	0.163352
1823	0.1576	-0.000183	0.199346	0.167625
1824	0.159736	-0.000347	0.19573	0.166639
1825	0.162202	-0.000347	0.198853	0.167625
1826	0.16401	-0.000512	0.197703	0.168776
1827	0.164503	-0.000183	0.19721	0.165653
1828	0.164174	0.00031	0.195402	0.169598
1829	0.166804	0.000146	0.196552	0.172556
1830	0.16138	0.000474	0.197703	0.172227
1831	0.170255	-1.9e-05	0.196881	0.171406
1832	0.166968	0.000474	0.198196	0.173049
1833	0.169269	-0.000183	0.197374	0.171899
1834	0.171406	-0.000183	0.19836	0.172227
1835	0.17272	-0.000183	0.197045	0.169926
1836	0.173049	-0.000347	0.197538	0.170091
1837	0.176665	-0.000512	0.197374	0.167625
1838	0.175021	-0.000183	0.19836	0.169433
1839	0.176172	-1.9e-05	0.197045	0.16516
1840	0.178637	0.000146	0.198031	0.167625
1841	0.177487	0.00031	0.199346	0.167461
1842	0.179952	0.00031	0.200168	0.167297
1843	0.177815	-1.9e-05	0.197867	0.166475
1844	0.18176	-0.000183	0.200497	0.156285
1845	0.178473	-0.000183	0.198853	0.162695
1846	0.182089	-0.000347	0.19721	0.163023
1847	0.181431	-0.000347	0.199839	0.160558
1848	0.183897	-0.000347	0.198196	0.160394
1849	0.181924	-0.000183	0.200332	0.160722
1850	0.180774	0.000146	0.199018	0.15612
1851	0.182417	0.000146	0.198196	0.159901
1852	0.182746	0.00031	0.199182	0.162366
1853	0.182911	0.00031	0.198524	0.156942
1854	0.182253	0.000146	0.199346	0.158093
1855	0.186198	-0.000183	0.197374	0.154148
1856	0.187513	-1.9e-05	0.197374	0.159736
1857	0.188006	-0.000183	0.19573	0.162859
1858	0.185047	-0.000347	0.193758	0.160722
1859	0.189156	-0.000183	0.19836	0.163516
1860	0.18817	-0.000183	0.19721	0.149217
1861	0.191786	0.00031	0.199182	0.120948
1862	0.188006	0.000146	0.200332	0.07575
1863	0.189485	0.00031	0.196388	0.061779
1864	0.188006	0.00031	0.199346	0.060465
1865	0.188499	0.00031	0.200332	0.064245
1866	0.188827	-0.000183	0.199182	0.068518
1867	0.189649	-0.000347	0.199346	0.067861
1868	0.190471	-0.000183	0.199018	0.07197
1869	0.190471	-0.000512	0.199675	0.069011
1870	0.193265	-0.000347	0.20099	0.063916
1871	0.190307	-0.000183	0.19836	0.043865
1872	0.19195	0.000146	0.19836	0.011815
1873	0.192443	0.00031	0.19836	0.014773
1874	0.194251	0.000146	0.196717	0.015924
1875	0.192936	0.00031	0.201319	0.019047
1876	0.192608	0.00031	0.197374	0.024799
1877	0.193101	-0.000183	0.200332	0.035154
1878	0.195895	-0.000347	0.198031	0.026114
1879	0.194909	-0.000347	0.201812	0.026936
1880	0.196881	-0.000512	0.199675	0.026278
1881	0.190471	-0.000183	0.202305	0.031209
1882	0.192772	0.000146	0.199018	0.040249
1883	0.194744	-1.9e-05	0.200168	0.043371
1884	0.191128	0.000146	0.200332	0.048795
1885	0.195073	0.00031	0.19836	0.057177
1886	0.19195	0.000146	0.197538	0.059807
1887	0.194744	0.000146	0.200004	0.06556
1888	0.193922	-0.000183	0.196881	0.071312
1889	0.194744	-1.9e-05	0.199346	0.073613
1890	0.195402	-0.000183	0.19721	0.080352
1891	0.195402	-0.000512	0.19721	0.085283
1892	0.194251	-0.000183	0.201812	0.090378
1893	0.197045	-1.9e-05	0.197045	0.094815
1894	0.193101	0.000146	0.199018	0.097938
1895	0.195895	0.000146	0.199511	0.101061
1896	0.19573	0.00031	0.200661	0.10632
1897	0.195566	0.00031	0.196717	0.109772
1898	0.195566	0.000146	0.201483	0.118154
1899	0.196717	-0.000183	0.196717	0.116182
1900	0.194416	-0.000347	0.198196	0.115524
1901	0.195895	-0.000347	0.199675	0.117003
1902	0.197538	-0.000347	0.198524	0.118976
1903	0.196223	-0.000183	0.199839	0.119962
1904	0.195237	-1.9e-05	0.199346	0.123906
1905	0.193922	0.000146	0.199018	0.124564
1906	0.195402	0.000146	0.198031	0.129495
1907	0.197867	0.00031	0.200497	0.132289
1908	0.199839	0.000803	0.193922	0.136069
1909	0.197867	0.000803	0.197867	0.136398
1910	0.198031	0.000474	0.193922	0.140342
1911	0.201154	-0.000183	0.195402	0.140178
1912	0.200825	-0.000512	0.196717	0.141657
1913	0.199839	-0.000347	0.200332	0.146259
1914	0.199675	-0.000347	0.200661	0.140506
1915	0.198853	0.00031	0.201154	0.098431
1916	0.197538	0.000803	0.198689	0.012965
1917	0.197374	0.003926	0.200825	0.000639
1918	0.197703	0.002447	0.200168	-1.9e-05
1919	0.197703	0.001132	0.199675	-1.9e-05
1920	0.194909	0.000967	0.198689	-0.000512
1921	0.198853	-1.9e-05	0.197703	-0.000347
1922	0.196881	-0.000183	0.198524	0.000146
1923	0.198031	0.001296	0.198853	0.000474
1924	0.196881	0.000967	0.198524	0.00031
1925	0.199182	0.000146	0.196552	0.000474
1926	0.195566	0.001625	0.202633	0.000474
1927	0.200825	0.00031	0.199839	0.00031
1928	0.200004	0.001132	0.200168	-0.000183
1929	0.201647	-1.9e-05	0.193429	-0.000347
1930	0.198689	0.001132	0.198031	-0.000347
1931	0.194909	-0.001169	0.200168	-0.000512
1932	0.201319	0.000146	0.199675	-0.000347
1933	0.196717	-0.000512	0.199839	-0.000183
1934	0.195237	0.000474	0.198689	0.000146
1935	0.195895	-0.000676	0.199346	0.000146
1936	0.196552	-0.000183	0.198031	0.00031
1937	0.192608	-0.000183	0.198524	0.00031
1938	0.199675	0.00031	0.197374	0.000146
1939	0.194744	0.000639	0.198524	-1.9e-05
1940	0.196552	0.001954	0.195895	-0.000347
1941	0.195566	0.003104	0.197867	-0.000183
1942	0.196388	0.000803	0.195073	-0.000512
1943	0.196223	0.006227	0.197374	-0.000347
1944	0.198524	0.010664	0.196223	-0.000183
1945	0.197703	0.001625	0.197867	-1.9e-05
1946	0.197538	-0.000347	0.195566	0.000146
1947	0.200661	0.00031	0.198689	0.00031
1948	0.195237	-1.9e-05	0.199346	0.00031
1949	0.196223	0.000146	0.19836	0.000146
1950	0.195237	0.000146	0.199346	-0.000183
1951	0.196552	0.00031	0.19836	-0.000183
1952	0.195566	-1.9e-05	0.200497	-0.000347
1953	0.196881	0.00031	0.195402	-0.000183
1954	0.196552	0.00294	0.196717	-0.000347
1955	0.199839	-0.000183	0.19458	-0.000183
1956	0.194909	0.002447	0.19573	-1.9e-05
1957	0.194744	0.007377	0.194909	0.000146
1958	0.196059	0.018389	0.198196	0.000146
1959	0.196388	0.020855	0.194416	0.00031
1960	0.198689	0.030552	0.199018	0.000146
1961	0.196552	0.036469	0.196059	-1.9e-05
1962	0.199018	0.043865	0.197867	-0.000183
1963	0.199675	0.043371	0.195402	-0.000183
1964	0.198031	0.04633	0.195402	-0.000347
1965	0.199839	0.05274	0.197703	-0.000183
1966	0.199511	0.019704	0.197045	-1.9e-05
1967	0.198689	0.00294	0.19836	0.000146
1968	0.198853	-1.9e-05	0.197538	0.000146
1969	0.198196	0.00031	0.199018	0.00031
1970	0.198524	0.000803	0.19721	0.000639
1971	0.197045	-0.000183	0.197703	0.000146
1972	0.19836	0.000146	0.195073	-1.9e-05
1973	0.197374	0.000474	0.195073	-0.000347
1974	0.197374	0.000474	0.187841	-0.000512
1975	0.197703	0.000474	0.194251	-0.000676
1976	0.200497	-0.000183	0.193429	-0.000183
1977	0.199182	-0.000347	0.193101	0.000146
1978	0.200332	-0.000347	0.191457	-1.9e-05
1979	0.198031	0.000146	0.195073	0.00031
1980	0.197703	-0.000676	0.192936	0.000146
1981	0.200004	0.002611	0.192936	0.00031
1982	0.195895	0.000474	0.193101	0.000146
1983	0.198689	0.000474	0.19195	-0.000347
1984	0.194087	0.000474	0.193429	-0.000183
1985	0.198853	0.00031	0.184554	-0.000183
1986	0.197045	0.000146	0.190471	-0.000347
1987	0.198196	-0.000183	0.190142	-1.9e-05
1988	0.197374	-0.000512	0.193594	-1.9e-05
1989	0.197374	-0.000512	0.187513	-1.9e-05
1990	0.197045	-0.000512	0.191293	0.000474
1991	0.200497	-0.000183	0.188006	0.000146
1992	0.196552	-0.000183	0.189814	0.00031
1993	0.196059	0.000146	0.188663	0.000146
1994	0.200168	0.000146	0.188663	-1.9e-05
1995	0.196717	0.00031	0.18932	-0.000347
1996	0.197867	0.00031	0.194087	-0.000183
1997	0.197374	-0.000183	0.188663	-0.000512
1998	0.198853	-1.9e-05	0.189814	-0.000183
1999	0.197045	-0.000512	0.189814	-1.9e-05
2000	0.197374	-0.000512	0.194087	-0.000183
2001	0.195402	-0.000347	0.1908	-1.9e-05
2002	0.197867	-0.000347	0.1908	0.00031
2003	0.196388	-1.9e-05	0.193265	0.000146
2004	0.19721	0.000146	0.192115	-1.9e-05
2005	0.200004	-1.9e-05	0.192443	-0.000183
2006	0.198196	0.000146	0.19195	-0.000347
2007	0.198031	0.000474	0.196552	-0.000347
2008	0.197045	-0.000183	0.188827	-0.000183
2009	0.19836	0.000146	0.193101	-0.000512
2010	0.197867	-0.000183	0.193265	0.000146
2011	0.196388	-0.000347	0.193101	-1.9e-05
2012	0.194251	-0.000347	0.193758	0.000146
2013	0.196717	-0.000183	0.192608	0.000474
2014	0.198196	0.000146	0.194251	0.00031
2015	0.199346	-1.9e-05	0.192443	0.000146
2016	0.19836	0.000146	0.195402	-0.000183
2017	0.200825	0.000146	0.194251	-0.000347
2018	0.197867	0.00031	0.196059	-0.000347
2019	0.198689	0.00031	0.193594	-0.000512
2020	0.199511	-1.9e-05	0.195566	-0.000347
2021	0.199018	-0.000347	0.193758	-0.000183
2022	0.196552	-0.000347	0.196059	-1.9e-05
2023	0.199511	-0.000676	0.196223	0.000146
2024	0.19836	-0.000183	0.193429	0.00031
2025	0.199018	0.000146	0.19573	0.000146
2026	0.198853	0.000146	0.190635	0.000146
2027	0.197374	0.000474	0.193758	-0.000183
2028	0.19836	0.000146	0.19195	-0.000183
2029	0.19458	0.00031	0.196223	-0.000347
2030	0.198524	0.00031	0.192115	-0.000676
2031	0.198196	-1.9e-05	0.195073	-0.000512
2032	0.199675	-0.000183	0.193594	-0.000183
2033	0.199346	-0.000347	0.195895	0.000146
2034	0.201154	-0.000512	0.195237	0.000146
2035	0.201154	-1.9e-05	0.195237	0.000146
2036	0.199018	-1.9e-05	0.197538	0.000146
2037	0.198524	-1.9e-05	0.198196	0.00031
2038	0.199182	0.000146	0.195402	-1.9e-05
2039	0.198689	0.000474	0.19721	-0.000183
2040	0.197374	0.00031	0.195895	-0.000512
2041	0.198524	0.000146	0.195237	-0.000347
2042	0.197045	-0.000183	0.188334	-0.000183
2043	0.199675	-0.000183	0.182746	-1.9e-05
2044	0.197703	-0.000347	0.178473	0.000146
2045	0.200825	-0.000347	0.175021	0.00031
2046	0.197703	-0.000183	0.173707	0.000146
2047	0.198031	0.000146	0.172063	0.000474
2048	0.200332	0.00031	0.175021	0.00031
2049	0.198524	0.000146	0.1742	-0.000183
2050	0.19458	0.000146	0.178309	-0.000347
2051	0.199511	0.000474	0.178473	-0.000347
2052	0.199511	-1.9e-05	0.176501	-0.000512
2053	0.199018	-0.000183	0.17798	-0.000347
2054	0.196552	-0.000347	0.179459	-1.9e-05
2055	0.198689	-0.000347	0.181103	0.000146
2056	0.201154	-0.000347	0.179295	0.000146
2057	0.201976	-0.000347	0.18061	0.000146
2058	0.199018	0.000146	0.180445	0.00031
2059	0.197703	0.000146	0.18176	0.00031
2060	0.199346	0.00031	0.182911	-1.9e-05
2061	0.196388	0.000146	0.185047	-0.000512
2062	0.198524	0.000146	0.186033	-0.000347
2063	0.196717	0.002282	0.183897	-0.000512
2064	0.197703	0.000803	0.185212	-0.000183
2065	0.197538	-0.000676	0.186855	-0.000183
2066	0.197045	0.00031	0.185705	0.000146
2067	0.200004	-0.000183	0.189649	0.000146
2068	0.200661	-0.000183	0.185376	0.000474
2069	0.19836	0.000803	0.18817	0.00031
2070	0.199018	0.000639	0.18817	0.000146
2071	0.198689	-1.9e-05	0.188827	-0.000183
2072	0.19836	0.000146	0.18932	-0.000347
2073	0.202469	0.000639	0.190142	-0.000183
2074	0.197703	0.000146	0.188992	-0.000512
2075	0.200004	0.000146	0.187677	-0.000183
2076	0.19721	-0.001334	0.190142	-1.9e-05
2077	0.197045	0.003597	0.189485	0.000146
2078	0.197374	0.000967	0.193594	0.000146
2079	0.200004	-0.000512	0.188006	-1.9e-05
2080	0.196388	0.000146	0.191786	0.00031
2081	0.196881	0.000967	0.193101	0.000146
2082	0.197867	0.000474	0.192772	-0.000183
2083	0.197703	0.000474	0.191293	-0.000183
2084	0.200497	0.003104	0.19458	-0.000512
2085	0.198196	0.008363	0.189978	-0.000676
2086	0.194416	0.00672	0.190635	-0.000347
2087	0.197703	0.007377	0.192936	-1.9e-05
2088	0.198853	0.003433	0.193265	-1.9e-05
2089	0.197045	0.005898	0.192443	-1.9e-05
2090	0.200497	0.015924	0.191786	0.000146
2091	0.197867	0.021512	0.192279	0.000146
2092	0.197867	0.024635	0.192936	0.00031
2093	0.198031	0.034332	0.194744	-0.000347
2094	0.198853	0.042057	0.192936	-0.000347
2095	0.197867	0.04748	0.196552	-0.000347
2096	0.198524	0.056356	0.195895	-0.000676
2097	0.198196	0.061779	0.194087	-0.000183
2098	0.198524	0.061451	0.193101	-1.9e-05
2099	0.197538	0.069504	0.194744	-1.9e-05
2100	0.196388	0.07049	0.193429	0.000146
2101	0.197045	0.069997	0.193101	0.00031
2102	0.198853	0.050439	0.194416	0.00031
2103	0.195402	0.029566	0.196552	0.000146
2104	0.19458	0.015431	0.194087	-0.000183
2105	0.194744	0.006391	0.193101	-0.000183
2106	0.196717	0.004419	0.194251	-0.000512
2107	0.200332	0.002611	0.192936	-0.000676
2108	0.198689	0.001296	0.195566	-0.000183
2109	0.199511	-0.000512	0.192608	-1.9e-05
2110	0.198031	-0.000676	0.1908	0.000146
2111	0.197867	-0.001334	0.19458	0.00031
2112	0.20099	0.001954	0.193101	0.00031
2113	0.196881	0.002118	0.192279	0.00031
2114	0.195073	-0.000347	0.197374	-1.9e-05
2115	0.197538	-0.001169	0.195566	-0.000183
2116	0.197867	0.003104	0.19721	-0.000512
2117	0.19836	0.001296	0.196552	-0.000347
2118	0.200661	-1.9e-05	0.195237	-0.000347
2119	0.199018	0.000639	0.195073	-0.000183
2120	0.199839	0.002447	0.196717	-0.000183
2121	0.199675	0.001132	0.195895	-1.9e-05
2122	0.200332	0.00146	0.197538	0.00031
2123	0.196881	0.002118	0.196388	0.000474
2124	0.199839	0.00294	0.196717	0.00031
2125	0.19836	-0.000183	0.199675	0.000146
2126	0.199018	-0.000183	0.199346	-0.000183
2127	0.200825	0.001296	0.20099	-0.000347
2128	0.198031	0.003597	0.197374	-0.000347
2129	0.202798	0.004912	0.19836	-0.000512
2130	0.199182	0.00409	0.198853	-0.000183
2131	0.198196	0.006556	0.199346	0.000146
2132	0.197867	0.010171	0.197703	0.000146
2133	0.19836	0.020033	0.197867	0.00031
2134	0.192936	0.022005	0.195895	0.000146
2135	0.197538	0.017567	0.196881	0.00031
2136	0.195073	0.006556	0.195073	-1.9e-05
2137	0.19721	0.010829	0.198196	-0.000183
2138	0.197374	0.016417	0.196552	-0.000183
2139	0.199182	0.022005	0.197374	-0.000347
2140	0.199839	0.028908	0.197374	-0.000347
2141	0.199346	0.03351	0.19573	-0.000183
2142	0.197867	0.035811	0.196223	0.000146
2143	0.201154	0.03992	0.196059	0.000146
2144	0.198853	0.050932	0.197703	0.000146
2145	0.197867	0.051589	0.196223	0.000146
2146	0.19836	0.056684	0.200168	0.000146
2147	0.197867	0.047973	0.199675	-1.9e-05
2148	0.197045	0.010007	0.197538	-0.000183
2149	0.195566	-0.000347	0.197538	-0.000183
2150	0.195073	0.004583	0.197045	-0.000347
2151	0.19573	0.005405	0.194909	-0.000347
2152	0.197867	0.009514	0.196388	-0.000183
2153	0.197538	0.015431	0.195895	0.000146
2154	0.199346	0.01576	0.19836	0.000146
2155	0.200332	0.022498	0.198689	0.000146
2156	0.199182	0.022498	0.190964	0.000146
2157	0.200825	0.02973	0.19836	0.00031
2158	0.199675	0.03236	0.192936	-1.9e-05
2159	0.197703	0.027758	0.198524	-0.000183
2160	0.200332	0.005569	0.197703	-0.000512
2161	0.20099	0.011651	0.19721	-0.000347
2162	0.202633	0.000967	0.196223	-0.000512
2163	0.199018	0.000803	0.197045	-0.000183
2164	0.197703	-0.000347	0.197867	-1.9e-05
2165	0.199346	-0.000512	0.197045	0.00031
2166	0.197703	-0.000183	0.197703	0.000146
2167	0.19721	-1.9e-05	0.19721	0.000474
2168	0.19721	-1.9e-05	0.197045	0.000146
2169	0.199182	0.00031	0.196223	-1.9e-05
2170	0.196881	-1.9e-05	0.196388	-0.000183
2171	0.199839	0.00031	0.198196	-0.000347
2172	0.197045	0.00031	0.198853	-0.000183
2173	0.199511	-0.000183	0.194744	-0.000347
2174	0.200332	-0.000183	0.199839	-0.000347
2175	0.199182	-0.000183	0.198196	-1.9e-05
2176	0.19721	-0.000512	0.199018	0.000146
2177	0.201647	-0.000183	0.197703	0.00031
2178	0.198853	-0.000183	0.19836	0.00031
2179	0.201483	-1.9e-05	0.197703	0.000146
2180	0.199346	-1.9e-05	0.197374	-0.000347
2181	0.199511	0.000146	0.197045	-0.000347
2182	0.198524	0.00031	0.194251	-0.000183
2183	0.199511	0.000146	0.19836	-0.000512
2184	0.200825	-1.9e-05	0.198524	-0.000183
2185	0.195895	-1.9e-05	0.197867	-0.000183
2186	0.201812	-0.000183	0.196717	-1.9e-05
2187	0.198524	-0.000347	0.199182	0.00031
2188	0.191457	-0.000183	0.19573	0.00031
2189	0.196223	-1.9e-05	0.19836	0.00031
2190	0.199839	-0.000183	0.196059	0.000474
2191	0.19836	0.000146	0.197703	-1.9e-05
2192	0.200168	0.00031	0.196552	-1.9e-05
2193	0.199018	0.00031	0.19721	-0.000347
2194	0.198524	0.000146	0.19721	-0.000512
2195	0.200168	0.000146	0.197045	-0.000183
2196	0.198031	-0.000676	0.198196	-0.000347
2197	0.199346	-0.000183	0.200004	-1.9e-05
2198	0.197045	-0.000512	0.197538	0.000146
2199	0.190142	-0.000841	0.198196	0.000146
2200	0.195895	-0.000183	0.197867	0.000146
2201	0.197374	0.000146	0.19721	0.00031
2202	0.194251	0.000146	0.198689	-1.9e-05
2203	0.196881	0.000146	0.196223	-0.000183
2204	0.19721	0.000146	0.196223	-0.000183
2205	0.197703	0.000146	0.196223	-1.9e-05
2206	0.199346	-1.9e-05	0.193594	-0.000347
2207	0.198031	-0.000183	0.197538	-0.000183
2208	0.201483	-0.000183	0.194909	0.000146
2209	0.198853	-0.000183	0.195566	0.000146
2210	0.200825	-0.000512	0.200825	0.00031
2211	0.198524	-0.000183	0.200332	-1.9e-05
2212	0.19836	0.00031	0.19836	0.00031
2213	0.199675	0.00031	0.198689	0.001954
2214	0.195566	-1.9e-05	0.198196	0.010993
2215	0.198031	0.000474	0.197703	0.013787
2216	0.196552	0.000146	0.201154	0.022991
2217	0.198853	-0.000183	0.198524	0.028908
2218	0.198524	-0.000347	0.195566	0.034989
2219	0.197538	-0.000347	0.200332	0.041399
2220	0.198689	-0.000347	0.196388	0.047152
2221	0.202305	0.000146	0.197867	0.054383
2222	0.196223	-1.9e-05	0.197703	0.057013
2223	0.198031	-1.9e-05	0.198689	0.064738
2224	0.197538	0.000146	0.197374	0.068682
2225	0.199511	0.00031	0.200497	0.075257
2226	0.199018	0.000146	0.196717	0.07953
2227	0.196552	0.000146	0.199511	0.086597
2228	0.201483	-0.000183	0.196223	0.087255
2229	0.202962	-0.000183	0.196059	0.091692
2230	0.199182	-0.000347	0.196552	0.095966
2231	0.203455	-0.000347	0.196223	0.103362
2232	0.202962	-0.000183	0.198196	0.105498
2233	0.194416	0.000146	0.200332	0.108621
2234	0.197703	0.000146	0.202305	0.113552
2235	0.198196	0.000146	0.197045	0.117332
2236	0.199839	0.000146	0.200332	0.120784
2237	0.197045	0.000146	0.198524	0.121277
2238	0.195402	0.000146	0.197374	0.125879
2239	0.196881	-0.000183	0.195402	0.121605
2240	0.199346	-0.000512	0.197538	0.130645
2241	0.196388	-0.000183	0.195073	0.132289
2242	0.200168	-0.000183	0.199018	0.136233
2243	0.19836	-0.000676	0.195237	0.138041
2244	0.196881	-1.9e-05	0.198031	0.137877
2245	0.199511	0.000146	0.198031	0.141164
2246	0.199675	0.000146	0.196881	0.146095
2247	0.199018	0.000146	0.197703	0.147738
2248	0.200004	0.00031	0.196717	0.149053
2249	0.197703	0.000474	0.199511	0.152505
2250	0.198031	0.000146	0.196552	0.141657
2251	0.19721	-0.000183	0.198524	0.153162
2252	0.19721	-0.000183	0.199182	0.157271
2253	0.193429	-0.000512	0.197867	0.157107
2254	0.197045	-0.000347	0.196223	0.156942
2255	0.196717	-0.000183	0.198031	0.161709
2256	0.197703	0.000146	0.195402	0.159901
2257	0.198524	0.000146	0.194251	0.165324
2258	0.197867	0.000146	0.195895	0.164667
2259	0.200332	0.000474	0.194909	0.167625
2260	0.198196	0.00031	0.197867	0.167132
2261	0.199018	0.000146	0.196059	0.163352
2262	0.200168	-0.000183	0.198524	0.168447
2263	0.195895	-0.000347	0.195895	0.170419
2264	0.198853	-0.000183	0.197374	0.173871
2265	0.201319	-0.000347	0.195402	0.171077
2266	0.198689	0.000146	0.19721	0.176008
2267	0.199346	0.000146	0.198689	0.17157
2268	0.199018	0.000146	0.198031	0.176008
2269	0.199018	0.00031	0.197045	0.17798
2270	0.199182	0.00031	0.199182	0.176336
2271	0.198031	0.000146	0.199182	0.179459
2272	0.199182	-1.9e-05	0.19721	0.184061
2273	0.19836	-0.000347	0.199346	0.179459
2274	0.199839	-0.000347	0.19573	0.180116
2275	0.198196	-0.000347	0.194744	0.179952
2276	0.200332	-0.000512	0.194744	0.179459
2277	0.198031	-0.000512	0.197867	0.180116
2278	0.195566	0.00146	0.195073	0.180445
2279	0.200004	-1.9e-05	0.19573	0.18439
2280	0.199346	0.000474	0.195895	0.179952
2281	0.199182	0.000146	0.197538	0.184061
2282	0.199675	0.000474	0.197374	0.183732
2283	0.200497	-1.9e-05	0.195895	0.188499
2284	0.198196	-0.000512	0.196223	0.182911
2285	0.197703	-0.000347	0.198689	0.187677
2286	0.200004	-0.000512	0.195073	0.184718
2287	0.195402	-0.000512	0.201647	0.186855
2288	0.195895	0.000146	0.19836	0.186526
2289	0.195402	0.00031	0.198853	0.186033
2290	0.197703	0.00031	0.197374	0.187348
2291	0.197538	0.000146	0.196552	0.189156
2292	0.196059	0.00031	0.19721	0.186691
2293	0.199346	0.00031	0.197538	0.188827
2294	0.196552	-0.000183	0.196552	0.188827
2295	0.198689	-0.000347	0.195895	0.185047
2296	0.197374	-0.000347	0.197867	0.19195
2297	0.200497	-1.9e-05	0.194416	0.190142
2298	0.199182	-0.000512	0.198689	0.191293
2299	0.200004	-0.000183	0.196059	0.189814
2300	0.197867	-1.9e-05	0.197867	0.189649
2301	0.196881	0.000146	0.197703	0.188992
2302	0.200168	0.00031	0.199018	0.194416
2303	0.195566	0.000474	0.199018	0.18932
2304	0.196059	0.00031	0.200004	0.1908
2305	0.197374	-1.9e-05	0.19721	0.193429
2306	0.199346	-0.000347	0.196717	0.192608
2307	0.198853	-0.000347	0.196881	0.191457
2308	0.198689	-0.000512	0.196388	0.192772
2309	0.200004	-0.000183	0.19721	0.19195
2310	0.19836	-0.000183	0.193101	0.192772
2311	0.197703	0.000146	0.19573	0.193429
2312	0.197703	0.00031	0.19573	0.192772
2313	0.196717	0.000146	0.19836	0.19458
2314	0.198031	0.000146	0.194744	0.192936
2315	0.198524	0.000146	0.199182	0.195895
2316	0.200168	-0.000183	0.196059	0.195073
2317	0.200825	-0.000347	0.198689	0.195895
2318	0.200004	-0.000347	0.194744	0.193922
2319	0.197703	-0.000347	0.196388	0.195073
2320	0.201647	-0.000347	0.199018	0.195237
2321	0.197867	-0.000183	0.198196	0.19195
2322	0.19836	0.000146	0.198853	0.195237
2323	0.20099	0.00031	0.19721	0.198524
2324	0.196717	0.000146	0.197703	0.19458
2325	0.199839	0.00031	0.192936	0.194251
2326	0.195566	0.000146	0.196059	0.195402
2327	0.197867	0.000146	0.195073	0.194087
2328	0.196223	-0.000347	0.195402	0.194087
2329	0.198853	-0.000183	0.196223	0.194744
2330	0.199511	-0.000347	0.198031	0.193429
2331	0.198031	-0.000512	0.195566	0.191786
2332	0.198689	-0.000183	0.198524	0.192608
2333	0.19836	0.000146	0.197045	0.192443
2334	0.198031	0.00031	0.190964	0.194909
2335	0.198689	0.000474	0.197045	0.19458
2336	0.199675	0.000146	0.196059	0.196881
2337	0.196223	0.000146	0.196552	0.19458
2338	0.199018	-0.000183	0.198689	0.194909
2339	0.198853	-0.000183	0.197867	0.196881
2340	0.199018	-0.000183	0.196388	0.193922
2341	0.200004	-0.000512	0.194087	0.193922
2342	0.19721	-0.000347	0.196552	0.194251
2343	0.195237	-0.000183	0.199346	0.193758
2344	0.197703	0.000146	0.196717	0.194087
2345	0.194909	0.000146	0.197867	0.196717
2346	0.19836	0.000146	0.196717	0.195566
2347	0.197867	0.00031	0.195566	0.196388
2348	0.19573	0.000146	0.19458	0.195073
2349	0.197703	-0.000347	0.198031	0.192936
2350	0.197045	-0.000347	0.19573	0.193265
2351	0.199018	-0.000183	0.195566	0.193758
2352	0.200332	-0.000347	0.196717	0.192279
2353	0.198524	-1.9e-05	0.197703	0.195895
2354	0.197703	-0.000183	0.199346	0.191128
2355	0.201976	0.000146	0.198524	0.193101
2356	0.197045	-1.9e-05	0.199018	0.19573
2357	0.199511	-1.9e-05	0.196223	0.19573
2358	0.198689	0.000146	0.195895	0.196223
2359	0.198031	0.000146	0.193758	0.196388
2360	0.198524	-0.000183	0.196059	0.19836
2361	0.198524	-0.000347	0.195073	0.194416
2362	0.194087	-0.000347	0.198689	0.197045
2363	0.196717	-0.000347	0.198196	0.195402
2364	0.197538	-0.000347	0.199182	0.198853
2365	0.196552	-0.000183	0.198031	0.197045
2366	0.19836	0.000146	0.19836	0.195895
2367	0.19836	0.000146	0.198031	0.197538
2368	0.198689	0.000146	0.197703	0.197867
2369	0.198031	0.000146	0.194744	0.198031
2370	0.199018	-1.9e-05	0.195895	0.198031
2371	0.198524	-0.000347	0.198853	0.197703
2372	0.200497	-0.000347	0.198524	0.19573
2373	0.199182	-0.000183	0.196223	0.199675
2374	0.199675	-0.000512	0.196552	0.194909
2375	0.195895	-0.000512	0.194744	0.198524
2376	0.197703	-1.9e-05	0.197703	0.196388
2377	0.196881	0.000146	0.200497	0.195073
2378	0.197703	0.000146	0.198524	0.196059
2379	0.19573	0.00031	0.201154	0.199839
2380	0.199182	0.00031	0.191128	0.197703
2381	0.197374	0.000146	0.195566	0.196388
2382	0.197703	-0.000183	0.197374	0.196059
2383	0.200168	-0.000183	0.195895	0.19721
2384	0.196552	-0.000512	0.197374	0.197703
2385	0.199018	-0.000347	0.197374	0.196223
2386	0.199839	-0.000512	0.198031	0.196717
2387	0.198031	-1.9e-05	0.198524	0.197867
2388	0.200661	0.000146	0.198031	0.196881
2389	0.202469	0.000146	0.198031	0.197374
2390	0.198524	0.00031	0.195073	0.201319
2391	0.199511	0.00031	0.193265	0.197538
2392	0.201483	0.000146	0.195895	0.199018
2393	0.197867	-0.000183	0.19573	0.198031
2394	0.198853	-0.000183	0.197374	0.196717
2395	0.198524	-0.000347	0.197045	0.201483
2396	0.197867	-0.000347	0.196717	0.197867
2397	0.199346	-0.000183	0.196388	0.195566
2398	0.198031	-1.9e-05	0.196388	0.199511
2399	0.194909	0.000146	0.196552	0.195237
2400	0.195402	0.000146	0.199018	0.195402
2401	0.198031	0.000146	0.194909	0.196717
2402	0.194416	0.00031	0.201319	0.195566
2403	0.195402	0.000146	0.193922	0.197045
2404	0.198853	-1.9e-05	0.192443	0.200825
2405	0.20099	-0.000347	0.195566	0.196059
2406	0.19836	-0.000347	0.193429	0.196059
2407	0.199182	-0.000347	0.196059	0.198853
2408	0.200825	-0.000347	0.192443	0.197045
2409	0.199182	-1.9e-05	0.195073	0.198853
2410	0.199018	0.000146	0.194744	0.19721
2411	0.197867	0.00031	0.199018	0.198853
2412	0.194744	0.00031	0.196881	0.198524
2413	0.201483	0.00031	0.202633	0.198031
2414	0.197538	0.000146	0.197538	0.196223
2415	0.20099	-0.000183	0.198031	0.199182
2416	0.19836	-0.000347	0.198853	0.196717
2417	0.199675	-0.000347	0.197867	0.195237
2418	0.196388	-0.000676	0.198031	0.195895
2419	0.197867	-0.000347	0.197374	0.199182
2420	0.196881	-1.9e-05	0.199839	0.198853
2421	0.197867	-1.9e-05	0.196059	0.196552
2422	0.198196	0.000146	0.199346	0.197045
2423	0.199182	0.00031	0.19721	0.197703
2424	0.19836	0.00031	0.199511	0.199018
2425	0.19836	0.00031	0.192443	0.196881
2426	0.200825	-1.9e-05	0.196717	0.199675
2427	0.197867	-0.000347	0.197703	0.197703
2428	0.197703	-0.000347	0.199675	0.201154
2429	0.195237	-0.000512	0.197374	0.199182
2430	0.198689	-0.000676	0.196552	0.20099
2431	0.194744	0.000146	0.199675	0.193101
2432	0.198524	0.00031	0.197703	0.197867
2433	0.196388	0.00031	0.199511	0.198689
2434	0.19721	0.000146	0.201647	0.197867
2435	0.196552	0.000474	0.199346	0.195402
2436	0.197867	-1.9e-05	0.197538	0.196717
2437	0.197867	-0.000347	0.195566	0.198524
2438	0.19836	-0.000512	0.196388	0.19721
2439	0.198031	-0.000183	0.196059	0.198031
2440	0.197045	-0.000512	0.196059	0.197867
2441	0.197703	-0.000183	0.194416	0.199675
2442	0.197867	-1.9e-05	0.19721	0.197703
2443	0.197867	0.000146	0.19836	0.199018
2444	0.196223	0.00031	0.197538	0.199182
2445	0.200332	0.00031	0.201319	0.203291
2446	0.19721	0.00031	0.198524	0.20214
2447	0.198689	-1.9e-05	0.196552	0.199675
2448	0.198196	-0.000183	0.198853	0.200004
2449	0.196223	-0.000512	0.197374	0.196717
2450	0.19195	-0.000183	0.201976	0.195566
2451	0.195566	-0.000347	0.196388	0.198196
2452	0.195895	-0.000183	0.197538	0.19721
2453	0.195237	-1.9e-05	0.196717	0.193429
2454	0.19573	0.000146	0.198031	0.199675
2455	0.196388	0.000146	0.195073	0.197538
2456	0.197703	0.000146	0.194416	0.19836
2457	0.199511	0.00031	0.194909	0.197867
2458	0.200497	0.000146	0.195402	0.199018
2459	0.197867	-0.000183	0.193265	0.19836
2460	0.200661	-0.000347	0.193101	0.197867
2461	0.197867	-0.000183	0.197374	0.197538
2462	0.199346	-0.000512	0.19836	0.198031
2463	0.201647	-0.000347	0.198031	0.199511
2464	0.197867	-1.9e-05	0.198689	0.197867
2465	0.199182	0.00031	0.200004	0.198031
2466	0.199675	0.000146	0.196059	0.19836
2467	0.19721	0.00031	0.200004	0.198196
2468	0.196717	0.000146	0.197538	0.196717
2469	0.199018	-1.9e-05	0.198196	0.199182
2470	0.198196	-0.000347	0.196717	0.198196
2471	0.198689	-1.9e-05	0.197374	0.198689
2472	0.19721	-0.000347	0.196223	0.195566
2473	0.199182	-0.000512	0.197703	0.199839
2474	0.200497	-0.000183	0.196388	0.196388
2475	0.199346	-1.9e-05	0.194087	0.199018
2476	0.198524	-1.9e-05	0.195402	0.198196
2477	0.201976	0.000146	0.19836	0.200004
2478	0.197703	-1.9e-05	0.19573	0.199018
2479	0.199346	0.00031	0.198853	0.199346
2480	0.199511	-1.9e-05	0.198689	0.199018
2481	0.199675	-0.000183	0.19836	0.197703
2482	0.200332	-0.000512	0.199675	0.19836
2483	0.198853	-0.000347	0.197867	0.19721
2484	0.196388	-0.000347	0.201976	0.197703
2485	0.199839	-0.000183	0.197045	0.196552
2486	0.196223	-1.9e-05	0.200004	0.199182
2487	0.196223	-1.9e-05	0.196223	0.193101
2488	0.196059	0.000146	0.198689	0.198853
2489	0.194744	0.000146	0.196388	0.196059
2490	0.199182	0.000146	0.19721	0.196388
2491	0.197045	0.000146	0.195566	0.199346
2492	0.199018	-0.000183	0.196552	0.202305
2493	0.197703	-0.000347	0.194909	0.199839
2494	0.199675	-0.000347	0.198524	0.199675
2495	0.198524	-0.000512	0.199511	0.203291
2496	0.200661	-0.000183	0.196388	0.200825
2497	0.198524	-1.9e-05	0.199511	0.200497
2498	0.199182	0.000146	0.198524	0.200661
2499	0.200004	-1.9e-05	0.199346	0.199839
