Ladekurvenmessung

Zeit: 2018_05_04 10.03.16

Info: FVA3, v = 0.747, T = 23, F = 20, h = 457.0

Ladewiderstand[Ohm]: 1012700

Störkapazität[pF]: 0.000000

Entladezeit[ms]: 200

Abtastrate[Hz]: 250000

Anzahl der Messwerte: 2500.000000

Verzögerung[ms]: 3

Ladespannung[V]: 0.200000


	Kurve_1	Kurve_2	Kurve_3	Kurve_4	Kurve_5
0	0.000146	-0.00232	-1.9e-05	0.001296	0.000967
1	0.004583	-0.002977	0.000639	0.000146	0.002282
2	0.000146	-0.000512	0.001296	0.001625	0.002447
3	0.00031	0.000639	0.00146	0.00146	-0.000841
4	0.00409	-0.003306	0.004255	0.001296	0.000803
5	0.000967	0.000474	0.001296	0.00031	-0.001991
6	0.002282	0.00031	0.002611	0.003926	-0.002155
7	-1.9e-05	-0.001827	0.002775	0.001132	-0.001662
8	0.000967	0.002118	0.001296	0.005898	-0.002484
9	-0.004128	-0.003142	0.001132	0.002775	0.002282
10	-0.000841	0.001789	-0.000512	0.001954	0.000639
11	-0.001991	-0.00347	0.001132	0.00409	0.00294
12	-0.001334	0.003104	-0.002977	-0.001827	0.00146
13	-0.001991	0.001954	-0.002484	0.00409	0.003268
14	-0.001334	-0.001498	0.001296	-0.000841	0.002611
15	0.007706	0.000146	-0.001334	0.002118	0.00294
16	0.003104	-0.000347	-0.000841	0.003761	0.001296
17	-1.9e-05	-0.000183	0.002118	0.001625	0.000474
18	0.002447	-0.001498	-0.000347	-0.000512	-0.000183
19	-0.001169	-0.002155	0.002775	0.000146	-0.001498
20	0.002447	0.00031	-0.004949	-0.001334	-0.002155
21	0.001296	-0.00232	0.003597	0.00146	0.001296
22	-0.001334	-0.00347	-0.004456	0.000803	0.000474
23	0.00031	-0.004949	-0.003799	0.000639	-0.000676
24	-0.002977	-0.004621	0.002118	0.002282	0.003104
25	0.000474	-0.001005	-0.001334	-0.000183	0.000639
26	0.006556	-0.004128	-0.001662	0.00031	-1.9e-05
27	0.004748	-0.00232	-0.004292	-0.001334	-0.000512
28	-0.001498	-0.001827	-0.001498	-0.000512	-1.9e-05
29	0.000146	-0.003635	-0.000512	-0.004785	0.000639
30	-0.001169	0.000639	-0.001334	0.00146	0.001296
31	0.000967	-0.001498	-0.003635	-0.003306	0.00146
32	-0.000512	-1.9e-05	0.001789	-0.000512	0.003104
33	-1.9e-05	-0.003963	0.00146	-0.000183	0.000474
34	-0.000676	-0.004456	0.000803	-0.000183	0.003926
35	0.000474	-0.003142	0.001132	-0.001498	0.000474
36	-1.9e-05	-0.003963	0.000967	-0.000183	-0.002813
37	0.003104	-0.007086	0.000474	0.002282	-0.002977
38	0.006556	-0.003635	-0.001169	0.003104	-0.005607
39	0.000146	-0.00347	-0.000512	0.003926	-0.004128
40	0.00409	-0.000841	-0.000676	0.000803	-0.004128
41	0.00031	-0.004292	0.001789	-0.000347	-0.001827
42	0.002447	0.000474	-0.004621	-1.9e-05	-0.000676
43	0.001789	-0.000512	0.002775	0.00294	0.001789
44	-0.002977	-0.002977	0.002447	0.002118	0.000146
45	-0.006264	-0.002648	0.003104	-0.001334	0.000474
46	0.004748	-0.00232	0.000967	0.00031	0.00146
47	0.000803	-0.000183	-1.9e-05	-0.000841	0.000639
48	0.003433	0.001132	-0.001498	-0.000347	-1.9e-05
49	-0.000841	-0.004456	0.000146	-0.001005	0.000146
50	-0.001827	-0.002648	-0.001169	0.00031	-1.9e-05
51	0.001296	0.000146	-0.001169	-0.001827	0.000967
52	-0.000676	-0.002977	-0.004621	-0.004949	0.001954
53	0.000803	-0.002813	0.000639	-0.001991	-0.001334
54	-0.000347	-0.003306	0.002611	-0.001827	-1.9e-05
55	0.001296	-0.000347	-1.9e-05	0.000146	0.002775
56	-0.000512	-0.003799	0.002282	-0.000841	0.005569
57	0.000803	-0.000841	-0.000347	-1.9e-05	-1.9e-05
58	-1.9e-05	-0.005771	0.002775	0.00146	0.005734
59	0.001132	-0.000676	-0.001662	0.001296	0.002282
60	0.002775	-0.004128	-1.9e-05	0.004912	0.000967
61	-0.002977	-0.004621	-0.001827	-0.000512	-0.000841
62	-0.000347	-0.001827	-0.000347	-1.9e-05	-1.9e-05
63	0.00146	-0.001334	-0.001991	-1.9e-05	-0.000676
64	0.000146	-0.002648	0.000474	-0.001662	-0.000841
65	-1.9e-05	-0.002155	-0.000183	0.000146	0.001296
66	-0.000841	-0.002813	0.000803	-0.000512	0.002447
67	-0.002155	-0.001005	-0.000841	-0.005443	-0.001005
68	0.001296	0.001132	-0.001005	-1.9e-05	-1.9e-05
69	-0.000512	-0.001498	-1.9e-05	-0.000841	0.002447
70	0.00031	-0.000183	0.001132	-0.001169	-0.001991
71	-0.001498	-0.002977	0.001296	0.000803	0.00146
72	0.005241	-0.002648	0.003104	-0.000512	-0.002155
73	0.004255	-0.001005	0.002775	-1.9e-05	-0.001662
74	0.001296	-0.000183	-0.002648	-0.002155	-0.001169
75	0.005241	-0.001169	-0.003799	-0.000347	-0.001169
76	0.001789	-0.002155	-0.00232	-0.00232	-0.000347
77	0.004748	-0.004128	-0.001498	-0.001827	0.00031
78	0.003433	-0.001827	-0.003963	-0.003799	-0.001334
79	0.000967	-0.00232	-0.001827	0.002447	-0.000183
80	0.003104	-0.00232	0.001625	-0.00232	-0.001005
81	0.000474	-0.001498	-0.000347	-0.000183	-0.003635
82	-0.002648	-0.004128	0.000803	0.001954	0.00146
83	0.001296	-0.00347	0.000146	0.00294	-0.000512
84	-0.001827	-0.003635	-0.000183	-0.000676	0.001789
85	0.001296	-0.001662	-0.001498	0.00146	-1.9e-05
86	-0.000841	-0.004292	-1.9e-05	-0.001169	0.000639
87	-0.000841	0.000474	-0.001827	-0.003635	-0.001991
88	-0.001498	-0.006264	0.002447	0.002447	0.005241
89	0.001625	-0.002813	-0.001662	-0.002155	0.001625
90	0.000146	-0.001334	-0.000183	0.003104	-0.000512
91	0.000967	-0.004292	0.002282	0.000146	0.000967
92	-0.000512	-0.000512	0.001132	0.00146	-0.001662
93	-0.002977	-0.001662	-0.000841	0.004255	-0.002813
94	-0.004292	-0.001827	0.002282	0.005405	0.001296
95	0.000967	-0.001005	-0.003799	-0.000347	-0.001827
96	0.002447	-0.001991	0.002118	0.002118	-0.00232
97	-0.002813	-0.002813	-0.001169	0.000474	-0.001827
98	0.001789	-0.002813	-0.000841	0.001132	-0.001005
99	-0.006264	-0.005771	0.001954	0.000803	0.00146
100	0.003433	-0.002484	0.000146	0.000967	-0.001662
101	-0.001827	-0.001498	-0.00347	0.002775	-0.001334
102	0.002775	-0.000183	-0.001169	0.000146	0.001132
103	-0.004292	-0.002648	0.000474	0.00031	0.001625
104	-0.001662	-0.000512	-0.001662	0.002447	-0.00232
105	0.000474	-1.9e-05	-0.000183	0.001625	0.00146
106	0.000639	0.000639	-0.002813	-0.001498	-0.001827
107	-0.001827	0.000146	0.002118	0.00146	-0.001498
108	-0.000183	-0.002648	-0.004456	0.001132	-0.005771
109	-0.001169	-0.001498	-0.000512	0.002775	-0.000183
110	-0.001991	-0.002155	-0.000841	-0.001827	-0.001827
111	0.000803	-0.002977	0.000474	0.002282	-1.9e-05
112	0.000474	-0.003306	-0.000676	0.001954	-0.003306
113	0.000639	-0.003306	0.000967	0.00409	0.000146
114	-0.001005	-0.004785	-1.9e-05	0.00031	-0.001991
115	-0.00232	-0.004128	-0.001662	0.002611	-0.001662
116	-1.9e-05	-0.001498	0.000639	0.002282	0.003104
117	-0.000676	0.00031	-0.000183	-0.002813	-0.000512
118	-0.002484	-0.004949	-0.000512	0.004419	-0.001005
119	0.00294	-0.003306	-0.003963	-0.001827	-0.003142
120	-0.001991	0.002282	-0.002155	0.002282	0.001132
121	-0.002648	-0.004456	-0.001991	0.00294	0.000474
122	-0.005114	-0.000183	0.000803	0.002611	0.00146
123	0.000639	0.002775	-0.000347	0.001954	-0.001498
124	0.000967	0.000146	-0.000841	-0.001169	0.001296
125	0.000967	0.000474	-0.004292	-0.002977	-0.001498
126	-0.001169	-0.000676	0.000474	0.003104	-0.000676
127	0.003433	-1.9e-05	-0.001334	0.001296	-0.001005
128	0.002282	-0.001334	-0.00347	-0.001334	-0.002484
129	-0.000841	-0.001827	-0.002155	0.000639	-0.001662
130	0.005405	-0.000512	0.00146	0.002611	-0.001662
131	-0.001334	-0.00347	0.000146	0.002611	0.00146
132	-0.000676	0.003433	0.00031	0.002775	-0.001991
133	-0.001498	-0.003142	-0.001005	0.004912	0.001132
134	-0.000841	-0.001991	-0.001334	0.003268	-0.003799
135	-0.002484	-0.001005	-0.000841	0.002447	-0.001005
136	-0.000347	-0.000841	-0.00232	0.000803	-0.001005
137	-0.005114	-0.001498	0.000639	0.00146	-0.002648
138	0.000474	0.002118	-0.003635	0.006391	-0.006757
139	-0.000676	-0.004128	0.003433	-0.001005	0.001954
140	-0.000841	-0.001169	-1.9e-05	0.00031	0.000967
141	0.002282	-0.000183	-0.002648	0.002611	0.001132
142	-0.00347	-0.001334	-0.000512	-0.003963	0.002611
143	-0.000841	-0.000841	0.000146	0.006391	-0.000676
144	0.000803	-0.001498	-0.003799	0.003597	-0.001662
145	0.002611	-0.001662	-0.002813	0.004748	-0.001827
146	-0.002155	-0.00347	0.003268	0.003104	0.001789
147	-0.000347	0.000474	-0.000841	0.003597	-0.002155
148	-0.004949	-0.003963	0.001132	0.003597	-0.001334
149	0.001954	-0.001334	-0.000512	0.007706	-0.002484
150	-0.000676	-0.003963	0.00031	0.002447	-0.000512
151	0.00031	0.000474	-0.000841	0.001789	-0.001498
152	-0.002155	-0.000841	0.000639	0.001954	0.000146
153	-0.004785	-0.001498	0.002282	-0.000183	-0.000347
154	-0.005114	-0.000841	-0.001827	0.002118	-0.000183
155	-0.002813	-1.9e-05	-0.001498	0.001132	-0.004128
156	-0.003963	-0.00232	-0.001662	0.004583	0.001296
157	-0.003963	-1.9e-05	0.000146	0.000803	0.001296
158	0.000146	0.001625	-0.002648	0.001296	-0.000841
159	-0.005443	-0.000676	-0.002155	0.002447	0.005076
160	-0.002648	0.002282	-0.00232	-0.00347	-0.002155
161	-0.003306	-0.003306	0.001625	-0.001662	0.000639
162	-0.001498	-0.000183	-0.001827	0.001625	-0.002484
163	0.00031	-0.00232	-0.004128	0.001296	0.001296
164	-0.002484	-0.000183	0.002447	-1.9e-05	-0.001005
165	-0.005607	-0.005607	0.001132	0.002611	-1.9e-05
166	-0.00232	-0.003142	0.000474	0.000474	0.001296
167	-0.002648	-0.002155	0.001954	0.005241	-0.000183
168	-0.002484	-0.001991	0.001789	0.009514	-0.001334
169	-0.00347	-0.003142	0.000803	0.003597	-0.003799
170	-0.004128	-0.000841	-0.001991	0.000803	-0.000183
171	-0.000347	0.001132	-0.000676	-0.005936	-0.001334
172	-0.005114	0.002118	-0.005114	-0.000841	-0.002977
173	-0.002155	-0.002484	-0.003799	0.001954	-1.9e-05
174	0.000474	-0.006429	-0.001991	-0.001827	0.001296
175	-0.004621	0.004419	-0.001827	-0.001991	0.000967
176	-0.003799	-0.004128	-0.000347	0.000146	0.000146
177	-0.005936	-0.000512	-0.000676	-0.000841	-0.001169
178	-0.004128	-0.00347	-0.000347	0.000146	-0.000183
179	-0.003306	-0.001827	-0.003142	-0.000841	-0.001169
180	-0.005443	-0.001827	-0.001991	0.000967	-0.003963
181	-0.002155	-0.003799	-0.004785	-1.9e-05	-0.000841
182	-0.002813	-0.002813	-0.000676	-0.01251	-0.001991
183	-0.001005	-0.001334	-0.001662	-0.000841	-0.003963
184	-0.002484	-0.005114	0.00294	0.003761	0.003433
185	-0.006264	-0.003635	-1.9e-05	0.002447	0.002282
186	-0.004621	-0.003635	0.001625	0.002775	0.000967
187	-0.008894	-0.005114	-0.000183	-0.000183	-0.002813
188	-0.004456	-0.000183	-0.001498	0.003433	-0.003963
189	-0.003799	0.00146	-0.002813	0.000967	-0.005278
190	-0.004785	-0.001334	-0.002155	-0.000676	-0.003635
191	-0.0061	-0.000841	-0.003799	-0.001498	-0.001005
192	-0.004292	-0.000512	-0.000841	-0.000676	-0.004292
193	-0.003963	-0.002484	-0.003306	-0.007086	-0.000347
194	-0.000183	-0.001005	-0.002155	0.000803	-0.001498
195	-0.003635	-0.001498	0.004912	0.000474	-1.9e-05
196	-0.016454	-0.002155	-0.000676	-0.001827	0.001132
197	-0.005278	-0.001662	0.001132	0.000146	0.003761
198	-0.000676	-0.001827	0.000967	0.001789	-0.001662
199	-0.006264	-0.004949	0.002447	-0.000347	-0.000841
200	-0.0061	-0.001334	-0.001169	0.000639	-0.001827
201	-0.005278	0.000639	0.003433	0.000474	0.001132
202	-0.005443	-0.002484	-0.000512	-0.001827	-0.001498
203	-0.004949	-0.003142	-0.000512	0.00146	-0.001334
204	-0.004128	-0.000676	0.00031	-0.002977	-0.000512
205	-0.003142	-0.001662	-0.00232	-0.00232	-0.000676
206	-0.005443	-0.003963	-0.001169	-0.000512	0.002775
207	-0.009223	-0.002813	-0.001498	-0.001827	0.002447
208	-0.008072	-0.000512	0.000803	-0.001334	-0.000183
209	-0.008237	0.00031	-0.000512	-0.002813	-0.003142
210	-0.007086	-0.001169	-0.000183	-0.003306	-0.000183
211	-0.005278	-0.001169	-0.002977	-0.004128	-0.003306
212	-0.009223	-0.001498	0.000803	-0.001662	0.004255
213	-0.006264	-0.001827	-0.002648	-0.004621	-0.003306
214	-0.004621	-0.002648	0.00031	-0.000676	0.000474
215	0.003433	-0.000841	-0.001169	-0.000676	0.00031
216	-0.002648	-0.001991	-0.000183	-0.002484	0.00031
217	-0.001991	-0.001005	-0.00232	-0.000676	-0.004785
218	-0.001827	-0.001827	0.002118	-0.001005	0.001789
219	-0.005771	-0.003799	0.00409	-0.004785	-0.004128
220	-0.001334	-0.002813	-1.9e-05	-0.00232	-0.001991
221	-0.001991	-0.0061	0.000639	-0.002155	0.000639
222	-0.003142	-0.004128	-0.001005	-0.003799	-0.001169
223	-0.003306	-0.008894	-0.00347	-0.001662	0.000146
224	-0.002977	-0.002484	-0.002977	-0.003963	-0.003142
225	-0.005607	-0.007415	-0.002155	-0.004621	-0.000676
226	0.000146	-0.001827	-0.005278	-0.003306	0.000474
227	-0.007908	-0.001498	-0.001827	-0.002813	0.000474
228	-0.009058	-0.000841	-0.002648	-0.007086	-0.003635
229	-0.004621	0.000639	0.000474	-0.003963	0.001789
230	-0.005114	-0.000841	-0.001991	-0.002813	-0.001827
231	-0.004128	-0.003142	-0.000183	-1.9e-05	0.001132
232	-0.003142	-0.0061	-0.000512	-0.002155	-0.000676
233	-0.001334	-0.004128	-0.000512	-0.003306	-0.003799
234	-0.001662	-0.003963	0.000639	-0.003799	-0.001169
235	-0.002648	-0.004128	-0.000676	0.001789	-0.005936
236	-0.003963	-0.007579	-0.001334	-0.000512	-0.003635
237	-0.000841	-0.002648	0.000146	-0.001334	-0.000841
238	-0.001827	-0.003799	-0.000512	-0.001334	-0.00347
239	-0.002648	-0.001169	0.000474	-0.002977	-0.004621
240	-0.004785	-0.001169	-0.00347	-0.000841	-0.007086
241	-0.003142	-0.002813	-0.002648	-0.001005	-0.002813
242	-0.008072	-0.001662	-0.000183	-0.002648	-0.001498
243	-0.001005	-0.002813	-0.00232	0.000474	-0.001005
244	-0.00347	0.000146	0.000474	-0.000841	0.00146
245	-0.003306	-0.001169	-0.002155	-0.001498	-0.00232
246	-0.005607	-0.001991	-0.002155	-0.000841	0.002118
247	-0.004292	-0.002484	-0.002648	-0.002813	-0.000183
248	-0.001991	-0.000183	-0.001991	-0.001334	-1.9e-05
249	-0.002648	-0.00347	-0.001498	-0.004785	0.000146
250	-0.00232	0.000474	0.000967	-0.002484	-0.001498
251	0.000967	0.001296	-1.9e-05	-0.002155	-0.000676
252	-0.001498	0.000803	0.00146	-0.001662	-0.001662
253	-0.003306	-0.002484	-1.9e-05	-0.001498	-0.001005
254	-0.000347	-0.002648	0.000639	-0.004456	-0.000183
255	-0.002977	-0.004128	0.002118	-0.002648	0.004912
256	-0.002813	-0.002155	0.000639	0.001789	0.001954
257	-0.004949	-0.005607	-0.000183	-0.000347	-0.001005
258	-0.004785	-0.004292	-0.001498	-0.002648	-0.000841
259	-0.00725	0.000474	0.001132	0.001132	-0.000841
260	-0.005607	0.000639	-0.001169	-0.004949	-0.001334
261	-0.007086	-0.001498	0.000146	-0.001169	0.003761
262	-0.005278	-0.000183	0.00031	-0.001169	0.000146
263	0.002447	-0.000512	0.002775	-0.00232	-0.000841
264	-0.004949	-0.002155	-0.000676	-0.003635	0.003104
265	-0.005443	0.000474	0.001789	-0.002155	0.000803
266	-0.002977	-0.002648	-0.001498	-0.003306	0.000474
267	-0.004456	-0.001169	0.000803	-0.002155	0.004912
268	-0.00232	-0.003306	-0.004456	-0.004292	0.000146
269	-0.002977	-0.001334	-0.001827	-0.0061	-0.002977
270	-0.008072	-0.002484	-0.000841	-0.00232	-0.000183
271	-0.000512	-0.003306	0.002282	-0.001005	-0.001991
272	-0.00232	-0.004292	0.002447	-0.003963	-0.000512
273	-0.003306	-0.002813	-0.000676	-0.001662	-0.003963
274	-0.001827	-0.004785	-0.001662	0.000146	-0.001991
275	-0.003306	-0.004128	-0.004128	-0.002813	-0.000841
276	-0.003799	-0.003142	0.00031	-0.002813	-0.000347
277	-0.004128	-0.002813	-0.001827	-0.004785	-0.000676
278	-0.009058	0.000474	0.00409	-0.001662	0.006391
279	-0.006593	-0.001498	-0.000676	-0.004456	0.000474
280	-0.003963	-0.002813	-0.002155	-0.003142	-0.000183
281	-0.004128	0.000474	-1.9e-05	-0.003142	0.001296
282	-0.003799	-0.001169	0.00031	-0.002648	0.002775
283	-0.00232	-0.003142	-0.000841	-0.00347	0.000474
284	-0.00347	-0.00232	0.000639	-0.006757	-0.001498
285	-0.000512	-0.003142	0.001789	-0.003799	-0.004292
286	-0.003142	-0.001169	0.000639	-0.003142	-0.001169
287	-0.004456	-0.004456	0.00031	-0.000676	-0.001827
288	-0.000347	-0.000512	0.002282	-0.001991	0.001132
289	-0.001827	-0.009387	0.006062	-0.001005	-0.001498
290	-0.003142	-0.002484	-0.004949	-0.002813	-0.00873
291	-0.001169	-0.00232	0.003268	0.000967	-0.002484
292	-0.003306	-0.002484	0.000639	-0.002155	-0.003306
293	-0.001827	-0.001498	0.002282	0.001789	-0.000512
294	-0.004292	-0.002648	0.002611	-0.001169	-0.000841
295	-0.004456	0.000967	0.00146	-0.00232	0.001132
296	-0.00232	-0.000512	-0.001498	-0.002484	0.00031
297	-0.003306	-0.001169	0.005076	-0.004128	0.000146
298	-0.005278	-0.001334	0.000639	-0.00232	0.001132
299	-0.001662	0.001132	-0.000512	-0.004456	-0.000183
300	-0.005278	0.00031	0.005405	-0.002813	-0.005771
301	0.003268	0.000474	-0.000841	-0.004456	-0.002484
302	-0.005114	0.00031	0.001789	-0.002977	0.000474
303	-0.002648	-0.001005	0.000967	-0.002484	-0.001169
304	-0.001827	-0.001827	0.003926	0.001789	0.002282
305	-0.008401	-0.003306	0.00031	-0.004949	0.000474
306	-0.000676	-0.005278	0.004255	-0.001169	-0.001169
307	-0.001498	0.002775	0.00294	-0.002648	-0.002155
308	-0.005278	-0.006429	0.003926	-0.001334	-0.001005
309	-0.003963	-0.002155	0.002118	-0.000183	-0.001827
310	-0.004456	-0.001827	0.00409	0.004255	-0.001334
311	-0.004949	-0.003142	0.00031	-0.002977	-0.005936
312	-0.003306	-0.001169	-0.000676	0.001132	-0.002977
313	-0.002977	-0.001662	0.001954	-0.000841	-0.001169
314	-0.001169	0.002447	0.002447	-0.004128	0.00031
315	-0.003799	-0.002484	-1.9e-05	-0.002813	-1.9e-05
316	-0.001498	-1.9e-05	0.001625	-0.003963	0.00031
317	-0.005278	-0.002155	0.004912	-0.003635	0.001296
318	0.001296	0.001789	-0.001334	-0.003306	-0.002155
319	0.000967	-0.002648	0.003268	-0.002648	0.002282
320	-0.002648	-0.001991	0.000474	-0.003963	-0.003799
321	-0.000841	-0.001498	0.003268	0.001296	0.001789
322	-0.000676	0.000474	-0.008072	-0.002484	-0.005607
323	-0.00347	-0.001991	0.002611	-0.001827	-0.001498
324	-0.002977	-0.000841	-0.002484	-0.002813	-0.004785
325	0.00146	-0.000183	-0.001334	-0.001827	-0.000347
326	-0.003306	-0.00232	0.004748	-0.001005	-0.000347
327	-0.003635	-0.001498	0.000474	-0.001334	-0.00232
328	-0.004456	-0.002813	-0.000841	-0.003306	-0.000183
329	-0.001991	-0.00873	-0.000347	-0.001827	0.00031
330	-0.004785	-0.003963	0.001296	-0.001334	0.001789
331	-0.002813	-0.001334	-0.001498	-0.002484	0.00146
332	-0.004785	-0.00347	0.000146	-0.003963	0.001954
333	-0.000347	-0.00232	-0.009223	-0.003306	0.000474
334	-0.004292	-0.003799	-0.001334	-0.003635	-0.000676
335	-0.003635	0.003433	-0.002155	-0.000183	-0.000841
336	-0.001005	-0.003799	0.00294	-0.00232	-0.000841
337	-0.001498	-0.000676	-0.000512	-0.002648	-0.004128
338	-0.00347	-0.003799	0.000803	-0.001334	-0.000183
339	-0.001827	-0.000183	-0.002484	-0.003799	0.003104
340	-0.001662	-0.009387	-0.000676	-0.000676	-1.9e-05
341	-0.003142	-0.004949	0.003268	-0.001498	-0.000512
342	-0.001498	-0.005936	0.000639	-0.000347	-0.001991
343	-0.001662	-0.002813	0.001625	-0.001827	0.000474
344	-0.003306	-0.001169	-0.006593	-0.002813	-0.001662
345	-0.004785	-0.001498	-0.003635	-0.002648	-0.000183
346	-0.001662	-0.000347	0.002282	0.000146	-0.000512
347	-0.005114	-0.00232	0.004255	-0.002813	-0.001169
348	-0.001005	0.000639	-0.001169	-1.9e-05	-0.00232
349	-0.003963	-0.003799	-0.000347	-0.00232	0.000474
350	-0.000183	0.00031	-1.9e-05	-0.002484	-0.000841
351	-0.002648	-0.001498	-0.002155	-0.001334	0.001625
352	-0.006429	-0.005771	0.002447	-0.002648	-0.001662
353	-0.004292	-0.004456	0.00146	0.000474	0.00146
354	-0.004456	-0.001991	-0.000183	-0.00347	0.003597
355	-0.003306	-0.000347	-0.0061	0.001789	-0.001169
356	-0.001991	-0.005771	-0.00232	-0.001498	-0.00232
357	-0.00347	-0.00232	0.000146	0.00031	-0.000183
358	-0.002813	-0.004456	0.002118	-0.001827	-0.002648
359	0.000474	-0.001005	-0.000183	-0.001005	-0.001827
360	-0.007086	-0.001662	-0.001991	0.005405	-0.000676
361	-0.001334	-0.001662	-0.000347	0.001132	-0.00232
362	-0.006757	-0.002648	-0.000512	-0.001334	-0.005278
363	-0.001662	-0.001498	-0.00232	0.00146	-0.003799
364	-0.001005	-0.003963	0.002611	-0.000841	0.000967
365	-0.001827	-0.001827	-0.00232	-0.005114	-0.002977
366	-0.003306	-0.002977	-0.004785	0.001625	0.000146
367	-0.00347	0.000146	-0.000841	-0.001498	-0.002155
368	-0.001334	-0.000512	-1.9e-05	-0.001334	-0.001169
369	0.001296	-0.001991	-0.001827	-0.002813	-0.001662
370	-0.001827	-0.003799	-0.000676	0.00146	-0.003142
371	-0.003306	-0.003142	-0.001827	0.002775	-0.000183
372	-0.000183	-0.001827	-0.001827	0.00031	-0.001334
373	-0.00232	-0.003142	0.000639	-0.001827	0.000803
374	-0.003799	-0.004621	0.000146	-0.003142	-1.9e-05
375	-0.001005	-0.004292	-0.002648	-0.003142	0.000146
376	0.000803	-0.003306	-0.006264	-0.001169	0.000146
377	-0.004785	-0.001827	-0.00232	-0.001334	-0.001334
378	-0.001991	-0.002155	-0.003799	-0.000512	-0.001498
379	-0.005771	-0.003963	-0.002977	-0.000676	-0.001169
380	0.000474	-0.001827	-0.002648	-0.001498	-0.003306
381	-0.003142	-0.003306	-0.000676	0.003926	-0.004456
382	-0.000512	-0.002155	-0.001991	0.002118	-0.001334
383	-0.002977	-0.000347	-0.000841	0.000146	-0.001991
384	-0.003963	-0.001991	0.001296	-0.001498	-0.004949
385	-0.00347	-0.001662	-0.000347	-0.000676	-0.00232
386	-0.004292	-0.004128	-0.002155	-0.001334	-0.001169
387	-0.003963	-0.004292	-1.9e-05	0.00031	-0.001005
388	-0.005278	-0.001827	-0.004621	-0.001334	0.000474
389	-0.001991	0.000146	-0.004785	0.00146	0.001296
390	-0.004292	-0.004785	0.00146	-0.003306	0.00031
391	-0.002648	-0.001169	-0.001827	-0.000841	-0.000676
392	-0.002155	0.000639	-0.00232	0.001132	0.003104
393	-0.00347	0.000474	-0.000841	-0.003142	-0.001498
394	-0.004785	-0.004128	-1.9e-05	-0.001498	0.001625
395	-0.006757	0.002447	-0.002648	-0.001334	-0.001169
396	-0.002484	-0.002977	0.000967	-0.001005	0.00031
397	-0.003963	-0.002155	-0.002648	-0.001498	-0.001498
398	-0.002155	-0.002813	-0.005771	0.000803	0.00146
399	-0.002977	-0.003799	-0.00232	0.000474	-0.003142
400	-0.002813	-0.002484	-0.002813	0.001132	-0.000183
401	-0.00232	-0.003142	-0.004128	-0.001005	0.000146
402	-0.003142	-0.002813	-0.000841	0.000146	-0.001498
403	-0.003306	-0.001991	-0.002155	0.00294	-0.001005
404	0.000146	-0.005771	-0.001991	-0.000841	-1.9e-05
405	-0.004949	0.006062	-0.001662	0.000639	-0.001498
406	0.001132	0.004583	-0.001498	-1.9e-05	-0.001827
407	-0.005278	-0.002813	-0.000512	-0.001334	0.001132
408	-0.001991	0.002447	-0.004456	-0.000347	-0.001334
409	-0.004785	0.000146	0.002611	-0.002977	-0.001005
410	-0.001991	-0.000183	-0.005278	-0.004949	-0.00232
411	-0.001991	-0.001169	-0.00347	-0.000512	0.001296
412	-0.001991	-0.004456	-0.003635	0.003433	-0.001169
413	-0.001005	-0.004785	-0.001827	0.000474	0.001132
414	-0.001662	-0.002648	-0.003306	0.000146	-0.000512
415	-0.004621	-0.002155	-0.001662	0.000803	0.001296
416	-0.005936	-0.003306	-0.00347	-0.000347	-0.001334
417	-0.003799	-0.002155	-0.002813	0.00146	-0.001498
418	-0.007908	-0.003799	-0.001827	0.000146	-0.000676
419	-0.000347	-0.00232	-0.000347	0.001132	-0.001005
420	-0.005114	-0.004785	-0.001827	-1.9e-05	-0.000841
421	-0.002977	-0.00232	-0.001498	0.004912	0.000639
422	-0.004785	-0.000676	0.000639	-0.001827	0.001625
423	-0.001005	0.002282	-0.00232	-1.9e-05	-1.9e-05
424	-0.004456	-0.005443	0.000639	-1.9e-05	-0.001005
425	-0.00347	0.001954	-0.004128	-0.003799	-0.001005
426	-0.00347	-0.001334	-0.001005	-0.001662	0.001296
427	-0.003142	-0.002484	-0.002977	-0.002977	-0.002648
428	-0.008072	-0.002155	-0.005607	-0.001005	0.00031
429	-0.000841	-0.000841	-0.004621	-0.003142	0.002118
430	-0.004128	-0.001991	-0.002484	-0.002648	0.001296
431	-0.001991	-0.003306	-0.004128	-0.00347	-0.00347
432	-0.002813	-0.004621	-0.001662	0.00294	-1.9e-05
433	-0.000676	-0.005443	-0.004949	0.00031	-0.00232
434	-0.003963	-0.004949	-1.9e-05	0.002447	-0.002977
435	-0.001991	-0.008237	0.000146	0.000803	0.000146
436	-0.001498	-0.001498	-0.001991	0.001789	-0.001169
437	-0.002484	-0.002484	-0.001498	0.001132	-0.001169
438	-0.000347	-0.001991	-0.002813	0.001132	0.003926
439	-0.001498	-0.002813	-0.002813	-0.000512	0.000474
440	-0.001334	-0.001662	-0.000841	0.001132	-0.001334
441	-0.002648	-0.005278	0.001296	-1.9e-05	-0.003306
442	-0.002155	-0.000841	-0.003306	-0.002648	-0.003142
443	-0.001169	-0.003306	-0.000841	-0.001498	0.000967
444	-0.004292	-0.001498	-0.003142	0.00294	0.00146
445	-0.004949	-0.000512	-0.003142	-1.9e-05	0.000146
446	0.00031	-0.004292	-0.00347	0.001132	-0.001498
447	-0.001334	-0.001334	-0.001498	-1.9e-05	0.002611
448	-0.000676	-0.002648	-0.00347	-1.9e-05	-0.004128
449	0.000803	0.001132	0.000146	0.000639	-1.9e-05
450	-0.000183	-0.006757	-0.001169	-0.000841	-0.003306
451	-0.003142	-0.001005	-0.000183	0.001625	-0.000512
452	-0.001498	-0.003306	0.003104	0.000639	-0.001005
453	0.001789	0.00031	-0.000676	0.00146	-0.001334
454	0.001625	-0.001334	0.000474	0.000639	0.005241
455	0.00031	-0.00347	0.00294	0.001625	0.00031
456	-0.004621	-0.010538	-0.001991	0.001954	-0.004456
457	-0.001498	-0.001991	-0.003306	-0.002155	-0.000512
458	-0.003635	-0.00347	-0.000676	-1.9e-05	0.000474
459	-0.002155	0.002118	-0.004456	-0.004128	-0.003635
460	-0.004785	-0.000841	-0.002977	-0.004785	-0.000183
461	-0.002977	-0.000183	-0.004456	-0.00347	-0.001662
462	-0.000676	0.004748	-0.003963	-0.000841	-0.001169
463	-0.001334	-0.003799	-0.001827	-0.003963	0.005076
464	-0.000183	-0.002155	0.002611	-0.002813	0.00031
465	0.000474	-0.003799	0.001132	-0.000347	-0.001827
466	-0.001334	-0.003635	0.000146	-0.001005	0.000639
467	-0.004456	-0.003306	-0.001005	-0.000676	-0.002484
468	0.000803	0.000146	-0.000183	0.000474	-0.001827
469	-0.000841	-0.005114	-0.000841	-0.000512	-0.001169
470	-0.000512	-0.001005	-0.001334	0.000639	-0.001827
471	-0.000841	-0.004456	0.000803	-0.000512	-0.000512
472	-0.001169	-0.001827	-0.004621	-0.004456	-0.002813
473	-0.003142	0.000474	-0.001662	-0.002977	-1.9e-05
474	0.00031	-0.002484	-1.9e-05	-0.001334	-0.000183
475	-0.003306	-0.00232	-0.003142	-0.007415	-0.000676
476	-0.006429	0.000639	-0.005771	-0.004128	-0.000512
477	0.000146	-0.00347	-0.002813	-0.000183	0.001296
478	-0.005771	0.000803	-0.007579	-0.004785	-0.001827
479	0.000803	-0.000841	-0.001498	-0.005114	0.002775
480	0.000146	-0.002484	-0.002648	-0.005278	0.001954
481	-0.000841	-0.002648	-0.00347	-0.002977	-1.9e-05
482	-0.002813	-0.0061	-0.001169	-0.003306	-0.000347
483	0.005734	-0.00232	-0.001827	-0.001498	-0.001334
484	-0.004128	-0.001005	-0.000183	-0.000676	0.000146
485	0.000967	-0.003306	-0.001662	-0.002813	-0.001662
486	-0.000183	-0.007744	0.001132	-0.001334	-0.001662
487	0.000967	-0.001169	-0.001662	0.001789	-0.004292
488	-0.000676	-0.003306	-0.000512	0.000967	0.000967
489	-0.003142	-0.003306	-0.000347	-0.00232	-0.002648
490	-1.9e-05	-0.002155	-0.000676	-0.001827	-0.005443
491	-0.002484	-0.001169	-0.001827	-0.004785	-0.004456
492	-0.002484	-0.001334	-0.003306	-0.000347	0.00146
493	0.002118	-0.001827	-0.003799	-0.001991	-0.004128
494	-0.000676	-0.000841	-0.002813	-0.002648	0.00031
495	-0.002155	0.003268	-0.003963	-0.003963	0.002775
496	0.00031	-0.002648	-0.001991	-0.001498	-1.9e-05
497	-0.002484	-0.003306	-0.001498	-0.007415	0.000803
498	-0.000183	-1.9e-05	-0.002484	-0.002813	-0.001334
499	-0.001334	-0.003963	0.005076	0.002118	0.000803
500	-0.001498	-0.001334	-0.001991	-0.005114	-0.001991
501	0.00031	-0.003142	-0.001169	-0.002155	-1.9e-05
502	0.000474	-0.001169	-0.000347	-0.003963	0.000146
503	0.003268	-0.002648	-0.001334	-0.000676	-1.9e-05
504	-0.000347	0.000146	-0.00347	-0.002484	-0.000676
505	-0.002155	-0.000841	-0.000841	0.00294	0.002611
506	-0.002977	-0.002813	-0.001005	-0.001334	-0.000347
507	-0.004128	-0.001827	-0.001827	-0.004456	0.000474
508	-0.000676	-0.001334	-0.002155	-0.006429	-0.001827
509	-0.00232	-0.00232	-0.002484	-0.007086	0.000803
510	-0.003306	-0.001005	-0.003142	-0.004292	-0.000183
511	-0.004128	-1.9e-05	-0.0061	-0.007744	0.001789
512	-0.001334	-0.002155	-0.002813	-0.009716	-0.002155
513	0.004419	0.00031	-0.003799	-0.005936	0.003926
514	-0.001169	-0.006429	-0.003306	-0.009716	-0.003306
515	0.001132	0.002447	-0.001005	-0.006922	-0.000347
516	0.002118	-0.000512	-0.000841	-0.006429	-0.003963
517	0.000967	-0.002155	-0.001827	-0.007086	-0.002155
518	0.001132	-0.003799	-0.001827	-0.005278	-0.000512
519	0.002775	-0.003635	-0.00347	-0.006593	-0.001827
520	0.00031	-0.004292	-0.003799	-0.003306	-0.000183
521	0.00031	-0.001498	-0.001169	-0.005114	-0.003799
522	0.001296	-0.003799	-0.004456	-0.006264	-0.002155
523	0.002447	-0.004292	-0.004621	-0.013332	-0.003306
524	0.000967	-1.9e-05	0.00031	-0.004456	0.00031
525	0.001296	-0.003306	-0.003142	-0.009551	-0.002648
526	0.001132	-0.001169	-0.004292	-0.00873	-0.000676
527	-1.9e-05	0.000639	-0.003799	-0.006922	0.00031
528	-0.001991	-0.001498	0.001132	-0.004949	-0.000841
529	-0.003142	-0.003635	-0.000183	-0.007579	0.001132
530	0.000146	-0.001662	-1.9e-05	-0.009223	-0.002155
531	-0.00232	-0.002484	0.000803	-0.00347	0.00146
532	-0.001005	-0.003306	-0.001169	-0.004456	0.00031
533	0.001789	-0.006757	0.00146	-0.006429	-0.001169
534	0.000146	0.002118	0.00031	-0.005114	-0.00347
535	0.002282	-0.002484	0.001132	-0.001169	-0.001169
536	0.002447	-0.003142	-0.000347	-0.0061	-0.002484
537	-0.001169	-0.00347	0.003268	-0.005936	-0.002977
538	0.005898	-0.001827	-0.001827	-0.002155	-0.006593
539	0.001625	-0.002813	-0.001005	-0.003142	-0.001498
540	-0.002484	-0.003799	0.001789	-0.004785	-0.00347
541	0.001789	-0.000841	0.000474	-0.002484	-0.001169
542	-0.001498	-0.003799	0.001132	-0.002977	-0.001991
543	0.003104	-0.000183	-0.001991	-0.003963	0.00294
544	0.000639	-0.00347	0.001625	-0.003799	-0.001005
545	0.002775	0.001789	-0.000512	-0.004128	-0.001498
546	-0.002977	0.000639	-0.000183	-0.005443	0.000146
547	-0.001334	0.002447	-0.001169	-0.002484	-0.001827
548	-0.001005	-0.000676	-1.9e-05	-0.002813	-0.000183
549	-0.000841	0.001296	-0.003799	-0.003963	-0.000841
550	-0.001169	-0.000512	0.000639	-0.002484	0.002118
551	0.00146	-0.001662	-0.00232	-0.004128	-0.00232
552	-1.9e-05	-0.000676	-0.00232	0.000639	0.002118
553	0.001625	-0.002155	-0.002977	-0.001005	-0.001169
554	-0.00232	-0.002155	-0.001662	-0.00232	0.001789
555	0.000146	-0.00232	-0.001498	-0.002484	0.003104
556	0.005241	-0.003142	0.000146	-0.000183	0.002118
557	0.000967	-0.00232	-0.001169	-0.004949	-0.00347
558	-0.000347	-0.000512	-0.000512	0.000639	0.000803
559	-0.002977	-0.007744	0.000967	-0.003635	0.001296
560	0.003104	0.001625	-0.003142	-0.000512	-0.005278
561	-0.003306	-0.004292	-0.000841	0.004748	0.001789
562	-0.003635	-0.001662	-0.000183	-0.003635	-0.000676
563	-0.004785	-0.00232	-0.004128	0.002447	0.001132
564	-0.004292	-0.004128	-0.002155	0.000474	-0.002813
565	0.00031	-0.004949	-0.001991	-0.000841	-0.00347
566	0.004419	-0.006593	-0.002155	-0.00232	-0.002484
567	0.00146	-0.000512	-1.9e-05	-0.000512	0.000803
568	0.001625	-0.000841	-0.001498	-0.000841	-0.002155
569	0.000967	-0.001005	-0.001169	-0.001169	-1.9e-05
570	0.001789	-0.000347	-0.004456	-0.002813	-0.001334
571	0.003104	-0.001662	-0.003142	-0.005443	0.001132
572	-0.000841	-0.002484	0.001132	-0.001169	-0.000183
573	0.001789	-0.002155	0.001132	-0.001827	-0.002155
574	-1.9e-05	-0.00347	-0.002648	0.001625	-0.001005
575	0.001132	-0.001991	-0.001498	0.00294	-0.000841
576	0.000146	-0.004128	-0.000841	-0.000183	-0.002648
577	0.003104	0.00031	-0.002813	-0.000676	-0.005278
578	0.00146	-0.003963	-0.002648	-0.000676	-0.004292
579	-0.001169	-0.001827	-0.002155	0.004583	-0.000512
580	-0.003799	-0.001827	-0.000347	-0.001991	-0.001005
581	0.000146	-0.003963	-0.001662	-0.001827	-0.000347
582	0.002775	-0.002813	0.001789	-0.002484	-0.000841
583	-0.003142	-0.002977	-0.001991	0.000803	-0.001169
584	-0.002813	-0.002484	0.000474	-1.9e-05	-0.001005
585	-0.002155	-0.001991	-0.002155	-0.000841	-0.004785
586	0.002447	-0.002813	-0.001827	0.003926	-0.000347
587	-0.001169	-0.004785	0.000146	-0.002648	-0.001498
588	0.002447	-0.001827	-0.00232	0.003761	-0.00347
589	0.002118	-0.001827	-0.003799	0.003104	-0.005936
590	0.003761	-0.001991	-0.002813	0.005076	-0.00232
591	-0.001498	-0.000512	-0.000676	0.007377	-0.000676
592	-0.004292	-0.002155	-0.001169	0.003268	-0.003306
593	0.004748	-0.005443	0.001789	0.003597	-0.003142
594	0.002611	-0.003963	0.003926	0.005734	0.000474
595	-0.004128	-0.006429	0.002118	0.008857	0.002118
596	-0.002648	-0.005936	-0.001498	0.006062	-0.001498
597	-0.002648	-0.002155	0.001296	0.006556	0.000146
598	-0.003306	-0.002155	-0.000676	0.006062	0.000803
599	-0.002484	-0.002155	-0.001005	0.005405	-0.000676
600	-0.001334	-0.001827	-0.005936	0.003926	-0.001498
601	-0.003142	-0.000841	-0.003963	0.003104	0.000803
602	-1.9e-05	-0.000183	-0.001498	0.001789	-0.001169
603	-0.001498	0.000967	-0.004292	0.001296	0.001954
604	-0.008894	-0.003142	-0.001827	0.001625	0.000803
605	-0.003142	0.000639	-0.000676	0.001789	-1.9e-05
606	0.002118	-0.003306	-0.000512	0.002282	0.001789
607	0.003926	-0.000841	-0.001334	0.004255	0.000474
608	-0.003799	-0.002977	-0.002484	0.005076	-0.001827
609	-0.001991	-0.003799	-0.001005	0.003268	-0.000512
610	-0.001991	-0.003306	-0.001005	-0.000183	-0.003142
611	-0.00347	-0.005114	-0.001827	-0.001662	-0.002648
612	-0.00347	-0.003306	0.001132	0.005241	-0.000841
613	-0.002484	-0.002813	-0.002977	0.001296	-1.9e-05
614	-0.004128	-0.00347	-0.000512	0.005569	-1.9e-05
615	-0.015961	0.002118	-0.003142	0.00146	-0.000676
616	-0.004621	-0.001005	-0.000512	0.004748	0.001625
617	-0.003799	0.000474	-0.001334	0.001954	0.001296
618	-0.001005	-0.00347	-0.001005	0.004912	0.001132
619	-0.003142	-0.002648	-0.001991	-1.9e-05	0.001132
620	-0.001169	-1.9e-05	-0.005278	0.002611	-1.9e-05
621	-0.003142	-0.003142	-0.002155	0.001132	-0.001827
622	0.00031	-0.002155	-0.003963	0.000803	-0.003635
623	-0.000183	-0.001169	0.000967	0.001625	0.001296
624	0.00146	-0.001498	-0.004621	-0.000347	-0.003963
625	-0.002155	-0.00347	-0.004292	0.001625	-0.001169
626	-0.005443	-0.002977	-0.005114	-0.00232	0.000967
627	-0.000512	-0.002648	0.00031	0.00409	0.004912
628	0.00294	-0.002648	-0.004128	0.001789	-0.010702
629	-0.001662	-0.004785	-0.002977	0.005405	0.002447
630	-0.001662	-0.001991	-0.000347	0.001789	-0.004292
631	-0.001169	-0.001991	0.003597	0.005569	-0.001662
632	-0.00232	-0.00347	-0.000841	0.001789	0.001954
633	-0.002648	-0.002484	-0.00232	0.003104	-0.001827
634	-0.001334	-0.00232	-0.000841	0.004419	0.000474
635	-0.00232	-0.000183	-0.003306	-0.002813	-0.002977
636	-0.001991	-0.006429	-0.00232	-0.000512	-0.001005
637	-0.000676	-0.000512	-0.006757	0.001296	0.000639
638	-0.001005	0.00031	0.001625	-0.000676	-0.001005
639	-0.002155	-0.000676	-0.001169	-0.002155	0.001296
640	-0.001991	-0.001662	-0.005771	0.002447	-0.000841
641	-0.001005	-0.000347	-0.002813	-0.001498	-0.001334
642	-0.00347	-0.000676	-0.000183	0.003761	0.002775
643	-0.000512	-0.000841	-0.001827	0.004255	-0.001498
644	-0.005607	-0.000676	-0.000183	0.001954	-0.001498
645	0.001625	0.003597	-0.001334	0.001789	-0.004456
646	-0.00232	-0.001334	-1.9e-05	0.000967	-0.000676
647	-0.000347	-0.00347	-0.001005	0.002611	-0.002977
648	0.003268	-0.003635	-0.001991	0.003926	0.001296
649	-0.005114	-0.003635	0.00146	0.001132	0.000639
650	0.00031	-0.00232	-0.002155	0.00294	0.00031
651	-0.002484	-0.002813	0.002611	0.003926	0.000639
652	-0.001169	-0.001662	0.000474	0.000639	-0.000183
653	-0.003306	-0.000676	-0.001005	0.000639	-0.001991
654	-0.001662	-0.000512	-0.002648	0.002118	-0.004128
655	-0.003306	-0.003635	-0.001662	0.000803	-0.001005
656	0.001296	0.000803	-0.003142	0.002118	-0.001334
657	0.00409	-0.002813	-0.000841	-1.9e-05	0.001132
658	0.000146	-0.001662	-0.004456	-0.001005	-0.002155
659	-0.005443	-0.002155	-0.002155	0.003926	0.000146
660	-0.00232	-0.000512	-0.001662	0.002611	0.002118
661	-0.003306	-0.003799	0.001296	0.002118	-0.000512
662	-0.001991	-0.001498	0.002775	-0.002484	-0.001334
663	-0.002977	-0.002813	0.000639	0.002447	-0.001334
664	-0.007086	-0.002155	-0.001498	0.000967	-0.000183
665	0.00031	-0.004456	-0.002484	0.003761	-0.002813
666	-0.004949	-0.008072	-0.001005	0.003761	0.002118
667	-0.001498	-0.001498	-0.00347	0.000803	0.00409
668	0.000803	-0.002977	-0.00232	0.00146	-0.002648
669	-0.002155	0.00146	-0.002155	0.00294	-0.000347
670	-0.00347	-0.001991	-0.001334	0.000803	0.003268
671	-0.001991	0.002282	0.000146	0.003268	0.003104
672	-0.005936	-0.00232	0.001296	0.000639	0.000474
673	-0.003306	-0.002155	-0.003635	0.001132	-0.003142
674	-0.00347	-0.001334	-0.003142	0.000639	0.001296
675	-0.003142	-0.002484	-0.004292	0.001296	0.001132
676	-0.000841	-0.001498	-0.005278	0.00146	0.002447
677	-0.004292	-0.001005	-0.002977	-0.004621	0.001296
678	-0.000347	-0.001334	-0.004292	0.008363	-0.001498
679	-0.001498	-0.001827	-0.003635	-0.001005	-0.002155
680	-0.003306	-0.00347	-0.002648	0.002282	-0.000841
681	-0.00347	-0.008237	0.00146	0.001132	0.00146
682	-0.001005	-0.002977	0.000803	0.001625	0.00146
683	-0.002648	-0.004456	-0.000347	0.002282	0.002447
684	-0.00232	-0.002648	-0.002648	0.003268	-0.002155
685	-0.002648	-0.005278	-0.001498	0.00294	-0.001334
686	-0.001005	-0.004292	0.000639	0.005405	-0.001169
687	-0.003963	-0.001005	-0.001827	0.003761	0.000639
688	-0.001991	-1.9e-05	-0.001498	0.00294	-0.003635
689	-0.002813	-0.001334	-0.002484	0.004583	0.005241
690	-0.002813	0.001625	-0.003963	0.001132	-0.004292
691	-0.003142	-0.006429	-0.003306	0.005569	-0.000512
692	-0.004456	0.00031	-0.002484	0.000967	-0.001662
693	-0.000512	-0.002155	-0.001169	0.003104	0.000967
694	-0.005936	-0.008565	-1.9e-05	0.000803	0.000474
695	-0.005443	-0.001498	-0.002648	0.000967	-0.001005
696	-0.003142	-0.001662	-0.000676	0.002118	-0.000183
697	-0.002813	0.000967	-0.001991	0.005734	0.000803
698	-0.001991	-0.001334	-0.001334	0.001132	-0.005771
699	-0.001169	-0.000841	-0.00232	0.003926	-0.002155
700	-0.001991	0.000803	-0.000841	-0.006757	-0.001169
701	-1.9e-05	-0.000347	-0.000841	0.005734	-0.002813
702	0.000639	-0.001662	0.003761	0.002775	-0.001827
703	-0.001991	-0.001991	0.002118	0.006062	0.00031
704	0.000967	-0.001005	0.002447	0.001296	0.000803
705	0.001789	-0.002977	-0.000183	0.002611	-0.00347
706	-0.007744	-0.002813	-0.001498	-0.000841	-0.003142
707	-0.001498	-0.000183	-0.005278	0.000803	-0.00232
708	-0.004785	-0.000183	-0.003306	0.003761	0.000967
709	-0.005771	-0.000841	-0.001005	0.000146	-0.002813
710	-0.001498	0.001625	-0.003963	0.001625	-0.000183
711	-0.001334	-0.000676	-0.001334	-0.008401	-0.000347
712	-1.9e-05	0.000803	0.002118	0.004912	-0.001334
713	-0.001991	-0.004128	-0.002484	0.001625	-0.002155
714	-1.9e-05	-0.003963	0.005076	0.00294	-0.000183
715	0.00146	-0.000512	0.001789	0.001132	-0.002484
716	0.001132	-0.003142	-0.002813	0.001625	0.000146
717	-0.001169	-0.002484	-1.9e-05	0.002118	0.000146
718	0.003597	0.001789	-0.00232	0.001132	-0.004785
719	-0.001662	-0.005443	0.001789	0.002775	-0.000512
720	-0.001169	-0.002977	-0.002484	0.001625	-0.003799
721	-0.001498	-0.001991	-0.001498	0.004419	-0.004785
722	-0.000841	-0.002155	-0.005278	-0.004128	-0.001169
723	-0.001334	-0.00347	-0.005114	-0.003306	-0.00347
724	-0.001169	0.001296	-0.003963	-0.001005	-0.002977
725	0.001625	-0.001169	0.000639	-1.9e-05	0.003268
726	-0.001662	0.000146	-0.001991	-0.001991	0.001132
727	-0.001827	-0.001169	-0.004292	0.007706	0.001789
728	-0.000841	-0.001498	-0.001827	0.001954	0.00031
729	-0.000183	-0.000183	-0.001827	0.001132	-0.000512
730	0.001789	-0.003142	0.001132	0.002447	0.002611
731	0.001954	-0.002484	-0.004292	-0.000676	-0.003963
732	-0.001334	0.000967	-0.003142	-0.000183	-0.000841
733	0.003926	-1.9e-05	-0.002648	0.000803	-0.003142
734	0.003597	-0.005443	-0.000183	-0.000676	-0.003799
735	0.00146	-0.002484	-0.002813	-0.002648	-0.002155
736	0.003268	-0.004785	0.002282	0.000803	-0.000512
737	0.003104	-0.003963	0.00146	0.000146	-0.005114
738	0.001296	-0.002977	0.000146	0.004419	-0.002648
739	-0.000841	-0.003963	0.002447	0.001296	-0.003799
740	-0.000183	-0.000841	0.00146	0.00294	0.003268
741	-0.000841	-0.001827	0.000639	0.004419	0.008363
742	-0.000183	-0.000512	-0.005278	-0.000676	-0.000512
743	-0.000841	0.006884	-0.002813	-0.001005	-0.001005
744	0.004912	0.003268	-0.001334	0.00146	-0.001334
745	0.000146	-0.001169	-0.002813	-0.003142	0.003104
746	-0.001334	-1.9e-05	-0.004949	-0.003799	-0.002484
747	0.002447	-0.004292	-0.000676	-0.002813	-0.001662
748	0.00409	-0.00347	-0.004621	-0.003142	-0.001169
749	0.000146	-0.000183	0.00031	-0.002155	-0.001334
750	0.003926	-0.000512	-0.001334	-0.003799	-0.001498
751	0.006556	-0.001334	0.004748	0.002282	0.005405
752	0.012637	0.011486	0.010007	0.010171	0.003433
753	0.02447	0.01691	0.01954	0.019375	0.017239
754	0.028086	0.026607	0.024799	0.023977	0.024306
755	0.036633	0.034003	0.033181	0.032853	0.034332
756	0.043207	0.030059	0.040084	0.04107	0.038934
757	0.048631	0.036797	0.044686	0.043371	0.046659
758	0.050932	0.043371	0.051261	0.048631	0.052904
759	0.061122	0.051261	0.056684	0.055863	0.055863
760	0.063752	0.054712	0.061286	0.063752	0.063094
761	0.070326	0.06293	0.067696	0.067039	0.071477
762	0.07838	0.06671	0.077065	0.070162	0.076079
763	0.083968	0.073778	0.07838	0.076079	0.067203
764	0.08857	0.07953	0.080352	0.082488	0.084461
765	0.094815	0.086926	0.087584	0.081831	0.087255
766	0.100896	0.086926	0.092186	0.088898	0.094651
767	0.105334	0.091692	0.097609	0.089227	0.097116
768	0.111087	0.091035	0.100732	0.096952	0.099417
769	0.111908	0.095637	0.107142	0.104184	0.101554
770	0.117332	0.103197	0.110758	0.108621	0.104019
771	0.117661	0.105005	0.113716	0.109279	0.111087
772	0.123249	0.111087	0.117661	0.114209	0.116839
773	0.125879	0.11273	0.119962	0.115195	0.119962
774	0.12933	0.118154	0.130809	0.120784	0.116675
775	0.131138	0.120455	0.128344	0.123742	0.123742
776	0.140013	0.126043	0.127522	0.126372	0.129988
777	0.138534	0.129166	0.131467	0.126536	0.13196
778	0.143794	0.129988	0.129823	0.129823	0.134425
779	0.144287	0.132289	0.136233	0.134754	0.139685
780	0.147245	0.13952	0.136562	0.135411	0.140506
781	0.152176	0.065067	0.141493	0.138205	0.13952
782	0.150368	0.057671	0.142807	0.137548	0.142972
783	0.153984	0.060958	0.146095	0.143465	0.147903
784	0.1576	0.068354	0.148396	0.142643	0.146752
785	0.157764	0.068682	0.156449	0.147409	0.146916
786	0.162859	0.072791	0.152011	0.150861	0.149217
787	0.161544	0.081338	0.155627	0.156778	0.152011
788	0.166311	0.089391	0.156778	0.158093	0.149382
789	0.167297	0.091035	0.158093	0.158093	0.155956
790	0.168283	0.097281	0.160558	0.156942	0.158257
791	0.170748	0.097938	0.163845	0.160887	0.158914
792	0.172063	0.102704	0.164174	0.161873	0.160558
793	0.172063	0.107799	0.163845	0.160394	0.16516
794	0.169926	0.110758	0.168612	0.162366	0.16779
795	0.174857	0.117003	0.166311	0.16253	0.166311
796	0.17913	0.120455	0.165489	0.164174	0.169433
797	0.178144	0.123085	0.164667	0.16516	0.168447
798	0.179295	0.121605	0.170584	0.168612	0.172227
799	0.181924	0.129001	0.168283	0.166968	0.170748
800	0.183239	0.131631	0.174035	0.172392	0.17535
801	0.183568	0.131796	0.172885	0.169269	0.171734
802	0.184718	0.137055	0.1742	0.170748	0.176829
803	0.185047	0.13952	0.176008	0.174035	0.171406
804	0.186198	0.139849	0.171899	0.176008	0.177651
805	0.186198	0.141	0.177158	0.175515	0.178309
806	0.189485	0.147245	0.178802	0.177487	0.182253
807	0.186526	0.147081	0.168776	0.178144	0.178637
808	0.187513	0.151025	0.178802	0.178802	0.176336
809	0.184225	0.151518	0.179623	0.178966	0.182746
810	0.191786	0.150532	0.176829	0.180116	0.181103
811	0.186691	0.15497	0.180445	0.182089	0.182253
812	0.18932	0.159243	0.181103	0.174693	0.183239
813	0.192772	0.16401	0.182253	0.185869	0.183897
814	0.192936	0.169433	0.180281	0.179952	0.183075
815	0.194087	0.162859	0.183732	0.180116	0.187348
816	0.195895	0.163516	0.183732	0.182089	0.184883
817	0.198689	0.087912	0.186198	0.18061	0.186526
818	0.196552	0.008528	0.177158	0.180938	0.185212
819	0.19573	0.02069	0.18439	0.187513	0.184061
820	0.192936	0.026443	0.186855	0.182417	0.187184
821	0.198689	0.03088	0.187184	0.187841	0.186526
822	0.199675	0.03992	0.191128	0.189485	0.186855
823	0.199675	0.045508	0.189156	0.185705	0.185705
824	0.200825	0.050274	0.188499	0.187677	0.184061
825	0.199511	0.065067	0.186362	0.186526	0.188006
826	0.198031	0.060958	0.19195	0.187513	0.189978
827	0.196717	0.067696	0.188334	0.186855	0.185376
828	0.19836	0.073449	0.190635	0.18817	0.191128
829	0.199346	0.0769	0.185869	0.18932	0.189814
830	0.198196	0.083146	0.188499	0.19195	0.192772
831	0.199018	0.087912	0.1908	0.190635	0.192279
832	0.201319	0.087584	0.190964	0.191293	0.193429
833	0.201812	0.098102	0.190307	0.190964	0.189649
834	0.201319	0.035482	0.19195	0.191786	0.192115
835	0.199675	0.017403	0.192443	0.191128	0.19195
836	0.203291	0.026936	0.190471	0.195237	0.189814
837	0.199182	0.030716	0.195566	0.190142	0.192772
838	0.203455	0.041564	0.194087	0.192936	0.19195
839	0.201154	0.046987	0.194416	0.189978	0.190307
840	0.202962	0.054219	0.191621	0.192279	0.1908
841	0.200497	0.058164	0.188992	0.192279	0.197045
842	0.204113	0.060958	0.192115	0.192608	0.191621
843	0.20214	0.066053	0.195073	0.19573	0.196717
844	0.20214	0.078544	0.193265	0.195073	0.193758
845	0.197538	0.081502	0.194251	0.193429	0.192608
846	0.198031	0.082653	0.195237	0.193101	0.194251
847	0.200332	0.082982	0.195073	0.194251	0.19573
848	0.200004	0.091199	0.195237	0.193429	0.194251
849	0.199675	0.097281	0.195073	0.194251	0.196059
850	0.201319	0.102869	0.195402	0.190635	0.196717
851	0.200004	0.107142	0.193429	0.193922	0.194416
852	0.197374	0.109443	0.193594	0.192115	0.202633
853	0.202305	0.116346	0.193922	0.19458	0.194087
854	0.201319	0.112894	0.193922	0.193922	0.196059
855	0.201483	0.12177	0.1908	0.193758	0.191457
856	0.19721	0.12555	0.195566	0.195402	0.19458
857	0.200497	0.125879	0.194744	0.192279	0.199839
858	0.201154	0.120948	0.20099	0.194087	0.197374
859	0.198524	0.130645	0.193429	0.192443	0.193922
860	0.203784	0.077229	0.19573	0.19458	0.20099
861	0.20362	0.002775	0.196223	0.192936	0.196717
862	0.200332	0.0105	0.196552	0.196881	0.195566
863	0.19836	0.019704	0.196059	0.193758	0.199182
864	0.19836	0.026443	0.196059	0.197045	0.195566
865	0.201647	0.027265	0.19458	0.197703	0.196059
866	0.199346	0.03992	0.194087	0.195237	0.198031
867	0.197374	0.043865	0.197374	0.197045	0.197703
868	0.200661	0.051754	0.195237	0.192936	0.197045
869	0.197538	0.05537	0.19573	0.193265	0.198853
870	0.193265	0.065395	0.195237	0.193101	0.200661
871	0.191293	0.066053	0.197867	0.193594	0.198689
872	0.200168	0.074106	0.192115	0.196881	0.197703
873	0.200004	0.079037	0.192443	0.190635	0.201319
874	0.195073	0.082817	0.196059	0.192936	0.19836
875	0.199839	0.090049	0.19195	0.194909	0.196059
876	0.198853	0.09235	0.192608	0.192443	0.196388
877	0.195402	0.09876	0.196223	0.193922	0.197867
878	0.197374	0.101225	0.196717	0.192936	0.195073
879	0.19836	0.106156	0.198524	0.198031	0.199018
880	0.195895	0.107964	0.195895	0.194744	0.195402
881	0.195237	0.113059	0.198524	0.196223	0.198853
882	0.194251	0.114538	0.198031	0.195566	0.199018
883	0.197703	0.11799	0.196388	0.195073	0.196552
884	0.193101	0.121112	0.202305	0.196223	0.199346
885	0.195402	0.1267	0.196717	0.193101	0.199018
886	0.193594	0.125714	0.19721	0.190142	0.19836
887	0.195402	0.13196	0.195895	0.191621	0.200497
888	0.19573	0.137548	0.197045	0.19573	0.19721
889	0.19458	0.138534	0.196881	0.192608	0.197045
890	0.195073	0.142314	0.199182	0.197045	0.195895
891	0.195402	0.145602	0.197867	0.192936	0.197045
892	0.192936	0.145108	0.198031	0.196388	0.200332
893	0.194087	0.14971	0.198196	0.193101	0.196717
894	0.193758	0.149382	0.199675	0.199018	0.199675
895	0.19195	0.150697	0.197538	0.195895	0.198031
896	0.194251	0.15234	0.200825	0.19836	0.198853
897	0.191128	0.156285	0.199182	0.196717	0.198031
898	0.193429	0.157928	0.195566	0.197045	0.197538
899	0.192608	0.157435	0.199675	0.196388	0.200168
900	0.194087	0.159901	0.197045	0.193922	0.197703
901	0.1908	0.162695	0.199675	0.195402	0.198853
902	0.192608	0.162859	0.197867	0.194087	0.198196
903	0.190471	0.166146	0.198524	0.194909	0.197538
904	0.190142	0.165653	0.195073	0.195402	0.199346
905	0.187184	0.166804	0.199018	0.193594	0.201154
906	0.192608	0.170091	0.199511	0.19195	0.196881
907	0.189485	0.171241	0.203784	0.195073	0.197045
908	0.191786	0.171077	0.199511	0.192936	0.196223
909	0.188992	0.172392	0.199182	0.194416	0.195895
910	0.188499	0.173378	0.198196	0.192936	0.198031
911	0.193429	0.175679	0.196552	0.19573	0.19836
912	0.187184	0.174857	0.201483	0.194251	0.196717
913	0.191128	0.178637	0.194416	0.196552	0.196881
914	0.187348	0.171899	0.202798	0.193429	0.199346
915	0.191293	0.174528	0.196717	0.19458	0.196552
916	0.190307	0.176008	0.200825	0.198031	0.200497
917	0.190142	0.177815	0.198031	0.196223	0.19458
918	0.188499	0.179459	0.200661	0.200825	0.200332
919	0.185869	0.180774	0.198524	0.197045	0.196059
920	0.19195	0.178637	0.197374	0.196223	0.201976
921	0.196552	0.181431	0.196388	0.195402	0.198689
922	0.192279	0.187184	0.197703	0.193922	0.202305
923	0.191457	0.183732	0.198524	0.190635	0.199182
924	0.192115	0.187184	0.195895	0.195073	0.199511
925	0.187841	0.190307	0.195895	0.192608	0.199675
926	0.1908	0.183404	0.19573	0.194744	0.198524
927	0.189485	0.186526	0.19573	0.192772	0.199182
928	0.192115	0.186198	0.19573	0.195566	0.198031
929	0.187513	0.184883	0.199675	0.199346	0.199018
930	0.187184	0.184225	0.200661	0.199346	0.196717
931	0.190635	0.184883	0.196059	0.194251	0.199182
932	0.189156	0.188992	0.196552	0.199511	0.19458
933	0.189649	0.075257	0.200825	0.198689	0.198031
934	0.187184	0.003268	0.19836	0.196388	0.200004
935	0.18439	0.011979	0.199675	0.194251	0.198524
936	0.190142	0.023813	0.201154	0.197374	0.200661
937	0.18932	0.032031	0.196388	0.19721	0.197045
938	0.18932	0.038605	0.20099	0.195895	0.199182
939	0.188992	0.043371	0.197538	0.200004	0.199346
940	0.189156	0.049288	0.198689	0.192279	0.195895
941	0.190635	0.057835	0.198031	0.196717	0.197045
942	0.189814	0.063094	0.195237	0.19458	0.197045
943	0.190471	0.072134	0.197045	0.194744	0.200661
944	0.190635	0.072627	0.199018	0.199346	0.198196
945	0.191293	0.07953	0.197703	0.195895	0.198524
946	0.189156	0.084132	0.201319	0.197374	0.192115
947	0.191457	0.090049	0.202469	0.19836	0.199182
948	0.191293	0.096294	0.200825	0.19721	0.199511
949	0.191293	0.096623	0.200661	0.196552	0.197867
950	0.191786	0.102376	0.202305	0.199675	0.200332
951	0.193922	0.10517	0.200497	0.199018	0.197374
952	0.193922	0.10895	0.198853	0.199346	0.198031
953	0.193758	0.110593	0.199346	0.196059	0.19721
954	0.193265	0.120291	0.198031	0.19721	0.202305
955	0.190307	0.120948	0.196223	0.195895	0.20099
956	0.193101	0.120784	0.197538	0.196388	0.201319
957	0.189156	0.129001	0.197045	0.193758	0.19836
958	0.193101	0.132782	0.196717	0.197045	0.200497
959	0.190635	0.131631	0.198524	0.19573	0.200332
960	0.193758	0.136069	0.196552	0.194909	0.197703
961	0.18817	0.136562	0.200332	0.197374	0.202962
962	0.191621	0.140013	0.19573	0.196552	0.199675
963	0.191621	0.14215	0.197703	0.198031	0.198196
964	0.197045	0.141	0.202305	0.199346	0.199511
965	0.191128	0.145273	0.198524	0.198689	0.196223
966	0.196552	0.147245	0.202469	0.196881	0.197374
967	0.193758	0.148396	0.202469	0.19458	0.200825
968	0.193429	0.152011	0.199839	0.194087	0.195895
969	0.196388	0.156778	0.199675	0.199346	0.199182
970	0.195073	0.155134	0.201319	0.197703	0.19836
971	0.19195	0.161873	0.197867	0.196388	0.198689
972	0.189156	0.163352	0.19836	0.195073	0.198031
973	0.194416	0.163845	0.196717	0.196059	0.201812
974	0.193758	0.162366	0.196059	0.195237	0.19573
975	0.194909	0.168776	0.195073	0.193922	0.199675
976	0.197045	0.167461	0.196552	0.198196	0.200497
977	0.19573	0.168776	0.194416	0.19458	0.196717
978	0.19573	0.166146	0.19721	0.198853	0.199675
979	0.197045	0.170913	0.196388	0.196881	0.197538
980	0.196552	0.178802	0.198689	0.199346	0.200004
981	0.197867	0.166146	0.199346	0.204606	0.201647
982	0.195895	0.169433	0.199675	0.117332	0.200661
983	0.198031	0.174364	0.198524	0.02447	0.19458
984	0.198853	0.171734	0.201812	0.002775	0.19573
985	0.200332	0.173707	0.198524	-0.001662	0.193429
986	0.199346	0.176008	0.197867	0.002118	0.19721
987	0.196388	0.177487	0.203784	-0.001498	0.196388
988	0.200332	0.181267	0.197045	0.003268	0.196388
989	0.19836	0.180445	0.197703	-0.001005	0.19836
990	0.197867	0.179788	0.197867	0.00409	0.199511
991	0.197867	0.180116	0.199511	0.000803	0.204277
992	0.200004	0.18061	0.197045	0.000967	0.199675
993	0.195402	0.178802	0.197045	-0.000512	0.199675
994	0.199511	0.184883	0.19836	0.000146	0.200332
995	0.19721	0.184554	0.199675	-0.000183	0.201483
996	0.201319	0.182911	0.195566	-0.000512	0.19573
997	0.202469	0.187348	0.200497	0.002282	0.202469
998	0.20362	0.191786	0.195237	-0.001169	0.198853
999	0.20099	0.186526	0.200168	0.000967	0.199018
1000	0.197703	0.188006	0.199018	-1.9e-05	0.197374
1001	0.19836	0.188827	0.199675	0.002611	0.197867
1002	0.196388	0.187841	0.198689	0.000474	0.199018
1003	0.201319	0.185705	0.199675	0.002775	0.19836
1004	0.197374	0.186526	0.201154	0.000967	0.197538
1005	0.201319	0.190635	0.196717	0.003268	0.197045
1006	0.201483	0.18817	0.198853	-1.9e-05	0.200825
1007	0.20362	0.189814	0.197703	0.00031	0.197867
1008	0.200004	0.190142	0.19721	-0.000841	0.196388
1009	0.200497	0.19195	0.196717	0.001296	0.19836
1010	0.198524	0.190142	0.196388	0.000639	0.200004
1011	0.199182	0.193101	0.196059	0.008528	0.19836
1012	0.200497	0.191786	0.199839	0.017732	0.198853
1013	0.198689	0.194087	0.197703	0.021512	0.200497
1014	0.201483	0.187841	0.198196	0.03236	0.199511
1015	0.202305	0.191128	0.199018	0.037126	0.196552
1016	0.201154	0.191293	0.196388	0.047809	0.199839
1017	0.20362	0.190307	0.199018	0.053397	0.199018
1018	0.203948	0.192115	0.200497	0.057177	0.196223
1019	0.20214	0.191457	0.199839	0.059807	0.196059
1020	0.200004	0.19458	0.197867	0.070655	0.196223
1021	0.199346	0.193594	0.200332	0.073778	0.197374
1022	0.205263	0.197703	0.19836	0.078051	0.199018
1023	0.206414	0.191457	0.196717	0.08216	0.19721
1024	0.203291	0.193922	0.196388	0.085447	0.198031
1025	0.201976	0.192443	0.198689	0.093007	0.197867
1026	0.202633	0.194087	0.197045	0.093336	0.197374
1027	0.199675	0.19458	0.197045	0.101225	0.200825
1028	0.201319	0.196059	0.196552	0.106649	0.196388
1029	0.202305	0.194909	0.200825	0.110758	0.199182
1030	0.200497	0.193265	0.196717	0.112894	0.196717
1031	0.205592	0.199182	0.196223	0.120126	0.201319
1032	0.200661	0.192279	0.198196	0.117661	0.193922
1033	0.203291	0.194416	0.197703	0.123578	0.198689
1034	0.203948	0.193922	0.198689	0.127687	0.195237
1035	0.202798	0.199018	0.198689	0.131631	0.196552
1036	0.202305	0.192936	0.199839	0.13311	0.196388
1037	0.204934	0.19721	0.199018	0.131796	0.195566
1038	0.202469	0.197374	0.199346	0.138534	0.195402
1039	0.202469	0.200661	0.198524	0.143629	0.194744
1040	0.203784	0.195073	0.198689	0.146095	0.196717
1041	0.201154	0.195566	0.196388	0.145108	0.196388
1042	0.203455	0.199018	0.200004	0.147903	0.197538
1043	0.202469	0.19836	0.199511	0.148724	0.19721
1044	0.199839	0.197374	0.198853	0.15119	0.198853
1045	0.200497	0.199675	0.19458	0.152176	0.195073
1046	0.202633	0.197374	0.200332	0.152176	0.200497
1047	0.200332	0.197374	0.200332	0.155627	0.196059
1048	0.204934	0.203455	0.196881	0.158586	0.200332
1049	0.202633	0.199346	0.200332	0.158586	0.197867
1050	0.207564	0.199675	0.197703	0.160558	0.200661
1051	0.206414	0.198853	0.197703	0.163845	0.196388
1052	0.202469	0.198031	0.197045	0.164996	0.197045
1053	0.202798	0.19836	0.19836	0.168283	0.19836
1054	0.206249	0.19836	0.198196	0.167954	0.195566
1055	0.20362	0.197538	0.201154	0.166146	0.198524
1056	0.204934	0.196388	0.193594	0.169269	0.19458
1057	0.202962	0.196717	0.200497	0.172063	0.198853
1058	0.201976	0.198031	0.198689	0.170748	0.197538
1059	0.200825	0.197374	0.199511	0.174364	0.198853
1060	0.202633	0.198196	0.197045	0.174857	0.196388
1061	0.202962	0.197538	0.198524	0.178802	0.20099
1062	0.203784	0.201483	0.198196	0.176336	0.19721
1063	0.205427	0.200497	0.196388	0.174528	0.199182
1064	0.204277	0.195566	0.197374	0.177158	0.19836
1065	0.206578	0.199839	0.197703	0.176501	0.197045
1066	0.206249	0.198196	0.199182	0.176172	0.19836
1067	0.208386	0.199182	0.198524	0.176501	0.196059
1068	0.204277	0.20214	0.198196	0.182582	0.198524
1069	0.204277	0.199182	0.196388	0.179623	0.197703
1070	0.208879	0.19836	0.198853	0.182089	0.197867
1071	0.20855	0.199511	0.195566	0.184883	0.19721
1072	0.207564	0.19721	0.200004	0.183404	0.195073
1073	0.20099	0.193429	0.196552	0.182582	0.194909
1074	0.199675	0.196388	0.197374	0.183239	0.199346
1075	0.205592	0.198031	0.196223	0.184718	0.196223
1076	0.204277	0.197867	0.19836	0.186691	0.196552
1077	0.207235	0.199675	0.201319	0.183732	0.196552
1078	0.205263	0.200497	0.194087	0.184225	0.195237
1079	0.202633	0.198196	0.200168	0.187677	0.200661
1080	0.205263	0.198196	0.197703	0.187841	0.201319
1081	0.204441	0.198524	0.201976	0.188006	0.201483
1082	0.205921	0.197538	0.196717	0.189156	0.200168
1083	0.20477	0.199675	0.198031	0.188006	0.200004
1084	0.206085	0.201483	0.196881	0.190307	0.196388
1085	0.20214	0.197703	0.198689	0.187019	0.197703
1086	0.207564	0.20362	0.19721	0.186526	0.19573
1087	0.205099	0.201976	0.198031	0.190964	0.197045
1088	0.211344	0.200168	0.197538	0.18932	0.196223
1089	0.209372	0.199511	0.198196	0.19195	0.192443
1090	0.205099	0.202469	0.199511	0.188499	0.194909
1091	0.205263	0.197703	0.200661	0.188827	0.200168
1092	0.204277	0.201483	0.199182	0.191128	0.197538
1093	0.204934	0.200168	0.20099	0.19573	0.197703
1094	0.203784	0.197867	0.202633	0.193594	0.198031
1095	0.203455	0.202962	0.197703	0.193265	0.198853
1096	0.200332	0.19721	0.200497	0.195895	0.201319
1097	0.205756	0.200825	0.202798	0.197867	0.197867
1098	0.206578	0.204934	0.199182	0.191293	0.198524
1099	0.20214	0.20362	0.196059	0.191293	0.19836
1100	0.205099	0.200825	0.199511	0.192772	0.198853
1101	0.201976	0.20362	0.196552	0.193101	0.198689
1102	0.207893	0.199346	0.19836	0.197045	0.197867
1103	0.207564	0.200004	0.19721	0.194416	0.199346
1104	0.204934	0.20099	0.198031	0.19721	0.199018
1105	0.206085	0.201976	0.199511	0.19573	0.200332
1106	0.205592	0.19836	0.197045	0.196059	0.202305
1107	0.198196	0.199511	0.198031	0.195566	0.19721
1108	0.203948	0.200497	0.198524	0.204277	0.19721
1109	0.203784	0.199018	0.197703	0.193758	0.196881
1110	0.204934	0.201812	0.197867	0.195237	0.198031
1111	0.204441	0.198524	0.199675	0.196881	0.194744
1112	0.199018	0.205592	0.201812	0.199675	0.199675
1113	0.202962	0.200661	0.200332	0.201976	0.198196
1114	0.202469	0.201483	0.195895	0.200497	0.198689
1115	0.201647	0.199675	0.202469	0.200661	0.199675
1116	0.203948	0.201483	0.199018	0.198031	0.199346
1117	0.200004	0.200004	0.199839	0.196552	0.199182
1118	0.20362	0.200661	0.19458	0.198196	0.198031
1119	0.205427	0.203126	0.20214	0.197045	0.199839
1120	0.205263	0.202962	0.196223	0.196059	0.196059
1121	0.203784	0.200497	0.195402	0.195566	0.200168
1122	0.208879	0.200332	0.195895	0.195566	0.19836
1123	0.206085	0.198031	0.199346	0.196552	0.199182
1124	0.208222	0.20214	0.196881	0.195237	0.198196
1125	0.205921	0.200168	0.197703	0.198853	0.196881
1126	0.203455	0.198524	0.199018	0.19836	0.19721
1127	0.204441	0.201319	0.197703	0.200168	0.195073
1128	0.20214	0.199018	0.199675	0.198524	0.196717
1129	0.202305	0.199346	0.197867	0.199346	0.197867
1130	0.20099	0.200661	0.199675	0.186526	0.197703
1131	0.20477	0.200332	0.195895	0.197538	0.193922
1132	0.198689	0.199346	0.200332	0.197867	0.197703
1133	0.204113	0.197538	0.196059	0.199018	0.194087
1134	0.199182	0.197374	0.199018	0.198524	0.198196
1135	0.201154	0.199839	0.197045	0.005076	0.195566
1136	0.202469	0.196552	0.200661	0.02595	0.198689
1137	0.200497	0.19573	0.197867	0.029237	0.194909
1138	0.203784	0.199346	0.195895	0.03992	0.20099
1139	0.199511	0.197045	0.197867	0.038276	0.196881
1140	0.200004	0.19573	0.197374	0.045344	0.19836
1141	0.202798	0.200004	0.200004	0.045344	0.198031
1142	0.202633	0.199346	0.19836	0.051425	0.198031
1143	0.199018	0.197374	0.199182	0.058985	0.19721
1144	0.194744	0.201319	0.19458	0.016253	0.19836
1145	0.201647	0.19458	0.201319	0.004748	0.199511
1146	0.202798	0.200168	0.198524	0.004255	0.194087
1147	0.201812	0.199511	0.198689	0.000474	0.203455
1148	0.203455	0.196717	0.20099	0.012472	0.199018
1149	0.201483	0.195895	0.203784	0.02447	0.200168
1150	0.20214	0.200168	0.195895	0.029401	0.196552
1151	0.198524	0.198689	0.199346	-0.000676	0.200004
1152	0.198031	0.19836	0.19573	-0.000676	0.197703
1153	0.203126	0.200168	0.19721	0.010007	0.202798
1154	0.20099	0.198031	0.197538	0.000146	0.198524
1155	0.188006	0.199511	0.195237	0.010336	0.199182
1156	0.198689	0.198853	0.199675	0.017074	0.201647
1157	0.199675	0.196223	0.197703	0.002282	0.195895
1158	0.198853	0.194909	0.197703	0.000474	0.199018
1159	0.201154	0.198853	0.198524	0.000146	0.198524
1160	0.197045	0.196552	0.199182	-0.000347	0.201976
1161	0.200825	0.196059	0.197045	-1.9e-05	0.19573
1162	0.198031	0.194087	0.199675	-0.000512	0.202633
1163	0.203784	0.202305	0.196717	0.003761	0.200168
1164	0.196717	0.19721	0.199675	-0.000183	0.201483
1165	0.199018	0.196223	0.199018	0.002447	0.199511
1166	0.194744	0.197374	0.200661	0.005734	0.200661
1167	0.19721	0.198524	0.20099	0.012308	0.202305
1168	0.195895	0.194909	0.201647	0.018554	0.197867
1169	0.195237	0.194909	0.197374	0.027593	0.197703
1170	0.194416	0.196552	0.198031	0.035975	0.198031
1171	0.194744	0.195566	0.194251	0.040413	0.20477
1172	0.197045	0.197538	0.196223	0.049617	0.196717
1173	0.193101	0.194087	0.197703	0.056849	0.198853
1174	0.193265	0.201647	0.19721	0.062437	0.199018
1175	0.193429	0.196552	0.196388	0.008035	0.198031
1176	0.196881	0.198524	0.195895	0.024799	0.197703
1177	0.194251	0.196388	0.19836	0.030716	0.199675
1178	0.194744	0.195237	0.194251	0.042057	0.19836
1179	0.197045	0.192936	0.198031	0.0437	0.198853
1180	0.197538	0.196223	0.195566	0.024635	0.19458
1181	0.196059	0.189814	0.201483	0.033346	0.202305
1182	0.195237	0.195073	0.200004	0.039427	0.203455
1183	0.195566	0.195073	0.197045	0.041399	0.199839
1184	0.194416	0.18932	0.200004	0.039263	0.200497
1185	0.193922	0.195073	0.19836	-0.000183	0.198031
1186	0.194251	0.196881	0.196881	0.009843	0.196552
1187	0.19458	0.195237	0.197538	0.000639	0.197703
1188	0.193922	0.195566	0.199675	0.002611	0.198689
1189	0.195073	0.19836	0.198031	0.015595	0.196881
1190	0.193922	0.193265	0.197867	0.019211	0.19836
1191	0.193594	0.195566	0.197374	0.032688	0.194909
1192	0.190471	0.195566	0.200497	0.040084	0.201812
1193	0.195402	0.197538	0.202798	0.044851	0.200004
1194	0.193594	0.195402	0.197703	0.052575	0.198853
1195	0.194251	0.196388	0.194416	0.057342	0.196717
1196	0.19573	0.196059	0.198689	0.063259	0.199675
1197	0.194087	0.196388	0.196223	0.066381	0.197374
1198	0.193758	0.193101	0.19458	0.075421	0.199511
1199	0.196059	0.194416	0.198524	0.078708	0.199018
1200	0.192279	0.197374	0.199346	0.08709	0.196881
1201	0.193922	0.190142	0.197867	0.089391	0.197867
1202	0.192115	0.196223	0.198853	0.093829	0.200004
1203	0.18932	0.194416	0.19836	0.096459	0.199346
1204	0.193429	0.197045	0.201319	0.102211	0.19573
1205	0.190964	0.19721	0.195895	0.103855	0.198031
1206	0.192772	0.199675	0.196223	0.108621	0.199182
1207	0.193429	0.194744	0.198031	0.111087	0.199346
1208	0.192608	0.200497	0.195073	0.117496	0.197374
1209	0.193101	0.195073	0.199346	0.11651	0.200332
1210	0.194251	0.200168	0.197045	0.119633	0.196388
1211	0.192115	0.199675	0.199018	0.124728	0.19721
1212	0.194744	0.192772	0.197374	0.123906	0.195566
1213	0.194087	0.195402	0.199839	0.130481	0.194416
1214	0.196388	0.19836	0.200168	0.132617	0.197703
1215	0.196717	0.197867	0.189978	0.138041	0.187348
1216	0.19573	0.194909	0.193758	0.138863	0.193758
1217	0.19458	0.199182	0.197867	0.139849	0.197867
1218	0.192608	0.196552	0.196552	0.145602	0.195402
1219	0.189978	0.197374	0.192608	0.151518	0.195402
1220	0.19573	0.197045	0.199839	0.150861	0.199675
1221	0.196552	0.196552	0.19836	0.148231	0.198031
1222	0.195237	0.198031	0.199839	0.149382	0.197867
1223	0.196717	0.197703	0.197703	0.152833	0.198689
1224	0.189814	0.198524	0.198031	0.154477	0.200661
1225	0.197374	0.201976	0.19458	0.153819	0.198031
1226	0.196223	0.194744	0.187019	0.160722	0.188663
1227	0.195402	0.198031	0.19573	0.158093	0.196059
1228	0.195402	0.197374	0.195895	0.162859	0.199675
1229	0.197867	0.19573	0.196059	0.163352	0.199182
1230	0.196223	0.198196	0.198853	0.166475	0.201154
1231	0.196223	0.19573	0.197703	0.168612	0.199018
1232	0.19721	0.193594	0.200168	0.169105	0.19836
1233	0.198196	0.196881	0.201154	0.169269	0.196059
1234	0.196552	0.196717	0.201647	0.17157	0.194416
1235	0.192443	0.19721	0.200825	0.168118	0.19195
1236	0.198853	0.199839	0.195895	0.1742	0.196388
1237	0.193429	0.196388	0.19836	0.177322	0.189978
1238	0.197538	0.197867	0.195237	0.176008	0.194744
1239	0.19573	0.19721	0.198853	0.180445	0.197374
1240	0.194744	0.200332	0.195895	0.176994	0.197867
1241	0.194087	0.19836	0.201812	0.180116	0.200661
1242	0.194416	0.20099	0.195895	0.177158	0.19836
1243	0.195402	0.19836	0.200332	0.176336	0.199675
1244	0.198524	0.203455	0.200825	0.179295	0.196717
1245	0.196552	0.197867	0.199018	0.182911	0.199182
1246	0.197867	0.196223	0.197703	0.180116	0.199675
1247	0.201647	0.196881	0.198853	0.184061	0.199675
1248	0.197703	0.194744	0.200825	0.183404	0.197867
1249	0.199018	0.196717	0.194909	0.185869	0.193922
1250	0.195402	0.196059	0.19836	0.188334	0.197374
1251	0.198689	0.199346	0.196552	0.18817	0.197867
1252	0.198853	0.195566	0.198689	0.189978	0.197703
1253	0.198524	0.198524	0.197538	0.188663	0.198689
1254	0.194416	0.194909	0.202633	0.191786	0.200825
1255	0.200332	0.201976	0.197538	0.188334	0.194744
1256	0.193265	0.194087	0.199018	0.192115	0.19836
1257	0.191621	0.197703	0.198031	0.189814	0.199675
1258	0.195895	0.199675	0.197538	0.189156	0.201154
1259	0.192772	0.19836	0.196717	0.190635	0.19836
1260	0.194087	0.199511	0.196059	0.194251	0.202305
1261	0.195073	0.200661	0.196059	0.195895	0.193758
1262	0.197703	0.200825	0.195566	0.195237	0.201812
1263	0.199346	0.197374	0.198689	0.195237	0.197538
1264	0.19836	0.196223	0.193594	0.19573	0.193594
1265	0.198689	0.196388	0.197374	0.193922	0.19836
1266	0.202633	0.190307	0.198524	0.195566	0.196552
1267	0.192443	0.194251	0.200661	0.196881	0.196552
1268	0.198689	0.199511	0.19573	0.199182	0.200004
1269	0.198196	0.195237	0.201319	0.197867	0.198031
1270	0.199839	0.198524	0.201647	0.202962	0.194744
1271	0.198524	0.19573	0.198031	0.199182	0.198853
1272	0.197867	0.200004	0.195566	0.19836	0.199018
1273	0.196881	0.199675	0.196388	0.198524	0.19721
1274	0.197703	0.198524	0.195566	0.196223	0.196552
1275	0.199839	0.200004	0.195237	0.197374	0.200004
1276	0.194909	0.194416	0.197045	0.200497	0.199839
1277	0.199511	0.188663	0.195073	0.199182	0.198689
1278	0.19573	0.193594	0.195073	0.197867	0.200004
1279	0.196223	0.195895	0.195895	0.200497	0.201812
1280	0.19458	0.196881	0.196059	0.198196	0.200332
1281	0.200497	0.198853	0.194087	0.203455	0.197045
1282	0.196059	0.19573	0.19458	0.204606	0.196223
1283	0.197867	0.198853	0.192772	0.199511	0.197045
1284	0.197045	0.201319	0.196717	0.202305	0.19573
1285	0.198196	0.201812	0.198196	0.200661	0.196059
1286	0.19573	0.199018	0.193922	0.202469	0.200168
1287	0.197045	0.200004	0.194744	0.201812	0.197374
1288	0.19836	0.196717	0.19573	0.205099	0.197867
1289	0.197703	0.193101	0.195073	0.203126	0.197045
1290	0.197867	0.19836	0.198196	0.203784	0.19836
1291	0.194416	0.200168	0.196717	0.196881	0.197045
1292	0.195237	0.197538	0.194744	0.20855	0.200168
1293	0.196552	0.20099	0.192443	0.200168	0.197045
1294	0.194909	0.202305	0.192279	0.207564	0.200497
1295	0.19721	0.199018	0.194087	0.202633	0.19836
1296	0.196552	0.199018	0.190142	0.205427	0.200004
1297	0.196223	0.198031	0.19836	0.202305	0.200825
1298	0.196717	0.201812	0.195895	0.202305	0.199182
1299	0.195402	0.199511	0.198853	0.205427	0.196552
1300	0.19836	0.199018	0.195895	0.203784	0.198196
1301	0.197045	0.198853	0.197374	0.206907	0.199346
1302	0.199018	0.198524	0.19721	0.203455	0.198031
1303	0.203455	0.198031	0.197045	0.205263	0.199182
1304	0.199182	0.199675	0.196717	0.202469	0.196059
1305	0.198524	0.199018	0.19721	0.206414	0.199182
1306	0.19836	0.196388	0.196223	0.204934	0.196059
1307	0.196881	0.199511	0.197045	0.208057	0.19721
1308	0.199018	0.199018	0.195566	0.205756	0.194087
1309	0.197045	0.200004	0.19573	0.206578	0.200661
1310	0.195237	0.201976	0.194909	0.20362	0.196223
1311	0.197867	0.193758	0.196717	0.207893	0.200004
1312	0.196059	0.200168	0.196388	0.205592	0.198853
1313	0.200004	0.199511	0.195566	0.207071	0.20214
1314	0.199346	0.193594	0.197703	0.207893	0.197703
1315	0.197045	0.198689	0.199346	0.204277	0.19836
1316	0.197703	0.198853	0.199182	0.206578	0.198853
1317	0.200332	0.199182	0.19721	0.205263	0.196717
1318	0.201319	0.198853	0.19573	0.208715	0.198689
1319	0.20362	0.201154	0.194416	0.206578	0.195073
1320	0.199346	0.199182	0.192936	0.207071	0.199182
1321	0.204113	0.197045	0.194416	0.205921	0.193265
1322	0.201647	0.195895	0.197867	0.207235	0.199182
1323	0.19458	0.201647	0.195073	0.203455	0.197045
1324	0.200661	0.199346	0.195073	0.20477	0.198196
1325	0.195402	0.196388	0.197374	0.204934	0.198524
1326	0.194251	0.196388	0.195237	0.209043	0.199346
1327	0.196717	0.197538	0.200168	0.206742	0.19836
1328	0.199511	0.199182	0.19573	0.205592	0.197374
1329	0.196717	0.198196	0.196223	0.206742	0.199018
1330	0.198689	0.198031	0.193429	0.205921	0.196881
1331	0.197374	0.19836	0.196552	0.206578	0.199018
1332	0.200004	0.200004	0.19458	0.203455	0.195895
1333	0.198031	0.195073	0.197703	0.207071	0.196717
1334	0.199182	0.195073	0.196223	0.203126	0.194744
1335	0.19836	0.201319	0.197045	0.202798	0.200004
1336	0.199675	0.199182	0.197867	0.204277	0.197374
1337	0.203291	0.19836	0.200825	0.207893	0.195237
1338	0.199675	0.200004	0.196717	0.206249	0.195237
1339	0.20214	0.195073	0.19836	0.205921	0.19836
1340	0.199182	0.199182	0.197538	0.205592	0.195895
1341	0.199675	0.20214	0.196881	0.206578	0.197703
1342	0.198031	0.198031	0.205263	0.205427	0.198031
1343	0.199511	0.202305	0.196881	0.206742	0.197045
1344	0.198196	0.197703	0.196223	0.210194	0.199182
1345	0.197374	0.199346	0.198031	0.2074	0.19836
1346	0.19195	0.199018	0.197867	0.20362	0.199675
1347	0.199182	0.202469	0.197374	0.207564	0.200661
1348	0.196717	0.201976	0.199839	0.203291	0.200497
1349	0.197703	0.201319	0.197867	0.203455	0.198853
1350	0.201647	0.200168	0.201154	0.204441	0.199346
1351	0.20099	0.201319	0.197867	0.201483	0.197867
1352	0.199346	0.201483	0.19836	0.203948	0.199839
1353	0.19721	0.198196	0.197867	0.200497	0.199018
1354	0.20362	0.200004	0.196717	0.170748	0.19721
1355	0.199018	0.201647	0.197703	0.169269	0.197867
1356	0.200332	0.198031	0.197045	0.024142	0.198689
1357	0.19721	0.199182	0.19836	0.006884	0.199018
1358	0.19836	0.200661	0.197703	0.016253	0.195566
1359	0.198196	0.198196	0.200825	0.021348	0.20099
1360	0.198689	0.201319	0.196717	0.02595	0.196223
1361	0.197045	0.196223	0.200004	0.034003	0.19836
1362	0.196223	0.199675	0.196881	0.036304	0.19721
1363	0.197374	0.200168	0.198524	0.042714	0.199182
1364	0.199182	0.202305	0.201319	0.051754	0.206742
1365	0.198689	0.19573	0.199511	0.054876	0.200168
1366	0.196388	0.20362	0.196881	0.061122	0.196059
1367	0.201154	0.194087	0.199182	0.067203	0.200825
1368	0.201154	0.00146	0.197045	0.07049	0.198031
1369	0.201976	0.011486	0.197374	0.081338	0.19836
1370	0.196223	0.01954	0.19836	0.080845	0.200168
1371	0.200497	0.027429	0.199675	0.084954	0.198853
1372	0.199346	0.031867	0.197045	0.088734	0.197538
1373	0.200825	0.044193	0.195073	0.094815	0.197538
1374	0.200332	0.046987	0.199511	0.096459	0.196717
1375	0.198689	0.056684	0.194909	0.102047	0.199675
1376	0.202962	0.055534	0.197045	0.105334	0.198689
1377	0.202962	0.057671	0.196881	0.108293	0.198689
1378	0.201976	0.062108	0.199346	0.112237	0.198689
1379	0.201812	0.067368	0.198689	0.111908	0.197867
1380	0.199018	0.074599	0.199346	0.117661	0.192772
1381	0.199511	0.079201	0.200661	0.11914	0.198196
1382	0.197538	0.081831	0.19721	0.121934	0.200168
1383	0.199839	0.084625	0.199346	0.123085	0.194416
1384	0.201483	0.091857	0.198689	0.125386	0.196388
1385	0.199182	0.09876	0.196059	0.119797	0.197703
1386	0.200825	0.099089	0.197045	0.129166	0.19458
1387	0.202962	0.102047	0.196552	0.128673	0.19721
1388	0.200497	0.113716	0.195237	0.131302	0.197045
1389	0.197703	0.111744	0.200168	0.137384	0.199182
1390	0.201647	0.117661	0.197538	0.136233	0.199018
1391	0.198853	0.123578	0.19573	0.13952	0.19836
1392	0.199346	0.123742	0.197374	0.143629	0.199346
1393	0.197703	0.126207	0.200004	0.144287	0.197867
1394	0.202962	0.129001	0.197045	0.145108	0.19721
1395	0.205263	0.133439	0.201483	0.147245	0.198031
1396	0.200825	0.137055	0.19721	0.142807	0.197867
1397	0.200661	0.140013	0.199675	0.148724	0.199018
1398	0.199346	0.140671	0.194909	0.147081	0.196552
1399	0.199839	0.147245	0.195566	0.147738	0.200332
1400	0.197538	0.14593	0.201976	0.152176	0.198031
1401	0.199839	0.147738	0.19458	0.14971	0.200661
1402	0.197703	0.150861	0.19458	0.151518	0.199018
1403	0.199346	0.154641	0.199018	0.15497	0.201976
1404	0.200168	0.155627	0.197538	0.151518	0.197538
1405	0.20362	0.157764	0.195237	0.154641	0.196881
1406	0.199346	0.159079	0.196717	0.156449	0.199018
1407	0.204277	0.16253	0.194416	0.156449	0.197703
1408	0.199346	0.162366	0.196717	0.159901	0.200168
1409	0.202962	0.163352	0.196552	0.156942	0.197045
1410	0.199018	0.164831	0.198524	0.158093	0.199511
1411	0.198524	0.166639	0.198196	0.161544	0.197703
1412	0.199018	0.165489	0.200497	0.164667	0.19721
1413	0.199346	0.166804	0.197703	0.164174	0.198689
1414	0.19836	0.172556	0.202469	0.166311	0.205592
1415	0.19836	0.1742	0.195895	0.164174	0.199511
1416	0.199675	0.173049	0.196388	0.164503	0.199018
1417	0.202305	0.175843	0.19721	0.168776	0.199018
1418	0.203784	0.176008	0.195073	0.168447	0.197374
1419	0.202469	0.176336	0.196552	0.16894	0.196717
1420	0.202305	0.181924	0.198031	0.169433	0.20099
1421	0.201483	0.177487	0.197374	0.167625	0.198524
1422	0.200661	0.182253	0.193101	0.168776	0.199511
1423	0.200168	0.182089	0.19721	0.170913	0.199346
1424	0.201812	0.180116	0.196388	0.171077	0.196881
1425	0.201319	0.18061	0.194416	0.173542	0.198524
1426	0.205921	0.184225	0.193922	0.173542	0.197703
1427	0.202469	0.181267	0.197538	0.172556	0.199182
1428	0.203126	0.187019	0.193922	0.174693	0.195566
1429	0.202469	0.188663	0.19721	0.176008	0.196552
1430	0.199675	0.18554	0.197374	0.176008	0.189978
1431	0.203291	0.186362	0.198524	0.179295	0.197867
1432	0.199839	0.188006	0.199675	0.177815	0.196552
1433	0.199346	0.187348	0.195402	0.179459	0.199511
1434	0.202633	0.188006	0.201319	0.177487	0.200004
1435	0.200332	0.191457	0.195895	0.176665	0.197538
1436	0.199182	0.190471	0.197374	0.178309	0.198689
1437	0.200168	0.190964	0.197374	0.180116	0.199511
1438	0.200825	0.189814	0.196717	0.179295	0.202469
1439	0.204606	0.194251	0.196059	0.181596	0.198031
1440	0.202305	0.191621	0.198689	0.181267	0.198689
1441	0.20214	0.19458	0.196223	0.179952	0.197374
1442	0.200661	0.193922	0.19458	0.183732	0.196717
1443	0.200004	0.193101	0.200168	0.183239	0.198689
1444	0.199182	0.194744	0.19836	0.183897	0.199675
1445	0.201319	0.194087	0.193265	0.180938	0.19721
1446	0.199839	0.192608	0.201154	0.179459	0.198689
1447	0.199346	0.192936	0.199018	0.185376	0.198524
1448	0.200004	0.196059	0.196881	0.190142	0.197045
1449	0.200497	0.193265	0.194909	0.184225	0.19836
1450	0.201319	0.197538	0.19721	0.1908	0.197538
1451	0.198031	0.19721	0.19721	0.188334	0.199675
1452	0.198689	0.196717	0.197703	0.182746	0.199018
1453	0.198196	0.197374	0.198031	0.18817	0.198196
1454	0.202962	0.199346	0.19836	0.187841	0.200168
1455	0.198524	0.199839	0.196552	0.185376	0.200332
1456	0.197538	0.199018	0.196881	0.185869	0.19458
1457	0.201154	0.200004	0.201319	0.185869	0.199346
1458	0.198689	0.200497	0.193922	0.191457	0.200004
1459	0.199018	0.199839	0.198689	0.192115	0.197867
1460	0.199839	0.199346	0.196223	0.188499	0.197538
1461	0.201647	0.200661	0.196388	0.188499	0.198853
1462	0.199346	0.200332	0.201483	0.188992	0.197045
1463	0.202962	0.200332	0.197867	0.193101	0.196388
1464	0.201647	0.195402	0.19573	0.191786	0.199675
1465	0.200004	0.199346	0.194744	0.191786	0.199018
1466	0.200168	0.19836	0.199839	0.190964	0.198853
1467	0.201976	0.200825	0.196223	0.190142	0.198031
1468	0.202962	0.199018	0.199018	0.19573	0.201154
1469	0.202469	0.200661	0.199018	0.194909	0.198031
1470	0.201319	0.201483	0.19573	0.192279	0.197538
1471	0.203126	0.201976	0.193101	0.189649	0.199346
1472	0.199346	0.202962	0.195566	0.191128	0.198853
1473	0.199675	0.204113	0.19458	0.190307	0.197045
1474	0.202305	0.20214	0.19573	0.19195	0.20477
1475	0.199839	0.20099	0.195402	0.189814	0.195237
1476	0.200661	0.202469	0.198853	0.191457	0.201319
1477	0.198853	0.200825	0.200661	0.18932	0.199018
1478	0.195895	0.203455	0.197045	0.192936	0.199018
1479	0.197538	0.205099	0.199346	0.194251	0.19573
1480	0.199839	0.196717	0.19836	0.195073	0.196881
1481	0.199839	0.19836	0.197538	0.195073	0.196223
1482	0.202469	0.206907	0.199511	0.195073	0.197867
1483	0.198031	0.201812	0.199839	0.195895	0.198196
1484	0.201319	0.204934	0.199018	0.193758	0.19721
1485	0.199182	0.203126	0.200168	0.197045	0.194744
1486	0.201319	0.202469	0.197045	0.191786	0.195895
1487	0.196717	0.203784	0.200332	0.19458	0.200168
1488	0.198524	0.202305	0.198689	0.193594	0.19836
1489	0.193758	0.202962	0.198031	0.194909	0.195895
1490	0.19836	0.201976	0.202633	0.195237	0.196717
1491	0.199018	0.202469	0.198853	0.195402	0.201154
1492	0.199839	0.202469	0.197538	0.193429	0.196388
1493	0.200004	0.204441	0.198689	0.19573	0.199182
1494	0.19573	0.206907	0.197374	0.195895	0.19836
1495	0.198196	0.200825	0.195237	0.193429	0.200332
1496	0.199182	0.200332	0.200004	0.194087	0.197867
1497	0.200332	0.205427	0.197374	0.198031	0.197538
1498	0.197045	0.203948	0.197867	0.198031	0.199018
1499	0.200661	0.202305	0.19458	0.199675	0.198031
1500	0.198689	0.202633	0.199675	0.197703	0.200168
1501	0.200004	0.202305	0.194909	0.197045	0.197045
1502	0.198031	0.201154	0.20099	0.197045	0.20099
1503	0.200332	0.20099	0.198196	0.194909	0.197867
1504	0.20214	0.203291	0.199675	0.195237	0.198853
1505	0.198031	0.200661	0.19721	0.195402	0.198031
1506	0.196223	0.20099	0.196717	0.195237	0.196388
1507	0.196717	0.20214	0.197045	0.195566	0.19721
1508	0.199018	0.201812	0.196717	0.197703	0.197703
1509	0.193101	0.201154	0.19836	0.194087	0.200332
1510	0.196717	0.200661	0.197867	0.197703	0.200332
1511	0.197045	0.200497	0.19836	0.198853	0.200168
1512	0.198031	0.201154	0.200497	0.199839	0.198196
1513	0.199018	0.196552	0.194744	0.194087	0.201154
1514	0.20362	0.202633	0.199018	0.198031	0.199182
1515	0.199839	0.203784	0.197703	0.196388	0.200497
1516	0.200168	0.201976	0.195566	0.196223	0.198031
1517	0.200168	0.199182	0.199675	0.197867	0.199018
1518	0.202798	0.202962	0.195895	0.199675	0.19721
1519	0.205099	0.200332	0.199839	0.198031	0.196223
1520	0.200168	0.199839	0.197867	0.192936	0.199511
1521	0.199346	0.200825	0.199346	0.195566	0.198196
1522	0.197538	0.198524	0.200497	0.197045	0.197703
1523	0.197045	0.201319	0.199182	0.195566	0.200168
1524	0.197538	0.199346	0.197374	0.196388	0.198689
1525	0.201154	0.200497	0.197703	0.19836	0.200332
1526	0.199511	0.199182	0.199346	0.197045	0.200332
1527	0.19836	0.20214	0.197374	0.194251	0.199018
1528	0.194416	0.199839	0.19836	0.196717	0.200497
1529	0.20214	0.204934	0.197045	0.197703	0.190964
1530	0.19721	0.198689	0.198196	0.196059	0.198689
1531	0.196881	0.203455	0.196552	0.195402	0.201154
1532	0.199839	0.197703	0.197374	0.19721	0.198031
1533	0.200661	0.196059	0.196717	0.198524	0.196223
1534	0.197703	0.196717	0.199511	0.20099	0.197703
1535	0.199346	0.199182	0.199018	0.199675	0.195566
1536	0.200497	0.196059	0.199511	0.200497	0.196717
1537	0.198031	0.197538	0.197703	0.196388	0.194416
1538	0.199018	0.199182	0.19721	0.200332	0.195073
1539	0.196881	0.197703	0.198196	0.197045	0.194087
1540	0.197045	0.202469	0.196552	0.197374	0.198196
1541	0.196881	0.201812	0.196223	0.198689	0.196059
1542	0.199018	0.199346	0.196881	0.197045	0.202305
1543	0.195895	0.200661	0.197703	0.197867	0.200332
1544	0.197867	0.200661	0.198031	0.198196	0.199675
1545	0.199182	0.199182	0.197703	0.195895	0.198524
1546	0.198853	0.198524	0.198689	0.197374	0.192443
1547	0.195402	0.197374	0.19573	0.200825	0.201812
1548	0.197867	0.200332	0.194744	0.198853	0.197374
1549	0.198853	0.20099	0.196717	0.20099	0.198689
1550	0.200332	0.198524	0.195073	0.199346	0.203291
1551	0.199346	0.201154	0.198031	0.198196	0.196388
1552	0.200825	0.199839	0.196223	0.196223	0.199511
1553	0.198196	0.19836	0.199182	0.199018	0.200661
1554	0.201483	0.197374	0.200661	0.198196	0.197867
1555	0.200168	0.203126	0.199675	0.200661	0.203784
1556	0.197045	0.198853	0.197867	0.195237	0.200661
1557	0.195895	0.202469	0.198031	0.196388	0.199839
1558	0.197703	0.19836	0.198031	0.196552	0.198853
1559	0.19458	0.202633	0.008692	0.196059	0.198853
1560	0.19458	0.20099	0.010336	0.194416	0.198031
1561	0.197867	0.199839	0.018554	0.19836	0.198853
1562	0.195895	0.198524	0.02595	0.19458	0.201647
1563	0.201647	0.200168	0.025785	0.201483	0.201319
1564	0.196059	0.200332	0.037783	0.195895	0.20362
1565	0.198853	0.199018	0.043536	0.197045	0.199839
1566	0.19836	0.200004	0.051261	0.199182	0.200004
1567	0.198853	0.197867	0.057999	0.19195	0.200168
1568	0.197867	0.199675	0.060465	0.200825	0.199675
1569	0.202633	0.195895	0.071805	0.193922	0.196717
1570	0.199182	0.191786	0.075421	0.193594	0.197374
1571	0.198689	0.194251	0.079366	0.196881	0.19721
1572	0.199346	0.199018	0.087584	0.197045	0.200004
1573	0.196059	0.195895	0.089556	0.195237	0.199018
1574	0.200168	0.198031	0.088077	0.197045	0.199182
1575	0.196223	0.198524	0.098431	0.197538	0.201812
1576	0.195073	0.19721	0.103691	0.197703	0.200332
1577	0.196223	0.196388	0.108128	0.198031	0.197703
1578	0.19573	0.19836	0.110758	0.195073	0.199018
1579	0.201483	0.195895	0.114867	0.198524	0.199182
1580	0.199675	0.197867	0.113552	0.196223	0.192936
1581	0.19836	0.196223	0.121277	0.19721	0.199511
1582	0.198524	0.197538	0.124071	0.197538	0.199018
1583	0.200168	0.197867	0.127194	0.196223	0.196552
1584	0.19836	0.19836	0.128837	0.194909	0.193922
1585	0.189814	0.199182	0.13311	0.202469	0.202305
1586	0.196717	0.199346	0.137877	0.198196	0.196717
1587	0.199018	0.197538	0.139192	0.200168	0.197538
1588	0.196059	0.19573	0.140342	0.199511	0.195402
1589	0.20099	0.194416	0.142807	0.199346	0.199018
1590	0.193758	0.193758	0.14593	0.199346	0.200004
1591	0.200825	0.198853	0.14593	0.198853	0.198853
1592	0.198524	0.192115	0.150697	0.199839	0.199839
1593	0.197867	0.197538	0.150039	0.199346	0.199346
1594	0.19721	0.199018	0.154806	0.197867	0.20099
1595	0.199018	0.196717	0.154477	0.195402	0.199839
1596	0.191128	0.19573	0.159079	0.197538	0.202633
1597	0.194087	0.196717	0.160229	0.199182	0.199182
1598	0.19721	0.196388	0.159243	0.201154	0.202798
1599	0.196881	0.196388	0.159572	0.194909	0.198524
1600	0.200168	0.197703	0.161544	0.196717	0.200332
1601	0.198196	0.19458	0.165817	0.19573	0.201483
1602	0.198853	0.196717	0.160887	0.193922	0.199839
1603	0.201319	0.193922	0.167954	0.197374	0.197538
1604	0.198853	0.196717	0.166804	0.198689	0.196717
1605	0.200168	0.196881	0.170255	0.198196	0.201976
1606	0.202469	0.195566	0.169762	0.196717	0.195566
1607	0.194744	0.194416	0.174693	0.196717	0.198524
1608	0.194087	0.194416	0.174364	0.198031	0.196717
1609	0.196223	0.197867	0.177487	0.19721	0.201154
1610	0.196388	0.194087	0.176994	0.196223	0.197045
1611	0.194909	0.195402	0.176008	0.199182	0.199346
1612	0.196059	0.197374	0.180938	0.19721	0.20099
1613	0.199182	0.194251	0.17535	0.197867	0.199018
1614	0.194087	0.194416	0.174364	0.196059	0.201647
1615	0.199182	0.200004	0.176501	0.199511	0.201976
1616	0.198196	0.194416	0.178144	0.197045	0.198031
1617	0.200332	0.197045	0.177651	0.193429	0.199839
1618	0.194744	0.195402	0.181924	0.196881	0.199839
1619	0.197374	0.193758	0.182911	0.192279	0.197538
1620	0.197867	0.192936	0.183897	0.19573	0.19836
1621	0.199018	0.197045	0.181596	0.196059	0.198689
1622	0.197703	0.191621	0.182911	0.193594	0.198196
1623	0.200497	0.194251	0.181596	0.200661	0.199675
1624	0.200661	0.192279	0.180445	0.19458	0.197703
1625	0.196552	0.193922	0.183897	0.19721	0.196717
1626	0.200004	0.193758	0.186362	0.202305	0.199018
1627	0.19836	0.194744	0.184225	0.195402	0.197374
1628	0.198524	0.194744	0.184554	0.199675	0.198031
1629	0.202633	0.19458	0.188992	0.197703	0.197703
1630	0.199018	0.193429	0.18817	0.19836	0.191786
1631	0.197538	0.193265	0.185705	0.19721	0.197538
1632	0.196552	0.194744	0.186198	0.197045	0.200168
1633	0.198524	0.191786	0.187677	0.195073	0.19721
1634	0.199018	0.194416	0.186362	0.198853	0.199182
1635	0.197703	0.195237	0.187513	0.193594	0.19721
1636	0.197703	0.195073	0.184554	0.198031	0.196388
1637	0.199018	0.19573	0.192608	0.205592	0.196223
1638	0.201647	0.198031	0.183732	0.195402	0.194744
1639	0.199182	0.193758	0.18554	0.198196	0.196717
1640	0.199346	0.200661	0.186691	0.198853	0.203291
1641	0.195402	0.200497	0.187677	0.197045	0.195073
1642	0.199839	0.198689	0.185212	0.198031	0.197703
1643	0.199182	0.197538	0.187348	0.198689	0.200004
1644	0.199018	0.194251	0.188499	0.197374	0.196552
1645	0.199675	0.195237	0.186691	0.200497	0.196059
1646	0.202798	0.193594	0.188006	0.197867	0.197538
1647	0.197045	0.194416	0.188827	0.199182	0.198689
1648	0.200497	0.194744	0.187841	0.203455	0.197045
1649	0.199675	0.195402	0.185705	0.193265	0.199182
1650	0.197703	0.194087	0.18817	0.195073	0.197867
1651	0.200825	0.196552	0.191128	0.197374	0.199839
1652	0.199182	0.193758	0.191457	0.197374	0.199182
1653	0.19836	0.197538	0.187677	0.196223	0.198196
1654	0.197867	0.194087	0.19195	0.198853	0.199182
1655	0.198524	0.195073	0.188827	0.199839	0.195237
1656	0.197045	0.19458	0.1908	0.201812	0.200332
1657	0.201483	0.194087	0.18932	0.195895	0.194744
1658	0.197867	0.193265	0.192279	0.198196	0.196552
1659	0.197703	0.193758	0.192115	0.193265	0.201812
1660	0.199675	0.196881	0.190142	0.195073	0.194416
1661	0.198524	0.19195	0.19573	0.197703	0.19721
1662	0.197374	0.192608	0.19573	0.19836	0.198031
1663	0.200332	0.191293	0.194744	0.197045	0.19721
1664	0.200497	0.192772	0.191786	0.198689	0.202305
1665	0.197867	0.193101	0.18932	0.199018	0.198853
1666	0.199511	0.190307	0.193594	0.198031	0.200332
1667	0.197374	0.192936	0.194251	0.19836	0.201154
1668	0.199675	0.196881	0.192772	0.196881	0.196388
1669	0.190635	0.195237	0.195237	0.200004	0.198524
1670	0.199018	0.197867	0.192443	0.186362	0.196388
1671	0.198853	0.202469	0.194416	0.19836	0.198853
1672	0.197538	0.19836	0.192608	0.193265	0.19721
1673	0.199675	0.196388	0.194087	0.199182	0.198524
1674	0.203455	0.194416	0.193758	0.196552	0.19573
1675	0.199839	0.195895	0.194744	0.196552	0.198524
1676	0.199346	0.19195	0.197374	0.200332	0.197045
1677	0.201319	0.190964	0.196881	0.19721	0.198196
1678	0.199839	0.190964	0.199182	0.196223	0.198689
1679	0.200497	0.193594	0.19573	0.199675	0.196223
1680	0.197374	0.190635	0.196552	0.199182	0.191293
1681	0.203455	0.194744	0.195895	0.191128	0.193101
1682	0.196388	0.193758	0.19573	0.198031	0.197045
1683	0.199182	0.196059	0.197867	0.197374	0.19721
1684	0.196223	0.19458	0.198853	0.199346	0.198031
1685	0.201319	0.196223	0.193101	0.196717	0.196059
1686	0.199346	0.193758	0.199018	0.195402	0.199675
1687	0.198689	0.196059	0.197538	0.196223	0.195073
1688	0.19721	0.196881	0.199675	0.197703	0.197045
1689	0.20099	0.193265	0.199511	0.195895	0.198853
1690	0.197045	0.194744	0.196388	0.198689	0.196059
1691	0.196223	0.191786	0.199018	0.198031	0.191128
1692	0.200004	0.191293	0.195073	0.194909	0.19573
1693	0.200004	0.190307	0.197374	0.196552	0.196223
1694	0.200332	0.192936	0.197703	0.200004	0.193429
1695	0.199346	0.195073	0.19836	0.196717	0.200497
1696	0.205592	0.194087	0.196717	0.195237	0.195566
1697	0.199182	0.192443	0.200497	0.200332	0.198853
1698	0.200168	0.196881	0.193758	0.200661	0.195895
1699	0.200332	0.19458	0.200825	0.197867	0.199346
1700	0.200661	0.195566	0.199839	0.198689	0.19836
1701	0.19836	0.194416	0.199839	0.199182	0.197703
1702	0.197867	0.196223	0.200497	0.19721	0.199182
1703	0.195566	0.195895	0.19721	0.199182	0.202798
1704	0.200004	0.199182	0.196059	0.196717	0.197045
1705	0.198031	0.195566	0.197703	0.199839	0.199511
1706	0.195895	0.19836	0.195402	0.196881	0.197867
1707	0.202305	0.197538	0.195237	0.199018	0.199839
1708	0.19721	0.196388	0.198524	0.196881	0.199182
1709	0.19836	0.198031	0.196388	0.19573	0.199511
1710	0.199675	0.194744	0.199018	0.198031	0.199839
1711	0.204934	0.196717	0.19836	0.20099	0.198196
1712	0.200004	0.194251	0.198031	0.199018	0.195402
1713	0.200332	0.197045	0.199182	0.200825	0.194416
1714	0.200825	0.195402	0.201154	0.199675	0.200497
1715	0.201647	0.199839	0.195073	0.197867	0.19836
1716	0.200004	0.193922	0.200004	0.200332	0.197374
1717	0.198689	0.196059	0.197867	0.199182	0.197374
1718	0.202962	0.195895	0.195237	0.202305	0.196059
1719	0.201976	0.193922	0.198031	0.196717	0.197538
1720	0.196881	0.196059	0.197867	0.196717	0.197045
1721	0.19836	0.194251	0.197867	0.197374	0.196388
1722	0.199511	0.194251	0.199182	0.196881	0.205592
1723	0.197538	0.196388	0.196223	0.196223	0.193758
1724	0.200825	0.199839	0.195237	0.200004	0.199182
1725	0.20214	0.19721	0.199839	0.196059	0.199182
1726	0.199511	0.198196	0.201812	0.197045	0.197703
1727	0.199346	0.200497	0.20099	0.195895	0.197867
1728	0.201319	0.195566	0.197703	0.198853	0.196717
1729	0.198689	0.19573	0.198031	0.199346	0.195402
1730	0.200497	0.197867	0.198853	0.199018	0.196223
1731	0.199182	0.191786	0.200004	0.200004	0.197045
1732	0.193265	0.195566	0.19836	0.195566	0.193429
1733	0.198853	0.195895	0.204277	0.200168	0.200168
1734	0.19721	0.196552	0.198689	0.197045	0.193758
1735	0.196717	0.198853	0.198689	0.205263	0.196059
1736	0.20099	0.201483	0.198196	0.20099	0.195237
1737	0.199018	0.196717	0.196388	0.199675	0.198031
1738	0.202469	0.195566	0.197045	0.198524	0.197538
1739	0.198853	0.197538	0.199018	0.199675	0.200332
1740	0.193429	0.200332	0.195073	0.196388	0.198524
1741	0.197538	0.199839	0.198031	0.197538	0.193922
1742	0.193922	0.197703	0.194744	0.19721	0.199182
1743	0.19836	0.206249	0.197867	0.19836	0.198196
1744	0.197867	0.195895	0.205921	0.19836	0.186526
1745	0.198689	0.198853	0.198031	0.197867	0.196059
1746	0.198524	0.198524	0.198524	0.200004	0.199018
1747	0.201647	0.194744	0.196223	0.199018	0.196552
1748	0.200661	0.192279	0.201154	0.197538	0.197045
1749	0.200004	0.166639	0.200825	0.196552	0.198196
1750	0.201319	0.161051	0.201647	0.200332	0.197045
1751	0.199839	0.140342	0.20099	0.203784	0.19721
1752	0.196388	0.102047	0.201647	0.199018	0.200825
1753	0.198689	0.000474	0.20099	0.192772	0.199675
1754	0.198524	0.000146	0.19836	0.200497	0.200168
1755	0.198031	0.000474	0.201976	0.197374	0.190635
1756	0.200004	0.000474	0.196223	0.19836	0.199346
1757	0.19458	0.00031	0.19836	0.195237	0.199018
1758	0.198524	0.000146	0.196717	0.195237	0.199346
1759	0.197703	-1.9e-05	0.199018	0.195402	0.200825
1760	0.196388	-0.000512	0.197538	0.199018	0.196223
1761	0.197045	0.002447	0.199511	0.199182	0.197703
1762	0.202305	0.003761	0.196223	0.19721	0.19836
1763	0.198524	0.000474	0.19836	0.199018	0.199839
1764	0.200497	0.00146	0.201483	0.198196	0.199675
1765	0.198689	0.004583	0.203948	0.197374	0.200004
1766	0.19836	0.011486	0.193758	0.199346	0.195566
1767	0.202469	0.021019	0.199018	0.197045	0.198031
1768	0.198031	0.033017	0.199018	0.195566	0.196059
1769	0.199346	0.03614	0.198689	0.197374	0.195237
1770	0.202305	0.001954	0.199675	0.197374	0.195566
1771	0.20099	0.003597	0.196552	0.197538	0.198196
1772	0.200497	0.005076	0.198689	0.196388	0.199182
1773	0.20099	0.015924	0.195073	0.196388	0.198524
1774	0.197045	0.001296	0.196552	0.196552	0.200004
1775	0.200332	0.002611	0.199182	0.198524	0.198524
1776	0.198689	0.011651	0.198196	0.198031	0.199346
1777	0.198853	0.020033	0.182911	0.196388	0.199511
1778	0.19836	0.025457	0.196388	0.199346	0.196059
1779	0.199839	0.032688	0.19721	0.196881	0.197867
1780	0.199346	0.041892	0.196552	0.200168	0.201319
1781	0.202305	0.046823	0.198196	0.200168	0.194909
1782	0.197045	-0.001005	0.200004	0.19721	0.196717
1783	0.203455	0.003926	0.19721	0.194909	0.193594
1784	0.201647	0.015924	0.199675	0.200497	0.195566
1785	0.198031	0.024635	0.198524	0.199675	0.193429
1786	0.201319	0.033674	0.19721	0.198524	0.194909
1787	0.200332	0.03614	0.199018	0.199018	0.197374
1788	0.201812	0.045508	0.191128	0.199839	0.19721
1789	0.199675	0.053726	0.198196	0.201976	0.199182
1790	0.198196	0.060629	0.196717	0.199018	0.197703
1791	0.19836	0.066381	0.199182	0.197703	0.196388
1792	0.200661	0.072627	0.19573	0.200497	0.198853
1793	0.197374	0.073778	0.197045	0.19836	0.203126
1794	0.19836	0.080023	0.201812	0.196717	0.199182
1795	0.200332	0.085283	0.198196	0.199018	0.200004
1796	0.199839	0.090706	0.198196	0.196881	0.199511
1797	0.19458	0.09498	0.201812	0.198524	0.199346
1798	0.201976	0.099746	0.201483	0.197045	0.198853
1799	0.199182	0.099089	0.195402	0.199511	0.197703
1800	0.19836	0.106649	0.194909	0.198524	0.195237
1801	0.202962	0.111908	0.200332	0.199018	0.195895
1802	0.200661	0.113552	0.198031	0.199675	0.19721
1803	0.200661	0.119797	0.198853	0.200168	0.196552
1804	0.201483	0.118483	0.199346	0.197045	0.196388
1805	0.200004	0.095308	0.197538	0.199018	0.199182
1806	0.199675	0.100075	0.200004	0.200661	0.197703
1807	0.196881	0.106156	0.199182	0.195895	0.198031
1808	0.19573	0.109114	0.199346	0.20099	0.198196
1809	0.198689	0.114209	0.199346	0.200661	0.199511
1810	0.194909	0.115031	0.198689	0.198853	0.198689
1811	0.198031	0.120619	0.195895	0.199018	0.19836
1812	0.19721	0.123413	0.198853	0.198196	0.200168
1813	0.200168	0.126372	0.197045	0.197374	0.198524
1814	0.201154	0.130316	0.199346	0.202469	0.197703
1815	0.199346	0.134754	0.200497	0.19721	0.196552
1816	0.201647	0.135576	0.199346	0.198524	0.196059
1817	0.200825	0.135247	0.200332	0.198031	0.195237
1818	0.20099	0.141821	0.200004	0.200497	0.198196
1819	0.197045	0.141986	0.200332	0.198524	0.198524
1820	0.19573	0.143794	0.197374	0.19573	0.197374
1821	0.197703	0.147738	0.197538	0.199346	0.199182
1822	0.202962	0.152998	0.193594	0.200004	0.196059
1823	0.198689	0.149546	0.198689	0.197867	0.200661
1824	0.201154	0.152669	0.195237	0.196552	0.197045
1825	0.201154	0.155956	0.197045	0.200332	0.197703
1826	0.201483	0.154641	0.195237	0.197045	0.196881
1827	0.198524	0.157271	0.196223	0.194251	0.202305
1828	0.199839	0.161215	0.195073	0.195566	0.19573
1829	0.19836	0.161051	0.199346	0.197703	0.201154
1830	0.199018	0.163023	0.200661	0.194744	0.203126
1831	0.20099	0.16516	0.196059	0.200168	0.202469
1832	0.198853	0.165489	0.201319	0.197374	0.199346
1833	0.202633	0.168447	0.195237	0.199182	0.198524
1834	0.20214	0.171077	0.200661	0.197045	0.195402
1835	0.202962	0.170913	0.198689	0.198689	0.200332
1836	0.202798	0.171734	0.197374	0.202305	0.193265
1837	0.201812	0.173707	0.198689	0.199018	0.194416
1838	0.20477	0.177158	0.199182	0.200497	0.198853
1839	0.206249	0.177322	0.199018	0.20099	0.19721
1840	0.199511	0.175515	0.199839	0.199018	0.198524
1841	0.201483	0.178966	0.198031	0.205263	0.197538
1842	0.198689	0.170913	0.200497	0.203784	0.201483
1843	0.198853	0.176172	0.200168	0.200825	0.201483
1844	0.197703	0.182582	0.198853	0.203291	0.20214
1845	0.196223	0.182582	0.19836	0.200004	0.198031
1846	0.201647	0.181431	0.19836	0.20099	0.200661
1847	0.19836	0.183897	0.19836	0.196552	0.197703
1848	0.199511	0.18439	0.192772	0.197867	0.199182
1849	0.200332	0.182089	0.194251	0.197045	0.201812
1850	0.202305	0.186033	0.195566	0.199018	0.195566
1851	0.19836	0.184718	0.200661	0.197703	0.196223
1852	0.195073	0.185869	0.194744	0.197703	0.197867
1853	0.199675	0.185212	0.197703	0.199018	0.199182
1854	0.200825	0.185376	0.198031	0.199675	0.196717
1855	0.196388	0.190142	0.198524	0.198689	0.201483
1856	0.198031	0.184883	0.197374	0.199839	0.195237
1857	0.202469	0.186526	0.200497	0.199839	0.199511
1858	0.19721	0.190142	0.198853	0.197703	0.193758
1859	0.197374	0.188663	0.196717	0.200168	0.200497
1860	0.197538	0.189978	0.201154	0.199346	0.197867
1861	0.197374	0.18932	0.197867	0.20099	0.198689
1862	0.198196	0.189814	0.200825	0.195073	0.198196
1863	0.197867	0.192608	0.198031	0.198524	0.197867
1864	0.197703	0.190471	0.197538	0.197045	0.196552
1865	0.201812	0.193265	0.195073	0.198031	0.199182
1866	0.197538	0.187184	0.198031	0.199511	0.198853
1867	0.198524	0.190635	0.19573	0.19836	0.19836
1868	0.201319	0.188992	0.196059	0.198853	0.19836
1869	0.204277	0.19458	0.193922	0.198196	0.198196
1870	0.201483	0.192279	0.196223	0.197867	0.198689
1871	0.201812	0.189978	0.196388	0.195895	0.200661
1872	0.197867	0.196552	0.196552	0.197538	0.196388
1873	0.202469	0.196059	0.198524	0.199346	0.196388
1874	0.198031	0.192279	0.200168	0.198689	0.199182
1875	0.199182	0.19458	0.199675	0.194744	0.197703
1876	0.197703	0.195237	0.200004	0.201319	0.197867
1877	0.199511	0.193265	0.200332	0.199675	0.200497
1878	0.196881	0.196552	0.195566	0.200825	0.198524
1879	0.199839	0.191621	0.201319	0.201154	0.19721
1880	0.199018	0.193758	0.197703	0.20099	0.196059
1881	0.196223	0.19458	0.202305	0.197538	0.198196
1882	0.198853	0.194909	0.197045	0.196717	0.19836
1883	0.202469	0.193758	0.200661	0.197703	0.193429
1884	0.201812	0.198689	0.200332	0.199182	0.193429
1885	0.198196	0.196059	0.198524	0.197867	0.200004
1886	0.198689	0.197045	0.200168	0.197538	0.195402
1887	0.198524	0.19721	0.199511	0.201154	0.195402
1888	0.201319	0.197867	0.199182	0.199018	0.193922
1889	0.197374	0.193594	0.199346	0.199675	0.196717
1890	0.200497	0.196059	0.200332	0.199839	0.194251
1891	0.200168	0.195566	0.199018	0.204934	0.196059
1892	0.196717	0.193265	0.198853	0.201319	0.19721
1893	0.199182	0.198689	0.198853	0.200497	0.19721
1894	0.201154	0.201647	0.200004	0.198524	0.195895
1895	0.195895	0.197045	0.199018	0.203948	0.19573
1896	0.197045	0.195895	0.200661	0.200661	0.198031
1897	0.197538	0.201483	0.19721	0.19836	0.197867
1898	0.196388	0.192772	0.20099	0.200661	0.19721
1899	0.20099	0.197703	0.200825	0.200004	0.200332
1900	0.19573	0.196881	0.199018	0.198196	0.199182
1901	0.200004	0.198524	0.197374	0.199018	0.195895
1902	0.199839	0.196881	0.198031	0.199839	0.200168
1903	0.200168	0.198689	0.195402	0.194416	0.197703
1904	0.200168	0.197045	0.197703	0.199511	0.196881
1905	0.201647	0.19721	0.202798	0.197867	0.197703
1906	0.199511	0.194416	0.197867	0.195237	0.199675
1907	0.198031	0.196223	0.198853	0.199675	0.197867
1908	0.194744	0.196881	0.198853	0.197867	0.19836
1909	0.197538	0.195895	0.198689	0.200497	0.195237
1910	0.197538	0.196717	0.202798	0.204441	0.197703
1911	0.193594	0.197538	0.200004	0.199018	0.198524
1912	0.199018	0.194744	0.19836	0.199346	0.197374
1913	0.19836	0.196059	0.200825	0.198689	0.19836
1914	0.199675	0.196552	0.198524	0.195402	0.201976
1915	0.197374	0.197538	0.204277	0.197867	0.196388
1916	0.199182	0.199675	0.19721	0.197045	0.197374
1917	0.197703	0.197045	0.197703	0.199182	0.201154
1918	0.199675	0.19836	0.20099	0.198853	0.197538
1919	0.199511	0.19721	0.19836	0.194416	0.200168
1920	0.196059	0.198853	0.197045	0.196059	0.196881
1921	0.204113	0.195073	0.199346	0.199346	0.199346
1922	0.200497	0.196552	0.197045	0.194744	0.19721
1923	0.200004	0.199018	0.195073	0.199018	0.198853
1924	0.202305	0.19721	0.199182	0.199511	0.19721
1925	0.200004	0.197374	0.197867	0.198524	0.197867
1926	0.199346	0.198524	0.196881	0.198689	0.197374
1927	0.200168	0.197045	0.198524	0.20099	0.196059
1928	0.198031	0.191128	0.201319	0.200825	0.200168
1929	0.200332	0.19573	0.204113	0.200497	0.198196
1930	0.194087	0.192115	0.202305	0.198689	0.198853
1931	0.20099	0.192279	0.200332	0.200004	0.194251
1932	0.199511	0.194744	0.201647	0.200661	0.199182
1933	0.197538	0.196717	0.200168	0.200004	0.194087
1934	0.200004	0.194251	0.201319	0.200661	0.19836
1935	0.19836	0.198031	0.199182	0.199346	0.19573
1936	0.199675	0.196717	0.200168	0.199675	0.20099
1937	0.200004	0.19836	0.200332	0.197374	0.197045
1938	0.20099	0.194744	0.197703	0.200332	0.196717
1939	0.19836	0.189814	0.201976	0.198689	0.200004
1940	0.198689	0.194744	0.196223	0.196717	0.19721
1941	0.199018	0.194416	0.200825	0.19836	0.197867
1942	0.200332	0.195237	0.199018	0.201483	0.199511
1943	0.198689	0.197703	0.19836	0.204277	0.199182
1944	0.20099	0.194416	0.200332	0.203948	0.19721
1945	0.198853	0.190142	0.199346	0.200332	0.191786
1946	0.200332	0.196059	0.199018	0.20099	0.196552
1947	0.201319	0.193922	0.201647	0.201812	0.197703
1948	0.199839	0.194909	0.200332	0.199511	0.198196
1949	0.201647	0.19458	0.199675	0.202469	0.202633
1950	0.19836	0.194087	0.201976	0.201154	0.203291
1951	0.201812	0.19836	0.198689	0.200004	0.199511
1952	0.198031	0.193101	0.197703	0.198031	0.198524
1953	0.200168	0.195073	0.197374	0.200332	0.200825
1954	0.200168	0.196059	0.198196	0.198031	0.198853
1955	0.199675	0.198524	0.199346	0.199675	0.200497
1956	0.200661	0.194744	0.200004	0.19836	0.199839
1957	0.200004	0.199018	0.196881	0.198853	0.198524
1958	0.199182	0.197867	0.198689	0.198196	0.198689
1959	0.200661	0.197374	0.197045	0.200332	0.198689
1960	0.19458	0.19573	0.199675	0.196717	0.196059
1961	0.199675	0.192936	0.199346	0.197374	0.198031
1962	0.199182	0.193265	0.204277	0.20099	0.201812
1963	0.201812	0.196388	0.197703	0.195895	0.200004
1964	0.204277	0.196552	0.200332	0.207564	0.200168
1965	0.199346	0.193922	0.200004	0.200497	0.198524
1966	0.200004	0.198853	0.202962	0.202962	0.19721
1967	0.200825	0.196388	0.201812	0.200497	0.198196
1968	0.201483	0.19836	0.197703	0.201483	0.195237
1969	0.199675	0.199675	0.20099	0.196388	0.198853
1970	0.199675	0.197703	0.19573	0.198196	0.200004
1971	0.19721	0.196223	0.195895	0.197867	0.19721
1972	0.203126	0.193594	0.198031	0.196388	0.200661
1973	0.196881	0.197538	0.20099	0.196552	0.200168
1974	0.198689	0.199511	0.196059	0.20214	0.199511
1975	0.197045	0.197374	0.197867	0.200004	0.199675
1976	0.201154	0.19836	0.198031	0.200497	0.198196
1977	0.199675	0.19573	0.198524	0.201154	0.199346
1978	0.203126	0.195073	0.19721	0.200004	0.19836
1979	0.201483	0.195073	0.200825	0.202305	0.198853
1980	0.20099	0.198031	0.20214	0.199018	0.198196
1981	0.200825	0.193429	0.200497	0.200661	0.20099
1982	0.199839	0.192115	0.195237	0.199346	0.196223
1983	0.199346	0.196388	0.197703	0.200497	0.197703
1984	0.199839	0.195402	0.200497	0.200332	0.198689
1985	0.200332	0.199182	0.198853	0.204277	0.198524
1986	0.194909	0.197374	0.20099	0.202962	0.198196
1987	0.201812	0.196717	0.199182	0.199511	0.20099
1988	0.199839	0.195073	0.198031	0.199018	0.199346
1989	0.20099	0.19836	0.197867	0.201154	0.201812
1990	0.19836	0.199182	0.198853	0.197867	0.198031
1991	0.198524	0.199346	0.195073	0.197045	0.200332
1992	0.199675	0.196552	0.199675	0.198853	0.198689
1993	0.201812	0.200332	0.193922	0.192608	0.197867
1994	0.197703	0.1908	0.202469	0.198524	0.202305
1995	0.203291	0.195237	0.196223	0.19721	0.195895
1996	0.200004	0.198031	0.199182	0.203455	0.199182
1997	0.198853	0.196223	0.195402	0.201976	0.197703
1998	0.199511	0.19721	0.197045	0.200825	0.201812
1999	0.20362	0.199675	0.199839	0.200661	0.199675
2000	0.201154	0.199839	0.200004	0.202798	0.198689
2001	0.199182	0.197374	0.200004	0.199675	0.199182
2002	0.200497	0.199346	0.198689	0.198524	0.197867
2003	0.197703	0.199839	0.199675	0.201154	0.19836
2004	0.204441	0.198031	0.196552	0.20214	0.198196
2005	0.19721	0.19195	0.200332	0.195073	0.201647
2006	0.199346	0.198031	0.199839	0.199346	0.200168
2007	0.193922	0.19836	0.200332	0.204277	0.20362
2008	0.19721	0.204606	0.196552	0.200004	0.196881
2009	0.197538	0.195566	0.200497	0.201154	0.202633
2010	0.199511	0.20362	0.196059	0.201483	0.19836
2011	0.199511	0.199346	0.197703	0.205263	0.198853
2012	0.200168	0.19836	0.201319	0.201812	0.197045
2013	0.200825	0.199675	0.197867	0.201647	0.196388
2014	0.201154	0.197045	0.199182	0.19836	0.195895
2015	0.206578	0.200825	0.19721	0.199511	0.196552
2016	0.198196	0.187019	0.195566	0.19836	0.197703
2017	0.200825	0.197867	0.197045	0.201647	0.198689
2018	0.199018	0.195237	0.197045	0.202633	0.198196
2019	0.197045	0.201319	0.198689	0.202469	0.197374
2020	0.197867	0.197703	0.19836	0.195073	0.197703
2021	0.202798	0.200661	0.195895	0.201647	0.200004
2022	0.196223	0.197045	0.199511	0.20099	0.194087
2023	0.199018	0.196388	0.196552	0.197703	0.198196
2024	0.199839	0.201319	0.197867	0.197045	0.201647
2025	0.197374	0.200004	0.197703	0.198853	0.197045
2026	0.199675	0.198689	0.197703	0.199182	0.198196
2027	0.196059	0.189649	0.198853	0.19836	0.199839
2028	0.19836	0.199511	0.19721	0.203126	0.20099
2029	0.198524	0.196717	0.201647	0.199839	0.198524
2030	0.200825	0.198689	0.197374	0.201319	0.199511
2031	0.200168	0.20099	0.198031	0.200825	0.198031
2032	0.202962	0.200004	0.194251	0.200168	0.195237
2033	0.198524	0.200004	0.198196	0.200497	0.195237
2034	0.201647	0.199182	0.197045	0.20099	0.197703
2035	0.198853	0.199839	0.199018	0.200332	0.197374
2036	0.200825	0.20214	0.198689	0.202633	0.19195
2037	0.189485	0.19721	0.200497	0.199839	0.197374
2038	0.19836	0.18817	0.201812	0.199675	0.200661
2039	0.197374	0.196881	0.200661	0.201319	0.200661
2040	0.199675	0.202962	0.200661	0.202798	0.19836
2041	0.197538	0.199018	0.196223	0.202469	0.201976
2042	0.194087	0.202633	0.199675	0.200168	0.201483
2043	0.202962	0.202633	0.197538	0.203291	0.198689
2044	0.196388	0.203291	0.197538	0.195402	0.203291
2045	0.198031	0.202962	0.197538	0.198524	0.201812
2046	0.197538	0.205921	0.197867	0.198524	0.199675
2047	0.200497	0.20477	0.198031	0.19836	0.198196
2048	0.185376	0.20099	0.195073	0.197538	0.198524
2049	0.199839	0.191457	0.196881	0.199839	0.200661
2050	0.200168	0.197703	0.202305	0.199839	0.198689
2051	0.200004	0.20099	0.197867	0.20362	0.198524
2052	0.199675	0.200332	0.200661	0.199839	0.199346
2053	0.200661	0.200825	0.199511	0.201483	0.199346
2054	0.198524	0.200497	0.199346	0.201647	0.20099
2055	0.19573	0.199511	0.198031	0.199018	0.197045
2056	0.197703	0.200661	0.200661	0.201647	0.20362
2057	0.198853	0.202962	0.197045	0.197045	0.201647
2058	0.196223	0.202798	0.19836	0.199182	0.202305
2059	0.189814	0.202962	0.196223	0.198853	0.200661
2060	0.197703	0.190142	0.199182	0.19721	0.203455
2061	0.199511	0.201483	0.197867	0.199182	0.198853
2062	0.202469	0.202798	0.198689	0.198031	0.199182
2063	0.20099	0.206249	0.199839	0.193429	0.201483
2064	0.200168	0.203455	0.196881	0.197538	0.200004
2065	0.200004	0.204113	0.199182	0.199182	0.195402
2066	0.201976	0.201154	0.19573	0.200332	0.19721
2067	0.197538	0.201154	0.197867	0.201647	0.19836
2068	0.201812	0.205592	0.198524	0.199018	0.196717
2069	0.199182	0.199675	0.200004	0.200332	0.198853
2070	0.196223	0.203784	0.194251	0.19573	0.197867
2071	0.198524	0.189978	0.196388	0.198524	0.200661
2072	0.199675	0.196059	0.193922	0.199018	0.198031
2073	0.199511	0.200168	0.198689	0.197538	0.199675
2074	0.199182	0.200332	0.199675	0.193922	0.199511
2075	0.201647	0.20099	0.194087	0.198524	0.200004
2076	0.203291	0.200168	0.20099	0.198031	0.19836
2077	0.197538	0.200661	0.196552	0.197538	0.200332
2078	0.200004	0.20099	0.198853	0.197703	0.199511
2079	0.201976	0.204441	0.198853	0.200661	0.200497
2080	0.19573	0.199511	0.199018	0.195073	0.200004
2081	0.202305	0.205427	0.196552	0.198031	0.200332
2082	0.19721	0.194909	0.201319	0.197374	0.201154
2083	0.203126	0.203126	0.197374	0.19836	0.196388
2084	0.19836	0.20214	0.197538	0.201647	0.197538
2085	0.198524	0.203291	0.200168	0.197538	0.197867
2086	0.19836	0.203455	0.201319	0.200825	0.199839
2087	0.20099	0.198689	0.197867	0.200004	0.192443
2088	0.198524	0.200497	0.201154	0.199346	0.196881
2089	0.199675	0.201976	0.200004	0.195566	0.197703
2090	0.198689	0.203291	0.198689	0.198524	0.198524
2091	0.199839	0.20099	0.196552	0.19721	0.19836
2092	0.198524	0.203784	0.201647	0.198031	0.20362
2093	0.194251	0.197867	0.199675	0.20214	0.196881
2094	0.19573	0.20362	0.198689	0.201483	0.203784
2095	0.193922	0.205099	0.200004	0.19573	0.200661
2096	0.205592	0.204277	0.197538	0.197538	0.200004
2097	0.202633	0.198689	0.201647	0.198853	0.202469
2098	0.198031	0.201483	0.196552	0.198524	0.197703
2099	0.199839	0.200661	0.199346	0.199839	0.200332
2100	0.201812	0.202798	0.197867	0.198689	0.200004
2101	0.198689	0.203784	0.198196	0.199346	0.19721
2102	0.201154	0.203126	0.198689	0.196059	0.199018
2103	0.199346	0.200661	0.200497	0.199182	0.201812
2104	0.199511	0.200661	0.199018	0.19721	0.20099
2105	0.197374	0.20099	0.20099	0.199511	0.199675
2106	0.197045	0.201154	0.197538	0.196881	0.198689
2107	0.198031	0.201812	0.201319	0.198196	0.198689
2108	0.197374	0.199018	0.200497	0.198196	0.198853
2109	0.197867	0.202962	0.196552	0.200332	0.198689
2110	0.198196	0.199511	0.199346	0.194744	0.199182
2111	0.202962	0.202633	0.19836	0.199511	0.201154
2112	0.198031	0.201154	0.200168	0.196388	0.200004
2113	0.200825	0.201812	0.199018	0.19573	0.199839
2114	0.198853	0.203126	0.202633	0.200004	0.205427
2115	0.19836	0.204606	0.197867	0.200004	0.198524
2116	0.198196	0.198689	0.200332	0.201647	0.201319
2117	0.199182	0.203784	0.196881	0.196059	0.19836
2118	0.199511	0.204113	0.196717	0.195895	0.199511
2119	0.202962	0.198853	0.19573	0.198524	0.200332
2120	0.198196	0.20214	0.19721	0.195566	0.197703
2121	0.200825	0.201154	0.20099	0.197045	0.199182
2122	0.201647	0.197374	0.198689	0.202962	0.200825
2123	0.197538	0.199346	0.19836	0.196059	0.19458
2124	0.198031	0.201647	0.201483	0.201319	0.199839
2125	0.198031	0.200661	0.201976	0.199182	0.200661
2126	0.194744	0.198524	0.200497	0.20099	0.201812
2127	0.197538	0.19836	0.201647	0.19836	0.201647
2128	0.200168	0.201319	0.199346	0.198689	0.19836
2129	0.19836	0.196717	0.202305	0.198524	0.200332
2130	0.201647	0.199675	0.198524	0.199675	0.203291
2131	0.198689	0.199675	0.20099	0.199182	0.195073
2132	0.196881	0.200497	0.19573	0.197867	0.19721
2133	0.199346	0.198524	0.200497	0.19195	0.200004
2134	0.201319	0.200004	0.196717	0.19458	0.195895
2135	0.199182	0.200168	0.19836	0.199511	0.198031
2136	0.203784	0.19836	0.202469	0.200332	0.199511
2137	0.198196	0.197374	0.201976	0.199018	0.205921
2138	0.201483	0.196552	0.201319	0.202633	0.199675
2139	0.200825	0.200004	0.198524	0.201483	0.197374
2140	0.19721	0.198853	0.200661	0.198689	0.197538
2141	0.201319	0.199018	0.200332	0.202962	0.20362
2142	0.198031	0.197703	0.201812	0.196552	0.198689
2143	0.197538	0.203126	0.202305	0.203455	0.197538
2144	0.203784	0.196059	0.201812	0.193101	0.199346
2145	0.198524	0.200497	0.199182	0.198689	0.197867
2146	0.196223	0.195895	0.202305	0.200661	0.199839
2147	0.196552	0.196552	0.202633	0.200497	0.20099
2148	0.196881	0.194909	0.200661	0.199675	0.200332
2149	0.19836	0.199839	0.199511	0.198689	0.199346
2150	0.197045	0.202469	0.199346	0.199182	0.202469
2151	0.200497	0.198031	0.198031	0.197538	0.199182
2152	0.198031	0.199675	0.196881	0.200497	0.197703
2153	0.200661	0.198524	0.198031	0.200497	0.198031
2154	0.199182	0.199182	0.196388	0.197703	0.199675
2155	0.199182	0.19836	0.199182	0.195566	0.19836
2156	0.202469	0.177487	0.197538	0.198031	0.196717
2157	0.197867	0.17535	0.197538	0.197867	0.199346
2158	0.197374	0.177322	0.203455	0.199839	0.197374
2159	0.199182	0.178637	0.199346	0.197867	0.197867
2160	0.199182	0.178802	0.202469	0.196388	0.198689
2161	0.197703	0.176994	0.199511	0.201647	0.197374
2162	0.19721	0.178637	0.199346	0.200004	0.199839
2163	0.195237	0.176665	0.202305	0.202469	0.18932
2164	0.198853	0.180281	0.198031	0.199182	0.19836
2165	0.198689	0.182746	0.198689	0.197045	0.199018
2166	0.200825	0.185047	0.196223	0.193594	0.200004
2167	0.200004	0.182911	0.199675	0.196223	0.201483
2168	0.199346	0.185376	0.200004	0.194087	0.197703
2169	0.200168	0.187019	0.199839	0.196552	0.199182
2170	0.202305	0.184883	0.200332	0.196881	0.195895
2171	0.200332	0.187841	0.19573	0.197045	0.201976
2172	0.199346	0.179952	0.19721	0.195895	0.199346
2173	0.203455	0.187184	0.198031	0.199346	0.200332
2174	0.202962	0.187677	0.202469	0.197374	0.193758
2175	0.201812	0.187348	0.194909	0.202962	0.195895
2176	0.19721	0.186198	0.200661	0.200168	0.197867
2177	0.200332	0.185869	0.19721	0.200168	0.197374
2178	0.196717	0.185212	0.20099	0.201483	0.201154
2179	0.197374	0.187184	0.196552	0.199018	0.199511
2180	0.197045	0.190964	0.202798	0.199839	0.197045
2181	0.201319	0.18932	0.197867	0.198031	0.19721
2182	0.197867	0.188663	0.200332	0.200497	0.200497
2183	0.197867	0.190635	0.199511	0.200168	0.198524
2184	0.199675	0.189978	0.198689	0.200332	0.198689
2185	0.198524	0.188663	0.20362	0.197045	0.198524
2186	0.20214	0.191786	0.196717	0.199839	0.200661
2187	0.19836	0.188992	0.19836	0.195402	0.196552
2188	0.200825	0.189814	0.193429	0.19836	0.201483
2189	0.201319	0.191786	0.200168	0.199346	0.201812
2190	0.200332	0.192936	0.197867	0.198524	0.198031
2191	0.200004	0.194909	0.193101	0.200168	0.201812
2192	0.203291	0.194251	0.196552	0.196717	0.194416
2193	0.198031	0.194251	0.195895	0.198524	0.198689
2194	0.196717	0.191457	0.196552	0.198853	0.198196
2195	0.196388	0.192279	0.199511	0.200332	0.199675
2196	0.199839	0.192279	0.200004	0.198524	0.197374
2197	0.199675	0.193922	0.198196	0.203126	0.197538
2198	0.203291	0.198524	0.200168	0.198524	0.198853
2199	0.200168	0.194744	0.199018	0.20214	0.200332
2200	0.200497	0.19573	0.199018	0.199018	0.198853
2201	0.199839	0.196717	0.19836	0.197538	0.199839
2202	0.199018	0.195237	0.200168	0.197538	0.200004
2203	0.202633	0.196388	0.192936	0.198031	0.198031
2204	0.199346	0.193758	0.201812	0.197703	0.201647
2205	0.201976	0.199182	0.197045	0.197045	0.197703
2206	0.19721	0.190471	0.198853	0.198031	0.19836
2207	0.199839	0.20099	0.190964	0.198524	0.19836
2208	0.199675	0.194251	0.194416	0.204934	0.195566
2209	0.200497	0.195237	0.19836	0.199018	0.201154
2210	0.199346	0.194251	0.198524	0.202305	0.20214
2211	0.199182	0.196059	0.199675	0.203784	0.196717
2212	0.200661	0.196881	0.200497	0.201154	0.198853
2213	0.20214	0.194909	0.199511	0.200332	0.19836
2214	0.200661	0.196223	0.196717	0.202305	0.196059
2215	0.199346	0.193594	0.200168	0.199018	0.198031
2216	0.199839	0.197867	0.196059	0.202305	0.198689
2217	0.199346	0.196223	0.200661	0.20099	0.198689
2218	0.200825	0.19721	0.187841	0.197703	0.198853
2219	0.19836	0.197045	0.195073	0.199018	0.200004
2220	0.201483	0.199182	0.192608	0.198853	0.198031
2221	0.199511	0.196223	0.196881	0.197045	0.200332
2222	0.198524	0.198853	0.190307	0.20099	0.199346
2223	0.196717	0.202469	0.191457	0.196059	0.200004
2224	0.201154	0.201319	0.193429	0.197867	0.198689
2225	0.202305	0.197374	0.190964	0.200332	0.194251
2226	0.201319	0.198853	0.194251	0.195402	0.199839
2227	0.203291	0.200497	0.195402	0.200168	0.200004
2228	0.20214	0.195402	0.19458	0.198689	0.194416
2229	0.20214	0.19573	0.194251	0.201483	0.199018
2230	0.201812	0.199182	0.193429	0.198524	0.19836
2231	0.197703	0.19721	0.19573	0.205756	0.196717
2232	0.199675	0.196717	0.194909	0.198689	0.196552
2233	0.201483	0.201483	0.193265	0.202962	0.198031
2234	0.199346	0.200004	0.195895	0.200497	0.198031
2235	0.203455	0.199346	0.191786	0.19836	0.194744
2236	0.200661	0.200825	0.190142	0.200168	0.197538
2237	0.201319	0.19721	0.192772	0.197703	0.197045
2238	0.200168	0.192608	0.192279	0.197703	0.193101
2239	0.200168	0.204606	0.18932	0.197867	0.198853
2240	0.199182	0.198031	0.192279	0.198853	0.200497
2241	0.199182	0.199675	0.189485	0.197867	0.198853
2242	0.197703	0.197867	0.190635	0.200004	0.199018
2243	0.202305	0.199511	0.19195	0.197703	0.197867
2244	0.199839	0.201319	0.193758	0.196717	0.197538
2245	0.203948	0.198031	0.192443	0.197538	0.198031
2246	0.204113	0.202633	0.188827	0.200168	0.198689
2247	0.201483	0.197538	0.188334	0.197867	0.197867
2248	0.199182	0.204934	0.189156	0.199675	0.199346
2249	0.196881	0.199018	0.189814	0.202469	0.199018
2250	0.200168	0.200004	0.187348	0.198031	0.198853
2251	0.199675	0.199018	0.190142	0.202633	0.200332
2252	0.199675	0.197374	0.185376	0.198196	0.200661
2253	0.19836	0.200168	0.187348	0.198689	0.199018
2254	0.202305	0.199182	0.186198	0.198853	0.199018
2255	0.197538	0.203126	0.189156	0.199675	0.201812
2256	0.196552	0.201647	0.186691	0.200661	0.202305
2257	0.201812	0.201647	0.186362	0.196059	0.20214
2258	0.198196	0.199182	0.185212	0.196059	0.200168
2259	0.198853	0.19836	0.188334	0.202305	0.204277
2260	0.202633	0.199675	0.186691	0.20214	0.199839
2261	0.20214	0.201154	0.188499	0.198853	0.199675
2262	0.202305	0.198689	0.189814	0.200497	0.199511
2263	0.205099	0.200825	0.187677	0.203784	0.199182
2264	0.198689	0.199675	0.189814	0.198689	0.19721
2265	0.203784	0.199511	0.191128	0.200661	0.196717
2266	0.201647	0.200497	0.190964	0.202469	0.198031
2267	0.202469	0.20214	0.188992	0.196717	0.196881
2268	0.200661	0.199839	0.189978	0.199511	0.200661
2269	0.203784	0.200497	0.188499	0.195402	0.198196
2270	0.19836	0.200825	0.190635	0.195566	0.198689
2271	0.202305	0.201154	0.188827	0.19836	0.19836
2272	0.201647	0.199675	0.192279	0.198196	0.201647
2273	0.204113	0.203455	0.191621	0.19458	0.19836
2274	0.20099	0.20214	0.192772	0.200004	0.203455
2275	0.202798	0.200332	0.192279	0.199346	0.195895
2276	0.201154	0.200332	0.191621	0.199018	0.201647
2277	0.204441	0.200168	0.193429	0.197374	0.200168
2278	0.205592	0.204113	0.192936	0.197045	0.198196
2279	0.20362	0.200004	0.19573	0.199182	0.201319
2280	0.203126	0.200497	0.192772	0.198689	0.199675
2281	0.202305	0.201812	0.196717	0.198031	0.196881
2282	0.202633	0.199839	0.19458	0.198853	0.196717
2283	0.200497	0.201154	0.194744	0.199675	0.198853
2284	0.20362	0.200661	0.196552	0.199018	0.199675
2285	0.201319	0.200497	0.199346	0.20099	0.201483
2286	0.200497	0.20099	0.194909	0.202305	0.196059
2287	0.203126	0.199018	0.196388	0.202633	0.200497
2288	0.201812	0.19836	0.19721	0.200004	0.199018
2289	0.199018	0.200168	0.198196	0.201483	0.197538
2290	0.200497	0.201812	0.198524	0.200004	0.197867
2291	0.201812	0.20099	0.196552	0.199511	0.200004
2292	0.197538	0.201812	0.198524	0.197374	0.200168
2293	0.201812	0.20362	0.195073	0.198524	0.198196
2294	0.205921	0.20099	0.19195	0.196388	0.203784
2295	0.201976	0.203126	0.195237	0.196388	0.198196
2296	0.203126	0.201154	0.19836	0.199511	0.200497
2297	0.202962	0.202469	0.19458	0.198031	0.197374
2298	0.201647	0.200004	0.19721	0.199182	0.199511
2299	0.209536	0.20099	0.19721	0.201319	0.198853
2300	0.202469	0.197538	0.197538	0.199018	0.19573
2301	0.20477	0.20099	0.196388	0.199182	0.197703
2302	0.204934	0.197045	0.198853	0.201154	0.201812
2303	0.201976	0.201976	0.198853	0.198031	0.198031
2304	0.199346	0.204441	0.198196	0.201647	0.198853
2305	0.198689	0.200497	0.196223	0.195566	0.199346
2306	0.198689	0.201154	0.196059	0.201976	0.195402
2307	0.198853	0.203948	0.202798	0.201647	0.197538
2308	0.197538	0.203455	0.195895	0.198196	0.199018
2309	0.199346	0.200168	0.19721	0.202962	0.194744
2310	0.202305	0.201647	0.197703	0.198689	0.198524
2311	0.201154	0.202633	0.200497	0.196388	0.199839
2312	0.201483	0.204277	0.197374	0.198031	0.197703
2313	0.200332	0.201647	0.198524	0.195402	0.199018
2314	0.204441	0.201812	0.197867	0.200168	0.199018
2315	0.200825	0.202469	0.196388	0.19836	0.198853
2316	0.203948	0.201976	0.19721	0.194744	0.198196
2317	0.201976	0.200497	0.196717	0.196059	0.200004
2318	0.203784	0.200661	0.195237	0.198689	0.196717
2319	0.203126	0.202798	0.194909	0.20099	0.199675
2320	0.201976	0.200168	0.198689	0.19458	0.196717
2321	0.20214	0.203126	0.198031	0.201647	0.199511
2322	0.199182	0.20477	0.19836	0.198196	0.197538
2323	0.201483	0.206085	0.199182	0.200004	0.200168
2324	0.201319	0.20214	0.201319	0.200497	0.201154
2325	0.202633	0.205592	0.201812	0.199511	0.200332
2326	0.199675	0.200332	0.200168	0.198853	0.199346
2327	0.201812	0.202305	0.199182	0.199511	0.199018
2328	0.202633	0.201647	0.20099	0.198031	0.20099
2329	0.202962	0.204934	0.197703	0.19836	0.199346
2330	0.19836	0.203126	0.200004	0.197703	0.199346
2331	0.205427	0.201647	0.198689	0.198853	0.195237
2332	0.203126	0.204113	0.197538	0.20099	0.198196
2333	0.203784	0.204277	0.199018	0.200004	0.195402
2334	0.20362	0.201812	0.198524	0.196717	0.194087
2335	0.202305	0.202962	0.200004	0.195402	0.194744
2336	0.203455	0.201483	0.201483	0.199018	0.198689
2337	0.201319	0.204934	0.201154	0.199675	0.200825
2338	0.200825	0.196388	0.200661	0.198689	0.20099
2339	0.199675	0.19836	0.201319	0.198524	0.201647
2340	0.200661	0.202305	0.196388	0.201976	0.199018
2341	0.197867	0.199346	0.20099	0.199346	0.201483
2342	0.201976	0.199182	0.199346	0.19836	0.200332
2343	0.202962	0.205756	0.197045	0.200168	0.198689
2344	0.201812	0.203948	0.199675	0.200332	0.199182
2345	0.197538	0.203126	0.202798	0.196223	0.200825
2346	0.205756	0.204606	0.19836	0.197374	0.199018
2347	0.197867	0.202962	0.201483	0.198524	0.203126
2348	0.201483	0.204113	0.200661	0.196388	0.198853
2349	0.20362	0.201483	0.200168	0.200825	0.201319
2350	0.199675	0.200661	0.199182	0.198689	0.200332
2351	0.200825	0.204277	0.200497	0.199675	0.196223
2352	0.200004	0.201647	0.198031	0.19721	0.19573
2353	0.204113	0.200004	0.201319	0.200004	0.200168
2354	0.201154	0.203948	0.200497	0.199346	0.19573
2355	0.200004	0.204934	0.199346	0.199346	0.190964
2356	0.198524	0.200332	0.20362	0.199018	0.194087
2357	0.201647	0.206578	0.199511	0.200168	0.198031
2358	0.200004	0.201812	0.202305	0.202469	0.198853
2359	0.199182	0.200004	0.201154	0.197045	0.200497
2360	0.196881	0.198031	0.199839	0.195566	0.205427
2361	0.201483	0.200661	0.202798	0.197867	0.200168
2362	0.199346	0.203455	0.199839	0.197703	0.201647
2363	0.202633	0.202962	0.198524	0.196388	0.199182
2364	0.202798	0.201483	0.201154	0.199182	0.20099
2365	0.20214	0.206249	0.199839	0.200661	0.198196
2366	0.203126	0.204606	0.200004	0.196717	0.200661
2367	0.202305	0.204934	0.200332	0.194087	0.199511
2368	0.204277	0.20477	0.199346	0.200497	0.195895
2369	0.199018	0.203784	0.198689	0.198689	0.198031
2370	0.20362	0.204606	0.198524	0.195237	0.198524
2371	0.199675	0.203948	0.199839	0.199346	0.199018
2372	0.201812	0.203784	0.195237	0.198689	0.198196
2373	0.198853	0.202305	0.196388	0.197867	0.199675
2374	0.203126	0.200332	0.195895	0.203948	0.19721
2375	0.202633	0.203126	0.20099	0.201154	0.199675
2376	0.202798	0.203126	0.199511	0.201812	0.197045
2377	0.197703	0.201812	0.201319	0.198524	0.199511
2378	0.197045	0.200168	0.200661	0.19836	0.198196
2379	0.200332	0.198524	0.201812	0.199839	0.19573
2380	0.201154	0.197703	0.200661	0.19836	0.194087
2381	0.200332	0.197703	0.198853	0.200168	0.198031
2382	0.20099	0.200332	0.199675	0.196717	0.167297
2383	0.202962	0.200497	0.198196	0.201812	0.166475
2384	0.203126	0.196881	0.201319	0.198196	0.166804
2385	0.205099	0.200825	0.19573	0.198689	0.167954
2386	0.203291	0.20214	0.200497	0.198031	0.169762
2387	0.203126	0.203455	0.200661	0.201154	0.166804
2388	0.20099	0.203784	0.199346	0.19721	0.171734
2389	0.202962	0.199018	0.196552	0.20099	0.174364
2390	0.199511	0.199346	0.201319	0.203126	0.174035
2391	0.199018	0.202798	0.199675	0.199182	0.176994
2392	0.202962	0.197703	0.202305	0.201319	0.176829
2393	0.200004	0.201647	0.200332	0.197538	0.174035
2394	0.196388	0.202469	0.203291	0.203784	0.175515
2395	0.199839	0.200497	0.202798	0.198031	0.175843
2396	0.202305	0.202962	0.196059	0.199675	0.176665
2397	0.202305	0.204934	0.199675	0.199675	0.178309
2398	0.200661	0.206907	0.197703	0.198524	0.178309
2399	0.19836	0.204277	0.197703	0.194087	0.178637
2400	0.199182	0.205592	0.199675	0.200004	0.180281
2401	0.200497	0.206907	0.198031	0.199018	0.180281
2402	0.201154	0.205921	0.199511	0.197538	0.179952
2403	0.197538	0.20362	0.199511	0.198853	0.181596
2404	0.202962	0.205099	0.199018	0.197703	0.182089
2405	0.199018	0.204113	0.200168	0.200332	0.179623
2406	0.202633	0.201976	0.196881	0.200661	0.183404
2407	0.204934	0.20099	0.19836	0.200661	0.185705
2408	0.206742	0.206578	0.20214	0.202798	0.184718
2409	0.199018	0.202633	0.204277	0.199018	0.183239
2410	0.199839	0.199511	0.200004	0.194087	0.180116
2411	0.200168	0.203455	0.199182	0.199346	0.175679
2412	0.201976	0.20214	0.200661	0.197867	0.168447
2413	0.194416	0.204113	0.199511	0.199839	0.176829
2414	0.199675	0.205099	0.198524	0.199346	0.176829
2415	0.20214	0.205263	0.19721	0.199839	0.179952
2416	0.201154	0.200168	0.201812	0.197703	0.17798
2417	0.201319	0.207893	0.200168	0.203291	0.178637
2418	0.203455	0.200168	0.198524	0.198853	0.181431
2419	0.200168	0.20855	0.199839	0.197538	0.178966
2420	0.205263	0.206085	0.201647	0.200168	0.179623
2421	0.205921	0.203291	0.197703	0.198689	0.181431
2422	0.202798	0.201976	0.199018	0.19573	0.182746
2423	0.205921	0.201647	0.196059	0.19836	0.181431
2424	0.199839	0.200004	0.197867	0.197045	0.183897
2425	0.202469	0.201483	0.197538	0.201483	0.182417
2426	0.203126	0.198853	0.19836	0.202633	0.18554
2427	0.200825	0.200497	0.197374	0.197045	0.183732
2428	0.192608	0.198524	0.200661	0.20214	0.185705
2429	0.203126	0.199675	0.202305	0.196552	0.185212
2430	0.202305	0.206742	0.199346	0.200168	0.187184
2431	0.20214	0.207564	0.200661	0.202798	0.186855
2432	0.200661	0.201154	0.196223	0.198524	0.186526
2433	0.201154	0.203126	0.200497	0.199346	0.18932
2434	0.203784	0.204606	0.198524	0.202305	0.187019
2435	0.199182	0.201647	0.200825	0.19836	0.188992
2436	0.202633	0.204606	0.198689	0.201812	0.188334
2437	0.200332	0.202962	0.201319	0.200168	0.18817
2438	0.204113	0.205263	0.196881	0.199346	0.183075
2439	0.200497	0.207564	0.199839	0.20099	0.187184
2440	0.204277	0.202962	0.201812	0.202305	0.188992
2441	0.201319	0.205099	0.19836	0.201319	0.189156
2442	0.203948	0.204113	0.201812	0.201647	0.187019
2443	0.200004	0.202469	0.201483	0.202798	0.190307
2444	0.197538	0.20099	0.199346	0.200497	0.192443
2445	0.201976	0.202469	0.19573	0.200004	0.186691
2446	0.200497	0.202305	0.19721	0.197045	0.194416
2447	0.20099	0.203455	0.198689	0.200332	0.189978
2448	0.201319	0.197374	0.200332	0.196223	0.189649
2449	0.201319	0.201483	0.198853	0.202305	0.190307
2450	0.199182	0.201647	0.200332	0.199182	0.189814
2451	0.209701	0.205099	0.198524	0.199511	0.18932
2452	0.199511	0.206414	0.199839	0.198853	0.191457
2453	0.201319	0.201976	0.198031	0.198524	0.187184
2454	0.201483	0.20362	0.199346	0.198853	0.190471
2455	0.200497	0.20477	0.196223	0.19721	0.19195
2456	0.204277	0.201647	0.200332	0.20099	0.187348
2457	0.201319	0.205263	0.199346	0.19836	0.188006
2458	0.202305	0.201976	0.196717	0.201812	0.186033
2459	0.199346	0.199018	0.200168	0.196223	0.182582
2460	0.203784	0.199018	0.199346	0.196388	0.180774
2461	0.201483	0.200332	0.200168	0.199346	0.180774
2462	0.205592	0.198031	0.198853	0.200168	0.180116
2463	0.202798	0.199511	0.200661	0.199511	0.18176
2464	0.202469	0.198524	0.197045	0.203126	0.176336
2465	0.201976	0.199511	0.200332	0.200332	0.181267
2466	0.201812	0.196388	0.200661	0.16253	0.173707
2467	0.200168	0.200332	0.195073	0.163845	0.175021
2468	0.201154	0.201647	0.194744	0.163681	0.173542
2469	0.198196	0.199346	0.200168	0.162366	0.174528
2470	0.20099	0.200332	0.196223	0.162859	0.173707
2471	0.201319	0.197374	0.196223	0.172885	0.177158
2472	0.201976	0.201319	0.198853	0.166146	0.175843
2473	0.201812	0.200004	0.203126	0.171899	0.174693
2474	0.20099	0.199182	0.196881	0.172885	0.173707
2475	0.203291	0.193429	0.197045	0.175679	0.17272
2476	0.20362	0.197045	0.200004	0.178637	0.170584
2477	0.201976	0.197374	0.199839	0.182089	0.173378
2478	0.19721	0.19573	0.200168	0.177487	0.169762
2479	0.201319	0.199182	0.200332	0.180938	0.173542
2480	0.199839	0.196059	0.201483	0.178802	0.170584
2481	0.202469	0.202305	0.19836	0.181924	0.164831
2482	0.200661	0.197703	0.202633	0.185705	0.146588
2483	0.202305	0.200004	0.199839	0.179459	0.129823
2484	0.199511	0.197374	0.199839	0.185869	0.114702
2485	0.200168	0.198689	0.200661	0.185212	0.106978
2486	0.201647	0.200168	0.200825	0.184225	0.09613
2487	0.202798	0.202633	0.198196	0.184718	0.078051
2488	0.200168	0.198196	0.19836	0.187513	0.069176
2489	0.203291	0.198689	0.200661	0.184061	0.051589
2490	0.201319	0.209043	0.203455	0.188663	0.050439
2491	0.201319	0.198853	0.20214	0.186033	0.042385
2492	0.199675	0.201647	0.199018	0.188499	0.038769
2493	0.199182	0.200661	0.20099	0.191128	0.035975
2494	0.199675	0.200497	0.198524	0.191128	0.037126
2495	0.201319	0.200004	0.199346	0.188334	0.033674
2496	0.200332	0.199511	0.201976	0.193429	0.034168
2497	0.201976	0.196059	0.205756	0.191786	0.037126
2498	0.202962	0.201812	0.201976	0.18817	0.037783
2499	0.201976	0.199018	0.201154	0.193922	0.048467
