Ladekurvenmessung

Zeit: 2018_05_04 09.57.28

Info: FVA3, v = 0.533, T = 23, F = 20, h = 381.9

Ladewiderstand[Ohm]: 1012700

Störkapazität[pF]: 0.000000

Entladezeit[ms]: 200

Abtastrate[Hz]: 250000

Anzahl der Messwerte: 2500.000000

Verzögerung[ms]: 3

Ladespannung[V]: 0.200000


	Kurve_1	Kurve_2	Kurve_3	Kurve_4	Kurve_5	Kurve_6	Kurve_7
0	0.000474	-0.003635	0.003761	0.000146	-0.004621	0.001132	-0.000841
1	0.003433	-0.00232	0.002611	0.001296	0.001625	0.000639	0.001132
2	0.002447	-0.002484	0.003104	-1.9e-05	0.001132	-0.005114	0.003926
3	0.000803	-0.003799	0.000639	0.000967	0.000803	-0.001991	0.000639
4	0.00409	-0.001498	0.00146	0.001132	-0.000676	0.003268	0.003104
5	0.003433	0.00031	0.000474	0.000639	0.003433	-0.002155	0.001625
6	0.001296	-0.002648	-0.002484	0.000146	0.00031	0.004912	0.003268
7	0.000967	-0.000841	-0.003963	0.003433	0.002118	0.001789	0.000474
8	0.003104	0.002282	-0.003799	0.00031	0.004583	0.003761	0.000146
9	0.002447	0.002447	-0.002155	-0.001334	0.002611	0.001296	0.004255
10	0.004583	0.002611	0.000146	0.002447	0.001789	0.002775	0.002118
11	0.003597	0.000639	0.003268	0.001789	0.002118	0.003433	0.001296
12	0.003104	-0.000841	0.002447	-0.001498	0.003761	0.000803	0.000803
13	0.003761	-0.000183	0.002447	0.002775	0.003104	-0.000512	-0.002813
14	0.000146	0.000474	0.002775	0.001789	0.002447	0.001132	0.000803
15	0.001132	-0.002813	0.002447	0.002775	-0.000183	0.00031	0.001789
16	0.004583	-0.000676	0.000639	-0.001827	-0.001169	-0.001169	0.001132
17	-0.000347	-0.002484	0.005569	-0.001662	-0.002155	-1.9e-05	-0.000347
18	0.000967	-0.000183	0.00146	0.002775	0.000967	0.001789	0.00294
19	0.006391	0.000474	-0.008565	-0.00347	0.000474	0.001132	0.003268
20	0.000639	-0.002484	-0.000183	0.00409	0.00294	-0.000347	0.003104
21	0.000639	0.000146	-0.000183	0.003597	0.000146	0.001789	-0.000512
22	0.003597	-0.004621	0.003268	0.002118	0.000967	0.001789	-0.001498
23	-0.002155	0.00031	0.002118	0.000474	0.000474	0.001789	0.002282
24	-0.002977	-0.00232	0.00031	0.001954	0.00409	0.000803	-0.004785
25	-0.001498	-0.001005	-0.000512	-0.000512	0.002447	-1.9e-05	-0.001662
26	0.002282	0.00031	-0.000183	0.001625	0.001789	0.002118	-0.003306
27	-0.000841	-0.000512	0.000474	0.000803	-1.9e-05	0.003761	-0.000841
28	-0.001169	-0.001662	0.00031	-0.003306	0.004583	0.000803	-0.000183
29	0.002282	0.003268	-0.001005	0.00031	0.003268	0.005241	-1.9e-05
30	0.008199	0.002611	-0.009058	-1.9e-05	-0.001662	-0.002813	-0.001827
31	-0.000676	-0.00347	-0.001334	0.000474	0.003104	-0.001498	0.003433
32	0.00146	-0.000841	0.000803	0.001296	-0.000512	-0.001005	-0.000183
33	0.003268	-0.001169	-0.001005	-0.004785	0.001132	0.002447	0.000803
34	-0.000512	0.001132	-0.001662	-0.002648	-0.001169	0.003268	-1.9e-05
35	0.003104	-0.005278	-0.00232	0.000146	-0.000676	-0.003306	0.00146
36	0.001954	-0.003799	-0.000512	-0.000841	-0.001662	0.001132	0.001625
37	0.002611	0.00031	-0.001498	-0.001005	-0.001169	-0.000512	0.00294
38	-0.001169	0.002282	0.001296	-0.001334	-0.002484	0.001296	0.004912
39	0.002611	0.004255	0.00031	0.001625	0.00031	0.000146	-0.000676
40	-0.003142	0.001296	-0.001334	0.001625	0.001625	0.002447	0.003597
41	0.000146	0.005405	-0.01514	0.000474	-0.000676	0.00031	-0.000183
42	-0.001991	0.005241	0.000474	-0.000512	0.001954	0.002775	0.00294
43	-0.002484	0.001625	-0.000183	-0.000347	0.000146	-0.000347	0.001132
44	-0.002648	0.006062	-0.001334	-0.001827	0.002611	0.003926	-0.000676
45	-0.002484	0.006062	0.00031	-0.002155	0.00031	0.000639	-0.001827
46	0.001296	0.006884	-0.001991	0.001954	0.005734	0.001132	0.000146
47	0.001132	0.001789	-0.001498	0.000803	0.000474	-0.000183	-0.001662
48	0.003597	0.003104	-0.004621	-1.9e-05	-0.002813	0.000146	0.004419
49	0.001296	0.004748	-0.000183	-0.000676	0.000474	0.000967	0.001789
50	0.002118	0.002118	0.002447	0.001625	0.003597	-0.001005	0.000803
51	0.002775	0.00409	-0.001662	0.000803	-1.9e-05	0.000967	0.001132
52	0.000639	-0.000676	-0.003306	0.003104	0.001789	0.001789	0.003433
53	-0.000676	-0.000183	-0.001005	-1.9e-05	0.000639	0.000967	0.006062
54	0.000803	0.002282	-0.002648	0.001625	-0.000183	-0.001827	0.004748
55	-0.001169	0.004583	-0.001827	-0.000676	-0.003635	0.001132	0.000474
56	0.000474	0.001296	-0.00347	0.000967	-1.9e-05	-0.000183	0.001296
57	-0.000183	0.002447	-0.003306	-0.000676	-0.000841	0.001789	0.001789
58	0.000474	-0.000183	-0.000676	0.001625	-0.001169	-0.002484	-0.00232
59	0.002447	0.005569	-0.003306	-0.002648	0.00146	0.002611	0.000803
60	-0.001662	0.003433	0.000639	-0.005114	-0.000183	0.000803	-0.001662
61	0.000639	0.000803	0.000803	-0.002977	-1.9e-05	0.00146	-0.000676
62	0.002118	0.003433	0.002611	-0.002484	-0.000183	-0.001334	0.00031
63	-0.011688	-0.001662	-0.000512	0.000474	0.001132	-0.001498	0.001132
64	0.001954	0.002611	-0.000676	-0.000841	-0.000841	0.001789	-0.000512
65	0.001625	-0.000841	-0.001662	-0.001334	0.001789	0.000803	-0.001498
66	-0.000512	0.003268	-0.001991	-0.000183	-1.9e-05	0.001132	-1.9e-05
67	0.004748	-0.001498	-0.001662	-0.001662	0.00146	-0.003799	-0.000347
68	0.000967	0.00031	0.000803	0.00031	0.001954	0.001625	0.002118
69	0.001296	-0.000512	0.000146	0.000639	0.001132	0.000639	0.000146
70	0.00409	-0.001334	0.000967	0.000967	-0.000512	0.000967	-0.001169
71	-0.001991	-0.000347	-0.000183	0.005405	-0.001498	0.00031	-0.001827
72	0.00031	-0.001169	0.003926	-0.002155	-0.000347	0.000474	0.000639
73	-0.003306	-0.001334	0.003926	0.000639	-0.0061	-0.000183	0.000803
74	-0.013332	-0.000676	0.001625	0.000803	-0.000676	-0.000512	-0.001991
75	-0.005114	-1.9e-05	-0.000841	0.00146	-0.000183	0.000967	-0.003963
76	-0.002484	0.000803	0.002775	-0.003635	0.00031	0.00294	0.00146
77	-0.004128	0.002282	-0.001005	0.00146	0.00031	0.000474	-0.001334
78	-0.00232	0.000803	-0.000347	-0.003142	0.001132	-0.000183	-0.005278
79	-0.001169	-0.001991	0.000967	-0.001498	0.000474	0.000967	0.00146
80	-0.000183	0.001954	-0.001005	-0.001991	-0.002484	0.002611	0.000639
81	0.002282	0.003268	0.000146	-0.00347	-0.001005	0.005898	-0.000841
82	0.001789	-0.001005	-0.00232	0.003268	-0.000183	0.002775	0.000474
83	0.000803	0.001132	-0.006593	-0.001169	0.000803	0.002775	-0.000183
84	0.002118	-0.002155	-0.002648	0.000967	-0.001334	0.002118	0.000474
85	-0.005114	-0.00232	0.00146	-0.000841	-0.000512	0.001789	0.004419
86	-0.001005	-0.001169	-0.002155	0.002118	-0.000347	0.00294	0.002447
87	-0.000512	-0.004456	-1.9e-05	-0.000512	0.002447	0.001132	-0.000183
88	-0.000512	-0.004128	-1.9e-05	0.004912	0.001132	0.001296	0.001789
89	0.000803	-0.003142	-0.001334	-0.000347	-0.000183	0.000146	-0.001498
90	-0.000676	-0.004128	0.001789	0.002118	0.00031	-0.004456	0.000803
91	-0.005278	-0.007086	-0.001169	0.001132	0.00031	0.00294	0.002611
92	-0.001169	-0.00232	-0.000512	-0.002813	-0.000841	-0.002155	-0.001169
93	-0.004128	-0.002484	0.00146	-0.001169	0.004583	0.000639	0.001954
94	-0.004128	-0.001662	0.001954	0.001625	-0.001827	-0.000512	-1.9e-05
95	-0.001662	-0.001498	0.000146	-0.001169	-0.002813	-1.9e-05	0.001954
96	-0.0061	-0.002155	0.00031	0.000967	-0.001169	0.001296	0.001296
97	-0.001498	-0.00347	0.003104	-1.9e-05	-1.9e-05	-0.000841	-0.004456
98	0.000146	0.003268	-0.006757	0.000803	0.000146	0.003761	-0.002977
99	0.003104	-0.000841	-0.001005	0.001625	0.001132	0.00031	0.001625
100	0.000146	-0.000183	-0.001827	0.00031	-1.9e-05	0.002775	-0.001827
101	0.002447	-0.003306	-0.001334	0.003761	0.003268	0.001954	0.000474
102	0.000639	0.000474	-0.000183	-0.002155	0.000803	0.003268	0.000474
103	0.002447	0.000639	-0.001662	0.002282	-0.002155	0.001132	-0.000183
104	0.000967	-0.001498	0.001954	0.00031	0.00294	0.003268	0.004912
105	-0.000512	-0.003142	-0.001827	0.002775	-0.001662	-0.001005	0.002611
106	-1.9e-05	0.001296	-0.000347	0.000639	-0.002813	0.002447	0.002447
107	-0.004621	-0.000183	-0.002648	0.002282	0.000146	0.00294	0.002447
108	-0.001498	-0.001169	0.00031	0.001625	0.003761	-0.000183	-1.9e-05
109	-0.003799	-0.001827	-0.000347	0.00031	-0.002484	0.000639	-0.000841
110	-0.002484	-0.00347	0.001296	-0.001991	0.002118	-0.001498	0.000803
111	-0.001498	-0.005278	0.002775	-0.001169	-0.001498	0.000474	0.00031
112	0.002775	-0.00232	0.000639	-0.003963	-0.001005	-0.002155	0.001132
113	0.000146	-0.003963	0.002118	-0.003142	-0.00232	-0.001827	0.006556
114	0.001625	-0.001991	-0.00347	-0.000347	0.00031	-0.002977	-0.001498
115	0.002611	-0.001991	0.00031	-0.001991	0.001132	-0.001334	0.002611
116	0.005734	-0.002648	-0.001662	0.000146	0.000639	-0.002155	0.001789
117	-0.001005	-0.001169	-0.001991	0.000474	0.00031	-0.000841	0.002447
118	0.000803	-0.002813	-0.000841	0.001789	-0.000676	0.000146	0.001954
119	-0.001334	0.000474	-0.000183	-0.000183	-0.000347	0.000639	0.000146
120	0.002611	-0.004456	0.002447	0.001954	-1.9e-05	0.000967	0.001132
121	0.000639	-0.002484	-0.001169	0.000639	0.000967	0.003597	0.005898
122	0.000639	-0.00347	0.001296	-0.002648	-0.001498	-0.000347	-0.001005
123	-0.002484	-0.002648	0.005405	-0.000676	-0.003306	0.002611	0.003104
124	0.003926	-0.002977	0.005241	-0.000512	-0.003142	0.00031	-0.000841
125	-0.001827	-0.002813	-0.000676	0.000967	0.001296	-0.000841	0.002611
126	-0.005114	0.00031	0.003597	0.00031	-0.001169	-0.000512	0.00294
127	0.002447	-0.005936	0.001132	-0.000183	-1.9e-05	-0.000841	-0.000512
128	-0.003142	-0.001005	-0.000347	0.001789	-0.003306	0.002282	-1.9e-05
129	0.000639	-0.006757	0.002447	-0.001662	-0.001005	0.000803	0.001789
130	-0.001662	-0.002484	0.002611	-0.001169	-0.000512	-0.001498	0.003433
131	0.002611	-0.001827	-0.002155	-0.002977	-0.000183	-0.000347	0.002282
132	0.001625	-0.00232	-0.001169	0.000474	0.001296	-0.001498	0.001625
133	0.002118	-0.002813	0.001954	0.001132	-0.001991	-0.000841	0.004255
134	0.00146	-0.003306	-0.001334	-0.002648	-0.001498	0.001625	0.002282
135	-1.9e-05	-0.000676	0.00294	-0.001005	-0.000512	0.001132	0.001132
136	-0.001662	-0.002484	-0.001827	-0.000676	-1.9e-05	0.000967	0.003597
137	0.006062	-0.000512	0.001296	0.002447	-0.002484	-1.9e-05	0.000146
138	0.006227	-0.003306	0.000803	0.000639	0.000967	0.000639	0.002282
139	-0.000676	-0.00232	0.000803	0.005076	-0.000841	-0.000183	0.000146
140	0.003926	-0.004621	0.002282	0.001789	0.001296	-0.000512	0.000967
141	-0.000676	-0.001827	0.004255	0.002282	0.001789	-0.000676	0.001296
142	-0.001498	-0.004128	-0.000512	0.003268	0.000474	-0.000183	0.00146
143	-1.9e-05	-0.004456	0.002282	0.00031	-0.001169	-0.001662	0.005734
144	0.002282	-0.004456	0.000474	0.002611	-0.001827	-1.9e-05	0.000146
145	-0.003142	-0.000841	0.004748	0.000803	0.001625	-0.000183	0.002775
146	0.001625	-0.00232	-0.000347	0.001132	0.002447	0.00031	0.004583
147	0.00409	0.000639	-0.001169	-0.001169	0.00146	0.000146	0.003926
148	0.001296	-0.002484	0.001625	0.000639	-0.001005	0.000474	0.002118
149	0.00409	-0.001498	0.00031	-0.004456	0.002282	0.000474	0.003268
150	0.003761	-0.002813	0.000967	0.003433	-0.000347	-0.000347	0.002611
151	0.00294	0.00031	-0.000183	0.002611	0.002611	0.000146	0.001296
152	0.002775	0.000967	0.001625	0.000803	0.003268	-0.001005	0.000967
153	0.003104	0.005405	-0.002155	0.001625	0.002118	-0.000183	0.000474
154	0.004255	-1.9e-05	0.002118	0.000803	0.001132	-0.001169	0.000474
155	0.00146	-0.001991	-0.002484	0.000967	0.000639	0.00031	0.002118
156	0.00294	0.002118	-0.00232	0.000967	-0.00347	-0.000676	-0.001498
157	0.005076	0.000474	-0.003142	0.001625	0.00409	0.000146	-0.001662
158	0.001789	-0.000841	0.000967	0.003926	0.001789	0.00031	0.000146
159	0.00409	-0.003799	0.003104	0.004419	-0.001498	-1.9e-05	0.000803
160	0.003268	0.001296	0.001954	-0.001334	-0.003635	0.000146	-0.000183
161	0.002775	-0.001827	0.002447	-0.000676	-0.004292	-0.000183	0.001954
162	0.00146	0.002447	0.004255	-0.001005	-0.00232	-0.000347	0.000474
163	0.005076	-0.000347	0.002775	0.003597	0.000474	-0.000841	0.003761
164	0.005734	-0.001662	-0.001169	-0.000347	-0.001662	-0.000512	0.00146
165	0.001789	-0.002813	-0.000347	-0.001334	-0.000347	-0.000676	0.000967
166	-0.002977	-0.002648	-0.002648	-0.000347	-0.000183	-1.9e-05	0.002775
167	0.001132	-0.001662	0.001132	-0.000347	0.001625	-1.9e-05	0.00031
168	0.004255	0.001954	0.00031	-0.000512	0.000146	0.000146	-0.00232
169	0.002282	-0.000347	-0.002155	-0.001169	-0.000347	0.000146	0.001132
170	0.004419	-0.001005	0.000967	0.000967	0.001625	0.00031	0.006062
171	0.001296	-0.001991	0.001954	0.00146	-0.001334	0.000146	0.00294
172	0.003597	-0.000512	-1.9e-05	-0.00232	0.002775	-0.000183	-0.000183
173	0.004583	0.001789	0.004419	0.002118	0.000967	-0.000512	0.000803
174	0.002447	-0.00347	0.006884	0.00146	0.000803	-0.000347	-0.001169
175	-1.9e-05	0.000639	0.002611	0.001789	0.002282	-0.000841	-0.001827
176	0.004748	0.000146	0.000967	0.003433	-0.001334	-0.000183	-0.005443
177	0.001789	0.00031	0.003104	-0.000841	-0.000183	-1.9e-05	-0.002155
178	0.002447	-0.001169	0.000474	0.000803	-0.000676	-1.9e-05	-0.00232
179	0.003433	-0.001991	-0.000347	-0.004128	-0.001827	0.00031	-0.001498
180	0.00294	-0.004292	-0.000841	0.000474	-0.00232	0.000146	0.001132
181	0.002775	-0.001991	0.001296	-0.001662	-0.000512	0.000146	0.004419
182	0.001789	-0.004128	-0.000347	-0.001498	-0.001498	0.000146	-0.001991
183	0.001296	0.000639	0.002447	0.000146	-0.000512	-1.9e-05	0.003761
184	0.001132	-0.000841	0.001296	0.000474	-0.00232	-0.000183	0.000967
185	0.002282	-0.000512	-0.001498	-0.002648	-0.000676	-0.000347	0.001296
186	0.007542	-0.000347	-0.000512	-0.004292	0.000474	-0.000183	0.00146
187	0.000967	0.002118	-0.001991	0.002611	0.00146	-1.9e-05	-0.000347
188	-0.000512	-0.001827	0.00031	-0.00232	0.00031	-0.000183	-0.000512
189	0.002611	-0.004785	-0.000676	-0.000676	0.001132	0.000146	-0.000676
190	0.000803	-0.000841	-0.000183	0.00031	-0.001827	-1.9e-05	-0.004128
191	0.003597	-0.005443	-0.002648	0.001296	-0.004292	0.000146	0.000146
192	0.000146	-0.000347	0.002611	0.001789	0.004419	0.000146	0.001789
193	0.001132	-0.001498	0.001954	0.00294	-0.000347	0.000146	-0.000841
194	0.002447	0.000474	0.00294	-0.000183	0.000474	-0.000183	0.001296
195	0.005405	-0.001005	-0.003799	0.002447	0.00031	-0.000347	0.000803
196	0.001296	-0.000676	-0.000676	0.001625	-0.001662	-0.000676	-0.000512
197	0.003268	-0.002155	0.001296	0.001789	-0.000347	-0.000512	0.001625
198	-0.00232	-0.001005	-0.001169	0.002775	0.002118	-0.000347	0.007213
199	0.000474	-0.000183	-0.000676	-0.00232	-0.00347	-1.9e-05	-0.001169
200	0.001789	-0.003306	-0.000676	0.002118	0.002118	-1.9e-05	0.005569
201	0.002447	0.001296	0.00146	0.000639	0.00031	0.000146	0.000803
202	0.002611	-0.000183	-0.000676	-0.002155	0.00031	0.00031	0.000967
203	0.00146	0.004419	-0.000183	0.000474	-0.000512	-1.9e-05	0.000803
204	0.001954	-0.000512	-0.002648	-0.000347	0.000967	0.00031	-0.006593
205	0.001296	0.001296	0.00031	0.000146	0.002118	-0.000183	-0.001005
206	0.004419	0.00031	-0.001169	0.005076	0.003597	-0.000512	-0.001169
207	0.001625	-0.001827	0.004255	-1.9e-05	-0.000183	-0.000512	-0.001169
208	0.002282	-0.001827	0.002775	-0.000512	-1.9e-05	-0.000512	-0.000676
209	0.00146	0.003433	0.002775	-0.001169	0.003597	-0.000512	0.002282
210	0.002611	-0.002155	0.001625	0.004255	-0.001169	-0.000183	-0.001827
211	0.005076	0.001132	0.001132	0.002775	0.000803	0.000146	0.001625
212	0.002447	-0.001334	0.000803	0.001625	-0.002155	-0.000183	-0.001498
213	0.001132	-0.002813	-0.00347	0.002775	-0.001169	0.00031	0.001789
214	0.001954	-0.002484	0.003104	0.002118	0.000146	0.000146	0.000803
215	0.003761	-0.003799	0.00031	-1.9e-05	0.00031	0.00031	0.001132
216	0.004419	-0.001827	-0.000841	0.00031	-0.002484	-0.000347	-0.000347
217	0.003104	-0.003142	0.000803	0.000639	0.000146	-0.000512	0.00294
218	0.001954	0.002447	0.004583	0.001954	-0.000512	-0.000347	0.000639
219	0.000146	-0.001662	0.000474	-0.002155	-0.002155	-0.000512	0.005076
220	-1.9e-05	0.000639	0.001625	-1.9e-05	0.002447	-0.000841	0.003597
221	-0.000183	-0.002484	-1.9e-05	-0.000512	0.000639	0.000146	-0.001498
222	-0.000676	-1.9e-05	-0.001005	-0.003799	0.002611	-1.9e-05	-0.005114
223	0.001789	-0.004292	-0.000676	0.003597	-0.001334	0.000146	-0.001005
224	-0.000841	0.001132	0.003926	0.000474	-0.000512	0.00031	-0.000676
225	0.003597	-0.001827	0.000639	0.00031	-0.000347	0.000474	-0.002484
226	-0.000512	-0.002155	0.00146	-0.000676	0.001132	-1.9e-05	0.000803
227	0.00146	0.001789	0.001789	0.001625	-0.000676	-0.000347	0.001789
228	0.001132	-0.000676	-0.001334	0.000639	0.000474	-0.000676	0.003597
229	0.000639	-0.000512	0.001132	0.000474	-0.000512	-0.000512	0.002118
230	-0.001827	-0.001169	0.000474	-0.002648	-0.000676	-0.000676	0.001296
231	0.000474	-0.000841	0.002118	0.000474	-1.9e-05	-0.000512	0.00294
232	-0.001991	-0.002155	-0.000512	-0.000841	0.001625	0.000474	-0.001169
233	-0.001169	-0.002155	0.001625	-0.002155	-0.000841	-0.002484	0.001132
234	-0.001827	-0.001498	-0.001334	-0.001334	-0.003306	0.001132	0.002118
235	-0.003306	0.000474	-0.003142	-0.000512	-0.000512	0.000146	0.000803
236	-0.004128	-0.000841	0.000639	-0.000183	-0.001169	0.000803	0.002282
237	-0.008072	-0.002977	-1.9e-05	-0.005936	-0.000347	0.001132	-0.000347
238	-0.002813	-0.002648	-0.001334	0.001132	-0.002155	0.000803	-0.000676
239	-0.001991	-0.000183	-0.000512	-0.000512	-1.9e-05	0.000967	0.002611
240	-0.003963	-0.003306	-0.000512	0.00031	-0.000183	0.000967	0.000146
241	-0.004949	-0.00232	-0.001169	-0.000347	0.000639	0.002611	0.001296
242	-0.001662	-0.003635	0.001296	0.000967	0.001132	0.002118	-0.002813
243	-0.001827	-0.000183	-0.001827	-0.003306	0.001132	0.001954	0.001296
244	-0.00232	-1.9e-05	0.001789	-0.001169	0.000639	0.000474	-0.000676
245	-0.000841	-0.001334	-0.000676	0.000474	0.004583	0.000967	0.001296
246	-0.003635	0.000967	-0.001662	0.001132	-0.00232	-0.001662	-0.00232
247	-0.001498	-0.003306	-0.000183	-0.000183	0.00146	0.000803	0.000474
248	-0.003799	-0.001991	0.002611	-0.000183	0.00031	-0.001005	0.000474
249	-0.001334	-0.000183	-1.9e-05	0.002611	0.001132	-0.000841	0.002282
250	-0.002484	0.000146	0.00294	0.003104	-1.9e-05	-0.002648	-0.000347
251	-0.001498	-0.002977	0.001132	0.002447	0.001132	-1.9e-05	0.003926
252	-0.00347	0.001789	0.001954	-0.002155	-0.000183	0.00031	-0.001334
253	-0.004949	0.001625	0.002282	0.002611	0.000474	0.00146	-0.001662
254	-0.005278	-0.004128	-0.000183	-0.001991	0.000967	0.002775	0.00031
255	-0.00232	-0.001334	0.001789	-0.000676	-0.000676	-0.001827	-0.001827
256	-0.004128	0.001132	0.003597	-0.002484	-0.000512	0.000967	-0.000676
257	-0.003635	-0.000512	0.004748	0.002775	-0.000347	-0.000183	-0.00232
258	-0.002155	-0.000183	0.000146	-0.002648	-0.000347	0.001625	0.002118
259	-1.9e-05	-0.001005	0.001954	-0.00347	-0.000512	0.00031	-0.001334
260	-0.003306	-0.000841	0.002447	-0.00232	0.002611	0.003104	0.001132
261	-0.002648	-0.000347	0.004255	0.002282	-0.001991	-0.002155	0.000474
262	-0.000183	-0.006593	0.002447	0.00294	0.00672	0.003761	0.002775
263	-0.005443	-0.001498	0.002611	0.00146	0.000474	-0.001662	-0.000183
264	-0.003799	-0.004785	0.001625	0.003926	0.00294	0.001954	0.00031
265	-0.010209	-0.003635	0.005734	0.000146	-0.000183	-0.001991	-0.000347
266	-0.0061	-0.002484	0.001954	-0.000512	-0.000676	-0.002813	0.00031
267	-0.004128	-0.001169	0.006062	-0.001991	-0.001169	-0.001005	0.000967
268	-0.00232	-0.000347	0.005241	0.000803	0.000474	0.001296	0.001132
269	-0.004785	-0.000841	0.007706	-0.001498	-0.001005	0.000146	0.001954
270	-0.002484	-0.003142	0.00672	-0.000347	-0.000676	-0.001827	-0.003142
271	-0.004456	-0.000347	0.004255	-0.000676	-0.001005	0.001625	0.001132
272	-0.004621	-0.002155	0.004419	-0.001334	-0.002155	-0.000183	-0.000512
273	-0.002155	-0.001334	0.00294	-0.001498	-1.9e-05	0.000803	-0.000512
274	-0.003963	-0.003306	0.003433	0.00031	-0.001498	0.00146	-0.002813
275	-0.002484	-0.000183	0.001132	0.000967	-0.001498	0.00031	0.001132
276	-0.003142	-0.004621	0.002282	-0.002155	-0.001334	0.001789	-0.001827
277	-0.001169	-0.003799	-0.000347	0.002282	0.003433	0.001789	-0.002484
278	-0.00347	-0.002648	0.00672	0.001296	-0.002648	0.002282	-0.002155
279	-0.002813	-0.004949	0.001296	-0.000841	0.002118	0.004419	-0.000676
280	-0.003306	-0.001498	0.005076	-0.001005	0.000639	-0.000841	-0.000347
281	-0.001005	-0.001334	0.004748	-0.000347	0.004255	0.00031	0.000474
282	-0.003635	0.000146	0.004748	0.001132	0.000639	0.001954	-0.000841
283	-0.002155	-0.000512	0.004255	0.001954	0.002282	-0.000841	0.002118
284	-0.002813	0.00031	0.00672	-0.002484	0.001132	0.004583	0.001296
285	-0.005771	-0.002977	0.000967	-0.001334	-0.001005	0.000146	-0.000347
286	-0.00232	0.000967	0.003926	-0.00232	-0.001005	0.002118	0.002447
287	-1.9e-05	-0.00347	0.006227	-0.000347	-0.000841	-0.001498	-0.000347
288	-0.000841	-0.005936	0.001625	-0.000512	-1.9e-05	-0.001169	0.001132
289	-0.002977	-0.002648	0.002775	-0.001334	-0.004621	0.000803	-0.000676
290	-0.001334	-0.003799	0.002775	-0.001334	-0.001498	0.00031	0.002611
291	-0.006593	-0.002813	-0.000841	-0.000512	-0.001169	-1.9e-05	0.000474
292	-0.001827	-0.003306	0.002282	-0.005114	0.000146	0.001132	0.000146
293	-0.003142	-1.9e-05	0.003761	-0.001334	0.000474	0.00146	0.001625
294	-0.00347	0.00031	0.00146	0.000146	0.001132	0.003761	0.002118
295	-0.000841	0.00031	0.004419	0.000639	-0.001991	-0.000676	0.000639
296	-0.002648	-0.001827	0.000803	0.000639	0.001296	0.001625	0.000146
297	-0.004128	0.002447	0.001132	0.002447	0.000474	0.003433	0.002775
298	-0.000512	-0.002977	0.000639	0.002447	0.001625	-0.001498	-0.000347
299	-0.001991	-0.000841	0.003597	-0.001498	0.00294	-0.001827	0.000474
300	-0.000841	0.001296	0.005076	0.003761	-0.000676	-0.002155	-0.005278
301	-0.002977	-1.9e-05	0.003104	0.000474	0.00146	0.001296	0.000146
302	-0.001662	-0.001169	0.003761	0.002118	-0.001169	-0.00232	-0.000347
303	-0.003306	0.00409	0.003761	0.002775	-1.9e-05	-0.001005	0.00031
304	-0.001334	0.001625	0.003597	0.002447	-0.001498	-0.002155	0.005076
305	-0.002155	-0.001991	0.001625	0.00031	-0.001991	0.000803	-0.000183
306	-0.001498	0.003268	0.002611	0.001132	-0.002155	-0.000841	-0.000183
307	-0.001005	-0.001662	0.000146	-0.001827	0.002611	0.002118	0.001625
308	-0.002155	0.001132	-0.001169	0.001296	-0.001334	0.002611	-0.000183
309	-0.002155	-0.004128	-0.003142	-0.003963	-0.00232	0.000146	0.000146
310	-0.003635	-0.000676	0.000639	-0.001169	-0.001334	-0.000183	0.000803
311	0.001954	-0.002813	-0.001169	-0.003799	-0.001334	0.000803	-0.000183
312	-0.003142	-0.001169	0.001132	-0.002813	-0.004456	0.000474	-0.000183
313	0.002118	-0.003306	-0.001991	0.000803	-0.001169	-0.000512	0.00146
314	0.001625	0.002611	-0.000676	0.002447	-0.000183	0.000639	-0.001662
315	0.002447	0.000639	0.001132	0.000803	0.000803	0.000474	0.004583
316	0.000474	0.001132	-0.001169	0.001132	-0.001005	0.000803	-0.001169
317	-0.001991	-0.000512	0.001954	0.00031	0.000639	-0.001827	0.000474
318	-0.001991	0.000474	0.00146	0.001789	0.000967	0.002282	0.002447
319	-0.001334	-0.000676	-0.000512	0.002775	-0.000841	0.000639	-0.001827
320	-0.00232	-1.9e-05	-0.001005	-0.002813	-0.000676	-0.001334	-0.000841
321	-0.00232	-0.003306	0.001132	-0.000512	-0.001334	-0.002813	-0.003142
322	-0.001498	-0.003142	-0.001498	-0.001334	-0.00232	0.002447	0.001296
323	-0.004292	-0.001662	-0.001827	-0.000347	-0.001498	-0.001169	-0.002484
324	-0.000183	-0.004456	-0.00873	-0.002155	-0.000841	-0.002155	-0.000183
325	-0.000841	-0.001498	-0.003306	0.000967	-0.001498	-0.000841	-0.002155
326	-0.000347	-0.000841	-0.004456	-0.001169	-0.000676	0.00294	0.001132
327	-0.005114	-0.004456	0.003104	-1.9e-05	-0.001827	0.000146	-0.001991
328	-0.001991	-0.002977	-0.005443	0.003926	0.000639	-0.000512	-0.003963
329	-0.001498	-0.001334	-0.004621	0.00031	0.002775	-0.000512	-0.001334
330	-1.9e-05	-0.003306	-0.003142	0.002447	0.002611	-1.9e-05	0.000146
331	-0.000512	-0.000676	-0.003963	0.002282	-0.001005	0.000967	0.001789
332	0.002118	-0.000512	-0.004128	-0.004292	0.003761	0.000474	-0.0061
333	-0.00232	-0.003799	0.00031	0.000474	-0.003799	-0.001005	0.001789
334	0.000967	-0.001334	-0.003306	-0.00232	-0.005278	-0.00232	-0.000841
335	0.00409	-0.004128	-0.004456	-0.000183	-0.000183	0.000474	0.000803
336	0.00146	-0.003799	0.000803	0.003433	-0.004292	-0.001991	-0.001334
337	-0.000183	-0.005114	0.002611	0.00031	-0.001827	0.002611	0.001296
338	-0.008072	-0.005114	0.001954	0.00146	-0.003142	0.00146	-0.000512
339	-0.003963	-0.003963	-0.004456	0.000146	0.00031	0.000967	0.003268
340	-0.004456	-0.005936	-0.002813	0.00031	-0.000347	-1.9e-05	-1.9e-05
341	-0.001334	-0.00232	-0.004292	0.002118	0.001132	-0.000676	0.005241
342	-0.0061	-0.002977	-0.003963	0.001789	-0.001169	0.000803	-0.000841
343	-0.001827	-0.003306	-0.003635	0.001625	-0.000183	-0.000183	0.000146
344	-0.000676	-0.001827	-0.000347	-0.000183	-0.001662	0.002282	0.000967
345	-0.001991	-0.001991	-0.004621	0.002118	0.000967	-0.001498	0.00294
346	-0.002155	-0.001005	-0.002155	-1.9e-05	0.00146	0.002447	0.00294
347	0.003104	-0.001991	-0.00347	0.004748	0.001789	-0.000841	-0.000841
348	0.00031	0.002611	-0.002648	0.002611	0.002118	0.003268	0.001625
349	0.001625	-0.000183	-0.003799	0.000967	-0.000347	-0.000347	-0.001498
350	0.001625	-0.000841	-0.003142	0.001296	0.003104	0.00409	-0.000347
351	0.000639	0.000474	-0.00347	0.002775	-0.000347	0.002118	-0.003142
352	0.001789	-0.000347	-0.003799	-1.9e-05	0.002282	0.002118	0.002282
353	-0.000676	0.003433	-0.003963	0.000146	-0.002155	0.001296	0.000803
354	0.000639	-0.000512	-0.003799	0.002447	0.000474	0.003104	0.000967
355	-0.000841	0.00031	-0.004621	0.00031	0.003926	0.000967	-0.002484
356	0.00031	-0.001334	-0.00725	0.001954	-1.9e-05	0.003268	-0.000347
357	-0.000183	-0.003306	-0.006757	0.000474	-0.001169	0.001132	-0.000512
358	-0.000676	-0.00347	-0.005771	0.005734	0.00031	-0.003142	0.00031
359	-0.001498	0.002118	-0.002484	0.001954	-0.000183	0.001132	0.000967
360	-1.9e-05	-0.003306	-0.003306	0.002775	0.000474	-0.00232	0.00146
361	0.001296	-0.001169	-0.002813	0.004583	0.004583	0.002447	0.003104
362	-0.000512	-0.002977	-0.003306	0.002775	0.00294	0.001625	-0.001169
363	-0.00347	0.001954	-0.002484	0.000146	0.003926	0.001296	0.008363
364	0.000639	0.002611	-0.004456	0.001625	0.00031	-0.001662	-0.003142
365	-0.001662	0.000474	-0.002813	-0.001005	0.003104	-1.9e-05	-0.000347
366	-0.000183	0.000803	-0.003306	-0.000512	-0.000512	-0.000676	-0.001498
367	0.005734	0.000146	-0.002813	-0.001005	0.002775	0.003104	0.000146
368	0.00294	-0.001334	0.000146	0.001625	-0.00232	-0.000347	-0.000347
369	0.001954	-0.000183	-0.003142	0.00294	0.002447	-0.000183	0.000146
370	0.001132	0.000967	-0.000676	0.00294	-0.000183	0.001789	-0.003142
371	0.000146	-0.002484	-0.00347	-0.001498	0.000967	0.004255	-0.002155
372	-0.000512	-0.002813	-0.002813	0.004419	0.001625	-0.000512	-0.001334
373	0.00146	-0.001169	-0.000841	0.001954	-1.9e-05	0.001954	0.000474
374	-0.001498	-0.001169	0.002611	0.000474	0.000474	0.002611	0.001789
375	-0.002155	-0.002484	-0.003142	0.000639	0.000639	-0.000676	-0.003142
376	-0.001498	-0.000676	-0.002813	0.000803	0.000146	0.000967	-0.001169
377	0.00031	-0.003963	-0.003306	0.000474	-0.000512	0.002447	0.000803
378	-0.003635	-0.001169	-0.002484	0.000803	-0.000183	0.001132	0.003926
379	-0.001827	-0.001991	-0.002813	0.000639	0.001132	0.001789	0.002775
380	-0.000183	-1.9e-05	-0.001498	0.002118	-0.002813	-0.002648	0.004912
381	0.000474	0.000146	-0.00347	0.003268	-0.002484	0.002118	0.00146
382	0.001296	0.000474	-0.003142	-0.002155	0.004583	0.003268	0.002447
383	0.003926	-1.9e-05	-0.001991	-0.000347	0.000803	-0.000183	0.003761
384	0.003104	-0.000512	0.002447	-0.002977	0.00031	0.000474	0.000803
385	-0.000676	0.000967	-0.004292	0.003926	-0.000676	-0.001498	-0.00232
386	0.000639	-0.003142	-0.000183	-0.004949	0.000474	0.00146	0.001296
387	0.000146	-0.005607	0.000803	-0.001662	-0.000347	0.001625	-0.003142
388	0.004255	-0.003635	-0.010538	0.00146	-0.000347	0.00031	-0.001498
389	0.002282	-0.003963	0.000474	0.005405	0.000803	0.000967	0.000803
390	0.001789	-0.009223	-0.000841	0.000474	-1.9e-05	0.000474	0.000474
391	-0.000512	0.001625	-0.001334	0.003433	0.000146	-1.9e-05	0.003104
392	-0.000512	-0.005607	-0.003142	0.00409	0.000803	0.002447	0.002447
393	-0.004128	-0.001827	-0.002155	0.000146	0.002118	0.002282	0.000967
394	0.000803	-0.003799	0.000803	0.002282	0.00031	-0.001169	-0.003142
395	-0.004292	-0.002484	-0.002977	-0.000676	0.000967	0.002118	0.002118
396	-0.003799	0.000474	-0.001169	0.006062	0.000639	0.001625	-0.009058
397	-0.000676	-0.002648	-0.002648	-0.001169	0.003597	-0.001334	-0.000512
398	-0.000512	-0.001169	-0.001334	0.001625	-0.000183	-0.000183	0.000639
399	0.001954	0.000474	-0.002484	-0.002648	-0.001334	0.003104	-0.002155
400	0.000146	-0.000841	-0.001991	-0.002813	-0.000841	0.002447	-0.000512
401	0.001132	-0.001169	-0.003963	0.00031	0.00146	0.002611	0.000803
402	0.001132	0.003433	-0.001991	0.003597	-0.001827	0.003761	-0.003306
403	-0.000183	-0.000512	-0.010373	0.005076	0.002447	0.003926	0.001625
404	0.000146	0.001954	-0.001662	-0.000183	0.000967	0.002775	-0.001005
405	0.004583	-0.001169	-0.003142	-0.000512	0.002447	0.000474	-0.002484
406	-0.00232	0.000967	-0.007415	0.000146	0.000967	-0.000183	-0.000512
407	0.002118	0.001954	-0.005607	0.009185	0.001132	0.000803	-0.013332
408	-0.001169	-0.004292	-0.000841	-0.00347	-0.001498	-0.001005	-0.002648
409	0.000146	-0.004128	-0.004785	0.00031	-0.002648	0.000146	0.001132
410	-0.001498	-0.002155	-0.003142	0.00146	-0.001005	-0.000183	-0.000841
411	0.000803	-0.001662	-0.001334	0.001625	-0.002648	-0.001334	0.000967
412	0.002118	-0.001991	-0.002648	-0.001498	-0.000183	0.002775	0.001625
413	0.003104	-0.000347	-0.001498	0.001296	-0.000183	-0.000183	0.000639
414	0.001132	-0.001991	-0.003635	-0.000183	0.003104	-0.000347	0.002775
415	-0.002155	-0.000512	-0.002155	0.001296	-0.00232	0.001296	0.000639
416	-0.000676	-0.003142	-0.002155	-0.005278	-0.001169	0.003268	0.000639
417	-0.001334	0.003433	-0.00232	-0.003306	0.000474	0.001132	0.003268
418	0.003597	0.003926	-0.003963	0.001296	-0.000841	0.004748	-0.00873
419	-0.001498	-0.000841	-0.000183	-0.003963	0.00031	0.002118	-0.002484
420	0.003597	-0.003306	-0.001334	0.000146	0.003268	0.00146	-0.003142
421	0.000146	-0.00232	-0.000512	0.000146	-0.001827	0.002282	-0.00232
422	-0.001005	-0.003799	-0.001005	0.00031	0.001296	0.000146	-0.001827
423	-0.000183	-0.001498	0.001132	0.00146	0.001625	0.004748	-0.000347
424	0.00031	-0.002155	0.000803	0.003104	-0.000841	0.00146	-0.004621
425	0.000639	-0.001334	0.001625	-0.000183	0.002282	0.007377	0.000146
426	-0.000841	-0.000183	0.001954	0.002775	-0.000676	0.00294	0.003104
427	-0.002155	-0.000183	0.000639	-0.003142	0.000146	0.00294	0.000803
428	-0.000841	-0.002813	0.001132	0.004583	-0.001005	0.002447	-0.002648
429	0.001954	0.008199	-0.000512	-0.006593	0.002447	0.00294	-0.003142
430	0.001296	-0.002977	-0.001169	0.000146	0.003433	0.000639	-0.001169
431	-0.000841	-0.000676	-0.001169	-0.000512	0.004748	0.000474	0.002447
432	-0.001662	-0.000676	-1.9e-05	-0.001498	-0.000676	-0.000841	-1.9e-05
433	-1.9e-05	-0.002155	-0.001169	-0.001662	0.000474	0.002447	0.001625
434	-0.002484	-0.000676	-0.000347	-0.002155	-0.004292	0.003597	0.000639
435	0.000803	-0.000512	-0.001169	-0.002155	-0.002813	-1.9e-05	0.002118
436	-0.000841	-0.004292	-1.9e-05	-0.002155	-0.001169	0.004419	0.002118
437	0.000967	-0.004456	-0.001991	-0.001991	0.000639	0.005076	0.001296
438	-0.002484	-0.000512	-0.002648	0.001132	0.001789	0.002118	-0.000347
439	-0.000347	-0.002813	-0.001169	-0.001498	0.003597	0.002447	-0.001005
440	-0.004621	0.001132	0.000146	-0.011524	-0.00725	0.004912	-0.001169
441	-0.004621	-0.003635	-0.001005	0.000803	-1.9e-05	0.001132	-0.004128
442	-0.000841	-0.003142	0.001625	0.000803	0.005734	0.002611	0.001789
443	-0.003142	-0.001498	-0.000347	0.002282	-0.001005	0.00146	0.003268
444	-0.002813	-0.003306	0.000967	0.000639	0.001625	0.002447	-0.002813
445	-0.000512	-0.005936	-0.000512	-0.002484	0.000803	-0.001498	-0.002484
446	0.000146	0.002118	-0.000183	0.003268	-1.9e-05	0.003268	0.001954
447	-0.002155	-0.002813	-0.000676	-0.000183	-0.003142	0.001132	0.000639
448	-0.000841	-0.002813	-0.000841	-0.001498	0.002775	0.004255	0.002118
449	-1.9e-05	0.000967	-0.001005	-0.001498	-0.002813	0.002282	-0.000183
450	0.000639	-0.002813	-0.000512	-0.001991	0.001132	0.003268	0.000639
451	-0.000841	-0.001005	-1.9e-05	-0.011852	-0.000512	0.008199	0.002775
452	0.001954	-0.007086	-1.9e-05	0.000146	0.00031	0.002447	0.000639
453	0.001954	-0.003306	0.00031	-0.001662	0.008199	0.002447	-0.002155
454	0.00146	-0.002155	-1.9e-05	0.001625	0.000146	0.002118	-0.005771
455	-0.001334	-1.9e-05	-1.9e-05	-0.000512	-0.001005	0.004748	-0.001498
456	0.002775	-0.001662	-0.000183	0.001296	0.002611	0.000474	-0.001991
457	0.002611	0.000146	-0.000347	0.000803	0.003926	0.006227	0.003104
458	-0.001005	0.00031	-0.000676	0.000474	0.001132	0.007213	-1.9e-05
459	0.002118	-0.001498	-0.000512	0.000474	0.003433	0.003433	0.001296
460	0.003926	-0.001169	-0.000676	0.002611	0.000967	0.004583	-0.001334
461	-0.002648	-0.000676	-1.9e-05	0.001132	0.001132	0.004748	0.00031
462	-0.000512	-0.009058	-0.000183	-0.009387	-1.9e-05	0.006062	-0.001662
463	0.000146	-0.004292	0.000146	0.000639	-0.004128	-0.000676	0.001789
464	0.000639	-0.00232	-0.000183	-0.002484	-0.001005	-0.001827	-0.001169
465	0.001296	-0.006922	0.000146	-0.003635	-0.001827	-0.001498	0.002282
466	-0.002648	-0.001991	-1.9e-05	-0.006757	-0.00347	0.000474	0.000639
467	0.000146	-0.00232	-0.000183	-0.004621	-0.001662	0.00031	0.003926
468	-0.001169	-0.003142	-0.000183	-0.001498	-0.000676	0.004912	0.001296
469	0.000474	-0.004621	-0.000841	-0.002648	-0.001334	0.002775	0.002611
470	-0.001827	-0.002648	-0.000841	-0.001005	0.00031	0.005076	0.002118
471	0.00031	-0.001498	-0.000512	0.002118	0.001954	0.000146	-0.000676
472	0.000474	-1.9e-05	-0.000347	-0.001005	0.000967	0.001954	-0.000347
473	0.000474	-0.015961	-0.000512	-0.008401	0.00031	-0.002977	-0.001827
474	-1.9e-05	-0.003963	-1.9e-05	-0.000183	0.002775	0.000146	-0.002484
475	0.001296	-0.001662	0.000474	0.002282	-0.004128	0.00031	-0.002648
476	0.000967	-0.002155	0.000967	-0.000183	0.000803	-0.001334	-0.002648
477	0.000967	-0.001005	0.000967	0.001132	0.000474	-0.002648	-0.002155
478	0.001789	-0.002155	0.00031	0.00146	0.000639	0.00031	0.001789
479	0.00031	-0.000841	0.000474	0.001132	0.004255	0.000639	0.00409
480	0.001789	-0.004128	-0.001498	-0.002155	-0.000183	0.002118	-0.002648
481	-0.000183	-0.000512	-0.000183	-0.000183	0.000639	-0.000347	-0.001005
482	0.00409	-0.002648	0.000639	-0.001991	0.000803	0.000474	0.002611
483	-0.0061	-0.001169	0.000474	-0.002813	-0.004292	0.00146	0.001296
484	-0.003306	-0.012674	-0.000347	-0.007744	-0.004128	-0.007415	0.001296
485	-0.000841	-0.004785	0.000967	-0.004785	-0.002648	0.000474	0.000967
486	-0.001334	-1.9e-05	0.000803	-0.005114	-0.010373	-0.001334	0.003433
487	-0.001334	-0.002813	-0.000676	-0.003306	-0.000512	0.002775	0.000639
488	-1.9e-05	-0.003635	-0.00347	0.003761	-0.000841	-0.000841	-0.000512
489	-0.002648	-0.000183	-0.004621	-0.000676	-0.000512	0.003433	0.001954
490	0.004255	-0.002648	-0.001169	0.001296	-0.001334	0.003268	0.002282
491	-0.000183	-0.003799	-0.002813	-0.001662	0.001954	0.007213	0.001296
492	-1.9e-05	-0.000347	-0.002813	0.001789	-1.9e-05	0.001954	-0.001169
493	0.004255	-0.001169	-0.002155	0.001625	0.002611	0.002775	0.002282
494	-0.001991	0.000639	-0.000512	0.00146	0.002611	0.000803	-0.003306
495	-0.000676	-0.009223	-0.001498	0.00146	0.002447	-0.011852	-0.000676
496	-0.001169	-0.000841	0.003268	-0.001662	-0.003799	-1.9e-05	-0.001827
497	0.001625	-0.002155	-0.001334	-0.00232	-0.008072	-0.000347	-0.001334
498	-1.9e-05	-0.001169	0.002611	-0.001498	-0.001169	0.002775	0.000639
499	0.001296	-0.002648	0.002775	-1.9e-05	-0.001662	0.002447	0.001296
500	0.000146	-0.001827	-0.001827	0.000639	0.000146	0.00031	0.001789
501	0.002447	-0.001169	0.002118	0.001625	-0.000183	0.002118	0.000146
502	0.002282	-0.006593	0.000803	-0.005771	0.00031	0.004748	0.003268
503	-0.002484	-0.000841	-0.001991	0.00294	0.001625	0.000474	-0.002484
504	0.000146	-0.00347	-0.001169	0.000803	0.000967	0.002282	-0.000183
505	0.000803	-0.003306	-0.00232	0.00294	0.00146	0.001625	-0.000512
506	0.000146	-0.004128	-0.004949	-0.004456	0.001296	-0.002813	0.000639
507	0.001625	-0.003142	-0.001827	-0.000841	-0.000347	0.003761	-0.001005
508	0.000803	-0.001169	-0.002977	0.00031	-0.003635	0.005898	-0.000347
509	-0.003306	-0.000512	-0.001334	-0.000676	-0.000841	0.003104	-0.00347
510	0.003433	-0.002155	-0.002813	0.001296	0.002775	0.001132	-0.000512
511	0.002447	0.001132	0.002282	-1.9e-05	0.001954	0.003104	-0.00232
512	0.00031	-0.002648	0.000474	0.000803	0.000474	0.000146	0.000474
513	-0.001827	-0.003142	0.001625	-0.000841	-0.00232	0.001625	-1.9e-05
514	0.002447	-0.001498	-0.001662	0.003761	-0.001005	0.001132	0.000967
515	0.001132	-0.002977	0.00031	0.001296	0.001296	-0.002155	0.00146
516	0.002775	-0.006429	-1.9e-05	0.001132	-0.002484	0.001625	0.001132
517	-0.004128	0.00031	0.002775	-0.001334	-0.000183	0.00031	0.00031
518	0.000474	-0.005114	0.00031	-0.00347	0.000146	-0.001005	0.001296
519	-0.003963	-0.00347	-0.001005	-0.001005	-0.002648	0.005241	0.001789
520	-0.001498	-0.002155	-1.9e-05	-0.001334	-0.002977	-0.001005	0.005569
521	-0.001662	-0.002813	-0.001498	-0.002484	-0.000183	0.003104	0.003433
522	0.000639	-0.001991	0.001296	0.00146	-0.001498	0.001789	-0.000512
523	0.001789	-0.004292	-1.9e-05	-0.001169	0.000474	0.005405	0.002447
524	0.003433	-0.002484	0.003104	-0.001827	0.001132	0.00409	-0.004128
525	0.000967	-0.001827	0.00031	0.001625	0.003268	0.007377	0.000146
526	0.000639	-0.000676	0.00146	0.00146	0.001296	0.003926	-0.000676
527	0.002447	-0.002484	-0.00232	0.000803	0.002611	0.002118	-0.002813
528	-0.000512	-0.003799	-0.000676	0.000474	0.001954	0.002775	-0.000347
529	0.00294	-0.002648	-0.001005	-0.001498	0.000803	0.000474	-0.000841
530	0.001132	0.00031	0.000967	-1.9e-05	-0.001662	0.002447	-0.00347
531	0.00409	-0.000676	-0.000676	-0.001005	-0.00347	0.000967	-0.003635
532	0.001132	-0.002813	-0.000183	-0.002648	-0.000183	0.001296	0.001296
533	-0.001334	-0.003799	0.001296	0.000967	-0.004456	0.003926	0.001954
534	0.003433	-0.002813	0.000639	-0.002484	-1.9e-05	0.005734	0.001132
535	0.000967	-0.0061	0.003104	-0.001005	0.006227	0.000474	-0.001005
536	0.000639	-1.9e-05	-0.001005	0.003433	-0.000512	0.005241	0.005241
537	-0.001005	-0.004621	0.002611	0.005734	-0.000676	0.002118	0.00031
538	0.000146	-0.00347	-0.000183	0.000474	0.002611	0.002118	0.001625
539	0.000967	-0.001662	-0.001827	0.00294	0.000146	0.002282	0.001954
540	0.004255	-0.005607	-0.000512	-0.000347	-1.9e-05	0.001625	0.000474
541	0.001789	-0.001169	0.000967	-0.001005	0.001132	0.002447	0.000803
542	-0.000347	-0.001005	-0.001498	-0.000676	-0.000183	0.001625	0.001954
543	0.001132	-0.000841	0.000967	0.000803	0.000146	0.002118	0.003597
544	0.004748	-0.002484	-0.001334	-0.000347	0.000967	0.002118	-0.002813
545	0.003597	-0.000183	-0.000512	-0.001169	-0.000183	0.003597	-0.000183
546	0.003104	-0.001827	-0.000183	0.00031	-0.000841	-1.9e-05	0.004583
547	0.003104	0.000803	-0.000347	0.000474	0.002447	0.003761	0.001954
548	0.003597	-0.001498	0.002775	0.002282	0.001296	0.00409	-0.004128
549	0.003104	-0.002155	-0.000676	0.001132	0.002282	0.00787	0.002775
550	0.00146	-0.001334	-0.000676	0.004419	0.000146	-0.000841	0.00146
551	0.000474	-0.00347	-1.9e-05	-0.00232	0.000474	0.004748	0.002447
552	0.000967	-0.003635	0.000639	0.002282	-0.00232	-0.001334	-0.000347
553	-0.001005	0.00031	-0.002648	-0.001498	-0.002484	0.003104	0.003433
554	0.00031	0.000803	-0.001991	0.001789	-0.001991	0.001789	0.001954
555	0.002611	-0.002648	-0.001334	-0.000347	0.004419	0.002775	0.002118
556	0.000474	0.002611	-0.000676	-0.000512	-0.000512	0.00409	-0.001005
557	0.003433	-0.005443	0.000639	-0.001005	0.001296	-0.000676	0.000639
558	-0.001005	-0.003306	-0.000183	-0.000347	-0.001498	0.002611	0.00031
559	0.004255	0.000146	-0.000347	-0.000347	0.001789	0.00031	-0.001498
560	0.00294	-0.000676	0.001296	0.00146	-0.000512	-0.000347	-1.9e-05
561	0.004748	0.001296	-0.001169	0.007213	0.000474	0.000146	0.00031
562	0.003268	-0.001827	0.001296	-0.001662	0.002447	0.001789	-0.001498
563	0.004255	-0.000676	-0.000512	0.001625	0.002611	-0.000841	-1.9e-05
564	0.003433	-0.000841	0.001954	-0.00347	-0.001169	0.003268	-0.001334
565	0.001954	-0.003142	0.002282	0.001789	-0.000841	0.002118	-1.9e-05
566	0.00146	-0.001334	0.001296	0.000146	-0.000183	0.001132	0.002775
567	0.004419	0.002611	0.001625	0.006556	-0.001005	0.003597	-0.001991
568	-0.001169	-0.001334	0.002118	0.002611	0.00031	0.002611	0.000803
569	0.000803	-0.001005	0.002282	0.002447	0.002282	0.001954	-1.9e-05
570	0.000639	-0.001827	0.000474	0.001789	0.000146	0.002447	0.001625
571	-0.00232	0.000639	0.00409	0.000146	-0.001827	0.002118	0.000474
572	0.000967	-0.001827	-0.001169	0.00031	0.000639	0.00294	0.000967
573	-0.001005	-0.001991	0.002447	0.003433	0.000474	0.000146	0.000146
574	0.004419	-0.004128	0.001625	-0.000512	-0.000183	-0.001005	-0.000841
575	0.000146	-0.003799	0.000639	-0.000512	-0.001498	0.003104	-0.000676
576	-0.001334	-0.002977	-0.002813	-0.000347	-0.001005	0.004419	0.000967
577	-0.000676	-0.002484	-0.001005	-0.001827	-0.000183	0.002447	0.000967
578	0.00294	-0.000841	-0.001991	0.001296	-0.000841	0.003761	0.000146
579	-1.9e-05	0.000967	-0.000183	-0.001498	-0.001662	0.00409	-0.001662
580	0.003926	-0.001334	0.003926	0.001296	-0.000676	-0.000183	-0.000347
581	0.00146	0.001625	0.002447	0.00031	0.000639	0.005241	0.002118
582	-0.000676	0.001296	0.001789	-0.000841	-0.001169	0.003597	0.00146
583	-0.000183	-0.001498	0.00294	0.000474	0.000803	0.00409	0.003597
584	0.002118	-0.003142	0.001789	0.00409	-0.001827	0.007049	0.002118
585	0.002282	-0.006593	0.00146	0.000146	-0.001005	0.003597	0.001789
586	-0.000676	-0.004785	0.002282	-0.002648	-0.004621	0.000803	0.000967
587	0.001954	-0.004456	-0.001662	-0.00347	-0.001991	0.003926	0.003597
588	-0.001005	-0.002813	0.00294	-0.000841	-0.00232	-0.000347	0.00031
589	-0.005936	-0.004292	0.000474	0.00031	-1.9e-05	0.002447	0.002118
590	-0.004292	-0.000347	0.001789	0.001789	-0.001005	0.000803	-0.004456
591	-0.001005	-0.001005	-1.9e-05	-0.00232	0.001789	0.001789	0.002447
592	-0.002484	-0.001334	0.002282	0.000639	-0.001005	0.003597	0.001789
593	-0.0061	0.001954	-0.002977	0.001296	0.000639	0.000639	0.000146
594	-0.001498	-0.003142	0.001132	-0.001991	0.002282	0.001954	0.00294
595	0.001132	0.002118	-0.001662	0.001296	-0.000841	-1.9e-05	0.000146
596	0.000803	-0.001005	0.000803	-0.000676	0.001296	0.003761	0.001132
597	0.002118	-0.000841	-0.003799	0.000639	0.000803	0.000474	-0.001498
598	-0.000676	-0.001498	-0.003142	0.000146	0.003268	0.006227	0.000803
599	0.002282	0.001132	0.00409	0.003761	0.000803	0.00409	-0.003306
600	0.003104	-0.002484	0.006391	0.00146	0.003268	0.003433	0.002611
601	-0.003799	0.00031	0.004912	0.00294	0.000146	0.000967	0.00031
602	0.001954	-0.001005	0.002118	-0.000183	0.002775	0.003761	0.003761
603	0.001132	0.00031	0.005241	0.002447	0.000474	0.001625	0.00146
604	0.000146	-0.001991	-0.00347	0.001296	0.000146	0.001296	-0.001498
605	0.000474	0.002118	0.002447	0.001296	0.00146	0.001296	0.003104
606	0.000146	-0.001169	-0.002484	0.000474	0.002611	0.002118	0.002775
607	-0.001662	0.000474	-0.000512	-0.000347	0.001296	-0.001991	-0.000512
608	0.000967	-0.001662	-0.000676	-0.001991	0.000474	-0.002977	0.00146
609	-0.003963	-0.001005	-0.001498	-0.005443	-0.000512	-0.002813	0.000967
610	-0.001005	-0.001334	0.001296	0.000803	-0.000676	-0.003142	0.000474
611	0.000639	0.000967	0.001296	-0.004456	0.00146	-0.000183	0.000803
612	0.001132	-0.000512	-0.002648	-0.000512	0.002775	-0.002155	-0.001827
613	-1.9e-05	-0.001169	-0.000512	0.001625	0.003597	0.000639	0.002775
614	-1.9e-05	0.000803	0.005898	-0.001991	0.000474	-0.001169	-1.9e-05
615	-0.001169	-0.001005	-0.000347	0.001625	-0.000347	0.002447	0.00146
616	0.001132	0.00146	0.000146	0.003104	0.001296	0.001954	-0.000512
617	0.004419	0.000474	-0.000512	-0.00232	0.006556	0.003926	0.003268
618	0.000146	0.005898	0.000146	0.001954	0.00146	0.000639	-0.00232
619	0.00031	-1.9e-05	-0.001498	0.001789	0.002118	0.00031	-0.00347
620	-0.000183	0.003926	0.002611	0.002282	0.000474	0.000474	-0.005443
621	0.001296	0.00294	0.001296	0.002447	0.000146	-0.001827	-0.002977
622	0.000146	0.000474	0.002447	0.00031	-0.001005	0.000146	-0.001827
623	0.001954	-0.001169	0.00031	0.002447	-0.00232	-0.007086	-0.001991
624	-0.001005	0.002118	0.00146	-1.9e-05	0.000146	-0.001827	-0.001498
625	0.003268	-0.00232	0.008692	0.000803	-0.002155	-0.001991	-0.000676
626	-0.002648	-0.001169	0.00146	-0.000183	0.000639	0.000146	0.001954
627	-0.001498	-0.000183	-0.003306	0.00031	-0.001169	-0.00232	0.000639
628	0.000474	-0.000347	0.00031	-0.000512	-0.001334	0.001789	0.004583
629	-1.9e-05	-1.9e-05	0.004748	0.001789	-0.001498	-1.9e-05	-0.001169
630	-0.000347	-0.001169	0.002775	0.000146	0.001132	0.000639	0.002611
631	-0.002155	-1.9e-05	0.003926	-0.001005	0.000474	-0.001662	0.00031
632	0.000639	-0.002977	0.00031	-0.001334	-0.000676	0.002118	0.001954
633	-0.001498	0.002775	0.003597	-0.000347	0.00031	0.001296	0.004748
634	0.001296	-0.004292	-0.001827	0.000146	0.001132	-0.000512	0.001625
635	0.003761	0.005076	0.001296	-0.001991	0.001789	0.001954	0.001296
636	0.002118	0.00294	0.003268	-0.002813	-0.001169	0.000803	0.000474
637	0.000146	0.000639	-0.000512	-0.001662	0.002447	0.00031	-0.002155
638	0.00031	0.00146	-0.000347	0.005241	-0.001498	-0.00347	-0.000347
639	-0.000183	-0.001334	0.001132	0.004748	-0.000512	0.000967	0.003761
640	0.000639	-0.00347	0.000803	0.002282	0.000803	-0.002813	-0.005278
641	-0.002648	-0.001169	0.000803	-0.000347	0.001625	-0.000512	-0.001334
642	0.000474	-0.004621	0.002282	0.000803	-0.000512	-0.003799	-0.000841
643	-0.001662	-0.003635	-0.000347	0.000803	0.000803	0.001296	0.000803
644	-0.002155	-0.00232	-0.000183	0.000639	-0.001991	-0.005936	0.002118
645	0.001296	-0.002648	-0.000183	-0.002155	0.001789	-0.004456	0.001954
646	-0.002484	0.001132	0.00031	0.004583	-0.000676	-0.001827	-0.001005
647	-0.002648	-0.001827	-0.003635	-0.001334	0.002447	0.000146	0.002118
648	-0.000841	-1.9e-05	-0.000841	0.000639	-0.000676	-0.000676	0.000639
649	0.000967	-0.001334	-0.001662	0.001625	0.003268	0.001789	-0.000183
650	-0.001498	0.004255	0.002282	0.002118	0.002118	0.003433	0.000967
651	0.001789	-0.002813	0.002282	0.001789	0.001132	-1.9e-05	0.00031
652	0.001132	0.001296	0.003268	0.003104	0.002611	0.001132	-0.00347
653	0.001132	0.00031	0.003104	0.002447	0.001132	-0.00232	-0.002813
654	0.001296	-0.000512	0.003433	0.000639	0.000146	-0.001005	-0.002977
655	0.002118	-0.003142	0.003268	0.002775	-0.002648	-0.00347	-0.002977
656	0.004419	-0.002648	0.000474	-1.9e-05	-0.000512	-0.004128	-0.004621
657	0.000639	-0.001827	-0.000512	0.00146	0.000146	-0.00232	-0.000512
658	-0.000676	-0.001005	-0.006429	0.000639	-0.001662	-0.002977	0.003597
659	0.00031	0.00031	-0.002155	0.00031	-0.000183	-0.002484	-0.001662
660	-0.002648	-0.001991	-0.002155	-0.000841	0.001625	-0.000347	0.003268
661	-0.002484	0.000639	-0.00232	0.001625	-0.000841	-0.002155	0.003761
662	-0.000676	-0.004128	-0.003799	-0.002484	0.002611	-0.001991	-0.000676
663	-0.002813	-0.001827	0.002611	0.00146	0.002775	-0.001827	0.001954
664	-0.001334	-0.002813	-0.000841	0.000474	-1.9e-05	-0.00232	0.00146
665	0.000146	-0.001169	0.002118	-0.001334	0.000803	-0.005114	0.00146
666	0.000803	0.000803	0.001132	0.00409	0.004912	0.000803	-1.9e-05
667	0.003433	-1.9e-05	0.000639	-0.002813	-0.001498	-0.002648	-0.001334
668	0.003433	-0.001169	0.000146	-0.001005	-0.001991	0.000967	-0.000183
669	0.00031	-0.001005	-0.010538	-0.001334	0.003268	0.000639	-0.000841
670	-0.000512	-0.009058	-0.002155	0.000146	-0.002484	-0.003306	0.00031
671	0.000146	-0.00232	0.000474	0.000967	0.001132	0.000146	-0.002484
672	0.00294	-0.001169	0.002775	0.00294	-0.001662	0.000639	-0.004292
673	0.00146	-0.003142	0.00294	-0.002155	-1.9e-05	-0.001662	-0.000347
674	-0.001498	-0.001991	-0.000512	0.00146	0.000967	-0.001991	-0.003306
675	-0.001498	-0.004456	0.001625	0.002118	0.000474	-0.003799	-0.003306
676	0.000967	-0.002155	0.003104	-0.000841	-0.001334	-0.002484	-0.000512
677	0.003268	-0.003306	-0.000183	-0.000183	0.000639	-0.001334	0.00031
678	-0.002648	-0.001991	0.001296	0.001296	-0.002484	-0.002648	-0.001991
679	0.000146	-0.002813	-0.00347	0.000146	-0.001169	0.000967	0.001625
680	-0.000676	-0.000512	-0.00988	0.001296	-0.000676	-0.001169	0.001132
681	-0.000512	-0.002155	-0.001662	-1.9e-05	-0.000183	-0.001498	0.001954
682	-0.00232	-0.001169	-0.001498	-0.000183	0.000146	0.00031	0.002282
683	0.001296	-0.000347	-0.001334	-0.000841	0.000639	0.003433	0.002611
684	0.003104	-0.004128	-0.000183	-0.00347	0.00031	-0.001005	-0.003635
685	0.003761	-0.002813	0.001296	-0.002648	0.000474	-0.002813	-0.00232
686	-0.001991	-0.002155	-0.001334	0.001625	0.003268	0.001132	-0.001005
687	0.003268	-0.005114	0.002118	-0.001498	0.003104	-0.002813	-0.003306
688	0.001954	-0.001169	-0.002648	-0.001498	-0.001662	0.001789	0.001625
689	0.003761	-0.001334	0.00146	-0.002813	-0.000841	-0.000841	-0.000512
690	-0.001498	-0.003635	0.002282	-0.002155	0.001296	0.001132	0.002118
691	0.004583	-0.001498	-0.003963	0.002118	-0.00347	0.000639	-0.001334
692	0.003926	-0.002484	-0.002484	-0.001334	0.000803	-0.003142	-1.9e-05
693	-1.9e-05	-0.002648	0.00146	0.001789	0.00031	-0.003306	-0.000183
694	-0.001991	-0.000183	-0.001827	0.001789	0.001296	0.002282	0.004583
695	-0.002977	-0.002484	0.002118	0.001296	0.000146	-0.003963	0.00031
696	-0.001005	-0.004128	-0.001005	-0.001334	0.001789	-0.002813	0.003433
697	-0.001005	-0.000347	0.002775	0.000474	-0.002155	-0.001005	0.000639
698	0.002611	-0.003799	0.003597	0.000967	-0.000183	-0.003963	0.001789
699	0.001625	-0.001991	0.002611	0.000803	-0.000676	-0.000183	0.002611
700	0.000474	-0.002648	0.003268	-0.000512	0.000146	0.003104	-0.002813
701	-0.002155	0.000146	0.002611	-0.002813	0.002118	0.002611	0.002118
702	0.005898	-0.001334	-0.006757	0.001954	-0.001169	-0.002484	-0.001991
703	-0.001005	0.004255	-0.005771	0.00031	0.00031	0.001625	0.001296
704	0.001954	-0.001334	-0.001827	0.000803	0.001789	-0.00232	0.000639
705	0.002447	0.007213	-0.003799	0.000967	0.002447	0.00294	0.002611
706	0.000639	0.000967	-0.004456	0.000803	-1.9e-05	-0.000183	-0.001662
707	0.001296	0.000146	-1.9e-05	-0.001991	0.00409	0.00031	0.001954
708	0.002611	-0.000347	-0.002484	0.002447	-0.001662	-0.001005	-0.002484
709	0.006062	-0.002648	0.000803	-0.003142	0.001132	0.00146	-0.001005
710	0.001132	-0.00232	0.000967	0.003268	0.001625	0.001954	0.000639
711	-0.002648	-0.002648	0.000803	0.00409	0.000639	0.001296	0.000803
712	0.000146	-0.002155	0.004255	-0.000183	0.002118	-0.000841	0.001789
713	0.00294	-0.003799	-0.000183	-0.001334	0.002118	-0.001169	0.003104
714	-0.003635	0.000146	-0.000183	-0.001498	0.001789	-0.001827	0.000967
715	0.001296	-0.004128	0.001625	-0.000676	0.00031	-0.001498	0.000639
716	-0.001169	-0.000676	0.000803	0.000639	0.002118	0.004912	0.001954
717	0.002282	-0.002648	-0.002813	0.000474	0.000474	-0.003306	-0.002155
718	0.000639	-0.00347	0.001789	-0.005114	0.002447	-0.003306	0.003761
719	0.000474	-0.000841	0.000146	0.001625	-0.00232	-0.001334	0.000967
720	0.002282	0.00672	0.001625	-0.001991	-0.001991	-1.9e-05	-1.9e-05
721	0.002118	0.002611	0.002282	0.000639	-0.001334	0.001789	0.005405
722	-1.9e-05	-0.002484	-0.00232	-0.001991	0.003433	0.004419	-0.000676
723	0.000639	0.003268	0.001132	0.002118	-0.000347	-0.000347	-0.002155
724	0.001625	-0.003306	-0.000841	0.00146	0.001132	0.001954	0.001954
725	-0.001005	-0.004621	-0.001827	0.001954	0.000474	0.001296	-0.001991
726	0.000967	-0.000347	-0.000841	0.001789	0.000803	0.000803	-0.001991
727	-1.9e-05	-0.001005	0.00409	0.002611	0.002447	-0.001169	-0.000676
728	-0.000347	-0.005278	0.001954	0.003597	-0.000676	-0.000841	0.000639
729	-0.000347	-0.000512	-0.000183	0.000474	-0.000676	-0.000512	-0.000841
730	0.000639	-0.003306	0.002611	-0.000512	0.000639	-0.001662	0.001789
731	0.001132	-0.000183	-0.002484	-0.000512	0.00146	0.001625	0.001625
732	0.001625	-0.002155	0.00031	-0.000676	-0.001169	-0.001005	0.000967
733	-0.001169	-0.003635	0.000146	0.001296	-0.001005	-0.001005	0.001789
734	0.003433	-0.001005	-0.000676	-0.000183	-0.005443	-0.002977	-0.003635
735	0.000474	-0.003963	0.001789	0.003433	-0.001005	-0.002155	-0.002155
736	0.00031	-0.001005	0.00031	0.00146	0.000146	-0.001005	-0.000676
737	0.003104	-0.004785	-0.000512	-0.000676	-0.00232	-1.9e-05	0.001954
738	0.00146	-0.004292	-1.9e-05	0.001954	-0.00347	-0.001827	0.004748
739	-0.001498	-0.001498	-0.002813	-0.000512	-0.000183	-0.000676	0.002611
740	-0.001169	-0.001662	0.000803	0.003926	0.000803	-0.000676	-0.000183
741	0.00294	-0.004621	-0.001827	0.004255	0.000803	0.003104	0.000639
742	0.001132	-0.000841	0.001789	0.003104	0.001296	0.00031	-0.000347
743	0.001789	-0.003635	-0.001334	0.003268	0.001789	-0.000841	-0.000512
744	-0.004128	-0.002648	0.000967	0.002118	0.00146	0.000146	-0.000512
745	0.000803	-0.001991	0.000967	0.003104	0.000639	-0.000183	-0.000347
746	-0.00232	-0.001005	0.002282	0.001132	-1.9e-05	0.00031	0.001296
747	0.000967	-0.002813	0.000474	0.003104	0.001954	-0.000183	0.001789
748	-0.000676	-0.001991	0.003104	0.002282	0.000803	0.003433	0.000803
749	0.000474	-1.9e-05	-1.9e-05	0.000803	0.000639	-0.0061	0.00146
750	-0.000676	-0.004456	-0.002484	-1.9e-05	0.000967	-0.000512	0.002282
751	0.004419	0.000146	0.00031	0.005898	0.002775	0.002282	0.00409
752	0.014445	0.008857	0.009021	0.008363	0.012637	0.010993	0.018225
753	0.021183	0.020033	0.021676	0.019868	0.019868	0.019375	0.018718
754	0.027593	0.024306	0.025785	0.024142	0.028744	0.028744	0.027593
755	0.034168	0.031373	0.033017	0.032031	0.032524	0.03351	0.032031
756	0.042385	0.038441	0.037783	0.042714	0.03992	0.042714	0.043207
757	0.047809	0.046494	0.046166	0.047152	0.047316	0.046987	0.044686
758	0.053726	0.048795	0.050603	0.054712	0.056191	0.054712	0.021348
759	0.059972	0.05274	0.060465	0.058492	0.057671	0.060136	0.005569
760	0.066875	0.061944	0.06408	0.066546	0.069011	0.06293	0.011815
761	0.07049	0.068518	0.072298	0.068025	0.072298	0.069504	0.019375
762	0.077229	0.072956	0.075257	0.074764	0.080023	0.071312	0.029566
763	0.081174	0.078708	0.084296	0.075585	0.084461	0.078873	0.037619
764	0.088734	0.084625	0.086433	0.08216	0.086597	0.084132	0.041892
765	0.090049	0.08857	0.093172	0.084954	0.091528	0.088734	0.050439
766	0.092514	0.093829	0.096952	0.091035	0.094487	0.093172	0.055534
767	0.101554	0.096459	0.099089	0.096623	0.099089	0.101225	0.063094
768	0.102376	0.100075	0.104677	0.105992	0.099582	0.101554	0.067203
769	0.10517	0.102376	0.105663	0.099582	0.107799	0.106813	0.074928
770	0.109936	0.108621	0.11158	0.10517	0.107306	0.110429	0.072134
771	0.114045	0.111087	0.113716	0.110265	0.114867	0.117003	0.08331
772	0.117168	0.114209	0.11651	0.110265	0.117661	0.118811	0.085776
773	0.120619	0.117496	0.118154	0.11651	0.12292	0.125057	0.091528
774	0.125879	0.121605	0.127358	0.120455	0.125386	0.122756	0.0935
775	0.130974	0.124564	0.124564	0.123578	0.12933	0.128344	0.09991
776	0.129001	0.130645	0.129659	0.128344	0.130645	0.132617	0.109607
777	0.135083	0.127522	0.131138	0.12933	0.133275	0.132289	0.106813
778	0.134754	0.137055	0.13837	0.132946	0.137548	0.141	0.113223
779	0.141164	0.135247	0.138534	0.135247	0.13837	0.140013	0.115031
780	0.141328	0.133439	0.144451	0.13311	0.143794	0.141	0.120291
781	0.143136	0.137712	0.146259	0.13837	0.146588	0.143465	0.122098
782	0.143794	0.145602	0.144451	0.137877	0.144451	0.144287	0.126207
783	0.144451	0.14856	0.149217	0.140013	0.144615	0.14215	0.128673
784	0.149875	0.144451	0.14856	0.144451	0.149546	0.147574	0.130645
785	0.153819	0.148231	0.15497	0.145273	0.148889	0.151683	0.135576
786	0.156449	0.151354	0.150861	0.144944	0.151847	0.151354	0.140178
787	0.154148	0.154312	0.155627	0.149382	0.150368	0.154148	0.138699
788	0.157107	0.150532	0.156942	0.14971	0.152505	0.160394	0.139849
789	0.160229	0.153491	0.157107	0.15234	0.159243	0.160229	0.144944
790	0.160394	0.159572	0.160394	0.160722	0.163188	0.160065	0.147245
791	0.159243	0.161873	0.161215	0.15497	0.16253	0.163516	0.148231
792	0.162366	0.164174	0.162366	0.158257	0.167132	0.165489	0.151025
793	0.16253	0.164174	0.161215	0.162202	0.165982	0.167461	0.153491
794	0.164338	0.167461	0.164996	0.158421	0.168447	0.16401	0.155956
795	0.166475	0.16516	0.166968	0.163023	0.172392	0.169598	0.157271
796	0.174364	0.168447	0.171241	0.167297	0.16779	0.171077	0.156285
797	0.173707	0.167625	0.169926	0.163352	0.172392	0.169762	0.159901
798	0.172392	0.171406	0.168612	0.167132	0.16894	0.170584	0.160229
799	0.174857	0.170255	0.171734	0.166146	0.1742	0.172063	0.162366
800	0.174528	0.174364	0.175515	0.168283	0.173707	0.168283	0.164996
801	0.177322	0.173214	0.17535	0.16779	0.174035	0.174528	0.170419
802	0.17535	0.175679	0.181596	0.169105	0.175021	0.174857	0.169433
803	0.178309	0.174528	0.17272	0.168447	0.17535	0.176172	0.172227
804	0.176501	0.175679	0.174035	0.169926	0.178966	0.181924	0.170091
805	0.183732	0.170255	0.177322	0.170091	0.182417	0.178144	0.172227
806	0.17798	0.177651	0.175679	0.172227	0.18061	0.178966	0.173049
807	0.17913	0.176994	0.175186	0.174035	0.180116	0.181267	0.173214
808	0.179459	0.178144	0.179459	0.173871	0.182417	0.181267	0.176336
809	0.183732	0.178802	0.179623	0.178637	0.182582	0.180445	0.17272
810	0.183404	0.17913	0.180445	0.181596	0.184883	0.182582	0.176336
811	0.18554	0.186526	0.182089	0.175843	0.184225	0.181431	0.18061
812	0.18817	0.181267	0.180938	0.180281	0.189156	0.18439	0.177158
813	0.184061	0.186362	0.185376	0.182746	0.188006	0.181431	0.176994
814	0.187348	0.184554	0.183568	0.180281	0.188006	0.187184	0.181431
815	0.186855	0.185212	0.185212	0.183568	0.186362	0.185869	0.178309
816	0.188663	0.187019	0.183897	0.181431	0.18817	0.186033	0.181596
817	0.186198	0.184883	0.185047	0.184883	0.186855	0.186033	0.181431
818	0.188006	0.185047	0.18817	0.185212	0.186033	0.186855	0.183404
819	0.185376	0.186198	0.185047	0.183404	0.186362	0.188334	0.184718
820	0.191128	0.183075	0.185376	0.184554	0.187513	0.185376	0.179459
821	0.18439	0.186362	0.187348	0.182746	0.187513	0.188334	0.179952
822	0.189156	0.186033	0.186691	0.186691	0.191786	0.190142	0.184883
823	0.190635	0.186526	0.187184	0.186855	0.190471	0.192115	0.186198
824	0.186526	0.187677	0.186691	0.188334	0.190142	0.190471	0.183732
825	0.189485	0.188334	0.187677	0.185869	0.192443	0.193922	0.187677
826	0.190635	0.190964	0.185376	0.188006	0.190635	0.1908	0.190471
827	0.193265	0.188006	0.186691	0.188827	0.193101	0.193265	0.186855
828	0.193265	0.189814	0.186691	0.189485	0.188499	0.19195	0.185869
829	0.19195	0.194416	0.186691	0.189156	0.19195	0.193758	0.189649
830	0.193101	0.199182	0.188499	0.19195	0.192115	0.190964	0.187513
831	0.195402	0.19573	0.191786	0.190307	0.193758	0.194416	0.191457
832	0.194087	0.194909	0.192443	0.187841	0.191786	0.19195	0.188006
833	0.192279	0.189978	0.19195	0.186526	0.193101	0.192115	0.187677
834	0.189978	0.194251	0.192936	0.193758	0.190142	0.194251	0.192443
835	0.19195	0.191293	0.191621	0.192772	0.1908	0.192115	0.193429
836	0.192115	0.189978	0.191128	0.187019	0.193758	0.195237	0.192443
837	0.193101	0.191786	0.188827	0.190307	0.193429	0.195566	0.195237
838	0.192608	0.189814	0.191128	0.191457	0.191786	0.194416	0.192443
839	0.190964	0.190142	0.1908	0.190964	0.199839	0.192936	0.193265
840	0.1908	0.190142	0.188663	0.190142	0.193758	0.195237	0.19195
841	0.193101	0.192936	0.189814	0.191621	0.195566	0.200332	0.191128
842	0.194087	0.193429	0.193265	0.193101	0.19721	0.193101	0.196059
843	0.193265	0.19573	0.191457	0.194416	0.192279	0.194251	0.192443
844	0.194744	0.19573	0.189814	0.19458	0.196059	0.199018	0.195566
845	0.205099	0.199018	0.194251	0.19573	0.19573	0.193758	0.192936
846	0.195402	0.194416	0.192936	0.192279	0.199018	0.197374	0.192279
847	0.197703	0.196552	0.196059	0.193758	0.19836	0.196223	0.190964
848	0.200168	0.197703	0.192443	0.197374	0.197867	0.196552	0.199018
849	0.196059	0.196552	0.194087	0.194416	0.196223	0.199182	0.192443
850	0.198524	0.193429	0.192936	0.19573	0.198031	0.19573	0.19458
851	0.197703	0.198853	0.193758	0.194416	0.19721	0.196223	0.194909
852	0.198031	0.194909	0.189649	0.196881	0.195895	0.194744	0.19573
853	0.198031	0.19458	0.195073	0.194909	0.193758	0.196717	0.197045
854	0.198524	0.193758	0.186855	0.195895	0.193594	0.195895	0.195566
855	0.195237	0.194744	0.194909	0.196388	0.198689	0.198689	0.197045
856	0.200168	0.196388	0.195566	0.197374	0.19458	0.196388	0.197374
857	0.194416	0.195073	0.194744	0.194909	0.198196	0.200332	0.199182
858	0.19721	0.195566	0.194087	0.197538	0.196388	0.197045	0.196388
859	0.197374	0.195895	0.191786	0.198031	0.199182	0.19721	0.198689
860	0.197374	0.193101	0.194744	0.199346	0.19721	0.193101	0.194251
861	0.199675	0.189978	0.195566	0.191621	0.199018	0.197703	0.196717
862	0.197538	0.195237	0.195566	0.196059	0.200168	0.195237	0.196881
863	0.201976	0.194416	0.191457	0.195566	0.198853	0.199346	0.197703
864	0.197867	0.19721	0.196388	0.195895	0.196717	0.199839	0.199018
865	0.201483	0.196717	0.195566	0.195566	0.199511	0.197867	0.19573
866	0.199675	0.201647	0.196552	0.19836	0.19721	0.20214	0.196552
867	0.200825	0.199182	0.194909	0.197703	0.19836	0.200004	0.197374
868	0.196223	0.196881	0.198031	0.200497	0.199182	0.197703	0.197867
869	0.19721	0.197703	0.195073	0.201812	0.198031	0.202798	0.196388
870	0.196223	0.196059	0.198524	0.196059	0.196223	0.196552	0.197703
871	0.197867	0.196552	0.197703	0.200825	0.198196	0.196059	0.104841
872	0.19836	0.196881	0.196881	0.197045	0.201319	0.200168	0.1101
873	0.19836	0.196223	0.196388	0.19836	0.19573	0.196059	0.11536
874	0.196223	0.195073	0.194909	0.198031	0.200332	0.199675	0.118154
875	0.196388	0.198524	0.198689	0.199511	0.196388	0.199018	0.122592
876	0.202633	0.195237	0.195895	0.19573	0.197374	0.199511	0.126865
877	0.197867	0.200168	0.201319	0.198853	0.198196	0.198689	0.1267
878	0.206414	0.200661	0.198524	0.19836	0.197045	0.198853	0.131467
879	0.198853	0.200332	0.199675	0.197867	0.194744	0.199346	0.135904
880	0.199839	0.195237	0.195402	0.196881	0.196552	0.199675	0.136069
881	0.200004	0.197045	0.196717	0.197374	0.199839	0.201319	0.137877
882	0.201319	0.193429	0.199182	0.197374	0.20099	0.199839	0.141821
883	0.199346	0.199018	0.197374	0.19573	0.200004	0.203455	0.146095
884	0.198689	0.196717	0.197045	0.19721	0.197703	0.201154	0.144451
885	0.196881	0.19836	0.197538	0.195402	0.198689	0.200661	0.150861
886	0.198689	0.200004	0.199182	0.200168	0.197703	0.199346	0.15119
887	0.200332	0.198196	0.199675	0.198689	0.200825	0.201154	0.153491
888	0.199511	0.197045	0.199182	0.200332	0.194744	0.200497	0.155299
889	0.205921	0.19573	0.19836	0.196552	0.201812	0.201647	0.157271
890	0.19836	0.195073	0.201319	0.201976	0.19721	0.198853	0.156449
891	0.19836	0.19836	0.197867	0.200661	0.199675	0.204277	0.164996
892	0.20099	0.196388	0.197538	0.206578	0.200168	0.198524	0.159736
893	0.197045	0.197045	0.197538	0.199346	0.199346	0.200168	0.005898
894	0.197538	0.196552	0.198853	0.200825	0.199018	0.197867	0.011651
895	0.20477	0.197045	0.198524	0.199182	0.196881	0.197538	0.020526
896	0.200332	0.200004	0.199182	0.198689	0.199511	0.203455	0.024964
897	0.199018	0.196059	0.196717	0.199511	0.196388	0.197867	0.038112
898	0.199675	0.199511	0.203455	0.198031	0.200825	0.198524	0.0437
899	0.201319	0.200825	0.200661	0.200497	0.199346	0.202633	0.051425
900	0.206578	0.198196	0.201483	0.200497	0.19836	0.20362	0.055863
901	0.203291	0.200661	0.199346	0.203784	0.201812	0.202305	0.062601
902	0.199018	0.19721	0.200661	0.200332	0.199675	0.203455	0.066053
903	0.201647	0.202469	0.201319	0.202633	0.198196	0.20214	0.072463
904	0.200332	0.196552	0.203455	0.19836	0.202962	0.200168	0.077229
905	0.201319	0.196388	0.203948	0.201812	0.198853	0.200168	0.079859
906	0.203784	0.197538	0.200168	0.200004	0.199839	0.200825	0.087584
907	0.199346	0.200825	0.199182	0.200168	0.200497	0.198524	0.091528
908	0.200661	0.19836	0.197538	0.20099	0.199839	0.201976	0.09613
909	0.20214	0.200004	0.201319	0.201812	0.198689	0.198689	0.099089
910	0.201483	0.201154	0.198853	0.205756	0.200661	0.197538	0.105827
911	0.194909	0.203126	0.200497	0.201154	0.198031	0.198196	0.10895
912	0.201154	0.198031	0.199675	0.199018	0.199018	0.199018	0.113223
913	0.20099	0.197703	0.197374	0.199675	0.199182	0.202469	0.116675
914	0.201319	0.198853	0.199839	0.199018	0.196881	0.200825	0.12177
915	0.201154	0.200825	0.199182	0.199346	0.200004	0.201976	0.12177
916	0.199675	0.19836	0.197703	0.200661	0.198524	0.20214	0.123906
917	0.199182	0.200332	0.19836	0.196223	0.198689	0.202305	0.127522
918	0.199346	0.199346	0.198689	0.201812	0.198031	0.199675	0.131631
919	0.19721	0.198196	0.199675	0.201483	0.199346	0.204277	0.131467
920	0.202633	0.198031	0.200168	0.201483	0.199839	0.197374	0.136233
921	0.202798	0.199839	0.200497	0.199675	0.200825	0.200825	0.141493
922	0.189485	0.197374	0.200004	0.201483	0.199182	0.20099	0.13952
923	0.199675	0.19836	0.202962	0.201647	0.201647	0.201154	0.145602
924	0.198689	0.199346	0.201976	0.200332	0.200332	0.19836	0.141328
925	0.200332	0.197867	0.198196	0.200661	0.200168	0.203455	0.148724
926	0.198524	0.198524	0.198031	0.199182	0.198689	0.199675	0.151518
927	0.20099	0.196552	0.197703	0.19836	0.198524	0.197867	0.159243
928	0.199511	0.199018	0.199511	0.199346	0.197703	0.200168	0.152998
929	0.200332	0.192443	0.199675	0.198031	0.19573	0.198853	0.156942
930	0.200661	0.195402	0.199346	0.198689	0.196223	0.201483	0.160229
931	0.198689	0.201319	0.19573	0.198524	0.197703	0.199182	0.157764
932	0.199346	0.201319	0.19721	0.198524	0.198031	0.203126	0.163516
933	0.1908	0.201812	0.196388	0.20099	0.194251	0.199675	0.162859
934	0.201647	0.198196	0.200332	0.194416	0.199675	0.202469	0.164503
935	0.200497	0.199018	0.201319	0.195566	0.199839	0.199346	0.163352
936	0.19836	0.19836	0.19721	0.195895	0.200332	0.204277	0.16779
937	0.202798	0.197703	0.199346	0.197703	0.199018	0.199182	0.165817
938	0.200332	0.198196	0.199182	0.198689	0.201483	0.202962	0.170419
939	0.19721	0.20099	0.200004	0.200004	0.197538	0.199182	0.170255
940	0.197867	0.197374	0.199018	0.200332	0.198196	0.201976	0.170091
941	0.200004	0.200332	0.202633	0.20362	0.197538	0.197703	0.170913
942	0.199511	0.198196	0.200332	0.20099	0.198689	0.19836	0.172392
943	0.198031	0.201812	0.20099	0.197703	0.19836	0.198689	0.177158
944	0.193758	0.198524	0.197374	0.198196	0.199182	0.19836	0.177158
945	0.199018	0.197045	0.202798	0.199675	0.197703	0.199182	0.180281
946	0.205756	0.199839	0.200332	0.199182	0.199511	0.197703	0.181267
947	0.200825	0.200332	0.198196	0.197538	0.199018	0.203455	0.176172
948	0.198689	0.196717	0.199346	0.201154	0.199018	0.196717	0.175679
949	0.198853	0.197703	0.197045	0.195566	0.201647	0.202962	0.181924
950	0.201812	0.199182	0.19721	0.201154	0.198689	0.197374	0.177322
951	0.196223	0.199182	0.19721	0.198524	0.203291	0.203784	0.181267
952	0.202305	0.198524	0.195402	0.199675	0.199675	0.200661	0.181267
953	0.203126	0.196223	0.19721	0.198524	0.20362	0.203291	0.182582
954	0.199182	0.20362	0.195073	0.200661	0.19836	0.200332	0.181924
955	0.200332	0.198196	0.194251	0.20099	0.201154	0.201154	0.185376
956	0.199839	0.201976	0.198196	0.202633	0.202469	0.201647	0.182582
957	0.204934	0.197538	0.196388	0.197538	0.20099	0.200004	0.184061
958	0.200825	0.199182	0.202798	0.203126	0.204441	0.201483	0.187019
959	0.201812	0.197703	0.199346	0.200004	0.198031	0.196059	0.184225
960	0.200004	0.199346	0.20214	0.199675	0.201647	0.198196	0.186526
961	0.20099	0.198689	0.198524	0.200004	0.19836	0.195895	0.188006
962	0.198853	0.202305	0.201647	0.198196	0.198853	0.198853	0.188992
963	0.201319	0.197374	0.199511	0.20099	0.196552	0.201154	0.189814
964	0.199839	0.197538	0.201647	0.197374	0.199182	0.201319	0.190142
965	0.200825	0.201154	0.199675	0.200497	0.197374	0.197374	0.190964
966	0.198689	0.198031	0.198031	0.199346	0.199018	0.199675	0.19195
967	0.197045	0.199346	0.200497	0.199839	0.199018	0.199839	0.188992
968	0.200825	0.197538	0.199182	0.199346	0.200168	0.203291	0.191621
969	0.201154	0.200661	0.19836	0.202962	0.20099	0.20362	0.18932
970	0.202469	0.196059	0.199511	0.200004	0.199182	0.200661	0.188499
971	0.200497	0.201647	0.20099	0.203126	0.201647	0.201319	0.189156
972	0.202633	0.198196	0.197703	0.200004	0.200661	0.203126	0.188827
973	0.198031	0.198689	0.199675	0.203455	0.200661	0.200004	0.18932
974	0.202305	0.19836	0.200661	0.199839	0.199839	0.199675	0.188663
975	0.198524	0.198196	0.204113	0.200497	0.200332	0.199182	0.192279
976	0.201483	0.199182	0.201812	0.20099	0.199511	0.200661	0.190964
977	0.197538	0.199839	0.202469	0.198524	0.200661	0.20099	0.190307
978	0.200168	0.200004	0.201483	0.20214	0.201647	0.197703	0.192115
979	0.199018	0.203455	0.196881	0.199018	0.198524	0.201976	0.19458
980	0.201319	0.199675	0.200661	0.201154	0.197045	0.196059	0.194087
981	0.198689	0.197538	0.19836	0.199182	0.199018	0.200004	0.196388
982	0.199182	0.196552	0.198031	0.198524	0.199839	0.198524	0.194909
983	0.200825	0.19458	0.19836	0.197867	0.198196	0.197045	0.196388
984	0.203126	0.198031	0.196717	0.195895	0.196881	0.200004	0.19458
985	0.204606	0.194416	0.196552	0.194087	0.199182	0.199675	0.192936
986	0.203948	0.194744	0.203126	0.197045	0.197867	0.200004	0.195073
987	0.203291	0.197703	0.197045	0.200004	0.200168	0.203126	0.196388
988	0.202633	0.19836	0.200332	0.202962	0.199346	0.201647	0.193922
989	0.198689	0.199839	0.197867	0.20099	0.202305	0.204113	0.196388
990	0.198524	0.204606	0.199511	0.20214	0.199511	0.20362	0.195237
991	0.201483	0.199182	0.198689	0.201647	0.197374	0.200168	0.198031
992	0.197703	0.203126	0.19836	0.196881	0.203455	0.200004	0.195073
993	0.199839	0.19836	0.201154	0.199018	0.199675	0.199346	0.19573
994	0.200004	0.199511	0.201812	0.197538	0.201154	0.201154	0.199018
995	0.201812	0.199675	0.198524	0.201812	0.199675	0.198031	0.193101
996	0.200332	0.199346	0.202305	0.198524	0.200661	0.201483	0.193101
997	0.19721	0.197045	0.201319	0.199675	0.198524	0.196552	0.194087
998	0.198196	0.199511	0.195237	0.201647	0.203455	0.200825	0.202798
999	0.199511	0.200004	0.197045	0.20099	0.196059	0.200332	0.200168
1000	0.199346	0.197374	0.198689	0.198524	0.200168	0.199018	0.199675
1001	0.198524	0.201154	0.198689	0.201319	0.200168	0.196059	0.200497
1002	0.202469	0.197867	0.197374	0.199346	0.201483	0.202305	0.201483
1003	0.199182	0.197538	0.197703	0.198031	0.200168	0.200004	0.198031
1004	0.198689	0.19836	0.196223	0.199182	0.200332	0.199675	0.195402
1005	0.197538	0.19836	0.202469	0.198853	0.199346	0.203784	0.193758
1006	0.201976	0.199675	0.198689	0.204277	0.200004	0.202469	0.200004
1007	0.200497	0.20099	0.199511	0.199675	0.199839	0.200332	0.195402
1008	0.200332	0.201154	0.201319	0.196881	0.200004	0.198196	0.196388
1009	0.203784	0.20214	0.20099	0.196717	0.201647	0.200825	0.200661
1010	0.20214	0.201976	0.201976	0.201647	0.198031	0.196388	0.19573
1011	0.201154	0.19721	0.201154	0.200825	0.198689	0.199346	0.199182
1012	0.201812	0.197538	0.199511	0.199182	0.200168	0.200004	0.197045
1013	0.202633	0.200661	0.200168	0.203126	0.199018	0.200004	0.200825
1014	0.199839	0.199511	0.201483	0.200004	0.20099	0.201154	0.196881
1015	0.200168	0.196059	0.199346	0.199346	0.201976	0.196552	0.198524
1016	0.199675	0.20099	0.203455	0.200825	0.196717	0.197045	0.197538
1017	0.204277	0.198031	0.197703	0.197538	0.199839	0.199018	0.200497
1018	0.202469	0.199346	0.201154	0.200497	0.199511	0.199675	0.199018
1019	0.203126	0.196388	0.201647	0.19721	0.20214	0.201812	0.196223
1020	0.201976	0.199511	0.200825	0.20362	0.201483	0.203126	0.196717
1021	0.201812	0.201319	0.198853	0.200497	0.19721	0.202305	0.195566
1022	0.201647	0.199182	0.201154	0.202633	0.202469	0.201976	0.195566
1023	0.201647	0.20099	0.198031	0.20214	0.199182	0.200825	0.196223
1024	0.200497	0.202962	0.19721	0.201812	0.201976	0.203455	0.195402
1025	0.204934	0.199511	0.200497	0.198524	0.200004	0.197538	0.194909
1026	0.200168	0.200332	0.20099	0.201976	0.201976	0.202962	0.198196
1027	0.203126	0.202962	0.199511	0.200168	0.199182	0.198524	0.199346
1028	0.202305	0.200332	0.198853	0.199346	0.200004	0.201812	0.197703
1029	0.202798	0.203126	0.202469	0.202962	0.202798	0.201647	0.197538
1030	0.203291	0.200497	0.199182	0.19836	0.202633	0.198031	0.198031
1031	0.200825	0.201976	0.20362	0.203126	0.197867	0.200332	0.198853
1032	0.200825	0.200332	0.204606	0.19836	0.20099	0.20214	0.19836
1033	0.200661	0.203784	0.20214	0.197374	0.200497	0.19836	0.123249
1034	0.204606	0.200497	0.197374	0.195566	0.197538	0.20214	0.130316
1035	0.200825	0.199018	0.201154	0.20214	0.197867	0.202798	0.128508
1036	0.20362	0.19836	0.200332	0.196223	0.198689	0.199346	0.132289
1037	0.203455	0.198524	0.200497	0.195895	0.200497	0.201976	0.135411
1038	0.202962	0.195566	0.19836	0.200332	0.195073	0.200825	0.135247
1039	0.200825	0.199018	0.199675	0.199839	0.202305	0.200497	0.140506
1040	0.204277	0.20214	0.197867	0.20099	0.196881	0.198853	0.142479
1041	0.199511	0.204606	0.195895	0.19836	0.202305	0.200004	0.118647
1042	0.20214	0.202305	0.199182	0.200497	0.205427	0.200497	0.116675
1043	0.189814	0.201812	0.199346	0.20214	0.20214	0.201319	0.123413
1044	0.192936	0.201812	0.198853	0.207071	0.201483	0.200332	0.121112
1045	0.194251	0.199182	0.200332	0.20099	0.204113	0.201483	0.127029
1046	0.190964	0.200497	0.200168	0.210523	0.201812	0.201647	0.129823
1047	0.192115	0.197867	0.197867	0.199346	0.201647	0.199182	0.133439
1048	0.196388	0.199511	0.199675	0.201812	0.203784	0.198524	0.133439
1049	0.195402	0.199675	0.202469	0.201154	0.19836	0.20099	0.094322
1050	0.167297	0.200497	0.203126	0.199839	0.19573	0.198196	0.099746
1051	0.170419	0.19836	0.20214	0.199018	0.19836	0.193429	0.105005
1052	0.171241	0.201976	0.20214	0.198853	0.19836	0.199346	0.106485
1053	0.173214	0.200332	0.201319	0.201812	0.200661	0.199346	0.115031
1054	0.165817	0.200004	0.197867	0.200168	0.198031	0.201154	0.116182
1055	0.143794	0.200497	0.201976	0.198689	0.199346	0.199346	0.118976
1056	0.050274	0.198196	0.197867	0.199346	0.20099	0.201319	0.122592
1057	0.013787	0.197703	0.194909	0.205099	0.198524	0.200825	0.123249
1058	0.022827	0.197703	0.198524	0.199511	0.20099	0.200168	0.127851
1059	0.03236	0.20099	0.198689	0.200332	0.201154	0.19836	0.129495
1060	0.036304	0.199018	0.196881	0.198524	0.20214	0.201319	0.131138
1061	0.046166	0.202962	0.200661	0.202962	0.197703	0.199018	0.133932
1062	0.053562	0.197374	0.200497	0.201976	0.201483	0.200168	0.138041
1063	0.056684	0.205427	0.201647	0.20477	0.202798	0.197703	0.141328
1064	0.063587	0.200497	0.198853	0.201319	0.204277	0.201154	0.145766
1065	0.066217	0.201154	0.202469	0.202469	0.198853	0.203948	0.14478
1066	0.07953	0.199346	0.200004	0.201319	0.200497	0.203291	0.148396
1067	0.075421	0.199839	0.202469	0.196223	0.198689	0.204934	0.149875
1068	0.081995	0.198524	0.200168	0.197538	0.202469	0.199675	0.153819
1069	0.063094	0.19573	0.201483	0.201319	0.196552	0.195402	0.153162
1070	0.068189	0.198689	0.201647	0.200004	0.197045	0.198031	0.152505
1071	0.07312	0.197703	0.20099	0.200332	0.198853	0.200825	0.1576
1072	0.078051	0.200332	0.199839	0.200004	0.195566	0.19721	0.156449
1073	0.08331	0.199182	0.204441	0.197867	0.197867	0.199839	0.160065
1074	0.089063	0.203455	0.12818	0.200825	0.198524	0.196881	0.159736
1075	0.094651	0.201647	0.122427	0.199018	0.200661	0.201647	0.159736
1076	0.099089	0.202798	0.129166	0.198031	0.196881	0.200004	0.16138
1077	0.106156	0.195895	0.129823	0.199675	0.201319	0.204441	0.16401
1078	0.106485	0.200332	0.13459	0.202633	0.200332	0.199675	0.167297
1079	0.112073	0.200004	0.135904	0.189814	0.202305	0.206742	0.169926
1080	0.113059	0.200497	0.139685	0.197045	0.20362	0.19836	0.166639
1081	0.119469	0.198196	0.008692	0.198524	0.203291	0.199839	0.16894
1082	0.121605	0.20099	0.019375	0.197538	0.20099	0.199675	0.16894
1083	0.125221	0.199018	0.023484	0.201976	0.200661	0.199511	0.170748
1084	0.126536	0.196717	0.029894	0.194416	0.198031	0.200332	0.170913
1085	0.127851	0.198689	0.038769	0.19836	0.196881	0.197045	0.171241
1086	0.130481	0.198689	0.044029	0.200004	0.198031	0.201154	0.176008
1087	0.139192	0.197374	0.049453	0.200332	0.195073	0.200004	0.173378
1088	0.140013	0.197045	0.057671	0.199346	0.198524	0.201976	0.176336
1089	0.141821	0.183239	0.0603	0.198524	0.197374	0.196881	0.172885
1090	0.143794	0.183239	0.06556	0.188992	0.201647	0.202633	0.179295
1091	0.144451	0.109772	0.070162	0.198853	0.196388	0.200332	0.175021
1092	0.152669	0.072463	0.073778	0.197867	0.202305	0.20362	0.178802
1093	0.150204	0.0105	0.081174	0.200332	0.197538	0.201319	0.176008
1094	0.150039	0.008199	0.085611	0.201319	0.198524	0.199182	0.180116
1095	0.155627	0.017896	0.0935	0.198031	0.200497	0.20214	0.172063
1096	0.156449	0.028086	0.094322	0.202469	0.20099	0.200332	0.171406
1097	0.160558	0.034168	0.095308	0.202305	0.200168	0.202305	0.173378
1098	0.165817	0.038769	0.10254	0.200332	0.198853	0.199675	0.169762
1099	0.166968	0.045508	0.113223	0.200168	0.202305	0.201154	0.176829
1100	0.16516	0.051261	0.114538	0.199018	0.198524	0.201647	0.1742
1101	0.167297	0.05915	0.118647	0.195073	0.200661	0.201812	0.176336
1102	0.173707	0.061944	0.120291	0.199675	0.198524	0.199018	0.173049
1103	0.170748	0.066875	0.124071	0.200825	0.200168	0.197045	0.176336
1104	0.171899	0.066546	0.125386	0.200168	0.197867	0.196717	0.173707
1105	0.171406	0.058985	0.123413	0.200332	0.199182	0.196881	0.175843
1106	0.172556	0.054876	0.12933	0.199675	0.197045	0.197374	0.177651
1107	0.175021	0.051096	0.132453	0.197867	0.198853	0.201154	0.178802
1108	0.17535	0.03088	0.135083	0.205592	0.199511	0.201154	0.180938
1109	0.178966	-0.000512	0.137055	0.200332	0.200004	0.20099	0.182417
1110	0.178637	-0.000347	0.144287	0.197538	0.201976	0.197538	0.180938
1111	0.17798	-0.000347	0.141657	0.200825	0.200168	0.201319	0.182746
1112	0.179623	0.009021	0.146588	0.198853	0.203291	0.192115	0.178473
1113	0.181103	-0.000512	0.148067	0.199182	0.202633	0.199018	0.180938
1114	0.180445	0.002282	0.150368	0.20099	0.203126	0.200332	0.180774
1115	0.185869	0.000146	0.152669	0.199346	0.201483	0.198196	0.180774
1116	0.179459	0.000639	0.154148	0.200004	0.200004	0.201319	0.181103
1117	0.182582	0.000803	0.158093	0.200332	0.198689	0.199839	0.179788
1118	0.186362	0.004912	0.159901	0.204113	0.200332	0.200332	0.186526
1119	0.185047	0.007706	0.161051	0.205921	0.197538	0.200825	0.181103
1120	0.185869	0.005405	0.163516	0.200168	0.203455	0.20099	0.183732
1121	0.188663	0.001789	0.164667	0.20214	0.201812	0.198196	0.182746
1122	0.187019	0.002775	0.163023	0.20099	0.198689	0.200661	0.18439
1123	0.183897	0.017074	0.169269	0.19721	0.198853	0.188992	0.18439
1124	0.188663	-1.9e-05	0.168447	0.197703	0.200825	0.198031	0.186855
1125	0.185376	0.000146	0.172556	0.200497	0.200661	0.202798	0.187184
1126	0.188499	0.000967	0.16779	0.200004	0.193594	0.198853	0.188663
1127	0.188334	-0.003963	0.172885	0.200168	0.201319	0.201319	0.186855
1128	0.190142	-0.000841	0.170748	0.199018	0.198689	0.201319	0.186198
1129	0.191293	0.013294	0.174693	0.200825	0.199675	0.201812	0.190142
1130	0.192936	0.021841	0.17272	0.201154	0.198196	0.200661	0.192608
1131	0.191621	0.027429	0.176665	0.198689	0.202469	0.202962	0.188663
1132	0.197703	0.034825	0.180281	0.200168	0.200661	0.20099	0.188334
1133	0.192608	0.041235	0.17913	0.198853	0.202305	0.201647	0.190471
1134	0.195073	0.05011	0.178802	0.198524	0.197703	0.190964	0.189978
1135	0.197703	0.049781	0.181431	0.196388	0.200497	0.199182	0.190142
1136	0.1908	0.058657	0.180938	0.198853	0.199182	0.199018	0.189978
1137	0.191128	0.062766	0.18061	0.198524	0.197703	0.202798	0.190307
1138	0.192936	0.068189	0.183075	0.200825	0.199511	0.19836	0.192936
1139	0.194744	0.072791	0.182746	0.198524	0.199346	0.202469	0.192443
1140	0.194087	0.077558	0.185047	0.203784	0.199675	0.19721	0.192608
1141	0.192608	0.08331	0.181267	0.20099	0.200168	0.200004	0.197538
1142	0.192279	0.088077	0.184718	0.199839	0.199511	0.199511	0.193101
1143	0.197374	0.090871	0.183239	0.200497	0.197703	0.19721	0.194909
1144	0.19195	0.097774	0.185047	0.197703	0.196388	0.200825	0.192772
1145	0.195073	0.102211	0.184718	0.196881	0.198031	0.197538	0.192772
1146	0.195566	0.102869	0.187348	0.196223	0.201483	0.197538	0.19195
1147	0.198524	0.110265	0.185869	0.200497	0.20214	0.199675	0.190471
1148	0.196881	0.111908	0.187348	0.197538	0.201647	0.201319	0.193922
1149	0.204441	0.116182	0.189156	0.200004	0.198689	0.198524	0.190471
1150	0.199839	0.118318	0.191293	0.199839	0.200825	0.200004	0.192443
1151	0.198853	0.123906	0.192772	0.205592	0.199346	0.199182	0.19195
1152	0.201976	0.126865	0.189649	0.199675	0.201319	0.201647	0.195237
1153	0.198031	0.12933	0.192443	0.202633	0.200004	0.199182	0.193922
1154	0.200004	0.127522	0.191293	0.199511	0.202469	0.200825	0.193922
1155	0.197703	0.131631	0.188827	0.199839	0.200168	0.195566	0.194744
1156	0.19721	0.138699	0.190964	0.196881	0.200004	0.194416	0.202962
1157	0.196881	0.13459	0.196388	0.197374	0.199346	0.190635	0.193101
1158	0.196881	0.138205	0.190635	0.19836	0.202962	0.19573	0.19836
1159	0.195566	0.142479	0.1908	0.199675	0.196388	0.198196	0.195237
1160	0.19721	0.13952	0.191786	0.199675	0.198689	0.195402	0.198031
1161	0.196717	0.145108	0.195566	0.200004	0.197045	0.19836	0.195073
1162	0.198031	0.150039	0.192443	0.203948	0.199018	0.199675	0.197374
1163	0.197045	0.151683	0.194744	0.19836	0.198196	0.201483	0.200168
1164	0.19836	0.152998	0.192936	0.201976	0.200661	0.201976	0.195566
1165	0.197374	0.155134	0.194416	0.199018	0.202469	0.201812	0.195073
1166	0.197374	0.15612	0.194087	0.200168	0.197867	0.199346	0.196881
1167	0.198031	0.163023	0.193594	0.200497	0.199346	0.201319	0.203126
1168	0.199018	0.158421	0.197045	0.201154	0.199675	0.198853	0.194909
1169	0.198031	0.159736	0.194744	0.198689	0.201812	0.201319	0.195895
1170	0.195073	0.159736	0.196881	0.201319	0.197538	0.200661	0.196717
1171	0.196388	0.163352	0.193922	0.200661	0.199182	0.200168	0.195237
1172	0.196881	0.164174	0.196059	0.20099	0.200825	0.199839	0.197045
1173	0.195237	0.163023	0.197374	0.202305	0.19836	0.199675	0.197703
1174	0.192772	0.163023	0.19836	0.199675	0.198689	0.200497	0.193758
1175	0.193429	0.167954	0.197045	0.198689	0.20099	0.199182	0.19573
1176	0.192936	0.167461	0.199839	0.200332	0.200661	0.200168	0.19836
1177	0.193922	0.165489	0.197045	0.197867	0.199839	0.201976	0.198196
1178	0.191457	0.1742	0.195402	0.197538	0.199182	0.201154	0.203455
1179	0.194087	0.167954	0.195402	0.201647	0.198031	0.200825	0.194087
1180	0.192443	0.174364	0.196881	0.195895	0.199511	0.202305	0.196388
1181	0.191621	0.173542	0.198524	0.200661	0.196388	0.199511	0.197045
1182	0.193429	0.173871	0.199346	0.197703	0.196223	0.202305	0.198031
1183	0.197045	0.173049	0.200661	0.200825	0.197045	0.199675	0.19836
1184	0.193922	0.176665	0.195402	0.199018	0.196717	0.201154	0.198689
1185	0.19721	0.177322	0.199018	0.19721	0.198689	0.200332	0.196223
1186	0.200004	0.176336	0.198524	0.197374	0.201483	0.201976	0.199675
1187	0.195237	0.177487	0.19573	0.199839	0.201483	0.202798	0.196388
1188	0.193101	0.177158	0.198031	0.19836	0.200168	0.200168	0.197867
1189	0.190635	0.176994	0.201154	0.198689	0.201319	0.200825	0.193265
1190	0.192936	0.177487	0.196388	0.20214	0.198031	0.197538	0.197045
1191	0.191128	0.183075	0.200332	0.197867	0.200332	0.200332	0.198853
1192	0.192443	0.178966	0.197374	0.201812	0.198031	0.19836	0.198853
1193	0.189156	0.17913	0.198031	0.199182	0.19573	0.199346	0.200661
1194	0.195073	0.182417	0.201812	0.197867	0.196223	0.198196	0.19721
1195	0.192443	0.18176	0.199511	0.199018	0.20099	0.202798	0.196223
1196	0.193922	0.181596	0.19836	0.19836	0.195073	0.198853	0.196717
1197	0.194251	0.182911	0.200661	0.199346	0.203948	0.200497	0.200004
1198	0.193594	0.185212	0.197703	0.202305	0.20362	0.197538	0.198853
1199	0.194087	0.184883	0.200004	0.198196	0.200825	0.202469	0.199018
1200	0.193594	0.174693	0.203126	0.198853	0.19836	0.199839	0.189978
1201	0.195402	0.185869	0.200332	0.198853	0.200168	0.201154	0.199018
1202	0.195402	0.187513	0.198031	0.199018	0.203291	0.200497	0.197703
1203	0.192608	0.187019	0.19458	0.200497	0.199182	0.200332	0.199675
1204	0.189978	0.187184	0.197045	0.199675	0.199346	0.201154	0.200004
1205	0.19836	0.18439	0.197867	0.198853	0.198524	0.198689	0.198524
1206	0.19573	0.187841	0.198853	0.199018	0.202469	0.206414	0.19836
1207	0.19573	0.185705	0.200004	0.19836	0.198853	0.202962	0.19721
1208	0.193101	0.185869	0.202305	0.199018	0.202962	0.203455	0.199018
1209	0.195237	0.187677	0.196059	0.200332	0.201812	0.199182	0.199511
1210	0.191457	0.188663	0.200332	0.198853	0.200168	0.198196	0.200497
1211	0.194416	0.176336	0.200497	0.201319	0.194416	0.195895	0.190471
1212	0.192772	0.184554	0.197703	0.201647	0.204113	0.199182	0.197867
1213	0.19195	0.191457	0.202305	0.198853	0.203455	0.19721	0.197538
1214	0.193429	0.188992	0.199018	0.198031	0.199346	0.197374	0.20214
1215	0.195895	0.193101	0.197538	0.199018	0.199018	0.197045	0.19836
1216	0.197867	0.189978	0.200004	0.197867	0.198524	0.200497	0.199511
1217	0.196223	0.18932	0.199839	0.19836	0.19836	0.200168	0.199018
1218	0.193922	0.187677	0.198853	0.198524	0.197374	0.200825	0.198689
1219	0.196388	0.19195	0.199018	0.197374	0.20214	0.201976	0.196881
1220	0.199675	0.1908	0.197867	0.198524	0.202798	0.200332	0.196388
1221	0.193758	0.193265	0.19721	0.200004	0.200168	0.201483	0.198196
1222	0.195895	0.184718	0.194087	0.199675	0.198853	0.198524	0.191293
1223	0.193758	0.1908	0.19836	0.202305	0.202305	0.200332	0.199675
1224	0.196059	0.191621	0.198689	0.200661	0.205427	0.19836	0.200332
1225	0.191128	0.191457	0.200497	0.19836	0.199839	0.201976	0.200825
1226	0.196388	0.191786	0.198196	0.201976	0.198853	0.205263	0.201154
1227	0.196881	0.190635	0.201647	0.199182	0.200497	0.199839	0.199018
1228	0.193429	0.195073	0.199839	0.200825	0.199839	0.196388	0.200497
1229	0.194909	0.189485	0.19836	0.198853	0.20099	0.199182	0.203291
1230	0.197538	0.190964	0.201483	0.200332	0.203291	0.197703	0.200497
1231	0.195402	0.196059	0.202633	0.197867	0.20362	0.196881	0.202962
1232	0.193429	0.195895	0.200825	0.200332	0.199839	0.202305	0.199839
1233	0.19721	0.188499	0.199346	0.197045	0.197703	0.201647	0.19836
1234	0.194416	0.190471	0.200168	0.201319	0.199182	0.198689	0.19573
1235	0.199182	0.189485	0.19721	0.198524	0.201483	0.199839	0.200332
1236	0.194744	0.187348	0.200004	0.197045	0.198853	0.20099	0.200004
1237	0.198031	0.189978	0.197703	0.199346	0.200825	0.201483	0.198853
1238	0.198524	0.192608	0.199182	0.200825	0.199839	0.20099	0.198853
1239	0.197045	0.191293	0.198853	0.200661	0.200168	0.201812	0.197538
1240	0.194087	0.190964	0.200004	0.199346	0.199182	0.20362	0.19836
1241	0.194909	0.196388	0.197538	0.202305	0.203126	0.197045	0.198853
1242	0.194744	0.194416	0.201976	0.199018	0.206085	0.200825	0.201154
1243	0.191457	0.195237	0.198689	0.203126	0.200004	0.199018	0.19836
1244	0.191621	0.193758	0.200004	0.200332	0.201154	0.201319	0.197374
1245	0.196881	0.193265	0.198524	0.201319	0.202305	0.197045	0.200004
1246	0.195237	0.19195	0.200661	0.20099	0.199346	0.199346	0.201647
1247	0.195402	0.193758	0.199839	0.203948	0.197867	0.196223	0.196717
1248	0.196388	0.192772	0.193922	0.198031	0.199839	0.199839	0.204277
1249	0.197374	0.198524	0.205592	0.198689	0.198031	0.199839	0.199182
1250	0.198853	0.189156	0.200332	0.20099	0.198689	0.199839	0.203948
1251	0.197703	0.193101	0.200168	0.198853	0.199675	0.199839	0.20214
1252	0.19836	0.194251	0.198524	0.197867	0.200004	0.200661	0.198853
1253	0.199511	0.195895	0.200168	0.199675	0.201483	0.201976	0.199346
1254	0.199018	0.198853	0.19458	0.203126	0.198031	0.199839	0.198196
1255	0.19573	0.19573	0.19721	0.202305	0.203784	0.198853	0.198031
1256	0.198689	0.196223	0.198853	0.203455	0.203291	0.197538	0.196388
1257	0.197374	0.196552	0.196059	0.200332	0.192772	0.201154	0.198689
1258	0.200168	0.197374	0.194909	0.20362	0.198689	0.201647	0.19836
1259	0.198031	0.194087	0.192936	0.199018	0.201483	0.202633	0.199675
1260	0.197867	0.196881	0.201154	0.202469	0.199018	0.199675	0.195566
1261	0.202305	0.193429	0.200004	0.198853	0.201976	0.201319	0.199018
1262	0.200168	0.191786	0.199839	0.200497	0.200497	0.198853	0.197374
1263	0.199346	0.196059	0.199675	0.201976	0.20099	0.199346	0.200825
1264	0.201812	0.196881	0.202962	0.199511	0.199346	0.201483	0.19721
1265	0.196223	0.194416	0.194909	0.198031	0.199346	0.199018	0.20214
1266	0.196223	0.196552	0.200332	0.19836	0.199511	0.199675	0.20099
1267	0.199018	0.194416	0.197538	0.19836	0.195073	0.201154	0.198524
1268	0.195895	0.193758	0.199511	0.196552	0.18932	0.200168	0.198853
1269	0.197867	0.19458	0.197045	0.197538	0.195895	0.200332	0.19721
1270	0.197045	0.193594	0.196881	0.198031	0.200004	0.202305	0.198853
1271	0.199182	0.196552	0.198689	0.201154	0.198196	0.199839	0.197045
1272	0.197374	0.195237	0.195073	0.197045	0.199839	0.202633	0.195895
1273	0.198689	0.193429	0.197538	0.199839	0.198853	0.200004	0.19458
1274	0.197867	0.197703	0.196223	0.20099	0.200825	0.203784	0.197867
1275	0.20099	0.197867	0.199346	0.200332	0.199182	0.198524	0.197045
1276	0.196881	0.195073	0.196881	0.199346	0.203784	0.198853	0.200168
1277	0.197867	0.197045	0.197374	0.201647	0.200168	0.200332	0.198524
1278	0.199018	0.197867	0.197867	0.200661	0.198524	0.200497	0.19836
1279	0.196717	0.199182	0.199182	0.20099	0.188992	0.199018	0.205099
1280	0.200497	0.194909	0.191128	0.19836	0.198031	0.200661	0.198853
1281	0.193758	0.19721	0.186526	0.197374	0.19836	0.199675	0.201812
1282	0.201154	0.195073	0.183897	0.197703	0.199182	0.199839	0.200168
1283	0.195895	0.196717	0.181103	0.196717	0.198031	0.200332	0.201647
1284	0.199675	0.192115	0.179623	0.196059	0.195566	0.199182	0.198031
1285	0.196552	0.191786	0.180774	0.198524	0.198031	0.201647	0.201976
1286	0.19721	0.194744	0.179459	0.201812	0.199346	0.200661	0.200004
1287	0.196881	0.196223	0.179459	0.198524	0.201976	0.198524	0.201154
1288	0.196388	0.196223	0.180116	0.198524	0.199839	0.200332	0.199839
1289	0.195566	0.195566	0.18061	0.202633	0.200497	0.203126	0.198689
1290	0.193922	0.198689	0.182582	0.198031	0.197045	0.19836	0.198524
1291	0.192608	0.195566	0.18176	0.198689	0.200004	0.200825	0.202469
1292	0.195402	0.199182	0.185376	0.20099	0.200004	0.202305	0.195895
1293	0.195073	0.197045	0.186362	0.199346	0.20362	0.200168	0.197045
1294	0.19573	0.200497	0.186855	0.202305	0.200661	0.201319	0.199511
1295	0.198524	0.195402	0.186526	0.198689	0.200004	0.199675	0.198524
1296	0.198031	0.20099	0.187348	0.201647	0.201319	0.198524	0.202305
1297	0.199018	0.198524	0.181596	0.203455	0.196223	0.20099	0.200332
1298	0.196223	0.195895	0.186362	0.196388	0.20099	0.198853	0.20099
1299	0.198689	0.196552	0.183732	0.19836	0.197538	0.197867	0.201483
1300	0.19721	0.197867	0.18932	0.199839	0.204277	0.200004	0.201319
1301	0.199511	0.195402	0.188827	0.19836	0.199839	0.197703	0.198196
1302	0.195566	0.194251	0.18817	0.197867	0.19721	0.198689	0.197045
1303	0.197867	0.195237	0.186691	0.199346	0.19836	0.198689	0.197374
1304	0.195073	0.196552	0.189814	0.200004	0.200497	0.204113	0.199839
1305	0.198853	0.198031	0.18554	0.204113	0.199511	0.201976	0.196388
1306	0.200825	0.199018	0.186526	0.19721	0.203291	0.203126	0.198196
1307	0.20099	0.19836	0.189156	0.203784	0.204277	0.198031	0.199839
1308	0.199018	0.198196	0.184554	0.200168	0.203126	0.19721	0.199675
1309	0.197374	0.199018	0.186362	0.200168	0.201483	0.196881	0.19836
1310	0.199182	0.197538	0.190471	0.200332	0.199018	0.199182	0.200004
1311	0.194251	0.199182	0.191786	0.203455	0.201154	0.200825	0.199839
1312	0.198853	0.194744	0.19195	0.199182	0.199839	0.198853	0.196059
1313	0.195895	0.198524	0.194251	0.198689	0.200004	0.196223	0.199182
1314	0.199018	0.199182	0.189485	0.201647	0.197867	0.198853	0.198196
1315	0.199346	0.198524	0.194416	0.197703	0.199839	0.199018	0.197703
1316	0.198689	0.196388	0.193265	0.199346	0.197703	0.199182	0.201647
1317	0.197374	0.195895	0.194251	0.195895	0.200661	0.201483	0.198853
1318	0.198689	0.196717	0.195237	0.202962	0.19836	0.19836	0.20099
1319	0.196388	0.197867	0.192772	0.200168	0.198689	0.201812	0.203784
1320	0.197374	0.196717	0.193758	0.200661	0.197538	0.198853	0.195895
1321	0.200825	0.195073	0.197538	0.199182	0.200661	0.200661	0.201647
1322	0.199018	0.200332	0.194416	0.201976	0.197703	0.200661	0.196388
1323	0.19721	0.196223	0.192772	0.197538	0.20214	0.200497	0.199018
1324	0.198689	0.19836	0.194744	0.201154	0.19721	0.197374	0.199018
1325	0.199675	0.197538	0.194744	0.197703	0.200168	0.197045	0.197045
1326	0.199018	0.199346	0.196717	0.201483	0.199346	0.201647	0.197703
1327	0.200332	0.194909	0.191786	0.199182	0.199839	0.20362	0.199839
1328	0.19721	0.201154	0.195073	0.199346	0.200497	0.200661	0.199182
1329	0.200825	0.201647	0.19458	0.200332	0.199018	0.197867	0.201647
1330	0.200661	0.198524	0.198196	0.197703	0.198689	0.198524	0.201647
1331	0.199018	0.201483	0.192115	0.199675	0.201154	0.198689	0.200332
1332	0.198853	0.198524	0.192772	0.198689	0.199346	0.199346	0.202305
1333	0.199839	0.198031	0.193922	0.199675	0.196881	0.199018	0.201976
1334	0.196223	0.195566	0.194744	0.192772	0.199182	0.200168	0.200332
1335	0.199839	0.19721	0.194909	0.195895	0.19721	0.196388	0.201319
1336	0.196388	0.194909	0.195237	0.199675	0.197374	0.202633	0.200661
1337	0.197867	0.199511	0.19721	0.198196	0.18932	0.200168	0.198689
1338	0.198031	0.196388	0.19573	0.198031	0.195073	0.201483	0.203455
1339	0.201154	0.199182	0.194909	0.200497	0.191293	0.198853	0.198524
1340	0.204606	0.198524	0.195073	0.198853	0.193265	0.201647	0.200661
1341	0.201319	0.199346	0.197703	0.199839	0.183404	0.199018	0.201154
1342	0.19573	0.196881	0.192772	0.198689	0.170255	0.200168	0.199675
1343	0.198196	0.196881	0.197045	0.202633	0.157271	0.201154	0.198524
1344	0.202798	0.199346	0.194251	0.201154	0.143794	0.200332	0.203784
1345	0.197703	0.201976	0.195402	0.198853	0.129166	0.200825	0.200661
1346	0.200661	0.196717	0.195237	0.200661	0.119469	0.199018	0.202469
1347	0.198689	0.198853	0.196552	0.201154	0.107471	0.198524	0.200168
1348	0.202633	0.200332	0.193922	0.198689	0.091692	0.199018	0.199346
1349	0.200004	0.195895	0.195895	0.195402	0.090706	0.199182	0.198689
1350	0.199675	0.19836	0.196552	0.199511	0.087912	0.198196	0.198689
1351	0.195237	0.199839	0.195402	0.198853	0.090049	0.200497	0.201812
1352	0.200497	0.197045	0.195237	0.199675	0.086433	0.197538	0.19836
1353	0.198689	0.193429	0.193594	0.199346	0.095473	0.199018	0.205921
1354	0.19721	0.19836	0.197374	0.201647	0.091035	0.198853	0.199839
1355	0.200004	0.197045	0.193758	0.199182	0.089556	0.19721	0.203291
1356	0.198524	0.19836	0.195895	0.199346	0.090213	0.196552	0.199839
1357	0.200825	0.19573	0.195566	0.200004	0.089391	0.19836	0.200168
1358	0.198031	0.195237	0.19836	0.199018	0.083639	0.197374	0.199346
1359	0.20099	0.197703	0.203784	0.198853	0.082982	0.195402	0.199346
1360	0.204606	0.197045	0.199839	0.197867	0.079037	0.196881	0.199675
1361	0.205099	0.197867	0.197703	0.197374	0.072627	0.197867	0.199839
1362	0.204606	0.196388	0.19836	0.20214	0.066546	0.200825	0.199182
1363	0.20477	0.200168	0.200004	0.201319	0.053726	0.200497	0.19721
1364	0.200661	0.196717	0.194909	0.199675	0.057999	0.204113	0.201812
1365	0.199675	0.199511	0.197867	0.199346	0.055205	0.198031	0.197867
1366	0.198853	0.200168	0.198031	0.202469	0.056684	0.200825	0.202633
1367	0.199346	0.197703	0.19836	0.201154	0.053069	0.200661	0.197045
1368	0.199182	0.195566	0.19836	0.199018	0.048795	0.199675	0.19836
1369	0.194744	0.197703	0.19836	0.200004	0.046659	0.199182	0.196059
1370	0.20214	0.196881	0.19836	0.199675	0.046001	0.199511	0.200497
1371	0.19721	0.197374	0.20099	0.199675	0.040577	0.199182	0.201976
1372	0.200332	0.194087	0.198853	0.197703	0.031867	0.19721	0.198853
1373	0.19721	0.198031	0.200332	0.200332	0.031867	0.199346	0.200825
1374	0.201647	0.195566	0.198689	0.197867	0.029566	0.200168	0.202305
1375	0.198853	0.197045	0.196881	0.199839	0.031045	0.205099	0.201319
1376	0.198524	0.19836	0.19721	0.200661	0.027265	0.201976	0.200661
1377	0.200168	0.196223	0.194744	0.197703	0.029894	0.201812	0.200825
1378	0.196388	0.19721	0.198689	0.200497	0.026114	0.199511	0.199018
1379	0.200004	0.198524	0.19573	0.199182	0.022169	0.200004	0.199182
1380	0.201319	0.194251	0.200332	0.20099	0.014609	0.201154	0.201647
1381	0.199839	0.194744	0.197045	0.19836	0.008363	0.202633	0.201319
1382	0.200497	0.194251	0.19721	0.197045	0.008035	0.198196	0.199182
1383	0.199511	0.193429	0.198524	0.200004	0.011979	0.202633	0.201812
1384	0.199018	0.197867	0.199839	0.201154	0.0105	0.200332	0.198524
1385	0.197867	0.193265	0.201319	0.199675	0.010007	0.200168	0.201976
1386	0.19836	0.193101	0.199511	0.197045	0.013294	0.200004	0.199839
1387	0.199346	0.194251	0.196388	0.199182	0.014445	0.200497	0.200332
1388	0.196717	0.199675	0.200497	0.201319	0.011815	0.200497	0.201319
1389	0.196881	0.188006	0.197538	0.199839	0.010829	0.198689	0.201319
1390	0.194416	0.190307	0.199018	0.199839	0.017239	0.198853	0.200332
1391	0.199182	0.192772	0.198853	0.198853	0.014938	0.196059	0.200497
1392	0.199018	0.194087	0.200332	0.197374	0.015595	0.199675	0.201319
1393	0.20099	0.195566	0.198853	0.200004	0.014938	0.201976	0.199839
1394	0.199511	0.194744	0.19836	0.198524	0.018225	0.199346	0.203126
1395	0.199839	0.197374	0.197374	0.201319	0.01313	0.199182	0.205921
1396	0.197374	0.195895	0.202305	0.199018	0.016746	0.201812	0.200661
1397	0.200497	0.197374	0.195895	0.199675	0.020033	0.199675	0.203291
1398	0.199511	0.195237	0.199182	0.199346	0.017567	0.200004	0.200497
1399	0.199018	0.199839	0.197374	0.195895	0.011651	0.199511	0.199675
1400	0.20362	0.191786	0.197867	0.199346	0.013294	0.201812	0.201483
1401	0.198853	0.201812	0.198524	0.203126	0.017567	0.199182	0.199018
1402	0.201483	0.196059	0.200168	0.197045	0.024306	0.202633	0.20099
1403	0.200332	0.195895	0.204441	0.197538	0.027593	0.200004	0.20214
1404	0.200661	0.194909	0.198689	0.201319	0.021512	0.199511	0.199018
1405	0.199675	0.193758	0.199511	0.199018	0.019211	0.197045	0.198689
1406	0.198689	0.19573	0.19836	0.200332	0.020855	0.196552	0.199346
1407	0.201812	0.196717	0.204934	0.199675	0.026771	0.200497	0.203455
1408	0.199182	0.193758	0.19458	0.199675	0.028415	0.199182	0.199018
1409	0.199675	0.194744	0.195073	0.197867	0.021512	0.20214	0.200004
1410	0.199182	0.196552	0.201647	0.200004	0.021183	0.194416	0.204113
1411	0.196059	0.194909	0.196059	0.198853	0.02973	0.200168	0.201812
1412	0.197867	0.194744	0.197703	0.201154	0.034825	0.198689	0.200332
1413	0.195073	0.19721	0.199675	0.19836	0.036304	0.198031	0.199839
1414	0.199839	0.197045	0.201812	0.200004	0.040742	0.201647	0.199839
1415	0.202305	0.194909	0.197374	0.198853	0.046659	0.20099	0.200661
1416	0.200004	0.197703	0.199018	0.199675	0.043371	0.199182	0.198689
1417	0.201319	0.195402	0.199182	0.196388	0.056191	0.20214	0.200004
1418	0.200497	0.200497	0.202798	0.201154	0.047152	0.181596	0.200332
1419	0.200497	0.195402	0.190635	0.196717	0.052575	0.183897	0.195566
1420	0.197045	0.19721	0.19836	0.197045	0.056849	0.183404	0.195073
1421	0.199346	0.193758	0.199675	0.208222	0.057177	0.180938	0.199675
1422	0.196552	0.195402	0.198196	0.196223	0.066217	0.183404	0.197374
1423	0.19836	0.195895	0.198524	0.200332	0.070326	0.182582	0.199675
1424	0.193101	0.195895	0.202633	0.197374	0.073613	0.188006	0.198524
1425	0.199839	0.196552	0.201812	0.199182	0.078544	0.185047	0.198524
1426	0.198031	0.194744	0.199675	0.196881	0.079694	0.187513	0.199182
1427	0.19573	0.194744	0.198689	0.200004	0.081338	0.185212	0.199346
1428	0.200168	0.189978	0.19836	0.199018	0.088077	0.184883	0.203784
1429	0.200497	0.195402	0.196388	0.200661	0.087584	0.190471	0.20099
1430	0.19836	0.194416	0.195402	0.199675	0.093665	0.192608	0.202962
1431	0.199346	0.19573	0.201154	0.200004	0.095966	0.189485	0.201319
1432	0.198853	0.19458	0.199346	0.200497	0.101225	0.191293	0.201812
1433	0.199675	0.197867	0.199511	0.199511	0.102704	0.189649	0.197703
1434	0.200004	0.194744	0.199182	0.199511	0.108786	0.190142	0.200332
1435	0.195402	0.196881	0.202305	0.199346	0.111744	0.190635	0.197374
1436	0.202469	0.196059	0.200661	0.204277	0.115524	0.193429	0.198689
1437	0.199675	0.195237	0.199675	0.201976	0.121441	0.189649	0.199675
1438	0.201647	0.192279	0.200004	0.199839	0.119633	0.19195	0.198689
1439	0.196223	0.152998	0.199675	0.200332	0.121112	0.192608	0.200168
1440	0.200168	0.157271	0.1908	0.201483	0.119797	0.189978	0.200004
1441	0.193758	0.160558	0.198524	0.199675	0.125057	0.191786	0.201154
1442	0.193101	0.093007	0.199018	0.201154	0.127358	0.189814	0.198031
1443	0.194744	0.094322	0.198031	0.201812	0.132289	0.192936	0.200004
1444	0.196717	0.098267	0.198524	0.199511	0.130152	0.191293	0.201812
1445	0.198524	0.100568	0.196552	0.198524	0.138534	0.192279	0.204113
1446	0.196223	0.107635	0.201154	0.20099	0.134918	0.192608	0.20099
1447	0.203126	0.10895	0.200497	0.198689	0.138041	0.195073	0.204113
1448	0.198524	0.114538	0.200661	0.200332	0.139027	0.193101	0.201154
1449	0.200661	0.117661	0.203291	0.199839	0.138534	0.1908	0.20099
1450	0.201976	0.123249	0.204441	0.198524	0.111251	0.19721	0.199839
1451	0.201319	0.129659	0.188663	0.207235	0.041728	0.194744	0.198524
1452	0.201483	0.129988	0.196059	0.203126	0.014773	0.198031	0.199511
1453	0.198689	0.131302	0.196717	0.204277	0.00672	0.197538	0.197703
1454	0.198689	0.134425	0.198689	0.20362	0.007377	0.19721	0.196223
1455	0.200004	0.138699	0.19836	0.201319	0.005241	0.191128	0.196388
1456	0.199346	0.13837	0.19836	0.199675	0.00787	0.198689	0.198853
1457	0.199675	0.141328	0.198689	0.200332	0.002282	0.195073	0.197374
1458	0.196059	0.141164	0.201154	0.199346	0.003761	0.198031	0.199675
1459	0.198689	0.146423	0.198196	0.201154	-0.003635	0.196223	0.200168
1460	0.196717	0.145437	0.200825	0.198524	0.002611	0.196059	0.201976
1461	0.198196	0.14971	0.200168	0.200661	-0.001498	0.195895	0.198689
1462	0.195073	0.151025	0.188663	0.19836	0.002118	0.192936	0.201319
1463	0.202798	0.153655	0.196059	0.201154	0.000146	0.194744	0.200825
1464	0.200661	0.153326	0.19721	0.198196	-0.001005	0.194744	0.199839
1465	0.200168	0.15612	0.200825	0.200004	-0.000183	0.19573	0.202305
1466	0.199839	0.155792	0.198031	0.200168	0.000639	0.197374	0.200825
1467	0.20099	0.1576	0.19836	0.200168	0.000967	0.198031	0.197867
1468	0.200004	0.160065	0.199346	0.201976	0.001296	0.199018	0.200661
1469	0.200825	0.142643	0.194909	0.200825	0.000803	0.199839	0.194087
1470	0.203126	0.138041	0.196552	0.200332	0.000803	0.19573	0.193594
1471	0.199675	0.112894	0.200497	0.200168	-0.000512	0.197538	0.200825
1472	0.201154	0.116017	0.197538	0.201976	-1.9e-05	0.197703	0.195566
1473	0.200825	0.115853	0.19836	0.198524	0.001789	0.199675	0.199511
1474	0.19836	0.12292	0.198196	0.203126	-0.001334	0.199346	0.198853
1475	0.198196	0.122756	0.198524	0.199018	-0.000512	0.195895	0.200825
1476	0.199346	0.127851	0.201319	0.200168	-0.001169	0.196552	0.20099
1477	0.197374	0.130152	0.195073	0.197703	0.000639	0.197538	0.198853
1478	0.198853	0.131467	0.199346	0.201647	-0.000512	0.195566	0.202305
1479	0.198853	0.129988	0.199675	0.196881	0.00031	0.198689	0.204934
1480	0.198031	0.138205	0.201319	0.196552	-1.9e-05	0.196223	0.203948
1481	0.203455	0.137384	0.201319	0.200497	0.000146	0.194909	0.201647
1482	0.199018	0.140506	0.198196	0.196717	0.000146	0.19836	0.20099
1483	0.196881	0.144615	0.197374	0.198689	0.000474	0.198853	0.201976
1484	0.200661	0.146423	0.198196	0.19721	0.000146	0.200497	0.202469
1485	0.199018	0.147081	0.195895	0.199839	0.000146	0.19721	0.198853
1486	0.198196	0.150861	0.199018	0.198853	-0.000512	0.200825	0.199839
1487	0.200004	0.152998	0.196223	0.196552	-0.000676	0.199346	0.199182
1488	0.200168	0.151354	0.199018	0.197538	-0.000676	0.200004	0.199675
1489	0.199675	0.15497	0.197703	0.200661	-0.000183	0.197867	0.199675
1490	0.19721	0.160722	0.201154	0.197703	-1.9e-05	0.198031	0.199675
1491	0.200661	0.162695	0.199675	0.202633	-1.9e-05	0.196717	0.199018
1492	0.194087	0.160887	0.19836	0.195566	0.00031	0.199511	0.199018
1493	0.19573	0.161873	0.201647	0.200497	0.000146	0.196059	0.197867
1494	0.196059	0.165489	0.196717	0.201483	0.000474	0.200332	0.201319
1495	0.194416	0.163845	0.199182	0.199675	-1.9e-05	0.196881	0.201976
1496	0.197374	0.164667	0.196717	0.201483	-1.9e-05	0.197703	0.202962
1497	0.196223	0.168118	0.198689	0.199018	-0.000512	0.19721	0.200332
1498	0.197045	0.165982	0.195566	0.199346	-0.000512	0.199839	0.202305
1499	0.194251	0.166968	0.189485	0.199018	-0.000347	0.198853	0.200661
1500	0.19836	0.169762	0.193429	0.200497	0.000146	0.19836	0.199675
1501	0.199018	0.172392	0.19195	0.193101	-1.9e-05	0.19836	0.199839
1502	0.199839	0.175843	0.189814	0.194744	-1.9e-05	0.194744	0.19836
1503	0.200004	0.173214	0.193101	0.196552	0.00031	0.198689	0.199675
1504	0.199346	0.176501	0.1908	0.198689	0.00031	0.197703	0.194744
1505	0.19836	0.177487	0.191621	0.19836	0.000146	0.198524	0.199182
1506	0.201483	0.180938	0.193594	0.204606	0.000146	0.199675	0.194909
1507	0.200004	0.177158	0.188992	0.199675	0.000146	0.19836	0.200332
1508	0.194744	0.179459	0.190964	0.199675	0.000474	0.198524	0.201483
1509	0.19573	0.177322	0.190964	0.200497	0.00031	0.20099	0.200825
1510	0.199511	0.182582	0.194251	0.200661	-0.000347	0.199018	0.197374
1511	0.198853	0.183239	0.189485	0.199018	0.001296	0.197867	0.198853
1512	0.202962	0.183075	0.191457	0.196059	-0.000676	0.198524	0.199675
1513	0.201647	0.182417	0.191128	0.197703	0.000474	0.198031	0.201647
1514	0.194087	0.181596	0.195402	0.198031	-0.000512	0.199511	0.199346
1515	0.198524	0.182253	0.193594	0.196717	0.00031	0.199018	0.200332
1516	0.197538	0.184554	0.195237	0.199182	0.001625	0.200825	0.201812
1517	0.201647	0.184718	0.197374	0.200004	0.000967	0.200168	0.199182
1518	0.195237	0.183897	0.194416	0.198689	0.005076	0.199346	0.203455
1519	0.200332	0.186691	0.189814	0.200332	0.004255	0.201154	0.197538
1520	0.198031	0.185212	0.193101	0.200661	0.013294	0.200661	0.200661
1521	0.200004	0.187348	0.193594	0.199511	0.018389	0.198524	0.200661
1522	0.199018	0.185869	0.192936	0.197538	0.027593	0.201319	0.197867
1523	0.201976	0.188663	0.196881	0.203126	0.034496	0.198853	0.195237
1524	0.201483	0.18817	0.18932	0.198853	0.043207	0.199346	0.20099
1525	0.199839	0.188827	0.197374	0.200661	0.04748	0.195566	0.19836
1526	0.199346	0.188827	0.195073	0.199675	0.054712	0.201483	0.199839
1527	0.198196	0.193429	0.19458	0.203126	0.062108	0.197374	0.199346
1528	0.199675	0.192443	0.195237	0.200661	0.063587	0.199018	0.203455
1529	0.19721	0.192443	0.197867	0.199346	0.071148	0.200004	0.204606
1530	0.200332	0.187841	0.192936	0.19836	0.078051	0.198689	0.201812
1531	0.195895	0.193265	0.194087	0.199675	0.082653	0.203291	0.205921
1532	0.201319	0.189485	0.195566	0.199346	0.083475	0.200168	0.200004
1533	0.19573	0.185376	0.196552	0.198524	0.090706	0.200661	0.20099
1534	0.202962	0.190635	0.197538	0.198031	0.095966	0.200004	0.200497
1535	0.200497	0.190964	0.192772	0.199839	0.098267	0.200004	0.201647
1536	0.203291	0.191786	0.197374	0.199675	0.10139	0.199675	0.199511
1537	0.198689	0.188006	0.195402	0.196717	0.10517	0.201319	0.200497
1538	0.196717	0.192936	0.197045	0.199839	0.107635	0.200497	0.20099
1539	0.199839	0.193265	0.193922	0.20099	0.112894	0.200825	0.199675
1540	0.197045	0.196717	0.196717	0.203784	0.117168	0.199675	0.200497
1541	0.199675	0.196388	0.194416	0.202798	0.122263	0.20214	0.20099
1542	0.198689	0.19721	0.198031	0.201647	0.124564	0.200825	0.199182
1543	0.200004	0.195073	0.197703	0.200168	0.129988	0.198689	0.200332
1544	0.199182	0.196388	0.196717	0.200168	0.132124	0.200497	0.196223
1545	0.204277	0.196059	0.196552	0.200497	0.133275	0.197867	0.199346
1546	0.199511	0.194251	0.19458	0.199675	0.137055	0.199839	0.202633
1547	0.201812	0.193101	0.197374	0.201319	0.13311	0.200168	0.198524
1548	0.201647	0.193594	0.202305	0.199839	0.14215	0.199675	0.200497
1549	0.19836	0.192279	0.19721	0.200168	0.144451	0.200825	0.199675
1550	0.200332	0.19195	0.193429	0.200497	0.146259	0.201647	0.201319
1551	0.200004	0.193101	0.196059	0.200004	0.145273	0.200168	0.199346
1552	0.197374	0.192608	0.193429	0.19721	0.150697	0.200168	0.201483
1553	0.201647	0.197374	0.19458	0.201154	0.149546	0.196552	0.200497
1554	0.201319	0.193101	0.195895	0.199839	0.150204	0.200825	0.197703
1555	0.199511	0.194087	0.196881	0.197867	0.15497	0.199182	0.201154
1556	0.204606	0.195073	0.193758	0.199018	0.158421	0.199511	0.202469
1557	0.20214	0.195566	0.196223	0.200332	0.159901	0.198524	0.199511
1558	0.201812	0.196388	0.197867	0.200004	0.163516	0.197045	0.200661
1559	0.206085	0.19721	0.197703	0.199182	0.165489	0.200497	0.199182
1560	0.205099	0.197374	0.19836	0.201812	0.161215	0.198196	0.200168
1561	0.206085	0.196717	0.199018	0.201812	0.165324	0.201154	0.200004
1562	0.201647	0.194251	0.200168	0.201319	0.167625	0.200332	0.200004
1563	0.198689	0.194909	0.200332	0.200825	0.168776	0.19836	0.200168
1564	0.200661	0.194744	0.197045	0.199182	0.168612	0.201647	0.198689
1565	0.202305	0.193101	0.19836	0.197045	0.172392	0.199675	0.20099
1566	0.203291	0.196717	0.20099	0.198689	0.170419	0.197045	0.19721
1567	0.203784	0.195237	0.201812	0.197703	0.172556	0.201976	0.200004
1568	0.203291	0.195402	0.197703	0.199511	0.171077	0.198031	0.201812
1569	0.202962	0.195237	0.199839	0.198031	0.175515	0.199346	0.204113
1570	0.199839	0.195566	0.199182	0.198031	0.173542	0.198524	0.197045
1571	0.203455	0.195566	0.197703	0.198196	0.1742	0.200497	0.201319
1572	0.201976	0.196059	0.198689	0.199182	0.177158	0.200661	0.201154
1573	0.200497	0.195073	0.199675	0.199182	0.177815	0.199839	0.200332
1574	0.201154	0.198031	0.19836	0.199675	0.180116	0.198196	0.199018
1575	0.201483	0.196717	0.196388	0.200004	0.181267	0.198689	0.198853
1576	0.199182	0.197867	0.198196	0.199511	0.18176	0.199839	0.202469
1577	0.202633	0.195402	0.196388	0.197045	0.181924	0.198196	0.199511
1578	0.203126	0.198196	0.201154	0.200661	0.183404	0.199675	0.200825
1579	0.204277	0.202305	0.195237	0.200825	0.181267	0.199018	0.202305
1580	0.202633	0.197867	0.205592	0.197538	0.186691	0.201647	0.202469
1581	0.202305	0.199018	0.203291	0.19721	0.183404	0.202305	0.197045
1582	0.201483	0.197538	0.20099	0.199182	0.182746	0.200168	0.202305
1583	0.197867	0.194744	0.203126	0.200497	0.182089	0.195895	0.200661
1584	0.198689	0.196223	0.20099	0.195237	0.184061	0.203784	0.200497
1585	0.201154	0.195237	0.200661	0.197703	0.183568	0.197374	0.199346
1586	0.203948	0.193429	0.19836	0.198689	0.184225	0.199018	0.202469
1587	0.203948	0.195237	0.197867	0.19836	0.191457	0.200332	0.200004
1588	0.201483	0.196223	0.197538	0.198524	0.188334	0.198524	0.200168
1589	0.202305	0.19721	0.199675	0.200004	0.186691	0.20099	0.201976
1590	0.206249	0.199346	0.194909	0.198031	0.189485	0.200168	0.198853
1591	0.201319	0.199346	0.202305	0.200332	0.18932	0.20099	0.200168
1592	0.20477	0.196223	0.195566	0.200825	0.189485	0.201154	0.198524
1593	0.204934	0.202633	0.198524	0.200004	0.191457	0.201483	0.198689
1594	0.195073	0.197374	0.200168	0.201154	0.192279	0.199675	0.199018
1595	0.203126	0.198524	0.201154	0.196059	0.19458	0.202305	0.194744
1596	0.204441	0.19836	0.200004	0.200825	0.191293	0.199675	0.195895
1597	0.203455	0.198031	0.198853	0.201483	0.19573	0.202633	0.20214
1598	0.203126	0.201154	0.202962	0.201483	0.191128	0.198853	0.196881
1599	0.202469	0.195073	0.199839	0.199182	0.193429	0.200004	0.199675
1600	0.205592	0.199675	0.207235	0.20099	0.194087	0.200332	0.199346
1601	0.203948	0.196881	0.197045	0.199511	0.191293	0.206085	0.201154
1602	0.205592	0.197703	0.201483	0.19836	0.19195	0.200004	0.198524
1603	0.206085	0.196059	0.198196	0.197374	0.193758	0.199511	0.20099
1604	0.203291	0.19836	0.197538	0.199675	0.190964	0.201976	0.199346
1605	0.196059	0.19836	0.199182	0.199346	0.197045	0.199675	0.203126
1606	0.200825	0.196388	0.20099	0.199018	0.195402	0.199346	0.20477
1607	0.204113	0.195073	0.196059	0.199839	0.194251	0.200661	0.201647
1608	0.20477	0.198196	0.198853	0.200332	0.19721	0.200825	0.202633
1609	0.209043	0.197867	0.197867	0.200168	0.192443	0.197703	0.200004
1610	0.200004	0.19573	0.198853	0.198689	0.192115	0.20099	0.200168
1611	0.205263	0.196223	0.200004	0.199182	0.193594	0.199675	0.198524
1612	0.207728	0.19458	0.198196	0.194416	0.196223	0.20362	0.200825
1613	0.205099	0.200332	0.202962	0.198196	0.19458	0.200825	0.198853
1614	0.207564	0.196881	0.205921	0.197045	0.197538	0.199839	0.200004
1615	0.205756	0.200332	0.204934	0.20214	0.195402	0.199839	0.198689
1616	0.201976	0.198031	0.200004	0.197867	0.194416	0.201154	0.197045
1617	0.20362	0.199018	0.203948	0.201154	0.198689	0.202798	0.192772
1618	0.200825	0.196552	0.198689	0.199182	0.19573	0.199675	0.197045
1619	0.202305	0.201154	0.197703	0.201812	0.196059	0.200168	0.193429
1620	0.20477	0.19458	0.199839	0.198031	0.196717	0.198031	0.192279
1621	0.201812	0.197045	0.201483	0.198853	0.19721	0.199839	0.190635
1622	0.205263	0.196388	0.199182	0.197374	0.193922	0.199675	0.18554
1623	0.204441	0.196059	0.199018	0.197703	0.19721	0.19836	0.185212
1624	0.204113	0.198689	0.200497	0.200168	0.195073	0.198689	0.178966
1625	0.205099	0.196059	0.200661	0.197045	0.199511	0.199346	0.177651
1626	0.202798	0.200168	0.197538	0.200825	0.194909	0.200332	0.174857
1627	0.20099	0.197045	0.198524	0.197045	0.196059	0.202962	0.1742
1628	0.203291	0.196552	0.205099	0.199346	0.198853	0.200168	0.170913
1629	0.205427	0.19573	0.197867	0.199182	0.199182	0.203126	0.16894
1630	0.204606	0.200004	0.198853	0.20099	0.197703	0.20362	0.166475
1631	0.205592	0.19721	0.198689	0.197867	0.199018	0.201154	0.165489
1632	0.203784	0.198689	0.199675	0.199018	0.198853	0.197374	0.152176
1633	0.205592	0.198031	0.198196	0.199675	0.194251	0.197703	0.146752
1634	0.203291	0.199346	0.197703	0.199839	0.19573	0.197703	0.141164
1635	0.203291	0.198689	0.201154	0.19573	0.196223	0.200332	0.137219
1636	0.201319	0.197538	0.201319	0.196388	0.195237	0.197045	0.13574
1637	0.204606	0.196059	0.199346	0.20099	0.196223	0.200168	0.117825
1638	0.201483	0.196388	0.201154	0.199675	0.201483	0.200661	0.094487
1639	0.20362	0.196717	0.202962	0.198689	0.198689	0.199346	0.071312
1640	0.201647	0.196388	0.19836	0.199018	0.197045	0.201976	0.066875
1641	0.200497	0.192936	0.198689	0.204113	0.198031	0.197538	0.048467
1642	0.202798	0.191786	0.200004	0.201647	0.201483	0.199182	0.044522
1643	0.205592	0.197703	0.199511	0.201647	0.19573	0.199839	0.038605
1644	0.204113	0.193594	0.197538	0.197867	0.202305	0.200661	0.040577
1645	0.203784	0.199182	0.19836	0.199018	0.197867	0.198031	0.044029
1646	0.202305	0.19836	0.199839	0.200332	0.197374	0.201976	0.043043
1647	0.20477	0.200004	0.201812	0.200497	0.199346	0.199018	0.043043
1648	0.204277	0.201647	0.199675	0.198524	0.199346	0.200004	0.049453
1649	0.204441	0.201812	0.19458	0.202305	0.198031	0.200497	0.043371
1650	0.203455	0.195566	0.199018	0.20099	0.202633	0.196059	0.047973
1651	0.202305	0.201154	0.201319	0.201812	0.199346	0.199018	0.048138
1652	0.205099	0.198524	0.197374	0.201812	0.198031	0.199018	0.043371
1653	0.20099	0.19458	0.203948	0.195895	0.199675	0.19836	0.029894
1654	0.203948	0.201319	0.201812	0.201483	0.199511	0.197703	0.034168
1655	0.201976	0.201154	0.200004	0.198031	0.201647	0.200004	0.017896
1656	0.201319	0.198689	0.199511	0.199675	0.198524	0.199346	0.003268
1657	0.201647	0.196223	0.198031	0.198524	0.200825	0.199511	0.011322
1658	0.205263	0.198196	0.199182	0.199018	0.197045	0.192936	0.014773
1659	0.201812	0.19836	0.198031	0.201976	0.197703	0.200332	0.02595
1660	0.202962	0.203291	0.196059	0.197538	0.197374	0.19836	0.025621
1661	0.203784	0.200332	0.200825	0.201647	0.203126	0.199018	0.030223
1662	0.204113	0.199182	0.200825	0.204934	0.20099	0.199511	0.027265
1663	0.20214	0.197538	0.196388	0.202633	0.199346	0.20362	0.031867
1664	0.202469	0.201319	0.196223	0.200168	0.200004	0.20099	0.032524
1665	0.200661	0.19836	0.193429	0.199839	0.200825	0.200168	0.03729
1666	0.197867	0.200332	0.202962	0.200661	0.198524	0.200332	0.027429
1667	0.202798	0.199839	0.199839	0.199839	0.199182	0.199675	0.021841
1668	0.199511	0.198853	0.202798	0.199839	0.200497	0.200332	0.019868
1669	0.202798	0.198031	0.201647	0.199018	0.197867	0.198689	0.01428
1670	0.20099	0.198031	0.201154	0.19721	0.200332	0.200004	0.020526
1671	0.202305	0.199018	0.200004	0.201812	0.196552	0.199675	0.0271
1672	0.198689	0.199018	0.202305	0.198853	0.201319	0.20099	0.028744
1673	0.198689	0.196059	0.201319	0.200332	0.200825	0.194744	0.036797
1674	0.199346	0.198689	0.198853	0.200168	0.198689	0.199018	0.036304
1675	0.199346	0.198689	0.197374	0.199346	0.198524	0.198853	0.011815
1676	0.199346	0.196717	0.200497	0.198853	0.200825	0.200332	0.013294
1677	0.200332	0.198853	0.199839	0.199511	0.197867	0.199346	0.009514
1678	0.197867	0.196881	0.197703	0.198524	0.197374	0.200825	0.014445
1679	0.201483	0.199839	0.200825	0.198524	0.19836	0.201483	0.020855
1680	0.201976	0.193922	0.197374	0.197867	0.202798	0.200332	0.026771
1681	0.200004	0.199182	0.199346	0.201319	0.199018	0.200168	0.034989
1682	0.202469	0.197045	0.196881	0.198853	0.201976	0.201154	0.040249
1683	0.19836	0.198196	0.199346	0.199675	0.200497	0.198524	0.042878
1684	0.202305	0.197538	0.19836	0.198853	0.198524	0.201812	0.023649
1685	0.199018	0.198031	0.200332	0.200661	0.199018	0.203126	0.031702
1686	0.197703	0.19721	0.198853	0.198853	0.197703	0.201812	0.032031
1687	0.199182	0.196388	0.200004	0.197538	0.202633	0.200004	0.03992
1688	0.197538	0.196223	0.203126	0.20214	0.196059	0.197867	0.042057
1689	0.193594	0.19458	0.198689	0.198853	0.200661	0.200332	0.051589
1690	0.19836	0.196059	0.201154	0.199511	0.198524	0.197703	0.051754
1691	0.196388	0.196059	0.199675	0.19721	0.197538	0.200825	0.058657
1692	0.19458	0.197045	0.201319	0.196388	0.197703	0.199675	0.061286
1693	0.198853	0.193594	0.200004	0.198689	0.199182	0.199182	0.068025
1694	0.197538	0.198031	0.200661	0.201812	0.197867	0.200004	0.072791
1695	0.198196	0.197867	0.197867	0.195402	0.199511	0.199182	0.07312
1696	0.197045	0.195073	0.200004	0.199839	0.200332	0.200004	0.078051
1697	0.19836	0.196552	0.197867	0.196717	0.195566	0.199346	0.066875
1698	0.19836	0.202962	0.200825	0.198196	0.20099	0.198524	0.070162
1699	0.199839	0.199511	0.197703	0.201154	0.198031	0.202469	0.072791
1700	0.192936	0.199182	0.198524	0.199346	0.199346	0.199018	0.052247
1701	0.200004	0.200332	0.200004	0.200168	0.201812	0.20099	0.024799
1702	0.196881	0.200004	0.199346	0.200497	0.201154	0.196552	0.032195
1703	0.196388	0.199346	0.20214	0.202305	0.201483	0.201319	0.037619
1704	0.197538	0.199182	0.195895	0.197867	0.205756	0.199511	0.043207
1705	0.197867	0.199675	0.194909	0.204441	0.199182	0.199018	0.048302
1706	0.19573	0.200825	0.198524	0.198689	0.204934	0.200168	0.054712
1707	0.19573	0.194251	0.194416	0.202633	0.199018	0.199018	0.057177
1708	0.194744	0.199182	0.199018	0.199346	0.200004	0.198524	0.059314
1709	0.193594	0.197538	0.197538	0.202633	0.19836	0.19721	0.064245
1710	0.197045	0.193429	0.200168	0.199675	0.198689	0.195237	0.070326
1711	0.192608	0.202469	0.201319	0.201647	0.199675	0.196717	0.075257
1712	0.194909	0.193594	0.200168	0.198031	0.195566	0.20099	0.047973
1713	0.193758	0.197045	0.199018	0.196881	0.19836	0.194744	0.033181
1714	0.19573	0.199346	0.197867	0.198524	0.194744	0.198689	0.040084
1715	0.196223	0.19721	0.200168	0.197374	0.200168	0.199346	0.048795
1716	0.200661	0.198689	0.200004	0.203291	0.196223	0.202633	0.048467
1717	0.197703	0.199839	0.197703	0.196059	0.201483	0.203291	0.05537
1718	0.197703	0.19836	0.199018	0.200168	0.199346	0.200332	0.061286
1719	0.197045	0.19721	0.200332	0.199511	0.201319	0.20362	0.060136
1720	0.197045	0.201154	0.199675	0.199675	0.199511	0.197538	0.057013
1721	0.196552	0.197703	0.200825	0.197538	0.199839	0.199182	0.065724
1722	0.193101	0.200332	0.200661	0.202798	0.199346	0.199675	0.066217
1723	0.19573	0.196881	0.201483	0.198524	0.201483	0.197867	0.029237
1724	0.196223	0.197703	0.20099	0.201976	0.201319	0.19458	0.033346
1725	0.192608	0.200661	0.197045	0.201483	0.199839	0.198853	0.040249
1726	0.193101	0.198689	0.20099	0.200004	0.197867	0.19836	0.045179
1727	0.198853	0.196717	0.197538	0.199346	0.199675	0.196881	0.048467
1728	0.193265	0.199182	0.199182	0.199346	0.200332	0.199182	0.050274
1729	0.195402	0.20099	0.197867	0.199018	0.200168	0.202305	0.05011
1730	0.19458	0.199346	0.200004	0.195237	0.199346	0.197703	0.045179
1731	0.19458	0.200497	0.198196	0.198689	0.195402	0.199182	0.039263
1732	0.195402	0.196388	0.199511	0.195566	0.197374	0.199346	0.014116
1733	0.193594	0.197867	0.196552	0.198524	0.198031	0.200661	0.009514
1734	0.198031	0.196388	0.199839	0.196223	0.199018	0.206907	0.010336
1735	0.200332	0.196059	0.199018	0.200332	0.196552	0.19836	0.000146
1736	0.196059	0.19836	0.201483	0.201154	0.199182	0.203455	0.000639
1737	0.201154	0.198524	0.19836	0.202633	0.196223	0.202305	0.000146
1738	0.195566	0.197703	0.199018	0.200661	0.200497	0.200332	0.001132
1739	0.189978	0.20099	0.199182	0.203455	0.199839	0.199511	0.00031
1740	0.196717	0.19721	0.198524	0.202633	0.201812	0.200661	0.001296
1741	0.192936	0.200168	0.201647	0.202633	0.200661	0.196059	0.000146
1742	0.191786	0.198031	0.198689	0.200825	0.203455	0.197045	0.001296
1743	0.195073	0.198031	0.200661	0.198853	0.199018	0.196717	0.00031
1744	0.194251	0.20099	0.200497	0.196388	0.198196	0.19836	0.001296
1745	0.19458	0.196881	0.201319	0.199018	0.199182	0.197703	0.000146
1746	0.197045	0.193922	0.200825	0.197538	0.199018	0.198031	0.003433
1747	0.195566	0.199675	0.198853	0.199346	0.199182	0.199346	0.00031
1748	0.196223	0.198689	0.200168	0.201319	0.197374	0.199018	0.000639
1749	0.199018	0.19836	0.199346	0.197374	0.20214	0.188499	0.000639
1750	0.196717	0.199018	0.197538	0.200497	0.198689	0.170584	-0.000841
1751	0.195895	0.199346	0.197374	0.200825	0.19836	0.167625	0.004748
1752	0.197867	0.193922	0.197045	0.198196	0.199182	0.167132	0.000146
1753	0.198853	0.199346	0.195895	0.199839	0.202305	0.170255	-0.000676
1754	0.198524	0.199511	0.196059	0.197867	0.198524	0.166311	0.00031
1755	0.195237	0.196881	0.194087	0.20099	0.200004	0.173049	-0.001334
1756	0.198689	0.200661	0.19721	0.201319	0.199018	0.173049	-0.000183
1757	0.196059	0.196388	0.199511	0.200004	0.200004	0.168776	-0.000676
1758	0.194087	0.202798	0.20099	0.203948	0.200825	0.172885	0.00031
1759	0.193265	0.199511	0.199511	0.20099	0.20099	0.175843	0.00146
1760	0.194416	0.196059	0.202798	0.196552	0.200168	0.17535	0.000146
1761	0.195566	0.197867	0.200332	0.198853	0.197374	0.168447	0.00031
1762	0.193429	0.200004	0.199511	0.202962	0.202469	0.164503	-0.000183
1763	0.197867	0.199346	0.199018	0.19573	0.198689	0.16401	-0.000183
1764	0.194909	0.195566	0.198031	0.200168	0.201483	0.168283	0.000474
1765	0.197045	0.196552	0.198196	0.199018	0.197867	0.168612	0.00031
1766	0.196388	0.199182	0.199675	0.197538	0.199182	0.167461	0.000146
1767	0.199675	0.202962	0.199018	0.197703	0.197374	0.151518	0.000474
1768	0.197538	0.19573	0.199182	0.198031	0.19836	0.147738	-0.000347
1769	0.199182	0.198196	0.198689	0.199346	0.199346	0.141657	-0.000676
1770	0.199675	0.198524	0.197703	0.200004	0.196717	0.143301	-0.000347
1771	0.198031	0.199346	0.202305	0.200332	0.200332	0.142643	-0.000347
1772	0.199511	0.198689	0.197374	0.200004	0.19836	0.146752	-0.000183
1773	0.195895	0.200332	0.200004	0.207564	0.202962	0.142643	-0.001169
1774	0.197538	0.198689	0.194909	0.199346	0.200168	0.142643	-0.000183
1775	0.196223	0.200332	0.203126	0.200168	0.200332	0.148396	-1.9e-05
1776	0.197867	0.200825	0.199018	0.199018	0.197703	0.148231	0.00031
1777	0.194251	0.197374	0.203126	0.197867	0.199675	0.14856	-1.9e-05
1778	0.197538	0.199346	0.203948	0.201647	0.199182	0.145273	0.000474
1779	0.195402	0.19836	0.202633	0.19836	0.199839	0.142643	-1.9e-05
1780	0.199018	0.194909	0.201812	0.200004	0.202633	0.14215	-0.000347
1781	0.19573	0.197703	0.199511	0.197703	0.199675	0.147574	-0.000183
1782	0.200004	0.200825	0.198853	0.197045	0.195073	0.146423	-0.000512
1783	0.192772	0.192608	0.198689	0.196059	0.197374	0.150861	-0.000676
1784	0.193758	0.200004	0.198689	0.204934	0.198853	0.150368	-0.001005
1785	0.199018	0.19573	0.198524	0.195237	0.19458	0.144944	-0.000347
1786	0.195895	0.195895	0.199346	0.196717	0.197374	0.137548	-0.000183
1787	0.198031	0.19573	0.19721	0.199346	0.19836	0.140342	0.000146
1788	0.193758	0.198031	0.198524	0.199511	0.196881	0.132946	0.000474
1789	0.196881	0.198689	0.199018	0.197374	0.196717	0.129659	0.00031
1790	0.196388	0.202305	0.199182	0.200004	0.200168	0.133275	-0.000512
1791	0.198524	0.201812	0.199839	0.200332	0.198853	0.13574	-1.9e-05
1792	0.190471	0.200825	0.20099	0.186691	0.199511	0.138534	-0.000676
1793	0.197374	0.200825	0.202633	0.189814	0.200168	0.138863	-0.001169
1794	0.200332	0.198689	0.198196	0.183075	0.201154	0.14215	0.001132
1795	0.197045	0.200825	0.199182	0.187019	0.199182	0.144287	0.001296
1796	0.197538	0.196717	0.20099	0.183732	0.200661	0.146259	0.002282
1797	0.19836	0.201154	0.203126	0.18554	0.199675	0.143958	0.001132
1798	0.19721	0.198853	0.199511	0.184883	0.200825	0.148396	0.001296
1799	0.195895	0.198524	0.198853	0.186033	0.197867	0.150697	0.001132
1800	0.198524	0.196717	0.199182	0.18439	0.200004	0.151847	0.003597
1801	0.198031	0.200661	0.200004	0.186198	0.196388	0.152505	-0.001334
1802	0.199675	0.198031	0.196059	0.187677	0.197538	0.158586	0.000639
1803	0.197867	0.198689	0.200004	0.185705	0.197538	0.157928	0.001954
1804	0.200332	0.197703	0.199182	0.188663	0.195402	0.160229	0.002447
1805	0.198853	0.202633	0.200168	0.188499	0.19836	0.15612	0.004912
1806	0.199839	0.199839	0.19458	0.185376	0.201154	0.156613	0.014938
1807	0.198853	0.196717	0.19573	0.18817	0.196717	0.155627	0.012472
1808	0.197374	0.199182	0.200004	0.190635	0.199346	0.153655	0.020526
1809	0.194909	0.201976	0.199675	0.18817	0.200825	0.155299	0.030223
1810	0.200004	0.013952	0.200004	0.187513	0.198524	0.146259	0.034003
1811	0.200661	0.010171	0.200661	0.191457	0.20214	0.135411	0.043207
1812	0.200661	0.019704	0.200332	0.193922	0.20362	0.117825	0.049617
1813	0.19836	0.024635	0.200497	0.192772	0.203455	0.100075	0.056027
1814	0.199182	0.034989	0.201647	0.191786	0.198853	0.076079	0.061122
1815	0.197703	0.038276	0.199346	0.185869	0.203291	0.0603	0.066217
1816	0.198524	0.045672	0.201154	0.191621	0.202305	0.043536	0.071148
1817	0.196552	0.050439	0.199018	0.180938	0.199675	0.036797	0.081667
1818	0.193429	0.055534	0.199675	0.191621	0.199182	0.026114	0.079366
1819	0.200004	0.060958	0.201647	0.191786	0.199511	0.002447	0.085776
1820	0.197374	0.062273	0.197538	0.189485	0.199346	-0.000183	0.088405
1821	0.199018	0.071148	0.192936	0.195073	0.197538	0.00031	0.09613
1822	0.198853	0.078215	0.202962	0.192443	0.199182	0.000803	0.098267
1823	0.201154	0.086104	0.200332	0.196388	0.199018	-1.9e-05	0.104019
1824	0.198524	0.093993	0.200168	0.19458	0.201483	-0.000347	0.10895
1825	0.200661	0.095473	0.200332	0.191786	0.197867	-0.000183	0.109279
1826	0.199346	0.095637	0.200168	0.196881	0.201483	-0.000347	0.114867
1827	0.200661	0.104184	0.193429	0.194087	0.199182	-0.000512	0.119304
1828	0.199018	0.107306	0.199675	0.185705	0.201647	-0.000676	0.126536
1829	0.200497	0.109936	0.198853	0.196388	0.202962	-1.9e-05	0.121441
1830	0.197867	0.113881	0.197374	0.195566	0.202633	0.000146	0.127522
1831	0.200661	0.117168	0.201976	0.196388	0.202305	0.00031	0.130316
1832	0.198196	0.124564	0.195402	0.189485	0.199346	0.000146	0.13459
1833	0.198853	0.12177	0.202305	0.194909	0.198031	0.00031	0.136069
1834	0.197703	0.132453	0.199675	0.196552	0.199018	0.000146	0.14215
1835	0.197867	0.133932	0.201319	0.196717	0.198689	-1.9e-05	0.142807
1836	0.199346	0.133275	0.199018	0.194251	0.194251	-0.000183	0.142643
1837	0.199018	0.13459	0.199675	0.195402	0.201976	-0.000676	0.147903
1838	0.198524	0.136562	0.197538	0.199839	0.195237	-0.000347	0.14593
1839	0.196881	0.142643	0.199675	0.189814	0.197867	-0.000841	0.148396
1840	0.195237	0.142479	0.198689	0.195073	0.19721	-1.9e-05	0.149382
1841	0.200332	0.144287	0.198689	0.19836	0.197867	-0.000183	0.153984
1842	0.19721	0.148724	0.197867	0.197538	0.198524	-1.9e-05	0.153984
1843	0.195073	0.148889	0.19836	0.19573	0.199511	-1.9e-05	0.15875
1844	0.200332	0.152176	0.199675	0.200825	0.198031	0.00031	0.158421
1845	0.201319	0.155627	0.200332	0.199182	0.202633	0.00031	0.161544
1846	0.198031	0.15875	0.20099	0.202305	0.200661	-1.9e-05	0.16253
1847	0.205099	0.158586	0.201483	0.19836	0.200661	-0.000347	0.162037
1848	0.199839	0.160887	0.201319	0.201319	0.201812	-0.000512	0.166311
1849	0.19836	0.163023	0.197538	0.198689	0.200004	-0.000512	0.167132
1850	0.198196	0.166475	0.201154	0.19573	0.200168	-0.000676	0.160229
1851	0.200332	0.162366	0.200332	0.195402	0.199839	-0.000183	0.168612
1852	0.197374	0.16516	0.200497	0.196388	0.200004	-1.9e-05	0.16894
1853	0.201154	0.162366	0.194744	0.197703	0.197703	0.00031	0.171734
1854	0.198689	0.164338	0.198689	0.197703	0.194251	0.000146	0.171406
1855	0.201647	0.164667	0.199018	0.19836	0.197045	0.00031	0.172556
1856	0.200497	0.167461	0.201154	0.196552	0.19721	0.000146	0.177651
1857	0.201154	0.171899	0.199018	0.199511	0.19573	-1.9e-05	0.173378
1858	0.198031	0.169105	0.199346	0.197045	0.197703	-0.000347	0.176501
1859	0.19836	0.1742	0.202305	0.198853	0.198031	-0.000676	0.181431
1860	0.199675	0.173871	0.200168	0.201319	0.202305	-0.000676	0.182417
1861	0.202305	0.181103	0.200825	0.202633	0.200661	-0.000347	0.169762
1862	0.201154	0.17535	0.199182	0.195237	0.200661	0.000146	0.176008
1863	0.199675	0.179623	0.200004	0.200825	0.201483	-1.9e-05	0.178637
1864	0.20099	0.180774	0.200168	0.197867	0.196552	0.000146	0.181267
1865	0.199839	0.176501	0.200661	0.201483	0.200168	0.00031	0.182911
1866	0.198853	0.182582	0.20099	0.202962	0.197374	0.00031	0.184718
1867	0.204277	0.181596	0.201976	0.204113	0.198853	0.000146	0.184061
1868	0.201647	0.182089	0.201812	0.199182	0.198689	-1.9e-05	0.185047
1869	0.202305	0.182089	0.200661	0.199018	0.199018	-0.000347	0.183897
1870	0.200497	0.180281	0.200168	0.196388	0.199018	-0.000347	0.186033
1871	0.199675	0.182746	0.200825	0.199182	0.199182	0.011486	0.186855
1872	0.20214	0.186855	0.198524	0.198853	0.19721	0.01576	0.177158
1873	0.199346	0.181596	0.199839	0.19573	0.206907	0.021676	0.186033
1874	0.200004	0.186691	0.195237	0.194744	0.199182	0.026771	0.187019
1875	0.201812	0.184225	0.19573	0.197867	0.196552	0.035154	0.188827
1876	0.200332	0.184225	0.19458	0.19836	0.198853	0.04255	0.189156
1877	0.200332	0.187841	0.199839	0.197374	0.199182	0.050274	0.18554
1878	0.201483	0.187841	0.205756	0.20099	0.199511	0.058164	0.188334
1879	0.201812	0.190471	0.201483	0.198031	0.196223	0.065231	0.190471
1880	0.200332	0.18932	0.195895	0.199511	0.199675	0.067532	0.187513
1881	0.202798	0.187841	0.202962	0.196059	0.201647	0.07312	0.1908
1882	0.201319	0.194909	0.201483	0.196059	0.200168	0.07838	0.190471
1883	0.203291	0.189485	0.196388	0.200168	0.199018	0.082488	0.189814
1884	0.199511	0.189649	0.200168	0.194251	0.198031	0.086762	0.190635
1885	0.202798	0.193429	0.199182	0.199346	0.203948	0.091857	0.191621
1886	0.198031	0.192443	0.200004	0.199675	0.199346	0.100075	0.193922
1887	0.200661	0.188334	0.198196	0.193594	0.195566	0.099089	0.192279
1888	0.198524	0.192608	0.200661	0.199839	0.197867	0.10632	0.194251
1889	0.200168	0.192443	0.200332	0.196717	0.194087	0.109607	0.194744
1890	0.200004	0.188992	0.195895	0.196717	0.197867	0.113223	0.196717
1891	0.199839	0.193429	0.199675	0.201319	0.198196	0.115524	0.191786
1892	0.197374	0.187513	0.19721	0.196388	0.200168	0.120619	0.193758
1893	0.198031	0.192608	0.199018	0.197045	0.199182	0.121112	0.195237
1894	0.199346	0.184225	0.19721	0.198853	0.198689	0.12818	0.191128
1895	0.200497	0.1908	0.199182	0.197703	0.199675	0.12555	0.192608
1896	0.202633	0.193101	0.198031	0.19836	0.203455	0.135083	0.200661
1897	0.19573	0.194416	0.199182	0.200004	0.196717	0.133439	0.19458
1898	0.202305	0.194744	0.199675	0.199839	0.200497	0.136891	0.194087
1899	0.200661	0.195895	0.200004	0.198689	0.200168	0.135576	0.194744
1900	0.201647	0.195237	0.197374	0.20214	0.198524	0.14215	0.194416
1901	0.201647	0.195073	0.201483	0.198524	0.200497	0.143136	0.198689
1902	0.199839	0.196552	0.199511	0.200004	0.199675	0.146259	0.192772
1903	0.199511	0.198031	0.204606	0.063587	0.200332	0.148396	0.196223
1904	0.200332	0.193922	0.201647	0.012308	0.195073	0.149053	0.195402
1905	0.20099	0.179623	0.196388	0.007377	0.19836	0.155134	0.196552
1906	0.19836	0.189814	0.196059	0.014773	0.197703	0.14971	0.194251
1907	0.203455	0.188827	0.193758	0.021019	0.198689	0.155463	0.198689
1908	0.197045	0.193922	0.200004	0.034989	0.194909	0.158914	0.196223
1909	0.197538	0.192443	0.197538	0.040249	0.199511	0.160558	0.198689
1910	0.200168	0.193922	0.197703	0.045837	0.199839	0.1576	0.195895
1911	0.201154	0.195566	0.196223	0.041235	0.200332	0.164174	0.199018
1912	0.200332	0.196717	0.198524	0.046494	0.199675	0.165324	0.198853
1913	0.201812	0.19721	0.199346	0.054383	0.198031	0.166804	0.196388
1914	0.200004	0.196881	0.200497	0.058657	0.199018	0.167461	0.196388
1915	0.20099	0.197374	0.198689	0.066875	0.19721	0.169269	0.197538
1916	0.199839	0.189485	0.200332	0.070983	0.201647	0.179459	0.19573
1917	0.202798	0.195895	0.200332	0.072791	0.19836	0.16894	0.19458
1918	0.202305	0.194416	0.200004	0.078708	0.194744	0.171734	0.199018
1919	0.20362	0.201154	0.198853	0.084296	0.196717	0.172556	0.196388
1920	0.200004	0.194251	0.200332	0.087419	0.199018	0.173378	0.19721
1921	0.20214	0.19721	0.201976	0.094158	0.198031	0.173214	0.195073
1922	0.198196	0.199182	0.200004	0.098431	0.199346	0.177322	0.198524
1923	0.199675	0.196223	0.197703	0.102704	0.197867	0.176008	0.201647
1924	0.201154	0.196388	0.19836	0.107306	0.200497	0.179788	0.195237
1925	0.200168	0.196223	0.202798	0.109279	0.199675	0.177158	0.197538
1926	0.197538	0.196223	0.19573	0.113223	0.198853	0.178802	0.196388
1927	0.198853	0.192443	0.199346	0.115853	0.198196	0.187841	0.198853
1928	0.200825	0.19573	0.19836	0.118318	0.201154	0.177815	0.199182
1929	0.198689	0.19721	0.196881	0.119469	0.188006	0.182582	0.198524
1930	0.202798	0.199346	0.19721	0.12818	0.197703	0.186198	0.197867
1931	0.198689	0.198196	0.198031	0.130481	0.200168	0.182417	0.197703
1932	0.204277	0.19573	0.197867	0.130152	0.194744	0.183075	0.196223
1933	0.199511	0.194416	0.200004	0.133275	0.199675	0.185376	0.200168
1934	0.202633	0.196552	0.200004	0.136891	0.19836	0.187019	0.196059
1935	0.201483	0.196059	0.199018	0.138534	0.199675	0.185869	0.198196
1936	0.200497	0.197538	0.204113	0.144615	0.19721	0.189814	0.19458
1937	0.197703	0.19573	0.200661	0.141821	0.201812	0.191293	0.196552
1938	0.19721	0.19836	0.199839	0.148067	0.197374	0.190635	0.199511
1939	0.196717	0.19458	0.19573	0.144944	0.197045	0.186526	0.198196
1940	0.196388	0.196717	0.198196	0.151354	0.188006	0.187184	0.198031
1941	0.197703	0.174035	0.193758	0.15234	0.19721	0.187841	0.199511
1942	0.196223	0.176501	0.19195	0.155792	0.197703	0.184225	0.198031
1943	0.202798	0.176501	0.18817	0.155627	0.199018	0.188663	0.199675
1944	0.200497	0.181924	0.182582	0.152176	0.199346	0.191786	0.202305
1945	0.20099	0.174035	0.178473	0.157107	0.198524	0.193758	0.198031
1946	0.200497	0.181431	0.169105	0.160394	0.200497	0.194087	0.198853
1947	0.202469	0.182582	0.153491	0.163188	0.202469	0.191293	0.196881
1948	0.199182	0.168283	0.147245	0.164831	0.200661	0.194744	0.197703
1949	0.20214	0.170748	0.138534	0.16401	0.200332	0.18932	0.19721
1950	0.198196	0.166146	0.130809	0.166475	0.201483	0.1908	0.196881
1951	0.202469	0.169598	0.117003	0.166475	0.193101	0.191786	0.197703
1952	0.199839	0.168447	0.111251	0.166968	0.200004	0.192772	0.195895
1953	0.202962	0.170091	0.105827	0.166311	0.199511	0.192936	0.195566
1954	0.198524	0.169433	0.102376	0.163681	0.195566	0.191786	0.197374
1955	0.201812	0.176172	0.094651	0.1576	0.195237	0.191786	0.195895
1956	0.202798	0.167461	0.090378	0.149875	0.198689	0.193594	0.200661
1957	0.19836	0.165653	0.091199	0.13952	0.198853	0.189814	0.198689
1958	0.201154	0.16516	0.082324	0.130316	0.201812	0.190964	0.200497
1959	0.192772	0.167625	0.085611	0.127194	0.199511	0.191786	0.199018
1960	0.201154	0.165982	0.080187	0.118483	0.200004	0.181596	0.199018
1961	0.198853	0.167625	0.076736	0.112894	0.200332	0.191293	0.199182
1962	0.200497	0.170091	0.065888	0.095801	0.197867	0.191457	0.196717
1963	0.200004	0.168776	0.051096	0.066875	0.197045	0.195566	0.200004
1964	0.200332	0.173871	0.05537	0.030387	0.200825	0.196388	0.198524
1965	0.20214	0.174364	0.064574	0.009678	0.202798	0.196059	0.19721
1966	0.202305	0.178144	0.068682	0.008692	0.200168	0.191293	0.194744
1967	0.202305	0.172556	0.075421	0.005405	0.200004	0.196552	0.197045
1968	0.202305	0.178637	0.081338	0.016253	0.200332	0.194087	0.19721
1969	0.202798	0.177815	0.083475	0.014938	0.203784	0.197703	0.198524
1970	0.196059	0.180774	0.08857	0.01691	0.198689	0.195895	0.196881
1971	0.198196	0.179623	0.093007	0.012308	0.199511	0.185047	0.199018
1972	0.199018	0.179788	0.098595	0.003926	0.20099	0.194087	0.195895
1973	0.199182	0.181596	0.102704	0.00935	0.198853	0.195402	0.197045
1974	0.197867	0.181924	0.109936	0.016417	0.19721	0.195895	0.199182
1975	0.200497	0.17913	0.109114	0.02069	0.19836	0.198524	0.197703
1976	0.197538	0.183897	0.117003	0.026936	0.198031	0.198031	0.199018
1977	0.198853	0.183404	0.117332	0.03351	0.200168	0.19573	0.199182
1978	0.199346	0.182417	0.118976	0.038605	0.203291	0.19721	0.200004
1979	0.200004	0.185212	0.124235	0.04748	0.200004	0.197703	0.200004
1980	0.199839	0.185376	0.128015	0.051754	0.203455	0.198524	0.200004
1981	0.195237	0.187677	0.128508	0.055205	0.198031	0.196552	0.193594
1982	0.202962	0.185047	0.131138	0.058821	0.196552	0.188992	0.165817
1983	0.197867	0.187348	0.137548	0.069011	0.197045	0.195073	0.134261
1984	0.200661	0.186855	0.135576	0.070162	0.198689	0.197703	0.136069
1985	0.200661	0.189978	0.140178	0.079037	0.19458	0.200004	0.13837
1986	0.200497	0.181431	0.138699	0.083639	0.199018	0.198196	0.141986
1987	0.20099	0.188006	0.144451	0.089885	0.197703	0.202305	0.141
1988	0.198196	0.188006	0.149053	0.094158	0.200168	0.193429	0.147245
1989	0.197703	0.187348	0.150039	0.096952	0.198524	0.193429	0.149053
1990	0.200004	0.190307	0.150204	0.104512	0.199182	0.198524	0.150039
1991	0.196552	0.192115	0.156778	0.106156	0.201154	0.19573	0.154477
1992	0.201319	0.191128	0.152833	0.109114	0.200168	0.197538	0.155299
1993	0.200004	0.190471	0.159572	0.115689	0.200004	0.190635	0.156778
1994	0.201483	0.191457	0.156285	0.116346	0.19836	0.194087	0.159243
1995	0.200168	0.191457	0.158914	0.11651	0.200004	0.202633	0.160722
1996	0.200332	0.190142	0.162859	0.121112	0.196059	0.199182	0.159736
1997	0.199018	0.192936	0.161544	0.124564	0.199346	0.198524	0.162859
1998	0.201483	0.19458	0.165817	0.129988	0.195237	0.198524	0.162037
1999	0.200332	0.196717	0.16516	0.130152	0.201647	0.200004	0.165982
2000	0.200661	0.1908	0.168776	0.131467	0.196717	0.194416	0.165817
2001	0.20099	0.19458	0.164996	0.13837	0.200825	0.201647	0.173378
2002	0.201483	0.196881	0.171241	0.13837	0.200168	0.199182	0.172556
2003	0.202469	0.199346	0.164503	0.141164	0.200004	0.19721	0.170584
2004	0.200497	0.198689	0.171406	0.146752	0.201483	0.196388	0.172063
2005	0.20214	0.19458	0.170913	0.148889	0.19836	0.196552	0.173707
2006	0.199511	0.193429	0.174528	0.149382	0.199346	0.196552	0.173542
2007	0.20099	0.193101	0.178802	0.151518	0.196552	0.196059	0.175021
2008	0.201319	0.192936	0.177322	0.152176	0.200332	0.194087	0.178144
2009	0.19836	0.196223	0.17913	0.1576	0.200168	0.196223	0.177158
2010	0.196388	0.195237	0.179788	0.153819	0.201319	0.197867	0.178144
2011	0.19721	0.194909	0.179459	0.157107	0.20099	0.193101	0.180445
2012	0.197374	0.197374	0.180281	0.158093	0.20099	0.20099	0.18061
2013	0.199675	0.196717	0.183404	0.162366	0.199018	0.198689	0.180774
2014	0.198196	0.195237	0.176665	0.161544	0.202305	0.197867	0.181924
2015	0.200332	0.197867	0.181431	0.164667	0.200004	0.198031	0.181596
2016	0.200004	0.19573	0.182417	0.166639	0.19836	0.198853	0.182417
2017	0.201647	0.196223	0.183568	0.169105	0.197867	0.198689	0.180116
2018	0.200825	0.196223	0.182417	0.168118	0.197538	0.199839	0.182911
2019	0.198689	0.196552	0.18176	0.170091	0.198689	0.199675	0.181267
2020	0.199675	0.197867	0.18439	0.172392	0.197374	0.199839	0.182417
2021	0.198196	0.197867	0.187841	0.173542	0.198689	0.200497	0.18061
2022	0.201319	0.196223	0.187513	0.171899	0.199675	0.196059	0.182089
2023	0.198196	0.198031	0.190142	0.178637	0.202633	0.199018	0.190635
2024	0.200497	0.199675	0.186691	0.177322	0.195566	0.199839	0.187677
2025	0.196388	0.197045	0.187677	0.175679	0.201812	0.200004	0.189156
2026	0.198196	0.198196	0.188006	0.180281	0.196059	0.200497	0.187841
2027	0.19836	0.197374	0.189485	0.178144	0.199346	0.199675	0.192115
2028	0.200004	0.198524	0.192772	0.180281	0.20099	0.195237	0.186691
2029	0.198853	0.198031	0.192443	0.179295	0.199182	0.199346	0.190471
2030	0.199839	0.197703	0.185705	0.178966	0.197538	0.197374	0.187841
2031	0.198689	0.197867	0.19195	0.178966	0.198524	0.198031	0.192443
2032	0.20099	0.196223	0.191457	0.179788	0.195895	0.199182	0.189485
2033	0.200332	0.193265	0.19195	0.177487	0.197045	0.198689	0.189156
2034	0.199675	0.195895	0.191457	0.18176	0.197703	0.20099	0.189978
2035	0.202798	0.195566	0.189649	0.178637	0.196881	0.200497	0.1908
2036	0.200497	0.20099	0.192115	0.181924	0.197045	0.20099	0.188334
2037	0.202305	0.198689	0.190471	0.184554	0.197045	0.198853	0.187184
2038	0.201483	0.196388	0.1908	0.187677	0.196059	0.195237	0.18932
2039	0.197045	0.199346	0.191457	0.182089	0.197703	0.199182	0.187513
2040	0.197538	0.19836	0.192772	0.189814	0.201319	0.199018	0.189156
2041	0.202962	0.196388	0.190471	0.190307	0.200332	0.196881	0.187513
2042	0.199346	0.200004	0.195402	0.186362	0.200168	0.200661	0.189649
2043	0.19836	0.199675	0.195895	0.192936	0.199182	0.195237	0.189485
2044	0.197867	0.19721	0.192936	0.187513	0.200825	0.196059	0.188992
2045	0.201319	0.200004	0.196717	0.1908	0.206414	0.198524	0.187841
2046	0.200661	0.200497	0.196223	0.190307	0.198196	0.199839	0.192279
2047	0.198524	0.200825	0.193429	0.191128	0.199839	0.19836	0.188334
2048	0.200168	0.198689	0.195073	0.18817	0.200168	0.198524	0.1908
2049	0.198524	0.20099	0.193429	0.192608	0.197703	0.19836	0.191786
2050	0.200332	0.197045	0.193922	0.189156	0.198689	0.199018	0.189814
2051	0.199346	0.197703	0.193758	0.189485	0.198524	0.199675	0.187513
2052	0.201319	0.198689	0.194744	0.19195	0.199675	0.200661	0.188334
2053	0.200168	0.193101	0.195895	0.192772	0.202962	0.200004	0.19195
2054	0.199346	0.19721	0.193922	0.193265	0.201154	0.198689	0.191457
2055	0.200661	0.195566	0.195073	0.194087	0.20099	0.198524	0.18554
2056	0.201154	0.195073	0.190307	0.196552	0.196223	0.197538	0.189978
2057	0.20099	0.201976	0.195073	0.192772	0.200004	0.202469	0.191621
2058	0.202469	0.201154	0.197867	0.19721	0.199511	0.201483	0.187841
2059	0.205263	0.199675	0.197374	0.193101	0.202633	0.197538	0.190471
2060	0.201154	0.202798	0.19836	0.194909	0.203291	0.198196	0.189814
2061	0.200332	0.198031	0.197045	0.194909	0.203291	0.199182	0.188992
2062	0.198853	0.200004	0.198689	0.193758	0.200661	0.198853	0.187348
2063	0.197045	0.196881	0.197374	0.194251	0.198853	0.198853	0.1908
2064	0.199018	0.200332	0.201154	0.193758	0.197045	0.198524	0.1908
2065	0.203948	0.196717	0.19721	0.192608	0.19836	0.200004	0.1908
2066	0.197703	0.00031	0.197703	0.195237	0.198031	0.198853	0.188827
2067	0.201812	-0.000512	0.195402	0.193265	0.195073	0.200497	0.189156
2068	0.198689	-0.000347	0.20099	0.196059	0.19721	0.201483	0.192443
2069	0.199675	0.002282	0.196223	0.192279	0.195566	0.201812	0.190635
2070	0.202305	0.008363	0.196223	0.194087	0.200004	0.199018	0.190964
2071	0.201154	0.021019	0.195073	0.19836	0.199182	0.199675	0.196059
2072	0.201976	0.025128	0.194251	0.195237	0.199182	0.200661	0.194416
2073	0.20214	0.013294	0.19458	0.196059	0.200332	0.196223	0.191457
2074	0.199182	0.00031	0.192279	0.196717	0.199346	0.197045	0.192115
2075	0.202305	0.00031	0.19721	0.19836	0.199675	0.194909	0.192936
2076	0.201319	0.003926	0.196552	0.195895	0.198031	0.198031	0.193922
2077	0.200004	0.015102	0.194909	0.19836	0.198031	0.198524	0.188006
2078	0.203291	0.021019	0.196717	0.20099	0.198524	0.199675	0.194087
2079	0.201976	0.02973	0.202305	0.196059	0.198196	0.194087	0.194416
2080	0.20099	0.035482	0.1908	0.196388	0.198853	0.198853	0.195237
2081	0.198196	0.041892	0.198853	0.196059	0.199675	0.198524	0.196223
2082	0.201647	0.049781	0.195895	0.196717	0.198524	0.199182	0.197045
2083	0.198853	0.052082	0.198031	0.195402	0.19836	0.198524	0.196717
2084	0.200661	0.054383	0.197538	0.195566	0.197374	0.198689	0.196717
2085	0.19836	0.058492	0.197867	0.199511	0.198853	0.200332	0.194251
2086	0.199346	0.069011	0.196717	0.198689	0.196059	0.199675	0.195402
2087	0.201647	0.071148	0.19721	0.196717	0.196223	0.200004	0.196223
2088	0.202633	0.081174	0.19721	0.199346	0.195073	0.19721	0.194087
2089	0.197045	0.081995	0.196388	0.199675	0.198524	0.199182	0.195566
2090	0.20099	0.090542	0.197703	0.198689	0.200825	0.201319	0.19573
2091	0.198524	0.093829	0.195237	0.199182	0.201812	0.201976	0.195402
2092	0.197867	0.09498	0.19836	0.201154	0.201483	0.200168	0.191621
2093	0.19836	0.103197	0.197703	0.202962	0.201976	0.199182	0.197703
2094	0.199182	0.106156	0.198031	0.200168	0.200332	0.19721	0.19458
2095	0.204441	0.107635	0.198196	0.199182	0.201976	0.197538	0.196223
2096	0.197538	0.114538	0.200332	0.200497	0.201483	0.19721	0.194744
2097	0.201812	0.113881	0.198853	0.199182	0.197045	0.199511	0.19721
2098	0.201483	0.115853	0.199839	0.197703	0.200332	0.198031	0.197538
2099	0.201154	0.119469	0.195073	0.198196	0.197045	0.200168	0.19573
2100	0.00409	0.122263	0.19721	0.19836	0.199839	0.197703	0.198524
2101	0.013952	0.124399	0.18932	0.199675	0.197374	0.198853	0.19836
2102	0.018225	0.125386	0.195073	0.198031	0.197374	0.202962	0.196223
2103	0.02973	0.129495	0.193758	0.199675	0.199675	0.197374	0.190635
2104	0.035482	0.135411	0.193594	0.198524	0.202305	0.201812	0.198196
2105	0.042714	0.138699	0.195402	0.200497	0.200332	0.199018	0.195895
2106	0.049453	0.137219	0.193758	0.197867	0.199675	0.199675	0.200004
2107	0.056356	0.142972	0.199182	0.199182	0.20214	0.198689	0.196717
2108	0.063752	0.141	0.194744	0.199018	0.199182	0.200004	0.196881
2109	0.07049	0.144122	0.200332	0.201647	0.201154	0.196059	0.193758
2110	0.077722	0.146423	0.19836	0.196059	0.199675	0.199346	0.197538
2111	0.078544	0.152505	0.199018	0.198524	0.20099	0.198031	0.197045
2112	0.087748	0.151847	0.18817	0.199675	0.199018	0.200168	0.197045
2113	0.087255	0.149546	0.196552	0.198689	0.201483	0.20099	0.197703
2114	0.092843	0.158914	0.200497	0.197045	0.198031	0.199018	0.196552
2115	0.096952	0.156613	0.199675	0.19836	0.200825	0.202305	0.199018
2116	0.099417	0.156613	0.197538	0.197045	0.198031	0.198689	0.198031
2117	0.104841	0.15612	0.197703	0.196059	0.19458	0.198031	0.196717
2118	0.108293	0.158421	0.199675	0.19573	0.197538	0.198196	0.195895
2119	0.113716	0.155627	0.200332	0.191293	0.197374	0.201483	0.19836
2120	0.117496	0.160229	0.198196	0.197538	0.195402	0.199018	0.19836
2121	0.120291	0.163023	0.198853	0.195895	0.199675	0.199346	0.195073
2122	0.128837	0.166146	0.198196	0.197703	0.199182	0.200332	0.193429
2123	0.128344	0.164996	0.183239	0.19721	0.196552	0.199018	0.194416
2124	0.128673	0.166968	0.194251	0.197045	0.200661	0.202633	0.196881
2125	0.133603	0.167461	0.196717	0.195895	0.200004	0.206578	0.200332
2126	0.137877	0.173214	0.198853	0.198031	0.197867	0.202798	0.197538
2127	0.138041	0.170913	0.196717	0.195402	0.198853	0.201647	0.198196
2128	0.141986	0.17272	0.20099	0.196552	0.200825	0.201483	0.196552
2129	0.146916	0.173542	0.197703	0.194744	0.198031	0.199018	0.197867
2130	0.145602	0.172063	0.202305	0.194744	0.19836	0.196059	0.201812
2131	0.149875	0.176008	0.202633	0.19573	0.196717	0.198689	0.197538
2132	0.151683	0.1742	0.202633	0.19458	0.197703	0.199511	0.199346
2133	0.152505	0.177815	0.201812	0.194416	0.199182	0.200168	0.199675
2134	0.153162	0.176172	0.19573	0.199018	0.197374	0.202305	0.199839
2135	0.154148	0.176501	0.198031	0.199839	0.197374	0.200004	0.198689
2136	0.155627	0.1742	0.19836	0.197703	0.198853	0.200497	0.200661
2137	0.158914	0.179295	0.19836	0.198196	0.198853	0.202798	0.198853
2138	0.160558	0.17535	0.198196	0.19573	0.205592	0.196388	0.200661
2139	0.161051	0.177158	0.199511	0.196881	0.202633	0.20099	0.200004
2140	0.162366	0.17798	0.201154	0.194744	0.200661	0.202798	0.197703
2141	0.163681	0.182746	0.201483	0.197867	0.200004	0.203291	0.198031
2142	0.166804	0.182089	0.198031	0.195402	0.200004	0.203948	0.199675
2143	0.166475	0.18439	0.201483	0.199346	0.200168	0.199018	0.197538
2144	0.170419	0.183732	0.198031	0.19721	0.199839	0.203948	0.198853
2145	0.170748	0.184554	0.199018	0.197374	0.198689	0.200825	0.199839
2146	0.174035	0.184718	0.198031	0.197703	0.199839	0.200825	0.198031
2147	0.17535	0.185212	0.197867	0.196059	0.200661	0.200825	0.199018
2148	0.176336	0.189978	0.200004	0.197045	0.198031	0.199839	0.196388
2149	0.176665	0.183075	0.201976	0.197045	0.199675	0.199346	0.200661
2150	0.178309	0.185705	0.201319	0.193594	0.200332	0.199182	0.198524
2151	0.177651	0.185047	0.20214	0.196881	0.198853	0.200168	0.199839
2152	0.17798	0.191128	0.202305	0.197045	0.201483	0.19836	0.201976
2153	0.177322	0.188499	0.199182	0.196388	0.199675	0.199675	0.202633
2154	0.181924	0.188827	0.198689	0.196388	0.194909	0.196881	0.195566
2155	0.181267	0.185705	0.197703	0.193101	0.199511	0.197374	0.202798
2156	0.181924	0.189485	0.197045	0.195402	0.19721	0.19721	0.19836
2157	0.184061	0.184718	0.194744	0.194087	0.199346	0.195402	0.200332
2158	0.18176	0.184225	0.19573	0.198689	0.201647	0.195073	0.200168
2159	0.181267	0.191128	0.196388	0.197703	0.194251	0.203948	0.19836
2160	0.183732	0.188827	0.199675	0.194251	0.199511	0.198689	0.199018
2161	0.188827	0.188992	0.198853	0.196717	0.201647	0.200332	0.200497
2162	0.183404	0.189814	0.20099	0.19458	0.200332	0.201319	0.19836
2163	0.189649	0.191621	0.20099	0.197703	0.201154	0.19836	0.197703
2164	0.186198	0.190142	0.200497	0.195402	0.200661	0.20214	0.200661
2165	0.188006	0.1908	0.197374	0.198031	0.200332	0.197703	0.198031
2166	0.189649	0.191457	0.201812	0.196881	0.199346	0.201154	0.200497
2167	0.190142	0.189978	0.200661	0.198031	0.193758	0.201812	0.19836
2168	0.187841	0.191457	0.19836	0.200332	0.202305	0.199182	0.19836
2169	0.188499	0.195895	0.20099	0.194909	0.200661	0.19836	0.197045
2170	0.18932	0.187841	0.198853	0.199182	0.199346	0.202633	0.196388
2171	0.19195	0.194251	0.20099	0.201319	0.200332	0.198031	0.194416
2172	0.192279	0.188992	0.19836	0.195566	0.198031	0.199675	0.197374
2173	0.188006	0.191621	0.196717	0.19836	0.200168	0.198689	0.199182
2174	0.191457	0.192443	0.202305	0.19573	0.199182	0.200825	0.204277
2175	0.192608	0.18932	0.200332	0.197703	0.200661	0.200825	0.201154
2176	0.192279	0.193101	0.19721	0.196388	0.198524	0.199346	0.199346
2177	0.191128	0.19195	0.199839	0.198196	0.201483	0.203948	0.200825
2178	0.197538	0.193594	0.199182	0.199018	0.195895	0.199675	0.200497
2179	0.190964	0.193429	0.19836	0.197703	0.200168	0.202469	0.200661
2180	0.199182	0.191786	0.199839	0.198196	0.198853	0.199839	0.200168
2181	0.194251	0.187348	0.201319	0.200497	0.199018	0.20214	0.203455
2182	0.195237	0.190142	0.196388	0.19836	0.197045	0.198031	0.19573
2183	0.19573	0.188992	0.198689	0.194416	0.201319	0.200497	0.20099
2184	0.197867	0.106978	0.198031	0.200332	0.199675	0.199018	0.197538
2185	0.195237	0.108128	0.198853	0.19836	0.197045	0.198524	0.199182
2186	0.194416	0.112237	0.185705	0.197045	0.199018	0.201647	0.200168
2187	0.193594	0.112237	0.165324	0.196223	0.199018	0.199346	0.199511
2188	0.192279	0.120784	0.159736	0.197538	0.199511	0.196881	0.199182
2189	0.197045	0.123906	0.151518	0.199018	0.197538	0.200497	0.200168
2190	0.190635	0.126372	0.152176	0.199839	0.200168	0.197867	0.198524
2191	0.196223	0.129166	0.153984	0.198196	0.198524	0.193758	0.203126
2192	0.19721	0.132289	0.158093	0.199182	0.197867	0.19721	0.199675
2193	0.197703	0.135247	0.158421	0.198524	0.197538	0.195566	0.196717
2194	0.001296	0.137384	0.162037	0.194744	0.202305	0.198524	0.20099
2195	0.00672	0.141	0.16253	0.196059	0.197703	0.198196	0.19836
2196	-0.001169	0.140835	0.164174	0.198853	0.199182	0.200497	0.199839
2197	-0.001005	0.14215	0.166475	0.19836	0.19836	0.200004	0.199346
2198	-0.001169	0.141986	0.167461	0.198524	0.199346	0.198689	0.199346
2199	0.000639	0.150368	0.169433	0.20099	0.198853	0.202633	0.199675
2200	0.015431	0.147409	0.170419	0.198524	0.200825	0.200661	0.198196
2201	0.020526	0.153491	0.16894	0.202962	0.199675	0.198524	0.196717
2202	0.03088	0.15497	0.170748	0.199675	0.200661	0.203455	0.19836
2203	0.039263	0.159572	0.173871	0.200825	0.200332	0.199511	0.20362
2204	0.040742	0.156285	0.170255	0.195895	0.199018	0.198524	0.200332
2205	0.042714	0.157928	0.174035	0.200825	0.201319	0.197538	0.199182
2206	-0.000347	0.158093	0.175021	0.200661	0.194909	0.196552	0.201812
2207	0.000967	0.158586	0.175186	0.198853	0.198853	0.196881	0.200332
2208	-0.000183	0.161544	0.176172	0.199675	0.196717	0.199018	0.199839
2209	0.009678	0.165982	0.178637	0.201483	0.198524	0.197867	0.197538
2210	0.012637	0.164996	0.177815	0.203455	0.197045	0.197374	0.201812
2211	0.01691	0.16401	0.180281	0.198689	0.199182	0.200661	0.202633
2212	0.01313	0.166311	0.178966	0.203126	0.198031	0.199346	0.196223
2213	0.014116	0.164174	0.179295	0.201483	0.200497	0.200661	0.198196
2214	0.018389	0.16894	0.182089	0.199675	0.19836	0.199018	0.201483
2215	0.0105	0.168283	0.181103	0.197867	0.200661	0.200004	0.199675
2216	0.000474	0.171241	0.184718	0.20099	0.200661	0.199018	0.193758
2217	0.004255	0.170748	0.185047	0.199346	0.199675	0.201483	0.198524
2218	0.00031	0.17272	0.18554	0.200004	0.204113	0.200168	0.197703
2219	0.006062	0.1742	0.185047	0.202633	0.204441	0.199346	0.199511
2220	0.017732	0.175515	0.188334	0.203126	0.199182	0.199018	0.194416
2221	0.006227	0.175515	0.183075	0.201976	0.200332	0.202962	0.201483
2222	0.013787	0.176008	0.184718	0.199182	0.201319	0.198196	0.20099
2223	0.016088	0.177815	0.181431	0.200168	0.198524	0.201647	0.198524
2224	0.023484	0.175021	0.187841	0.199182	0.202633	0.199346	0.197867
2225	0.031045	0.177487	0.187348	0.190471	0.201154	0.19721	0.20099
2226	0.011979	0.181431	0.186691	0.200825	0.202798	0.20099	0.199839
2227	0.015595	0.180116	0.188334	0.201319	0.19573	0.198689	0.197703
2228	0.032524	0.178966	0.188992	0.194744	0.199675	0.199346	0.201976
2229	0.04107	0.182911	0.187348	0.20099	0.19721	0.198853	0.200004
2230	0.046166	0.18061	0.188499	0.198689	0.198031	0.200332	0.200497
2231	0.054055	0.179788	0.18932	0.197045	0.198689	0.200825	0.199018
2232	0.062273	0.182911	0.183897	0.196717	0.196717	0.204441	0.199511
2233	0.071805	0.182582	0.191786	0.197538	0.200332	0.199346	0.198031
2234	0.073942	0.18439	0.189814	0.197374	0.199839	0.200825	0.201319
2235	0.076243	0.185047	0.188663	0.199182	0.200825	0.20099	0.20099
2236	0.081831	0.184061	0.19195	0.198853	0.197867	0.199182	0.196881
2237	0.086269	0.182253	0.192443	0.199182	0.196059	0.199511	0.198853
2238	0.088898	0.184225	0.189814	0.200332	0.196223	0.196552	0.196881
2239	0.095801	0.186198	0.19458	0.199182	0.200168	0.199675	0.200332
2240	0.102211	0.186691	0.193594	0.201154	0.198524	0.197703	0.199675
2241	0.099089	0.186691	0.193922	0.198524	0.199839	0.200661	0.199675
2242	0.106649	0.188663	0.193922	0.19836	0.19721	0.19458	0.198853
2243	0.109772	0.188006	0.190471	0.198196	0.198524	0.199018	0.201647
2244	0.117332	0.188827	0.192608	0.196388	0.196388	0.199346	0.200168
2245	0.118318	0.187184	0.193922	0.195895	0.201483	0.197045	0.200825
2246	0.121112	0.190307	0.192608	0.201154	0.198196	0.20099	0.200661
2247	0.126207	0.186691	0.190307	0.19836	0.199675	0.200004	0.200497
2248	0.1267	0.188992	0.190307	0.19836	0.197703	0.198853	0.199018
2249	0.130809	0.191128	0.191128	0.198031	0.199346	0.199675	0.202305
2250	0.134261	0.190471	0.195073	0.199839	0.200004	0.200168	0.198524
2251	0.139849	0.19195	0.191621	0.202633	0.199182	0.198524	0.200661
2252	0.138041	0.196717	0.191621	0.202305	0.200004	0.199511	0.196388
2253	0.141821	0.194087	0.196059	0.199675	0.199018	0.194251	0.19721
2254	0.142314	0.190635	0.195402	0.201976	0.20099	0.199839	0.20099
2255	0.14478	0.194251	0.192772	0.201154	0.202305	0.19195	0.199839
2256	0.145273	0.189649	0.19573	0.19836	0.20362	0.19573	0.201154
2257	0.149382	0.192115	0.1908	0.199839	0.200825	0.198853	0.20099
2258	0.14971	0.194251	0.195566	0.198524	0.202305	0.199839	0.199675
2259	0.153491	0.190635	0.19573	0.199675	0.199346	0.196223	0.199839
2260	0.154477	0.187513	0.193922	0.202305	0.199675	0.196388	0.20099
2261	0.158093	0.191621	0.196388	0.203291	0.197867	0.198031	0.199182
2262	0.162859	0.190307	0.195073	0.197374	0.200004	0.199018	0.202469
2263	0.16401	0.190635	0.196881	0.202962	0.197045	0.197703	0.199346
2264	0.163516	0.191457	0.195895	0.199182	0.196059	0.200004	0.199511
2265	0.164174	0.193101	0.196388	0.199018	0.199675	0.199839	0.200004
2266	0.159243	0.192608	0.194087	0.199675	0.194416	0.201812	0.200168
2267	0.164996	0.193758	0.198524	0.199182	0.200825	0.201483	0.197867
2268	0.170748	0.194416	0.196388	0.199839	0.202469	0.200497	0.194744
2269	0.165653	0.194416	0.195073	0.201976	0.201812	0.201647	0.201319
2270	0.173542	0.194909	0.196552	0.200332	0.198853	0.199346	0.201976
2271	0.170584	0.194251	0.197867	0.200168	0.200661	0.199839	0.198853
2272	0.173707	0.194744	0.196881	0.196717	0.197045	0.195566	0.197374
2273	0.173542	0.192772	0.193429	0.197703	0.197703	0.202469	0.201647
2274	0.171241	0.194416	0.196717	0.199675	0.199182	0.198031	0.199018
2275	0.176665	0.192115	0.19836	0.19573	0.198689	0.199182	0.203126
2276	0.181596	0.196881	0.201647	0.201812	0.201319	0.200497	0.202469
2277	0.167954	0.194909	0.193922	0.198031	0.200825	0.203455	0.201154
2278	0.176665	0.191786	0.200168	0.201319	0.197538	0.197374	0.198689
2279	0.180116	0.195402	0.195566	0.197045	0.200004	0.199675	0.201812
2280	0.180281	0.195895	0.200168	0.197538	0.19836	0.201319	0.200168
2281	0.179295	0.196552	0.19573	0.204441	0.197538	0.201976	0.200004
2282	0.183404	0.193758	0.194744	0.193101	0.20099	0.205099	0.199511
2283	0.185705	0.200497	0.199346	0.194744	0.198031	0.201812	0.198524
2284	0.18554	0.19195	0.198031	0.202633	0.197045	0.201319	0.199675
2285	0.186526	0.194087	0.196552	0.196059	0.197867	0.200661	0.197538
2286	0.186198	0.19458	0.197538	0.200661	0.197703	0.199346	0.19721
2287	0.187841	0.19721	0.197374	0.200497	0.20099	0.197867	0.198689
2288	0.176665	0.192115	0.197045	0.200168	0.200661	0.20099	0.20099
2289	0.183568	0.19573	0.20099	0.202305	0.198524	0.199675	0.199182
2290	0.187677	0.194416	0.197703	0.199511	0.203455	0.199346	0.19836
2291	0.188827	0.19836	0.200004	0.20099	0.199675	0.200004	0.201483
2292	0.188499	0.194251	0.195237	0.196552	0.200497	0.197374	0.197703
2293	0.187841	0.196388	0.200825	0.199346	0.202305	0.196717	0.198031
2294	0.191128	0.195895	0.197374	0.200497	0.19836	0.200661	0.201154
2295	0.192772	0.194416	0.19573	0.200825	0.198689	0.197538	0.19836
2296	0.191128	0.193922	0.200168	0.200332	0.200497	0.19836	0.200004
2297	0.189814	0.194744	0.198031	0.197374	0.19836	0.201483	0.197703
2298	0.19573	0.195895	0.195402	0.19836	0.197703	0.197703	0.200168
2299	0.185705	0.195566	0.196717	0.200168	0.198196	0.20214	0.200661
2300	0.187677	0.197867	0.200332	0.199675	0.198853	0.197867	0.196388
2301	0.198196	0.196388	0.19721	0.19721	0.200661	0.194251	0.200004
2302	0.192936	0.200168	0.194744	0.200332	0.198031	0.200004	0.198689
2303	0.193758	0.194744	0.195895	0.197374	0.199511	0.202798	0.196223
2304	0.193594	0.195237	0.197045	0.198689	0.19836	0.198853	0.197538
2305	0.195237	0.19573	0.196717	0.197703	0.19573	0.200661	0.199182
2306	0.194909	0.197703	0.195237	0.201483	0.193594	0.198196	0.197045
2307	0.195073	0.196059	0.193922	0.200168	0.199182	0.199018	0.199511
2308	0.195237	0.198031	0.198196	0.198196	0.200168	0.196552	0.197374
2309	0.193758	0.194744	0.19836	0.198689	0.199182	0.198689	0.199511
2310	0.189485	0.193101	0.199675	0.196059	0.199182	0.198853	0.200168
2311	0.188827	0.199182	0.199675	0.199511	0.199018	0.19721	0.199346
2312	0.193265	0.197045	0.199346	0.19836	0.200497	0.199839	0.203126
2313	0.194251	0.196388	0.197703	0.19836	0.201154	0.198524	0.20099
2314	0.19573	0.197045	0.199182	0.197045	0.199018	0.200168	0.19836
2315	0.197867	0.196223	0.197867	0.201812	0.19721	0.197703	0.20099
2316	0.195402	0.193101	0.198196	0.197045	0.199839	0.202798	0.197867
2317	0.196059	0.197867	0.197045	0.197867	0.194909	0.200004	0.196881
2318	0.199675	0.195402	0.200332	0.196223	0.19836	0.19836	0.19836
2319	0.198196	0.196223	0.197045	0.199839	0.197045	0.199182	0.200332
2320	0.196881	0.196388	0.197867	0.199018	0.195402	0.201483	0.201647
2321	0.200168	0.196388	0.200168	0.199839	0.193101	0.199839	0.198031
2322	0.194909	0.196388	0.19836	0.193265	0.196717	0.20214	0.199675
2323	0.198853	0.197703	0.199839	0.198689	0.196223	0.201319	0.195237
2324	0.199511	0.195402	0.195895	0.200168	0.199675	0.199182	0.200004
2325	0.198031	0.197538	0.197867	0.199511	0.199511	0.199839	0.199839
2326	0.195073	0.195895	0.198853	0.199675	0.198853	0.199182	0.194744
2327	0.195402	0.197374	0.197538	0.199346	0.200332	0.199182	0.200661
2328	0.198031	0.19458	0.196881	0.198196	0.198031	0.198689	0.197703
2329	0.195895	0.195895	0.202305	0.19836	0.200661	0.19573	0.199182
2330	0.199839	0.195895	0.19721	0.197045	0.198689	0.195402	0.199018
2331	0.198031	0.19573	0.202798	0.203126	0.197045	0.198031	0.200825
2332	0.200004	0.192443	0.19836	0.201154	0.19721	0.199018	0.198524
2333	0.19721	0.195073	0.205921	0.195237	0.197867	0.205099	0.200332
2334	0.19836	0.196223	0.199346	0.200332	0.195073	0.200168	0.197703
2335	0.195895	0.195073	0.199346	0.198853	0.198524	0.204277	0.201483
2336	0.199182	0.199018	0.19836	0.200004	0.19573	0.199018	0.196552
2337	0.194251	0.195402	0.199018	0.19721	0.194416	0.199675	0.197867
2338	0.196881	0.193922	0.202305	0.20099	0.19836	0.199511	0.199018
2339	0.200004	0.198196	0.194251	0.197374	0.198031	0.201976	0.199018
2340	0.199511	0.198031	0.200004	0.201154	0.199839	0.198196	0.197045
2341	0.199675	0.19836	0.197045	0.198196	0.199511	0.199346	0.199346
2342	0.200661	0.197374	0.199182	0.202633	0.199346	0.200168	0.198853
2343	0.201319	0.199018	0.200497	0.204934	0.200004	0.199511	0.198524
2344	0.198689	0.199839	0.200168	0.203126	0.20362	0.200332	0.200332
2345	0.201976	0.198524	0.197703	0.201319	0.20362	0.199346	0.197703
2346	0.199346	0.199182	0.201154	0.202305	0.202962	0.203948	0.198853
2347	0.201812	0.198031	0.205263	0.199018	0.197703	0.196223	0.199018
2348	0.198853	0.196388	0.202962	0.197867	0.200497	0.200661	0.196552
2349	0.201812	0.198524	0.199511	0.197538	0.198196	0.196223	0.19721
2350	0.199839	0.196881	0.19721	0.198689	0.199511	0.201154	0.198689
2351	0.20099	0.199346	0.201319	0.201154	0.19836	0.201483	0.197045
2352	0.201812	0.197374	0.19573	0.196881	0.198853	0.197703	0.198524
2353	0.202305	0.196552	0.197538	0.20099	0.196881	0.202633	0.197045
2354	0.199182	0.194087	0.197045	0.197703	0.198853	0.198524	0.19721
2355	0.201812	0.197867	0.19721	0.200332	0.199182	0.199182	0.199839
2356	0.201812	0.196388	0.196059	0.197045	0.19721	0.197703	0.199346
2357	0.200332	0.197703	0.198031	0.200332	0.200661	0.199675	0.19721
2358	0.205099	0.195895	0.200332	0.200004	0.200661	0.200168	0.198853
2359	0.198524	0.198031	0.200004	0.199511	0.200168	0.200497	0.197045
2360	0.203455	0.197867	0.198853	0.197867	0.196059	0.198689	0.198031
2361	0.199346	0.202962	0.199346	0.198853	0.19573	0.200168	0.19721
2362	0.202469	0.201483	0.199018	0.200004	0.195237	0.198689	0.196881
2363	0.202305	0.19573	0.202469	0.197703	0.201483	0.197867	0.199182
2364	0.201647	0.199839	0.199511	0.201154	0.196881	0.200825	0.196552
2365	0.202469	0.198853	0.20099	0.199675	0.197703	0.201976	0.196552
2366	0.202633	0.195895	0.202798	0.200004	0.198853	0.197538	0.196717
2367	0.201976	0.19836	0.198196	0.196223	0.199182	0.196881	0.195895
2368	0.20099	0.196059	0.200497	0.202962	0.199675	0.199018	0.197374
2369	0.200497	0.194087	0.198524	0.195073	0.197045	0.198031	0.201976
2370	0.199182	0.199675	0.198689	0.19721	0.199346	0.199018	0.196552
2371	0.200497	0.193265	0.197374	0.197703	0.19573	0.199675	0.199511
2372	0.200661	0.197045	0.200004	0.194251	0.198031	0.19836	0.199511
2373	0.203291	0.194744	0.200168	0.199839	0.197374	0.199839	0.198524
2374	0.200332	0.195566	0.201647	0.199346	0.198196	0.200332	0.197374
2375	0.202305	0.199839	0.197703	0.200168	0.199018	0.202305	0.197538
2376	0.200004	0.198524	0.199675	0.201812	0.195895	0.201976	0.195073
2377	0.203126	0.19836	0.19721	0.200332	0.201319	0.199839	0.195895
2378	0.198524	0.197045	0.199182	0.200332	0.201976	0.200332	0.198524
2379	0.202633	0.196552	0.199018	0.200332	0.197703	0.199675	0.197703
2380	0.199839	0.195566	0.201812	0.19458	0.199182	0.202962	0.198031
2381	0.19836	0.198196	0.199675	0.199511	0.196388	0.19721	0.197867
2382	0.199511	0.195073	0.200661	0.197374	0.195073	0.196552	0.197703
2383	0.199346	0.197703	0.201319	0.199018	0.198031	0.195237	0.199675
2384	0.200661	0.196552	0.202305	0.195895	0.196388	0.199346	0.197867
2385	0.201319	0.19573	0.199511	0.196388	0.195895	0.196059	0.200661
2386	0.200497	0.196223	0.197867	0.197703	0.196552	0.200168	0.201976
2387	0.199018	0.199839	0.196881	0.199511	0.196881	0.200168	0.200004
2388	0.202798	0.19195	0.200004	0.196223	0.199182	0.198853	0.200168
2389	0.197867	0.193594	0.196059	0.200825	0.198196	0.202633	0.200497
2390	0.19721	0.195073	0.193429	0.200497	0.19458	0.199839	0.201319
2391	0.196552	0.196717	0.199511	0.19836	0.202798	0.198689	0.197374
2392	0.19721	0.198853	0.19721	0.201154	0.197374	0.199182	0.198853
2393	0.194416	0.195895	0.198689	0.201154	0.200004	0.199839	0.198524
2394	0.200004	0.198689	0.196388	0.202633	0.198689	0.199018	0.199182
2395	0.19836	0.196223	0.203126	0.196223	0.20099	0.201154	0.198853
2396	0.198689	0.200168	0.200497	0.199675	0.199675	0.199511	0.199839
2397	0.199182	0.196717	0.201976	0.198031	0.202305	0.20099	0.202305
2398	0.198196	0.201319	0.201812	0.20362	0.197703	0.199511	0.197867
2399	0.197867	0.200332	0.201154	0.197867	0.201647	0.201812	0.199511
2400	0.198689	0.19721	0.200825	0.198196	0.198853	0.201483	0.196881
2401	0.197045	0.199511	0.200825	0.201976	0.199182	0.201812	0.201812
2402	0.19721	0.200332	0.200825	0.197374	0.198689	0.194909	0.19573
2403	0.198031	0.195402	0.195895	0.19721	0.199018	0.195402	0.200332
2404	0.198031	0.196717	0.195895	0.198524	0.196717	0.196388	0.194087
2405	0.198853	0.19573	0.19721	0.197045	0.199018	0.198031	0.198689
2406	0.197703	0.195895	0.200168	0.198689	0.199839	0.198524	0.201154
2407	0.198524	0.196717	0.196881	0.196717	0.197867	0.200825	0.195566
2408	0.198689	0.199182	0.198853	0.199675	0.202798	0.199018	0.202633
2409	0.197867	0.197703	0.197538	0.202633	0.198031	0.199511	0.200332
2410	0.198689	0.196881	0.199511	0.204113	0.200497	0.203126	0.199346
2411	0.199018	0.202305	0.20099	0.203455	0.204277	0.198196	0.199511
2412	0.197045	0.199839	0.199346	0.201483	0.198524	0.204277	0.199346
2413	0.202305	0.197867	0.200497	0.199839	0.199839	0.198853	0.195402
2414	0.197538	0.198196	0.200497	0.199346	0.201483	0.199346	0.199182
2415	0.199511	0.198689	0.200332	0.199839	0.198524	0.199018	0.198196
2416	0.202469	0.195566	0.200004	0.199675	0.19836	0.198853	0.198853
2417	0.198031	0.198689	0.201647	0.199346	0.198689	0.19836	0.196223
2418	0.196717	0.197045	0.200825	0.194744	0.198031	0.198196	0.198689
2419	0.197703	0.197374	0.199346	0.199346	0.199839	0.198689	0.200004
2420	0.200004	0.19721	0.198853	0.19836	0.19836	0.199839	0.197374
2421	0.195402	0.196223	0.199839	0.200168	0.198853	0.199675	0.197045
2422	0.196388	0.196223	0.19721	0.199346	0.198031	0.197045	0.199018
2423	0.194744	0.197867	0.20099	0.200004	0.198853	0.200332	0.201976
2424	0.196717	0.198031	0.201319	0.202305	0.197374	0.197045	0.19573
2425	0.199675	0.194909	0.20099	0.197867	0.200661	0.199018	0.200825
2426	0.197374	0.199839	0.199182	0.202469	0.197867	0.199018	0.198524
2427	0.196059	0.200825	0.200332	0.199839	0.199018	0.201812	0.201976
2428	0.199511	0.196717	0.199511	0.199018	0.198031	0.198031	0.200168
2429	0.195237	0.19721	0.199182	0.193922	0.199018	0.19836	0.19721
2430	0.199182	0.200825	0.202798	0.198689	0.198196	0.199675	0.199346
2431	0.196223	0.198031	0.201647	0.199018	0.201319	0.201976	0.201647
2432	0.198853	0.197867	0.199182	0.198689	0.199675	0.203455	0.200168
2433	0.19458	0.19721	0.200661	0.197703	0.19836	0.197867	0.199346
2434	0.198689	0.19836	0.200332	0.198031	0.200004	0.19836	0.197374
2435	0.192443	0.196552	0.18817	0.194744	0.197374	0.199839	0.199511
2436	0.19573	0.19195	0.200004	0.197045	0.196881	0.196881	0.201812
2437	0.191786	0.193594	0.195895	0.19721	0.195402	0.198031	0.198196
2438	0.188499	0.193758	0.199346	0.196059	0.197538	0.198853	0.200661
2439	0.194909	0.197703	0.200332	0.195073	0.197867	0.19721	0.198689
2440	0.194744	0.195073	0.197867	0.199511	0.200661	0.198031	0.197703
2441	0.193758	0.200004	0.19836	0.20214	0.197374	0.197867	0.196717
2442	0.194251	0.196552	0.19836	0.194416	0.199511	0.200168	0.201976
2443	0.197045	0.199346	0.201483	0.198853	0.198689	0.197374	0.199346
2444	0.195237	0.199839	0.197374	0.197538	0.198689	0.203784	0.199018
2445	0.19836	0.195073	0.194744	0.199018	0.201154	0.200661	0.194744
2446	0.198031	0.19836	0.197374	0.195237	0.199675	0.200661	0.19721
2447	0.196552	0.199346	0.199839	0.198853	0.198524	0.198524	0.199018
2448	0.197538	0.197045	0.198689	0.197703	0.195402	0.199675	0.199182
2449	0.196223	0.199182	0.199675	0.199018	0.20099	0.198524	0.19721
2450	0.198196	0.196881	0.20099	0.198689	0.198689	0.19721	0.197703
2451	0.195402	0.199346	0.198031	0.197867	0.199346	0.195237	0.197045
2452	0.199675	0.201976	0.192608	0.200004	0.197374	0.199018	0.198689
2453	0.198031	0.199346	0.199182	0.201319	0.199839	0.199675	0.199839
2454	0.196881	0.200332	0.198853	0.19836	0.198524	0.200332	0.195073
2455	0.194416	0.197703	0.196552	0.198196	0.197867	0.20099	0.196059
2456	0.196388	0.197867	0.198689	0.203291	0.198853	0.197045	0.199675
2457	0.195402	0.199675	0.199675	0.195073	0.200332	0.199018	0.197045
2458	0.195895	0.197867	0.198689	0.198689	0.199346	0.195402	0.196717
2459	0.19458	0.197374	0.198196	0.199675	0.199182	0.200004	0.200661
2460	0.194909	0.199511	0.201154	0.197538	0.19721	0.196552	0.196717
2461	0.19573	0.199182	0.199018	0.199182	0.199346	0.197538	0.199675
2462	0.19836	0.194416	0.200661	0.200168	0.20099	0.20099	0.196881
2463	0.197045	0.19573	0.199511	0.200004	0.20099	0.199675	0.201647
2464	0.196388	0.199182	0.201319	0.199675	0.195566	0.200168	0.198524
2465	0.200004	0.198031	0.199511	0.198031	0.202633	0.199839	0.196223
2466	0.193922	0.199018	0.200168	0.200332	0.199018	0.201319	0.19721
2467	0.200661	0.199346	0.196552	0.201812	0.199018	0.202469	0.198853
2468	0.198524	0.196388	0.201812	0.197703	0.199839	0.197703	0.199346
2469	0.197374	0.19836	0.199182	0.199511	0.200825	0.199346	0.196388
2470	0.19721	0.197703	0.200497	0.198031	0.197374	0.199675	0.195237
2471	0.196717	0.199182	0.198853	0.200168	0.197538	0.197374	0.196223
2472	0.192772	0.199182	0.20099	0.197374	0.20099	0.199675	0.199839
2473	0.196881	0.197867	0.19721	0.202962	0.198524	0.195895	0.199182
2474	0.196059	0.201319	0.199182	0.202305	0.199018	0.201647	0.202305
2475	0.19573	0.198031	0.20099	0.200661	0.196717	0.19721	0.197867
2476	0.197045	0.198196	0.200825	0.198196	0.201154	0.200004	0.200332
2477	0.193429	0.203784	0.199018	0.199839	0.200497	0.199018	0.202962
2478	0.196552	0.20214	0.199675	0.204441	0.198853	0.201647	0.198031
2479	0.197703	0.199018	0.200661	0.190307	0.199182	0.192115	0.198853
2480	0.196552	0.201154	0.199346	0.194416	0.199182	0.199346	0.198196
2481	0.195237	0.200004	0.201976	0.197045	0.199511	0.199018	0.197538
2482	0.196881	0.198689	0.000639	0.196223	0.196552	0.200825	0.197867
2483	0.197703	0.198524	-1.9e-05	0.196059	0.199839	0.205592	0.198524
2484	0.19573	0.197867	0.00294	0.199018	0.197538	0.19573	0.198689
2485	0.196059	0.200004	0.001789	0.200497	0.201154	0.200661	0.200497
2486	0.197867	0.199511	0.011486	0.202305	0.194251	0.199346	0.197703
2487	0.200332	0.193758	0.018718	0.199182	0.20099	0.200332	0.198031
2488	0.199182	0.198524	0.027429	0.200332	0.199839	0.199182	0.197374
2489	0.196881	0.202305	0.035318	0.205263	0.199839	0.200332	0.200332
2490	0.197703	0.197867	0.040577	0.19836	0.200497	0.19573	0.194251
2491	0.19458	0.200332	0.043865	0.199511	0.199182	0.199182	0.196388
2492	0.194416	0.20099	0.055698	0.199018	0.197538	0.197867	0.193594
2493	0.193101	0.19836	0.058492	0.200168	0.200004	0.198031	0.194909
2494	0.196717	0.20214	0.069997	0.199346	0.19836	0.199018	0.195566
2495	0.199018	0.199346	0.068354	0.195566	0.198689	0.196881	0.1908
2496	0.196881	0.200497	0.07575	0.201812	0.196717	0.200332	0.192443
2497	0.197538	0.199839	0.081831	0.196881	0.196881	0.199839	0.187677
2498	0.200332	0.200825	0.086269	0.197867	0.200661	0.199675	0.189814
2499	0.199182	0.202469	0.088077	0.201812	0.198689	0.198853	0.188006
