Ladekurvenmessung

Zeit: 2018_05_04 09.53.35

Info: FVA3, v = 0.14, T = 23, F = 20, h = 43

Ladewiderstand[Ohm]: 1012700

Störkapazität[pF]: 0.000000

Entladezeit[ms]: 200

Abtastrate[Hz]: 250000

Anzahl der Messwerte: 2500.000000

Verzögerung[ms]: 3

Ladespannung[V]: 0.200000


	Kurve_1	Kurve_2	Kurve_3	Kurve_4	Kurve_5
0	-0.000347	0.001132	-0.000512	0.002447	-0.001005
1	-1.9e-05	0.000803	-0.000512	0.002775	0.00031
2	0.000146	0.003104	-0.000512	0.002282	0.003597
3	0.00031	0.002447	-0.000183	0.001625	0.004583
4	0.00031	0.000639	0.000146	0.000803	0.005569
5	0.000474	0.002611	0.00031	0.00031	0.004583
6	0.00031	-0.001827	0.000474	-0.001005	0.003926
7	-0.000183	0.006062	0.00031	0.002775	0.006556
8	-0.000183	0.002775	0.00031	0.004912	-0.001169
9	-0.000512	0.00031	0.000146	-0.000676	0.00031
10	-0.000512	0.002775	-0.000347	0.002282	-0.000183
11	-0.000512	0.003433	-1.9e-05	0.002282	0.000967
12	-0.000183	0.001296	-0.000512	0.002611	-0.000347
13	0.00031	0.00294	-0.000676	0.001296	0.002447
14	0.000146	0.002775	-0.000183	0.001954	0.000803
15	0.000146	0.000639	-1.9e-05	0.001296	0.003104
16	0.000639	0.006556	0.000803	0.00146	0.00294
17	0.000146	0.001296	0.000967	0.00031	-0.000676
18	-0.000183	0.001296	0.001296	-0.001169	0.002282
19	-0.000183	0.003104	-0.000512	-0.001662	0.003597
20	-0.000347	0.000803	0.00146	-0.002813	0.001132
21	-0.000183	0.00294	0.000639	-0.002155	-0.00232
22	-0.000347	0.001954	0.001954	0.000474	0.001954
23	0.000146	0.000474	-0.001827	0.000474	-0.000512
24	0.000146	0.000639	0.001625	-0.001662	0.00294
25	0.00031	0.001789	-0.001991	0.000474	0.000474
26	0.000474	0.002118	0.003268	0.001625	0.000474
27	0.000474	-1.9e-05	0.008199	0.00294	-0.000347
28	0.000146	-0.000183	0.001625	0.000474	0.002118
29	-1.9e-05	-0.000512	0.00031	0.004912	-0.001169
30	-0.000347	0.001789	0.003761	0.001296	-0.000676
31	-0.000512	0.001789	0.00294	0.001296	0.000146
32	-0.000347	0.000639	0.001296	0.002611	-0.000183
33	-0.000183	0.003104	0.00146	0.003761	0.004255
34	-1.9e-05	0.000474	-0.002813	0.001132	0.001296
35	0.00031	0.003597	-0.000183	0.001954	0.005405
36	0.000639	0.004419	0.002611	0.001132	0.005076
37	0.000474	0.001132	0.003433	0.002611	0.00146
38	0.00031	0.00146	0.003104	-0.000512	0.000639
39	0.000474	0.00146	0.002118	-0.000676	0.00146
40	-0.000183	0.000146	0.001789	-0.002648	-0.001005
41	0.000146	0.000474	0.00146	-0.001005	-0.000676
42	-0.000347	0.000639	0.002282	0.001625	0.000146
43	-0.000347	-0.000183	-1.9e-05	0.00031	-0.001005
44	-0.000512	0.001132	0.003433	0.00031	0.00031
45	-0.000183	0.000803	0.005734	0.001132	-0.002155
46	0.00031	-0.002977	0.014938	-0.000347	-0.000183
47	0.00031	0.001132	0.020362	-0.000676	0.001296
48	0.000474	0.001625	0.024799	-0.000347	0.000146
49	0.000474	-0.002813	0.033839	0.003104	-0.001005
50	0.000146	0.001625	0.038605	0.003268	0.000474
51	-0.000183	0.005241	0.044358	-0.001827	-0.001169
52	-0.000183	0.000474	0.050274	0.001296	-0.000347
53	-0.000512	-1.9e-05	0.048138	0.001296	0.003104
54	-0.000512	0.000967	0.055041	-0.002977	0.000639
55	-0.000512	0.00031	0.061286	-0.000841	-0.002155
56	-1.9e-05	0.001625	0.068189	0.000803	-0.001169
57	-1.9e-05	-0.001334	0.069504	-0.001169	-0.000183
58	0.000146	-0.001005	0.074271	0.000474	-0.000347
59	0.000474	-0.001334	0.081667	0.003433	0.001296
60	0.000474	-0.00232	0.082982	-0.001005	-0.001827
61	0.000474	0.000146	0.090213	-1.9e-05	-0.000183
62	-1.9e-05	0.00031	0.090049	-0.001498	-0.000183
63	-0.000347	0.000803	0.094487	-0.000676	-0.000512
64	-0.000347	-0.001005	0.100568	-0.000183	-0.000183
65	-0.000347	0.003433	0.10517	-0.003635	-0.000841
66	-0.000347	0.003104	0.107306	0.000803	-1.9e-05
67	-0.000183	-0.000676	0.092514	0.000639	0.001132
68	0.000146	0.003761	0.075914	-0.001827	0.001789
69	0.00031	0.003268	0.080187	-0.001827	0.001132
70	0.00031	-0.000841	0.084789	-0.000183	-0.001991
71	0.000474	0.001132	0.085776	-0.001005	0.000803
72	0.00031	-0.001005	0.093336	0.001132	-0.002155
73	-1.9e-05	0.00031	0.095308	-0.001662	0.001132
74	-0.000183	-0.000347	0.099253	0.001625	0.00146
75	-0.000512	-0.002977	0.097281	-1.9e-05	0.000146
76	-0.000347	0.002775	0.104348	-0.002484	-0.001334
77	-0.000347	0.001132	0.107142	-0.001005	-0.001498
78	-1.9e-05	0.00294	0.113223	0.000639	0.000967
79	0.000146	0.000474	0.108457	0.000474	0.003433
80	0.00031	0.003926	0.098102	-1.9e-05	0.001132
81	0.000474	-0.000347	0.053397	0.000146	-0.001662
82	0.000474	-0.000347	0.049617	-0.002648	-0.001498
83	0.00031	0.001296	0.055863	-0.000347	-0.003799
84	-1.9e-05	0.000474	0.059643	0.00031	0.002447
85	-0.000183	0.00031	0.062273	-0.000512	-0.000512
86	-0.000512	0.001625	0.068518	-0.001334	-0.003799
87	-0.000512	0.002611	0.074764	0.000803	-0.000512
88	-0.000347	0.002282	0.071477	-0.000512	-0.000841
89	-0.000183	0.002611	0.07575	0.001789	-0.002648
90	0.000146	-0.000512	0.056191	-0.001169	0.000146
91	0.00031	0.000803	0.062273	0.004255	0.001132
92	0.000146	-0.001334	0.062437	0.00146	-0.000347
93	0.00031	0.000146	0.065231	-0.000183	0.001789
94	0.000474	-0.001827	0.047152	-0.000512	-0.000841
95	-1.9e-05	0.000639	0.021183	-1.9e-05	0.000146
96	-0.000183	-0.001498	0.020855	-0.001169	0.000639
97	-0.000347	-0.002648	0.020855	-0.000841	-0.000676
98	-0.000512	0.000474	0.017074	-0.001334	-0.000676
99	-0.000347	0.00031	0.014609	0.001789	0.000146
100	-1.9e-05	0.002282	0.012144	0.001296	-0.001334
101	0.000146	0.004912	0.013952	-0.000347	-0.000676
102	0.00031	0.001625	0.02332	-0.000183	-0.000347
103	0.00031	0.000967	0.027265	-1.9e-05	-0.000183
104	0.000474	0.001625	0.034003	0.000146	-0.000512
105	0.000146	-0.001662	0.042057	-0.005936	0.000146
106	-0.000183	0.001296	0.047645	0.003268	0.002118
107	-0.000512	-0.000347	0.051425	-0.002155	-0.000183
108	-0.000347	0.00146	0.057835	-0.005114	-0.000347
109	-0.000512	0.005241	0.063259	-0.001334	0.001296
110	-0.000347	0.000803	0.058657	-1.9e-05	-0.000183
111	-1.9e-05	0.00031	0.046001	-0.001334	0.000639
112	0.000146	0.001132	0.053726	0.00031	0.000474
113	0.00031	-0.000183	0.054712	-0.001498	-0.000841
114	0.000474	-0.001498	0.063587	-1.9e-05	-1.9e-05
115	0.00031	-0.001334	0.064245	-0.001005	-0.000512
116	0.000474	-0.000841	0.059643	-0.002648	-0.000512
117	-1.9e-05	0.000474	0.061451	0.000146	-0.000841
118	-0.000512	0.000967	0.063752	-0.001662	-0.000347
119	-0.000512	0.000803	0.070819	-0.002484	-1.9e-05
120	-0.000347	0.003433	0.074764	0.000474	0.00031
121	-0.000512	0.002447	0.074106	0.004912	0.00031
122	-1.9e-05	-0.001498	0.04748	-0.001334	0.000803
123	-1.9e-05	0.001954	0.040742	-0.000841	0.000639
124	0.000146	-0.001498	0.040742	-1.9e-05	-1.9e-05
125	0.00031	-0.001991	0.041235	0.000474	-0.000183
126	0.000474	-0.001498	0.040577	-0.003799	-0.000347
127	0.000474	-0.000841	0.028415	-0.000347	-0.000183
128	-1.9e-05	-0.001991	0.00146	-0.004292	-0.000676
129	-0.000183	0.002118	0.002447	0.000146	-0.000347
130	-0.000512	-0.002484	0.001296	-0.001334	-1.9e-05
131	-0.000512	0.000639	0.002611	-0.003306	-1.9e-05
132	-0.000512	0.000146	0.004255	0.000639	-0.000347
133	-0.000183	-0.002155	0.003104	-0.000183	0.000474
134	0.00031	0.000474	0.007049	0.000639	0.00031
135	0.000146	-0.002813	0.009678	0.000803	-0.000183
136	0.00031	0.001954	0.010829	0.000474	-0.000512
137	0.000474	0.000967	0.016088	-0.00232	-0.000183
138	0.00031	0.001296	0.020197	0.001132	-0.000347
139	-0.000347	-0.000347	0.023484	-0.001169	-0.000347
140	-0.000512	0.001132	0.032195	0.003433	-0.000347
141	-0.000183	-0.001498	0.037948	0.002447	0.00031
142	-0.000512	0.001296	0.039263	-0.000512	0.00031
143	-0.000512	0.001132	0.014773	0.002611	0.000639
144	0.000146	-0.000676	0.011158	-0.000183	0.000474
145	0.000146	-0.001169	0.007377	-0.000676	0.000474
146	0.000474	0.001296	0.003597	0.001625	0.000803
147	0.00031	-0.004621	0.00409	0.001954	-1.9e-05
148	0.00031	-0.002484	0.007542	-0.001991	-0.000183
149	0.00031	-0.000841	0.002611	0.001625	-0.000676
150	-0.000183	0.001132	0.004255	-0.003142	-0.000183
151	-0.000183	-0.001827	0.010336	-0.000183	-0.000841
152	-0.000512	-0.000183	0.012144	-0.002484	0.00031
153	-0.000183	0.00146	0.019375	-0.001991	0.00031
154	-0.000841	0.000803	0.017567	-0.001005	0.000474
155	-0.000183	0.001954	0.002118	0.000474	0.000146
156	-1.9e-05	0.000639	0.00672	-0.001169	0.000474
157	0.00031	0.000803	0.003761	0.003597	0.000639
158	0.000474	0.00031	0.000146	0.005241	-1.9e-05
159	0.00031	0.001789	0.000639	-0.000676	-0.000512
160	0.000146	-0.002648	0.002118	0.000639	-0.000512
161	-1.9e-05	-0.001005	0.000474	-1.9e-05	-1.9e-05
162	-0.000183	-0.000841	0.002611	-0.000183	-0.000183
163	-0.000512	-0.000347	0.00146	0.001789	0.000474
164	-0.000347	-0.000183	-0.000347	-0.001662	0.000146
165	-0.000676	-0.000512	0.000146	-0.000676	0.00031
166	-1.9e-05	0.000474	-0.000347	0.000967	-0.000512
167	0.000146	-0.000512	-0.000347	-0.002648	0.000803
168	0.000474	0.002775	0.000474	-0.000512	0.00031
169	0.00031	-0.001662	0.000146	-0.001169	-0.000512
170	0.00031	0.000803	0.000639	-0.002813	-0.000676
171	0.000474	-0.002484	0.000474	0.000474	-0.000512
172	-1.9e-05	0.001296	0.002282	0.000967	-0.000676
173	-0.000347	-0.000676	0.00031	-0.005936	-0.000676
174	-0.000183	0.000146	0.000474	0.00146	0.000146
175	-0.000183	0.000146	-0.000676	0.00146	0.000146
176	-0.000676	-0.002648	0.000803	0.003104	0.000474
177	-1.9e-05	-0.000841	0.004912	-1.9e-05	0.00031
178	0.000146	-0.000512	0.007706	-0.000841	0.000803
179	0.000146	0.000146	0.016253	0.002447	0.00031
180	0.000146	0.001625	0.020197	0.004255	-0.000347
181	0.000474	-0.001169	0.026278	0.001296	-0.000512
182	0.000474	-0.002813	0.034168	-0.003306	-0.000676
183	-0.000183	0.003268	0.039098	-0.000183	-0.000512
184	-0.000347	-0.005443	0.044193	0.000967	-0.000183
185	-0.000347	-0.002977	0.051425	0.00031	-1.9e-05
186	-0.000347	0.002118	0.056356	-0.001991	-1.9e-05
187	-0.000841	0.00031	0.062108	0.000967	0.000474
188	-1.9e-05	-0.000183	0.067039	0.001954	0.00031
189	0.000146	0.000146	0.069833	-0.000841	0.000146
190	0.000146	0.002775	0.074271	0.00031	0.000639
191	0.000146	-0.001334	0.077722	0.005569	-0.000183
192	0.00031	0.00031	0.081995	0.000803	-0.000512
193	0.000474	0.000474	0.084789	-0.001169	-0.000512
194	0.000146	-1.9e-05	0.087912	0.002282	-0.000347
195	-0.000512	-0.000183	0.092514	-0.001005	-0.000183
196	-0.000183	-1.9e-05	0.09991	0.00146	0.000146
197	-0.000512	0.000474	0.101554	-0.000841	0.000474
198	-0.000676	-0.001991	0.105992	0.00031	0.000146
199	-0.000183	-0.000183	0.108786	-0.000676	0.000474
200	0.000146	0.000967	0.11273	-0.001334	0.00031
201	0.000146	-1.9e-05	0.114538	-0.001005	0.00031
202	0.000639	-0.003142	0.118647	0.005076	-0.000347
203	0.00031	-0.003142	0.119797	-0.001498	-0.000183
204	0.00031	-0.002155	0.122427	-0.003306	-0.000676
205	0.000146	-0.001827	0.124893	-0.003142	-0.000512
206	-0.000347	0.000474	0.122427	-0.000512	-0.000347
207	-0.000512	0.00031	0.124399	0.000803	-1.9e-05
208	-0.000512	0.002118	0.128015	-0.000347	0.000474
209	-0.000347	-0.001498	0.131631	0.004419	0.000474
210	-0.000347	-0.000841	0.132289	0.003268	0.000474
211	0.00031	-1.9e-05	0.135576	0.000803	0.000474
212	0.000146	0.003268	0.138205	0.001132	0.000474
213	0.000146	-0.000347	0.136891	0.006062	-0.000512
214	0.00031	-0.002155	0.140342	-0.004949	-0.000183
215	0.000474	0.000474	0.143465	-1.9e-05	-0.000512
216	-1.9e-05	-0.000676	0.143794	-0.000841	-0.000841
217	-0.000183	0.000474	0.146259	0.00031	-0.000183
218	-0.000512	-0.001991	0.145766	-0.001662	0.000146
219	-0.000347	0.000967	0.134097	0.00031	-1.9e-05
220	-0.000676	-0.001827	0.131796	0.001789	0.00031
221	0.000146	0.00146	0.133932	-0.001498	0.000146
222	0.000146	-0.001005	0.136233	-0.001334	0.000474
223	0.00031	-0.000183	0.12933	-0.001334	0.000146
224	0.000474	0.00294	0.104348	0.001625	-1.9e-05
225	0.000474	0.001954	0.095637	0.002611	-1.9e-05
226	0.00031	-1.9e-05	0.093665	0.000803	-0.000347
227	-0.000183	0.00031	0.090378	0.000474	-0.000512
228	-0.000183	0.002118	0.081174	0.00294	-1.9e-05
229	-0.000512	-0.001827	0.081009	-0.000512	0.00031
230	-0.000347	0.001625	0.070819	0.004419	0.00031
231	-0.000183	0.000803	0.021676	0.001296	0.00031
232	-0.000183	-0.001334	0.004583	0.003268	0.000474
233	0.000146	-0.000512	0.008692	0.00031	0.00031
234	0.000474	0.000474	0.016581	0.001954	0.000146
235	0.000146	-0.003142	0.012472	-0.001662	-0.000183
236	0.00031	0.002775	0.017732	-0.001169	-0.000347
237	0.00031	-0.003142	0.012801	-0.001005	-0.000841
238	-1.9e-05	0.000474	0.016088	0.001625	-0.000512
239	-0.000183	0.001625	0.02069	0.001132	-1.9e-05
240	-0.000347	-0.001334	0.022169	-1.9e-05	-1.9e-05
241	-0.000512	-0.002155	0.028415	0.003597	0.000146
242	-0.000183	0.002611	0.033017	0.002118	0.00031
243	-0.000183	0.001625	0.040249	0.000967	0.00031
244	-1.9e-05	-0.000512	0.048467	0.002282	0.000474
245	0.000146	0.001296	0.056684	0.001625	0.000146
246	0.00031	-0.002977	0.056356	-0.006757	-1.9e-05
247	0.000146	0.001954	0.066381	0.000639	-0.000183
248	0.000474	-1.9e-05	0.067368	-0.000512	-0.000347
249	-0.000183	0.001789	0.073449	0.000967	-0.000183
250	-0.000183	0.001132	0.080023	0.000146	-1.9e-05
251	-0.000183	0.000474	0.081667	-0.000841	0.000146
252	-0.000512	-0.003963	0.089227	0.000146	0.000146
253	-0.000183	-0.000676	0.094158	-0.001169	0.000146
254	-0.000183	-0.00347	0.099582	0.000967	0.000146
255	0.000146	-0.003306	0.099746	-0.000183	0.000146
256	0.00031	-0.002813	0.105663	-1.9e-05	0.000146
257	0.00031	-0.000512	0.105827	-0.00988	-0.000183
258	0.00031	0.001625	0.110429	0.001296	-0.000183
259	0.000474	0.000474	0.110758	0.003597	-0.000512
260	-1.9e-05	0.001789	0.114538	0.001625	-0.000512
261	-0.000183	-0.001498	0.118318	-0.001334	-0.000183
262	-0.000347	0.003597	0.121441	0.003268	0.00031
263	-0.000347	0.004255	0.123578	-0.001169	0.00031
264	-0.000347	0.000146	0.127358	0.001789	0.00031
265	-1.9e-05	0.001132	0.12933	0.000967	0.000474
266	0.000146	0.002118	0.132453	-0.000347	0.000474
267	0.000146	-0.00232	0.135083	-0.000512	0.000146
268	0.00031	-0.000676	0.134097	-0.013496	-0.000183
269	0.000474	0.001132	0.142643	-0.001334	-0.000512
270	0.000474	-0.001662	0.140342	-0.00232	-0.000676
271	-1.9e-05	-0.001334	0.140342	-0.003142	-0.000841
272	-0.000183	-0.001991	0.141821	0.001954	-0.000183
273	-0.000512	-0.000676	0.149053	0.003268	-0.000347
274	-0.000347	0.008035	0.145273	-0.001991	0.00031
275	-0.000347	0.00146	0.151683	-0.000676	0.000146
276	-1.9e-05	-0.000183	0.150861	-0.004292	0.000474
277	-1.9e-05	0.002611	0.154477	-0.001334	0.000146
278	0.00031	0.00031	0.136562	-0.004292	0.000474
279	0.000474	0.000474	0.086926	-0.009387	-1.9e-05
280	0.000146	0.00146	0.083475	-0.001662	-0.000183
281	0.000639	0.002118	0.085283	-0.001334	-0.000347
282	-1.9e-05	-0.002813	0.091857	-0.001005	-0.000347
283	-1.9e-05	0.000967	0.09613	0.001625	-0.000347
284	-0.000347	-0.003142	0.098595	0.00294	0.000146
285	-0.000347	0.001625	0.102376	-0.001169	0.00031
286	-0.000841	0.00146	0.109114	-0.000676	0.00031
287	-1.9e-05	-0.000676	0.10632	0.003597	0.00031
288	0.000146	0.00031	0.113223	0.000146	0.00031
289	0.00031	-0.001169	0.114702	-0.001169	0.000146
290	0.000967	-0.000347	0.118483	-0.009058	-0.000183
291	-1.9e-05	-1.9e-05	0.122592	-0.002155	-0.000347
292	0.000146	0.001625	0.12818	0.002611	-0.000676
293	-0.000183	-0.001169	0.125879	-0.005114	-0.000347
294	0.000474	-0.000183	0.132289	-0.001991	-0.000347
295	-0.000347	0.000146	0.134918	0.001132	0.00031
296	-0.000183	0.001625	0.136562	-0.001991	0.000146
297	-0.003799	-0.001991	0.140013	0.00031	0.000474
298	-0.000676	0.004255	0.140835	0.001954	0.000474
299	-1.9e-05	-0.002813	0.143465	0.003597	0.000474
300	0.000146	-1.9e-05	0.14593	0.00294	0.00031
301	0.000639	0.001625	0.147738	-0.005443	0.00031
302	0.00031	-0.001662	0.148724	-0.001662	-1.9e-05
303	0.00031	0.000967	0.154312	0.000803	-0.000676
304	-1.9e-05	-0.000512	0.151683	-0.001498	-0.000512
305	-0.000183	-0.000512	0.154806	0.001296	-0.000676
306	-0.000347	-0.000841	0.155627	0.000146	-1.9e-05
307	-0.000347	0.00031	0.157271	-0.002813	0.00031
308	-0.001005	-0.001334	0.159079	0.000967	0.00031
309	-0.000183	0.002282	0.162859	0.001296	-1.9e-05
310	0.000146	-0.000841	0.16253	-0.001662	0.00031
311	0.00031	0.002775	0.164174	-0.000512	0.000146
312	0.000474	0.003597	0.16401	-0.004785	-1.9e-05
313	0.000474	0.003433	0.165817	-0.004292	-0.000183
314	0.000146	0.000967	0.168447	0.003433	-0.000512
315	-1.9e-05	0.000146	0.168118	0.004583	-0.000183
316	-0.000512	-0.000347	0.170584	0.001132	-0.000676
317	-0.000347	-0.001498	0.168447	-0.000841	0.000146
318	-0.000512	0.00294	0.169926	-0.000676	0.000146
319	-0.001334	-0.003306	0.171077	-0.001169	0.000474
320	-1.9e-05	0.00031	0.177651	0.001625	0.000474
321	0.00031	0.001296	0.173707	-0.000841	0.000803
322	0.000474	0.000474	0.177651	-0.000676	0.000146
323	-0.000512	-0.002648	0.177158	-0.002977	0.000146
324	0.000803	0.002282	0.178966	-0.001169	-0.000676
325	-0.000676	-0.001334	0.178144	-0.001662	-0.000512
326	0.000967	0.001132	0.18061	-0.001005	-0.000512
327	0.000639	-0.000676	0.182089	-0.000676	-0.000512
328	0.000146	0.001132	0.17913	-0.001498	-1.9e-05
329	-0.000512	0.001132	0.183075	-0.003306	0.000146
330	-0.000512	0.00031	0.185047	0.002447	0.000146
331	0.001789	-0.001498	0.182582	0.001296	0.000803
332	-0.000676	0.000474	0.182911	-0.001827	0.000474
333	0.000146	0.000146	0.18439	-0.001005	0.00031
334	-1.9e-05	-0.000512	0.183897	-0.000347	-0.000512
335	0.00031	0.00146	0.183404	-1.9e-05	-0.000512
336	0.000146	-0.001991	0.183732	0.00409	-0.000183
337	-0.000347	-0.001169	0.187184	0.003104	-0.000676
338	-0.000183	-0.001334	0.185212	0.001789	-1.9e-05
339	-0.000347	0.000474	0.188499	0.001789	-0.000183
340	-0.000512	-0.000183	0.188006	-0.001169	0.000146
341	-0.000512	0.00031	0.184883	0.001789	0.000474
342	-1.9e-05	-0.000512	0.186033	-1.9e-05	0.000146
343	0.00031	0.001132	0.189485	-0.003963	0.000146
344	0.00031	-0.000183	0.189649	-0.001169	0.00031
345	0.000474	-0.001827	0.188499	-0.002813	-0.000347
346	0.000474	-0.000183	0.189485	-0.003635	-0.000512
347	0.00031	-0.004128	0.190635	-0.002155	-0.000183
348	-0.000347	-0.002484	0.190142	0.002447	-0.000841
349	-0.000183	-0.000676	0.188827	-0.003142	0.000146
350	-0.000676	-0.001827	0.191786	-0.000183	0.000146
351	-0.000347	-0.001498	0.190635	-0.000183	0.000803
352	-0.000512	0.000639	0.193101	0.003104	0.00031
353	-0.000347	0.000474	0.189978	-0.000183	0.000967
354	0.000146	0.001625	0.192936	0.000803	0.00031
355	0.000146	0.003433	0.193758	0.000967	0.000639
356	-0.000183	0.001954	0.190635	0.00146	-0.000512
357	0.002447	-0.002155	0.19195	-0.001827	-0.000183
358	0.001296	0.00031	0.189649	-0.001498	-0.000512
359	-0.000183	-0.001169	0.192936	-0.001169	-0.000676
360	-0.000347	0.00031	0.19458	-0.000676	-1.9e-05
361	-0.000183	-0.002155	0.191293	-0.001827	0.000474
362	-0.000512	0.001954	0.193429	0.000474	0.000803
363	-0.000512	-0.000841	0.195566	-0.001334	-0.000183
364	-0.000183	-0.001498	0.193922	-0.00232	0.001132
365	0.000146	0.000146	0.196223	-0.001169	0.000146
366	0.000639	0.000639	0.197374	-1.9e-05	0.000803
367	0.00031	-1.9e-05	0.193101	0.003268	-0.000347
368	0.000474	0.000639	0.195237	-0.004292	-0.000347
369	0.000146	0.000146	0.195237	-0.001169	-0.000676
370	-1.9e-05	-0.001662	0.190471	-0.001334	-0.000512
371	-0.000347	0.002118	0.194251	0.001132	-0.000183
372	-0.000347	-0.002977	0.193265	-0.002813	0.000474
373	-0.000183	-0.002977	0.195073	-0.00232	0.000474
374	-0.000512	-0.000512	0.19573	0.000146	0.000146
375	-1.9e-05	0.000803	0.195402	-0.000347	0.00031
376	0.001132	-0.00347	0.196881	0.000639	0.000803
377	0.000474	0.001296	0.203126	0.000474	0.000474
378	0.00031	-0.001334	0.196881	-0.000512	-0.000676
379	0.000474	-0.001169	0.195237	-0.004128	-0.000183
380	0.000146	-0.000347	0.196717	-0.000183	-0.000676
381	-0.000183	-0.001827	0.194744	-0.002484	-0.000676
382	-0.000183	0.00031	0.198689	0.001789	-0.000512
383	-0.000512	-0.002813	0.191621	-0.001169	0.000146
384	-0.000676	-0.001334	0.196881	0.006062	-0.001334
385	-0.000841	-0.004621	0.196059	0.007213	0.000474
386	0.000639	0.001789	0.195402	0.002447	0.000146
387	0.001789	-0.001662	0.194909	0.001954	0.000639
388	-0.001005	0.002611	0.200497	0.00409	0.001132
389	0.001132	-0.001662	0.195566	0.000639	-0.000347
390	-0.001005	0.000474	0.19721	-0.001005	-0.000347
391	0.000967	-1.9e-05	0.197867	0.000967	0.000639
392	-0.000347	-0.000347	0.193758	0.00146	-0.000347
393	0.000146	0.00031	0.196388	-0.001005	-0.000347
394	-0.001991	-0.002813	0.194744	-0.002484	0.000639
395	0.002282	-0.001334	0.195073	0.001954	-0.000347
396	0.000146	-0.001662	0.195566	-0.000347	0.000474
397	-0.001005	-1.9e-05	0.197374	0.000803	-1.9e-05
398	-0.001827	-0.003306	0.195402	-0.001169	0.000639
399	0.001296	0.000146	0.197045	0.000474	-0.000183
400	-0.001005	-0.005114	0.195073	0.000803	-0.000347
401	0.001132	-0.003963	0.196388	-0.001827	-0.001334
402	0.000639	-0.003799	0.193429	-0.000183	-0.000183
403	-1.9e-05	-0.000676	0.194416	-0.001334	-0.001169
404	-0.000183	-0.000676	0.193429	0.00146	-0.001005
405	-0.000347	0.000803	0.192936	0.002118	0.000146
406	-0.000676	0.001789	0.190142	-0.000512	0.00031
407	-0.000676	0.00031	0.194251	0.00146	0.000803
408	-0.000183	0.000474	0.193758	0.001789	0.000146
409	-1.9e-05	0.000146	0.192115	-0.000347	0.000803
410	0.000474	-0.000183	0.198853	0.001296	-0.000183
411	-0.000347	-0.001169	0.191457	-0.001169	0.002118
412	0.001132	-0.003306	0.19573	-0.000512	-0.001005
413	-0.003306	-0.00232	0.194744	-0.000841	-0.000183
414	0.002447	-0.004949	0.196717	-0.002155	-0.000512
415	-0.004621	-0.002484	0.190635	-1.9e-05	-0.001169
416	0.000146	-0.001991	0.197703	-0.002484	-0.000841
417	-0.002484	0.000146	0.194251	-0.00232	0.000474
418	-0.004292	0.001625	0.192115	-0.000512	-0.001005
419	-0.000183	-0.000183	0.195895	0.000146	-0.000841
420	-0.003635	0.00294	0.196388	-0.001169	0.000639
421	-0.001334	0.002611	0.19836	-0.000183	-0.001005
422	-0.004128	0.001132	0.193922	-0.000347	-1.9e-05
423	-0.002813	-0.002484	0.195566	-0.000841	0.000146
424	0.001132	-1.9e-05	0.193758	-0.000183	0.00031
425	0.000803	-0.000347	0.197045	0.001132	-0.000676
426	-1.9e-05	-0.001005	0.194416	-0.002155	-0.000512
427	0.000967	-0.002155	0.195237	0.001132	0.000146
428	-0.004292	0.001954	0.19458	0.000803	0.000639
429	-0.000347	-0.002155	0.195237	-0.001334	-0.000183
430	-0.003799	-0.003799	0.196388	0.000803	-1.9e-05
431	-0.006264	-1.9e-05	0.196223	0.001954	0.00031
432	-0.000676	-0.005936	0.198853	0.002611	-0.001005
433	-0.000347	0.000639	0.196552	0.000639	-0.000183
434	-0.000676	-0.004949	0.19573	0.00031	-0.000347
435	0.004419	-0.001498	0.196881	-0.002484	-0.000512
436	0.005405	-1.9e-05	0.197045	-0.00232	-0.000841
437	0.00031	0.000803	0.19836	-0.003306	-0.000183
438	0.000146	-0.000347	0.194744	-0.000183	-0.000347
439	0.002118	0.002118	0.192443	-0.000347	0.001132
440	-0.000512	0.000146	0.197045	0.001954	-0.000676
441	-0.002155	-0.001498	0.192608	0.00031	0.000146
442	-1.9e-05	0.000639	0.19573	0.002282	-0.001169
443	-0.001827	0.000146	0.194416	-0.001498	0.00031
444	-0.001169	-0.002484	0.193922	0.001625	-0.000183
445	0.00031	-0.002484	0.194416	-0.001991	0.000146
446	0.001296	-0.000841	0.194087	0.001789	-0.000347
447	0.001954	-0.001991	0.194909	0.000474	-0.000676
448	-1.9e-05	0.00031	0.196059	-0.000183	0.000639
449	0.000639	-0.004949	0.196059	-0.000841	-0.000183
450	0.00031	0.00031	0.196059	0.003761	0.000146
451	-0.001334	-0.001005	0.198031	0.001132	0.000639
452	-0.000841	-0.005443	0.197867	-0.000676	0.00031
453	0.00031	-0.00232	0.197867	0.002118	-1.9e-05
454	-0.000676	-0.001334	0.191786	-0.001827	-0.000676
455	0.001132	-0.001991	0.196059	-0.001827	-0.000183
456	-0.000512	-0.000183	0.194909	0.000474	-0.000183
457	0.003104	0.00031	0.196223	-0.000841	-0.000841
458	0.003597	-0.000676	0.195073	-0.00232	-0.000676
459	-0.000841	-0.000676	0.194909	0.003104	-0.000183
460	-0.004292	-0.00232	0.191621	0.001296	0.000803
461	-0.000512	0.000803	0.196388	0.002447	-0.000347
462	-0.001169	-0.001827	0.194087	0.000146	0.001296
463	-0.002484	-0.001334	0.195237	0.004255	0.000146
464	0.001954	-0.002484	0.197538	0.003926	0.000803
465	0.00294	0.001296	0.189485	0.004583	-0.000347
466	-0.001662	-0.002155	0.196552	0.000639	-0.000841
467	-0.00232	0.000146	0.199182	-0.000676	0.000146
468	0.002611	-0.000183	0.197374	-0.002155	-0.001005
469	-0.000512	-0.004785	0.198853	-0.001005	-0.000676
470	0.002447	0.001625	0.202633	-0.002155	-0.000512
471	-0.000183	0.001789	0.197045	-0.002155	0.00031
472	0.003104	0.000146	0.198853	0.000639	-0.000347
473	-0.001827	0.001296	0.198196	0.000474	0.000474
474	0.002611	0.000803	0.19836	0.000146	0.000967
475	-1.9e-05	-0.000183	0.19573	0.001954	-0.000183
476	0.002282	0.00409	0.188827	0.001789	0.000803
477	-0.005443	-0.004949	0.193594	-0.001169	0.000474
478	0.001625	0.000474	0.197045	0.002447	-0.000512
479	0.001296	-0.001498	0.196552	0.001789	0.000146
480	-0.001827	-0.001169	0.192936	0.001132	-1.9e-05
481	-0.001662	-0.000347	0.195402	-1.9e-05	0.000639
482	-0.001334	-0.000347	0.194416	-0.000676	0.000146
483	0.002118	-0.003635	0.198853	0.000474	-0.000183
484	0.001132	0.005076	0.196881	0.000474	0.000474
485	0.000474	-0.000183	0.19721	0.00031	-1.9e-05
486	-0.00232	-0.000676	0.196223	0.001954	0.000146
487	-0.00347	0.007049	0.186033	0.002447	-0.000512
488	-0.001991	-0.002484	0.190964	-0.001498	-0.001169
489	0.001954	0.000474	0.191786	0.002447	-0.000183
490	0.001132	-0.001169	0.185047	-0.000841	-0.000183
491	0.003104	0.000474	0.166968	-0.000841	-0.001334
492	-0.000347	-0.001169	0.152669	-1.9e-05	0.000474
493	-0.002813	0.000967	0.148396	0.000146	-0.000512
494	0.000639	-0.000676	0.076407	0.002118	0.000803
495	0.001132	0.000967	0.058985	0.004255	0.000146
496	0.000146	-0.001169	0.021019	0.000803	0.000803
497	-0.000512	-0.001498	-0.000512	0.001789	0.000639
498	-0.000347	0.008528	-0.004292	0.00146	0.000967
499	-0.001334	-0.000676	0.011486	-1.9e-05	-1.9e-05
500	0.001132	-0.003963	0.019211	0.002611	-0.000676
501	0.000803	-0.001169	0.024799	0.000146	-0.000347
502	-0.000183	0.002282	0.031538	-0.002648	-0.000183
503	-0.001169	-0.001827	0.000146	-0.001498	0.000474
504	0.000803	-0.002155	0.000639	-0.001169	-0.000347
505	-0.000512	0.000967	0.000146	-0.001334	0.001625
506	0.00031	0.000803	0.004419	0.001789	-1.9e-05
507	0.00409	-0.001169	0.010171	-0.004785	-1.9e-05
508	0.00146	0.000803	0.018061	0.000639	0.00031
509	0.001789	0.005405	0.013787	0.001296	-0.000512
510	0.00031	-0.000183	0.023813	0.001789	-0.000183
511	0.00031	-0.001334	0.033839	0.000474	-0.000183
512	0.000146	0.000803	0.036633	-0.002813	0.00031
513	-0.000841	0.000639	0.042221	0.002118	-0.000841
514	-0.000347	0.002282	0.051261	-0.001991	-0.000183
515	-0.000183	-0.000347	0.058492	0.001296	0.00031
516	-0.000347	0.002611	0.061122	0.000967	0.000639
517	-0.000512	0.001132	0.071805	0.005405	0.000146
518	-0.000512	0.002118	0.073613	-0.002813	0.00031
519	-0.000347	0.000639	0.078215	-0.001662	0.00031
520	0.000967	0.005405	0.079037	-0.000183	0.00031
521	0.000146	-0.000676	0.090378	-0.000512	-0.000347
522	0.000474	-0.001991	0.094815	-0.001498	-1.9e-05
523	0.000639	0.000967	0.097774	-0.004128	-0.001662
524	-0.000183	-0.001005	0.101061	-0.003306	-0.000183
525	-1.9e-05	-0.000676	0.105827	-0.001991	-0.001334
526	-0.000347	-0.003306	0.107306	0.00031	-0.000347
527	-0.000183	0.000474	0.110593	0.001954	0.000803
528	-0.000512	-0.000183	0.114374	0.00294	0.00031
529	-0.000183	0.002447	0.115853	0.001954	0.000639
530	0.00031	0.000803	0.122592	0.000967	0.000803
531	0.000474	0.002118	0.118483	-0.000676	0.000474
532	-1.9e-05	-0.000512	0.126043	0.003268	-0.000347
533	0.000639	-0.000347	0.128837	0.00146	-1.9e-05
534	0.000474	-0.002155	0.132946	0.002282	-0.001005
535	0.00031	-0.00232	0.133768	0.001625	-0.000183
536	-0.00232	-0.001005	0.138205	0.000967	-0.001005
537	0.00031	-0.005936	0.140342	-0.002155	-0.000512
538	-0.000183	0.000474	0.145602	-0.000347	0.000146
539	-0.000512	0.000146	0.143958	-0.000347	0.000967
540	-0.000183	-0.002155	0.14971	-0.001827	0.000146
541	0.000146	-0.001169	0.151354	0.000474	0.000474
542	0.000146	-0.003142	0.151847	0.002118	-0.000183
543	0.000474	0.00031	0.149217	-0.000841	-0.000183
544	0.000474	-0.000347	0.152176	0.001296	-0.001334
545	0.000474	-0.001827	0.155627	0.001625	-0.000183
546	-1.9e-05	0.001132	0.088241	0.001132	-0.000183
547	-0.000183	-0.002484	0.100568	0.000967	-0.001005
548	-0.000512	-0.002484	0.097609	-1.9e-05	0.000474
549	-0.000347	0.001625	0.10632	0.003761	-0.000512
550	-0.001169	-0.001498	0.107306	-0.003799	0.00031
551	0.000967	-0.003142	0.112894	0.000146	-1.9e-05
552	-0.000841	-0.003799	0.113881	-0.001169	0.000967
553	0.00031	-0.004949	0.116346	-0.000347	0.000967
554	-1.9e-05	-0.002813	0.119469	-0.001991	0.00146
555	0.000474	-0.001827	0.122427	0.00146	-0.000676
556	0.000474	-0.001334	0.126372	-0.003306	-0.000841
557	0.000146	-0.000841	0.131138	-0.001005	-0.000347
558	-1.9e-05	-0.002648	0.132946	-0.001334	-0.001334
559	-0.000183	-0.002484	0.129166	0.000146	-0.000183
560	-0.000347	-0.000841	0.13837	0.002447	-0.000183
561	-0.000347	0.002118	0.136891	0.002775	0.00031
562	-0.000183	-0.000183	0.133439	0.003597	0.000967
563	-1.9e-05	0.001132	0.132289	-1.9e-05	0.001132
564	0.00031	-0.010045	0.135904	0.00409	0.00031
565	0.000474	0.000803	0.128673	-0.001662	0.000803
566	0.00031	0.005405	0.117168	-0.003963	-0.000512
567	0.000146	0.000639	0.110922	0.000474	0.000146
568	0.00031	0.001625	0.116346	-0.005607	-1.9e-05
569	-0.000347	-0.001498	0.119304	-0.004128	-0.000347
570	-0.000183	0.000803	0.117003	-0.001334	-1.9e-05
571	-0.000676	0.001625	0.120126	-0.000512	0.000146
572	-0.000512	-0.000347	0.12933	0.001132	0.000639
573	-0.000512	-0.001005	0.12933	-0.004456	0.000146
574	0.00031	-0.000183	0.132617	0.00031	0.000474
575	0.000146	-0.013167	0.135904	-0.000676	-0.000512
576	0.000474	-0.002155	0.134261	0.000967	-0.000347
577	0.000474	-0.001827	0.139849	0.002118	-0.001005
578	0.000474	0.000803	0.141164	-0.001827	-0.000347
579	-1.9e-05	-0.000347	0.145108	0.000803	-0.000347
580	-0.000183	0.001132	0.140178	-0.000347	-1.9e-05
581	-0.000183	-0.000183	0.142807	0.000803	-0.000512
582	-0.000512	0.000474	0.150039	0.000967	0.000639
583	-0.000347	-0.000183	0.148067	0.00672	-1.9e-05
584	-0.000347	0.002118	0.150532	0.001132	0.000639
585	0.000146	0.001789	0.153491	0.003104	-1.9e-05
586	0.000474	-0.01366	0.152176	-0.003635	0.000803
587	-0.002484	-0.000676	0.156613	-0.003306	-1.9e-05
588	-1.9e-05	-0.000676	0.156942	0.002611	-0.000512
589	0.002282	-0.001827	0.159243	-0.000347	-0.000183
590	0.001625	-0.003963	0.162037	-0.001005	-0.001005
591	-0.001498	-0.001991	0.158914	0.000474	-0.000347
592	0.000639	-0.001169	0.158257	-0.000347	-0.000512
593	-0.001498	0.000967	0.159901	0.001132	0.000146
594	0.001789	0.00031	0.165653	0.001954	-0.000183
595	0.001789	-0.002648	0.162695	-0.000183	0.000639
596	-0.000676	0.001954	0.164503	0.002447	-0.000183
597	-0.001991	-0.00988	0.166146	0.003761	0.000474
598	0.000146	-0.003306	0.138863	-0.002813	-0.001005
599	-0.002648	-0.001662	0.007706	0.001296	-0.000183
600	0.000146	0.001625	0.012965	0.000639	-0.000347
601	0.001132	-0.004456	0.023649	-0.001005	0.000146
602	-0.001005	0.00031	0.030716	0.002611	-0.000841
603	-0.002813	-0.005114	0.034332	-0.000512	0.001132
604	-0.002813	-0.000183	0.044193	0.00294	-1.9e-05
605	-0.001827	-0.001169	0.048302	0.001132	-1.9e-05
606	-0.000512	-0.000512	0.051425	0.000967	0.000803
607	-0.002155	-0.003306	0.059643	0.000803	0.00031
608	-0.005443	-0.006264	0.063916	0.000474	0.000474
609	-0.000347	-0.003799	0.067039	-0.000512	-0.000676
610	-0.001991	0.001954	0.07197	-1.9e-05	-0.001169
611	0.001789	0.00031	0.081174	-0.001169	-0.000183
612	0.004583	-0.001662	0.076407	-0.000676	-0.000512
613	0.001296	0.001132	0.08216	0.001296	-0.000512
614	-0.000347	-0.000347	0.087748	-0.003799	0.000803
615	-0.000183	0.001625	0.092021	0.001132	-0.000183
616	0.00294	0.003104	0.095966	-0.00232	0.000146
617	0.001296	0.000146	0.099089	-0.002155	0.00031
618	0.000967	-1.9e-05	0.09991	-0.002155	0.000474
619	-0.001334	-0.004621	0.104677	-0.001334	0.00031
620	-0.002813	-0.003799	0.104841	0.002118	-0.000676
621	-0.002484	-0.000512	0.105663	-0.000183	0.000639
622	-0.000512	-0.002155	0.110758	-0.004292	-0.000512
623	0.000146	-0.000676	0.071312	0.00031	-1.9e-05
624	0.001132	-0.001827	0.057342	-1.9e-05	0.000474
625	-0.000676	0.000146	0.065724	0.003433	-0.000676
626	0.00031	0.001132	0.066875	-1.9e-05	-0.000512
627	0.000967	-1.9e-05	0.067039	0.003761	0.000639
628	0.003268	0.003433	0.057013	0.000639	-0.000347
629	-0.001169	-0.001991	0.05915	-1.9e-05	0.000639
630	-0.001498	-0.000347	0.069504	-0.001662	-0.000347
631	0.00409	-0.002977	0.059314	-0.001498	-1.9e-05
632	0.00294	0.000146	0.067203	0.005405	-0.001005
633	0.002282	0.000146	0.075092	-0.002813	-0.000841
634	0.005734	-0.000841	0.073613	-0.001991	-0.000512
635	0.001132	-0.001498	0.077229	-0.000841	-0.000676
636	-0.000841	0.001954	0.083968	-0.001334	0.00031
637	0.001296	-0.001169	0.087419	0.002447	0.00031
638	-0.001334	-0.000347	0.092186	0.009021	0.001132
639	0.000967	-0.000676	0.096623	0.002447	-1.9e-05
640	-0.00232	-0.000347	0.097116	0.00031	0.000146
641	-0.000841	-0.002155	0.102376	0.002775	0.00031
642	-0.003635	0.001625	0.10517	0.000639	0.000474
643	0.002282	-0.002813	0.114538	0.002118	-0.000347
644	0.000967	-0.001827	0.113223	0.002611	-0.000841
645	0.002118	-0.000347	0.117825	0.000146	-0.000841
646	0.000474	-0.002648	0.100896	-0.003142	-0.000676
647	0.005076	0.002775	0.105498	0.003268	-0.000512
648	0.000803	-0.001991	0.108293	-0.003142	0.000146
649	0.000146	-0.001334	0.111908	0.001954	-0.000183
650	0.003104	-0.001662	0.11536	0.000639	-0.000183
651	0.000146	-0.000183	0.114867	-0.000183	0.000639
652	-0.000676	-0.003963	0.120126	-0.001991	-0.000841
653	0.001296	-1.9e-05	0.119633	0.000474	-0.000676
654	-0.001005	0.000146	0.122427	0.003433	-0.000347
655	-0.001169	-0.002813	0.122263	-0.001169	-0.000347
656	0.003268	0.000639	0.128015	0.000474	0.00031
657	-0.002155	0.001132	0.127522	-0.000347	-0.000512
658	0.000639	0.001625	0.132453	0.002611	-0.000841
659	0.001132	0.000474	0.129001	0.000967	0.000967
660	0.000146	0.00031	0.13196	0.002118	0.001132
661	-0.000183	0.000146	0.134754	-0.001827	-1.9e-05
662	0.000474	-1.9e-05	0.137877	-0.001827	0.00031
663	0.00031	-0.001662	0.138863	-0.002648	-1.9e-05
664	0.000803	-0.001005	0.129001	-0.001005	-1.9e-05
665	-0.002155	-0.001991	0.129823	0.002118	-0.000347
666	-0.001334	-0.001827	0.129001	-1.9e-05	-0.00232
667	0.003433	-0.001991	0.132782	-0.005114	-0.001498
668	-0.003799	-0.002155	0.131631	-0.003963	-0.001005
669	0.002118	0.002447	0.136069	-0.001334	-0.000676
670	-0.001169	0.001625	0.137548	0.000967	0.000803
671	0.000474	0.000639	0.142479	-0.000183	-0.000183
672	0.001954	0.002611	0.133768	0.000803	0.000639
673	-0.000347	0.001789	0.140342	0.000639	0.00031
674	-1.9e-05	-0.000676	0.139192	0.000474	0.001625
675	0.001789	-0.001005	0.139356	0.002282	-0.000347
676	-0.001498	0.000474	0.139849	0.004748	0.00031
677	-0.001005	-0.000347	0.140342	0.003926	-0.001334
678	0.001296	0.000803	0.129001	-0.004128	-0.000347
679	0.000146	-0.002155	0.130809	-0.001334	-0.000676
680	0.00031	-0.001169	0.134754	-0.000512	-0.001005
681	0.002611	0.001132	0.139849	0.003268	-0.000512
682	0.00294	-0.003142	0.139027	-0.003963	0.000146
683	0.000967	-0.000841	0.142972	-0.004128	-0.000183
684	0.001625	-0.000676	0.142972	-0.000347	-1.9e-05
685	0.001296	-0.001498	0.143794	-0.001498	0.000474
686	0.002118	-0.001991	0.145273	0.001789	-0.000676
687	-0.000676	-0.001169	0.139356	0.002611	0.000474
688	0.00294	-0.001827	0.126865	-0.001498	-0.000512
689	-0.001498	0.000146	0.121605	-0.002813	0.000146
690	-0.000183	0.000639	0.123249	0.00031	-0.001169
691	-0.000676	-0.000183	0.123413	-0.001827	0.00031
692	0.000967	0.002282	0.128344	0.000639	0.002775
693	-0.00347	-0.000183	0.122592	0.002282	-0.001498
694	0.001789	0.000967	0.122592	0.000803	-0.000183
695	0.001132	0.000474	0.124399	-0.000676	0.002447
696	-0.00347	-0.002484	0.129823	-0.000183	0.000474
697	-1.9e-05	-0.004621	0.13311	0.001625	-0.002977
698	-0.003963	-0.001005	0.132946	-0.001005	0.00031
699	-0.000512	-0.001991	0.13837	-0.000347	-0.000183
700	-0.003306	-0.005278	0.139685	-0.002648	-0.000183
701	-0.000183	-0.002813	0.143136	-0.001005	0.001132
702	-0.002813	-0.000512	0.144615	0.000146	0.000967
703	-0.000676	-0.000183	0.147245	0.000639	-1.9e-05
704	-0.006264	0.002282	0.147409	-0.000183	-0.000841
705	0.003761	0.000146	0.149217	0.001625	-0.000512
706	0.002282	0.00031	0.152669	0.00031	-0.000347
707	-0.001334	-0.000841	0.151847	0.002447	-0.000841
708	-0.001662	-0.000512	0.151518	0.002775	-0.001169
709	-0.00347	0.001625	0.154641	0.001954	0.00031
710	0.001789	-0.001169	0.153326	0.00146	-0.000676
711	-0.001334	0.002447	0.153655	0.00146	-0.001169
712	-0.000676	-0.002484	0.158257	-0.000347	0.001296
713	-0.001827	0.002118	0.162859	0.00031	-0.001005
714	0.001296	-0.001334	0.162202	-0.000841	-0.001334
715	-0.003963	-1.9e-05	0.158421	0.000639	0.00146
716	-0.002484	-0.001827	0.154641	0.001954	-0.005936
717	-0.001169	-0.002813	0.145766	0.000146	0.000803
718	-0.001169	-0.000512	0.125714	0.000639	-0.000347
719	-0.002648	-0.003306	0.119304	-0.001169	-0.001827
720	-0.000512	-0.000347	0.124893	0.000639	-0.002648
721	0.00031	-0.00232	0.124564	-0.00232	0.00146
722	-0.000347	0.000967	0.128837	-0.00232	-0.004292
723	-1.9e-05	0.003597	0.128344	-0.002155	-0.001498
724	0.000803	0.002447	0.134918	0.001132	0.000803
725	-0.001169	0.002118	0.130481	0.00146	-0.003306
726	-0.001005	0.002118	0.128837	-0.001005	-1.9e-05
727	0.000474	0.000803	0.133932	0.00146	-0.000512
728	-0.001662	-0.004292	0.13459	0.000639	0.000146
729	-0.000512	-0.005936	0.13952	-1.9e-05	-0.003142
730	-0.007086	-0.003963	0.138534	-1.9e-05	0.00031
731	0.003597	-0.004785	0.143958	-0.004128	-0.000183
732	-0.001169	-0.00347	0.143794	-0.003142	0.000474
733	-0.000841	-0.002484	0.145437	-0.001827	-0.002155
734	0.000146	-0.002484	0.148231	0.000146	0.000803
735	0.00031	-0.000676	0.15119	-0.000347	-0.001005
736	-1.9e-05	-0.000183	0.148889	-0.001334	0.003104
737	0.000474	0.001296	0.149053	0.003597	-0.001005
738	-0.000512	0.00031	0.155134	-0.000841	-0.000347
739	0.000639	0.000474	0.158421	0.003597	-0.000841
740	0.00146	-0.000512	0.156285	0.005076	-0.002484
741	0.002282	0.00031	0.148231	0.002611	-0.000676
742	0.000967	-0.002484	0.141493	-0.001005	-0.000512
743	0.000803	0.000474	0.109279	0.00146	0.000803
744	-0.000676	-1.9e-05	0.000474	-0.000841	-0.000183
745	-1.9e-05	-0.000512	0.00146	-0.000183	-0.000512
746	0.001296	0.000474	0.008363	-0.000183	-0.001334
747	0.000639	-0.000183	0.021841	0.000146	-0.000347
748	-0.001827	-0.000841	0.019375	0.000967	-0.000183
749	0.000146	-0.003306	0.029072	-0.00232	-0.000512
750	-0.002977	-0.004456	0.038769	0.003104	-0.000183
751	0.001954	0.001296	0.037126	0.00409	0.005898
752	0.010007	0.007706	0.047645	0.013623	0.008857
753	0.016417	0.014938	0.048795	0.016746	0.023156
754	0.027265	0.025128	0.057013	0.02595	0.027265
755	0.030552	0.031538	0.000639	0.031045	0.028415
756	0.039427	0.042057	0.000474	0.037948	0.03614
757	0.048467	0.043536	0.000146	0.047809	0.034825
758	0.049946	0.046987	0.000474	0.04748	0.039263
759	0.056849	0.058164	-0.000512	0.052575	0.041892
760	0.061615	0.061615	-0.000347	0.06408	0.047316
761	0.066875	0.067532	-0.000512	0.067861	0.045837
762	0.071641	0.07197	-0.000676	0.073942	0.045015
763	0.07953	0.077065	-0.000347	0.081009	0.045344
764	0.079201	0.081502	0.000146	0.086104	0.001789
765	0.088898	0.085611	0.00031	0.084625	-0.000347
766	0.087748	0.091035	0.000474	0.093665	0.00031
767	0.097609	0.093007	0.000639	0.100075	0.001625
768	0.101554	0.101225	0.000639	0.10139	0.003597
769	0.102376	0.104184	0.000146	0.104348	0.000967
770	0.107964	0.105827	-1.9e-05	0.104512	0.001132
771	0.112566	0.112566	-0.000183	0.111415	0.000146
772	0.112237	0.114209	-0.000512	0.113059	0.000474
773	0.112894	0.118318	-0.000512	0.115689	0.000639
774	0.119633	0.120784	-0.000183	0.115524	-1.9e-05
775	0.121441	0.125714	0.000146	0.123413	-0.000183
776	0.128344	0.12555	0.000146	0.126372	-0.000512
777	0.127194	0.131138	0.000146	0.128837	0.004583
778	0.132617	0.139192	0.000474	0.130974	0.005734
779	0.133603	0.142479	0.00031	0.133275	0.007049
780	0.132617	0.138041	-1.9e-05	0.137712	0.011158
781	0.138699	0.138534	-0.000183	0.135411	0.010664
782	0.142479	0.141657	-1.9e-05	0.144287	0.008857
783	0.140835	0.141164	-0.000347	0.146423	0.010007
784	0.143958	0.146588	-0.000347	0.147409	0.014116
785	0.147245	0.147903	-0.000347	0.14971	0.023156
786	0.14971	0.149875	-1.9e-05	0.148396	0.019047
787	0.149546	0.149546	0.000474	0.15119	0.021676
788	0.153655	0.154312	0.00031	0.154477	0.028744
789	0.155299	0.154806	0.00031	0.157107	0.029894
790	0.157435	0.160065	0.000639	0.152011	0.035318
791	0.161544	0.160394	0.000146	0.156285	0.041728
792	0.157107	0.159408	-0.000183	0.157764	0.044686
793	0.162366	0.162202	-0.000347	0.163516	0.04896
794	0.162037	0.16253	-0.000676	0.16138	0.052411
795	0.160229	0.163845	-0.000512	0.163516	0.057013
796	0.163023	0.166475	-0.000347	0.161051	0.062601
797	0.168283	0.164667	0.000146	0.169926	0.066217
798	0.165489	0.168118	0.000146	0.165817	0.069669
799	0.166804	0.16894	-1.9e-05	0.169598	0.073942
800	0.166146	0.168283	0.000146	0.170255	0.075092
801	0.127687	0.172556	0.000639	0.173542	0.078051
802	0.112566	0.170748	-0.000841	0.17272	0.081174
803	0.110758	0.174528	-1.9e-05	0.172227	0.080681
804	0.114867	0.173707	-0.000512	0.173542	0.082982
805	0.10895	0.174693	-0.000347	0.175186	0.087748
806	0.096788	0.159243	-0.000347	0.175515	0.087584
807	0.082982	0.011158	-0.000512	0.174857	0.091035
808	0.085611	0.014445	0.000474	0.177487	0.092186
809	0.082982	0.022991	-1.9e-05	0.176501	0.090213
810	0.085611	0.028086	0.001954	0.178966	0.094651
811	0.071312	0.035975	0.00031	0.179459	0.096294
812	0.0603	0.041892	0.003268	0.180774	0.096623
813	0.056191	0.049288	-1.9e-05	0.179952	0.098924
814	0.039591	0.056027	0.00146	0.183897	0.101718
815	0.022663	0.057342	-0.000841	0.183404	0.104019
816	0.014445	0.067203	0.000146	0.183732	0.105663
817	0.012144	0.06934	-0.000841	0.185376	0.105005
818	0.01428	0.077558	-0.000512	0.185047	0.111415
819	0.011158	0.079859	0.00031	0.186526	0.110758
820	0.011322	0.08594	0.00031	0.183075	0.108786
821	0.008035	0.088898	0.000474	0.184718	0.110265
822	0.010171	0.092843	0.001296	0.182417	0.108293
823	0.006227	0.098924	0.000967	0.185869	0.108786
824	0.008528	0.102704	-1.9e-05	0.186198	0.113059
825	0.010171	0.104841	-1.9e-05	0.186855	0.107471
826	0.005241	0.110922	-0.000512	0.186526	0.113059
827	0.007706	0.116182	-0.000347	0.189814	0.113881
828	0.006227	0.117168	-0.000676	0.187841	0.113552
829	0.009843	0.117496	-0.000512	0.188992	0.115031
830	0.004912	0.118647	0.00031	0.189814	0.115689
831	0.00409	0.124728	0.000146	0.191786	0.11799
832	0.005405	0.12555	0.00031	0.19458	0.115853
833	0.008035	0.130316	0.000474	0.194416	0.120619
834	0.006556	0.133439	0.00031	0.191293	0.12177
835	0.008199	0.138534	0.000146	0.194744	0.119469
836	0.009021	0.136069	-0.000183	0.19195	0.120948
837	0.006062	0.13952	-0.000512	0.193265	0.119633
838	0.010007	0.140506	-0.000347	0.19195	0.118976
839	0.008528	0.144287	-0.000347	0.190964	0.12292
840	0.007377	0.144944	-0.000512	0.189978	0.122098
841	0.00787	0.144287	0.000146	0.187513	0.123578
842	0.00146	0.147245	0.000146	0.190471	0.123906
843	0.000967	0.148889	0.000474	0.191457	0.125714
844	0.006227	0.150861	0.00031	0.195237	0.127687
845	0.009021	0.152669	0.000146	0.192115	0.126372
846	0.007542	0.155956	-0.000183	0.192279	0.127851
847	0.008857	0.155463	-0.000347	0.193265	0.129166
848	0.00672	0.158586	-0.000512	0.197374	0.129988
849	0.010336	0.152998	-0.000347	0.197538	0.127687
850	0.010007	0.160065	-0.000512	0.197045	0.133768
851	0.007706	0.160558	-0.000512	0.195073	0.135083
852	0.009514	0.159901	0.000474	0.19721	0.134261
853	0.008857	0.162202	0.00031	0.191293	0.134918
854	0.010171	0.161215	0.000474	0.193758	0.136891
855	0.009185	0.164174	0.002282	0.19573	0.138699
856	0.007706	0.162859	-0.001334	0.191293	0.140178
857	0.00787	0.163845	0.000474	0.197867	0.142479
858	0.007542	0.166311	0.001132	0.196552	0.144451
859	0.009514	0.166804	0.003268	0.19721	0.14971
860	0.006227	0.16779	0.004583	0.195073	0.146752
861	0.007706	0.169598	0.005734	0.19721	0.152505
862	0.007706	0.171077	-0.000347	0.19836	0.151683
863	0.007049	0.169433	0.000967	0.196881	0.156942
864	0.010336	0.169598	0.000474	0.196223	0.156778
865	0.006556	0.172556	0.004583	0.196552	0.158914
866	0.003926	0.171077	0.004912	0.195566	0.160065
867	0.006391	0.173707	0.001132	0.197867	0.163352
868	0.004912	0.173214	0.00031	0.196388	0.163845
869	0.003597	0.175021	-0.000347	0.196223	0.165982
870	0.007049	0.172227	-0.000183	0.198031	0.168118
871	0.005734	0.17535	0.001132	0.193101	0.170419
872	0.006062	0.176665	0.003597	0.19573	0.167461
873	0.00409	0.1742	0.004255	0.19573	0.170255
874	0.008363	0.173871	0.001789	0.195566	0.170913
875	0.005405	0.173049	0.00146	0.197045	0.17157
876	0.001954	0.173214	0.002118	0.196388	0.174035
877	0.004583	0.168612	0.000967	0.196552	0.174035
878	0.007049	0.176501	0.004419	0.196881	0.175679
879	0.005898	0.177322	0.002118	0.195895	0.174693
880	0.001625	0.177815	0.00031	0.196881	0.17798
881	0.002775	0.176008	-0.000512	0.199346	0.173871
882	0.005405	0.177322	-0.000347	0.203126	0.17913
883	0.005241	0.177815	-1.9e-05	0.19836	0.179788
884	0.005734	0.17913	0.000474	0.199346	0.180774
885	0.005569	0.176501	0.000146	0.201154	0.177487
886	0.005405	0.178473	0.000146	0.196717	0.181596
887	0.006227	0.178144	0.000803	0.198689	0.183075
888	0.004748	0.176172	0.000639	0.196717	0.181267
889	0.005405	0.179295	0.000803	0.198689	0.178966
890	0.003268	0.178144	0.001625	0.19721	0.183732
891	0.003597	0.176994	-0.000347	0.197538	0.185047
892	0.002611	0.175186	0.000146	0.200004	0.185869
893	0.00672	0.179295	0.000146	0.199182	0.186198
894	0.00787	0.175021	-0.001334	0.19836	0.183897
895	0.006556	0.178802	0.000474	0.197867	0.1908
896	0.006391	0.173378	0.00031	0.197703	0.189156
897	0.00672	0.175515	0.00031	0.196223	0.189156
898	0.003104	0.176994	0.000474	0.198689	0.188827
899	0.006556	0.176172	0.000803	0.197703	0.191128
900	0.004748	0.176501	0.000639	0.200168	0.186526
901	0.002282	0.180281	0.00031	0.19721	0.188992
902	0.005898	0.179295	-0.000347	0.19458	0.187348
903	0.007049	0.179295	-0.000512	0.196881	0.188663
904	0.00409	0.180445	-0.000347	0.197374	0.190471
905	0.001954	0.179952	-0.000512	0.19573	0.189485
906	0.007542	0.18176	-1.9e-05	0.197703	0.194087
907	0.004255	0.177651	0.000146	0.194744	0.188499
908	0.002282	0.178144	0.000146	0.195237	0.193758
909	0.003268	0.173707	0.00031	0.196881	0.193594
910	0.005405	0.176829	-0.001991	0.197374	0.197538
911	0.005898	0.175186	0.006556	0.195237	0.192443
912	0.00409	0.178144	0.010007	0.200004	0.195566
913	0.005734	0.176829	0.00672	0.195073	0.191457
914	0.006227	0.178309	0.006062	0.19836	0.191621
915	0.007542	0.179623	0.014773	0.200168	0.194744
916	0.003926	0.17913	0.013294	0.194744	0.191786
917	0.006391	0.179952	0.010171	0.202633	0.193922
918	0.004255	0.178802	0.005241	0.19836	0.193429
919	0.005076	0.179295	0.00294	0.195237	0.193429
920	0.006227	0.17798	-0.000512	0.197538	0.190471
921	0.005569	0.17913	0.002282	0.197703	0.196717
922	0.005241	0.173871	0.005569	0.195566	0.191293
923	0.003433	0.179459	0.006391	0.19721	0.194251
924	0.004748	0.176172	0.00672	0.195895	0.194251
925	0.005076	0.175843	0.00031	0.200004	0.194744
926	0.00409	0.176172	-0.000512	0.200332	0.195566
927	0.003104	0.178473	-1.9e-05	0.197867	0.196552
928	0.006556	0.176665	0.000639	0.198524	0.198031
929	0.005076	0.175679	0.006227	0.200004	0.198689
930	0.003926	0.1742	0.006227	0.197703	0.195237
931	0.003433	0.169269	0.010829	0.199018	0.196059
932	0.004912	0.173378	0.000474	0.205099	0.196388
933	0.000146	0.176336	0.000474	0.197867	0.196059
934	0.003104	0.176336	0.007049	0.200004	0.19458
935	0.004419	0.175186	0.011815	0.196223	0.195895
936	0.001625	0.176172	0.022498	0.199018	0.192279
937	0.005898	0.178309	0.028744	0.200004	0.192608
938	0.006062	0.176665	0.034003	0.199346	0.19721
939	0.003433	0.176172	0.041399	0.197538	0.194087
940	0.004583	0.173049	0.046659	0.200497	0.19458
941	0.005405	0.170748	0.050768	0.200004	0.197045
942	0.002118	0.160887	0.056684	0.203948	0.197374
943	0.00787	0.161544	0.060629	0.199839	0.199511
944	0.007049	0.162037	0.066217	0.198853	0.197538
945	0.007542	0.160722	0.070983	0.199346	0.197703
946	0.005898	0.161051	0.078708	0.196223	0.199018
947	0.008035	0.158093	0.084461	0.199839	0.197703
948	0.001625	0.14215	0.067039	0.199346	0.199346
949	0.007213	0.103362	0.061615	0.198524	0.196388
950	0.004912	0.08709	0.059314	0.195566	0.19721
951	0.004912	0.058657	0.058821	0.199182	0.196388
952	0.005734	0.011815	0.058328	0.196223	0.197045
953	0.006227	0.009021	0.05915	0.196717	0.196717
954	0.000803	0.013459	0.064245	0.19721	0.19836
955	0.005241	0.009843	0.069176	0.198196	0.196388
956	0.006062	0.015266	0.073613	0.199675	0.195402
957	0.003926	0.024799	0.079366	0.19721	0.19836
958	0.002447	0.027758	0.080845	0.198196	0.197045
959	0.003761	0.038605	0.084954	0.200004	0.198689
960	0.004255	0.04107	0.088241	0.199675	0.193594
961	0.00294	0.05011	0.091035	0.199675	0.199511
962	0.005569	0.050768	0.098595	0.201483	0.197538
963	0.002775	0.058657	0.100896	0.195895	0.199839
964	0.00409	0.062766	0.107306	0.199839	0.20099
965	0.002282	0.070983	0.111087	0.197867	0.19836
966	0.002775	0.07312	0.117003	0.197703	0.196059
967	0.003926	0.077065	0.116839	0.198853	0.199675
968	0.004748	0.08331	0.123578	0.195402	0.198524
969	0.004255	0.085611	0.127194	0.19836	0.196717
970	0.005241	0.089885	0.125386	0.19573	0.198196
971	0.005898	0.093993	0.127522	0.19573	0.192115
972	0.006062	0.100732	0.118811	0.197045	0.200497
973	0.006391	0.098595	0.118483	0.199018	0.196223
974	0.005241	0.104512	0.122263	0.197703	0.200825
975	0.004419	0.107306	0.119797	0.199346	0.195566
976	0.003433	0.113716	0.12292	0.198524	0.199839
977	0.005898	0.111251	0.129988	0.200004	0.199182
978	0.002447	0.116675	0.129166	0.19721	0.19721
979	0.006062	0.120784	0.13574	0.198853	0.198196
980	0.006227	0.118976	0.136233	0.200332	0.200661
981	0.008692	0.123578	0.140506	0.200825	0.196552
982	0.005569	0.12818	0.135411	0.200004	0.195237
983	0.005898	0.129659	0.128508	0.199018	0.19721
984	0.007377	0.127029	0.127522	0.197374	0.199182
985	0.006884	0.132617	0.132453	0.200661	0.198524
986	0.007049	0.13311	0.130316	0.19721	0.200168
987	0.005076	0.131796	0.131302	0.197045	0.199346
988	0.005569	0.135411	0.135904	0.197045	0.19195
989	0.006227	0.137384	0.135411	0.198524	0.199182
990	0.006391	0.13952	0.139356	0.198524	0.194416
991	0.001296	0.146423	0.138863	0.20214	0.197045
992	0.007213	0.141986	0.141657	0.198196	0.197045
993	0.008199	0.145602	0.141986	0.197045	0.19721
994	0.009678	0.148396	0.14593	0.197867	0.197867
995	0.00672	0.147738	0.144122	0.199346	0.200004
996	0.007213	0.149217	0.150204	0.198524	0.199675
997	0.003926	0.152176	0.15234	0.198689	0.199346
998	0.008035	0.14971	0.15234	0.198031	0.202962
999	0.008857	0.152505	0.154641	0.197867	0.197703
1000	0.006556	0.151025	0.156778	0.197374	0.199511
1001	0.005241	0.153326	0.159736	0.196388	0.197045
1002	0.007706	0.157271	0.164996	0.198524	0.198196
1003	0.007213	0.156449	0.161051	0.196388	0.197374
1004	0.008199	0.156778	0.16516	0.19836	0.199182
1005	0.011979	0.161544	0.167132	0.199346	0.199346
1006	0.010993	0.159901	0.162695	0.19836	0.199018
1007	0.014445	0.160229	0.168118	0.19836	0.197045
1008	0.008857	0.163023	0.16401	0.199675	0.198524
1009	0.01576	0.16253	0.164996	0.199346	0.201483
1010	0.008035	0.167297	0.165653	0.201154	0.198853
1011	0.012637	0.165817	0.168283	0.198689	0.198031
1012	0.013294	0.165489	0.168118	0.199511	0.198689
1013	0.012472	0.167461	0.165324	0.202305	0.19721
1014	0.008035	0.166804	0.152176	0.198031	0.198689
1015	0.00935	0.166804	0.153984	0.199182	0.198031
1016	0.012801	0.166804	0.152833	0.20214	0.200497
1017	0.013459	0.168447	0.155463	0.204441	0.200332
1018	0.012308	0.167625	0.155956	0.194744	0.198031
1019	0.01428	0.169269	0.158586	0.196881	0.20214
1020	0.015595	0.170748	0.160558	0.197045	0.203455
1021	0.017239	0.169598	0.162037	0.195237	0.195073
1022	0.022005	0.165817	0.164174	0.195895	0.198031
1023	0.019704	0.172063	0.158421	0.197538	0.197045
1024	0.024635	0.172227	0.168283	0.201483	0.194744
1025	0.021676	0.174857	0.160722	0.197538	0.198196
1026	0.026607	0.176665	0.163845	0.200825	0.196388
1027	0.032524	0.172392	0.166311	0.200825	0.198689
1028	0.036797	0.176994	0.167132	0.20099	0.197538
1029	0.042057	0.173542	0.168612	0.199346	0.197374
1030	0.049781	0.176172	0.170091	0.200825	0.197045
1031	0.05652	0.175843	0.168612	0.19836	0.202305
1032	0.065067	0.174035	0.171734	0.197045	0.198031
1033	0.069504	0.176008	0.170255	0.200825	0.199511
1034	0.074435	0.179952	0.174857	0.199182	0.200004
1035	0.079859	0.176008	0.176829	0.200004	0.197045
1036	0.081009	0.180445	0.17535	0.199018	0.201647
1037	0.08709	0.179295	0.176829	0.199839	0.198524
1038	0.090706	0.17913	0.180445	0.198524	0.201154
1039	0.096623	0.183404	0.17798	0.20099	0.198689
1040	0.097938	0.182911	0.177487	0.197703	0.197045
1041	0.10517	0.183239	0.181267	0.199182	0.19721
1042	0.10895	0.188006	0.178473	0.196059	0.198689
1043	0.113059	0.185869	0.181267	0.197374	0.191293
1044	0.115195	0.182746	0.18061	0.199511	0.196388
1045	0.114867	0.190142	0.183239	0.200168	0.197045
1046	0.120784	0.186033	0.181596	0.198853	0.195566
1047	0.123249	0.189485	0.185869	0.201647	0.199839
1048	0.12177	0.185869	0.182582	0.199182	0.197045
1049	0.130974	0.187841	0.181431	0.199511	0.200004
1050	0.134097	0.186691	0.183568	0.201154	0.198853
1051	0.130481	0.186691	0.183732	0.197538	0.198853
1052	0.138205	0.185047	0.187019	0.19836	0.199675
1053	0.136069	0.185212	0.185869	0.196881	0.196059
1054	0.142972	0.186526	0.188827	0.197867	0.198031
1055	0.142807	0.188334	0.184554	0.200497	0.199018
1056	0.14856	0.1908	0.187348	0.200168	0.199182
1057	0.147903	0.190635	0.18554	0.198853	0.200168
1058	0.150368	0.193101	0.191457	0.200004	0.200497
1059	0.152833	0.19195	0.188334	0.199018	0.197538
1060	0.155792	0.189814	0.186526	0.200004	0.201483
1061	0.15875	0.196388	0.188663	0.199675	0.201812
1062	0.158421	0.192772	0.190635	0.200825	0.200004
1063	0.1576	0.193101	0.188334	0.196223	0.197538
1064	0.161051	0.196717	0.188663	0.200825	0.192115
1065	0.162202	0.192936	0.189978	0.201647	0.196223
1066	0.160229	0.193429	0.190307	0.201812	0.198689
1067	0.167954	0.194251	0.191293	0.200004	0.199675
1068	0.162366	0.192608	0.188663	0.196059	0.200168
1069	0.16516	0.191457	0.123578	0.198524	0.200168
1070	0.165489	0.193429	0.01576	0.199018	0.198853
1071	0.169433	0.194909	0.005405	0.196388	0.19836
1072	0.169762	0.192115	0.009514	0.197703	0.200661
1073	0.173871	0.193922	0.011979	0.197703	0.199839
1074	0.174364	0.194416	0.01576	0.197867	0.197867
1075	0.176008	0.197538	0.023977	0.198853	0.187841
1076	0.176336	0.192608	0.030059	0.197374	0.198853
1077	0.177815	0.192936	0.037455	0.199675	0.19721
1078	0.179459	0.195402	0.041728	0.198031	0.200168
1079	0.180445	0.199018	0.05011	0.200168	0.197374
1080	0.180116	0.197045	0.057177	0.199018	0.192115
1081	0.177487	0.199182	0.059478	0.197538	0.203291
1082	0.176172	0.194087	0.066217	0.197703	0.197045
1083	0.178309	0.198031	0.06934	0.19836	0.198524
1084	0.18061	0.196388	0.076736	0.19836	0.198196
1085	0.178966	0.196223	0.079694	0.199018	0.197045
1086	0.183568	0.193594	0.085447	0.199346	0.187184
1087	0.18061	0.197045	0.08709	0.198853	0.199018
1088	0.182417	0.194251	0.09235	0.199675	0.196059
1089	0.184883	0.196881	0.09991	0.19721	0.199839
1090	0.184554	0.197867	0.100732	0.199839	0.199018
1091	0.185376	0.19573	0.10517	0.19458	0.199346
1092	0.188499	0.199182	0.112894	0.20099	0.19836
1093	0.187348	0.197374	0.111908	0.199018	0.198031
1094	0.189156	0.196059	0.116346	0.198524	0.199018
1095	0.188334	0.200661	0.120126	0.198853	0.197867
1096	0.183239	0.197374	0.12177	0.199511	0.197703
1097	0.191128	0.193594	0.128015	0.200168	0.188499
1098	0.188334	0.197867	0.125057	0.200168	0.196881
1099	0.192279	0.193922	0.127194	0.19458	0.199839
1100	0.191293	0.19836	0.133768	0.199346	0.197703
1101	0.18817	0.19573	0.137219	0.198689	0.197703
1102	0.188827	0.193429	0.137877	0.196388	0.200168
1103	0.189649	0.198853	0.138534	0.196059	0.19721
1104	0.189649	0.19573	0.143301	0.192772	0.201647
1105	0.18817	0.195237	0.145108	0.193922	0.199675
1106	0.190635	0.198853	0.144451	0.189814	0.198853
1107	0.193265	0.197867	0.145766	0.190471	0.199675
1108	0.189978	0.196881	0.149382	0.191457	0.188663
1109	0.195566	0.197045	0.151683	0.191786	0.198031
1110	0.192936	0.193265	0.148396	0.187841	0.195237
1111	0.195073	0.199182	0.151683	0.188006	0.196552
1112	0.196881	0.199346	0.158914	0.185212	0.196059
1113	0.193594	0.201483	0.154477	0.184554	0.197538
1114	0.197374	0.196552	0.158421	0.185212	0.194416
1115	0.192115	0.201647	0.158421	0.182582	0.200004
1116	0.192772	0.198196	0.160887	0.182582	0.197045
1117	0.189814	0.19836	0.160558	0.180281	0.19836
1118	0.191457	0.199346	0.164831	0.180774	0.198524
1119	0.192115	0.197045	0.159736	0.172885	0.195073
1120	0.192936	0.198196	0.149382	0.176665	0.197867
1121	0.197867	0.197045	0.142643	0.172556	0.197703
1122	0.192608	0.197867	0.149053	0.171734	0.197867
1123	0.193922	0.193594	0.150368	0.169105	0.198853
1124	0.195402	0.200332	0.15497	0.166311	0.200332
1125	0.195402	0.196717	0.156613	0.165653	0.19458
1126	0.195895	0.197045	0.1576	0.16401	0.200332
1127	0.196388	0.195895	0.159736	0.160229	0.19721
1128	0.195402	0.199346	0.160229	0.159901	0.195402
1129	0.19721	0.197374	0.155956	0.160722	0.196717
1130	0.196552	0.200332	0.13459	0.158257	0.192772
1131	0.20099	0.197374	0.138041	0.158914	0.18932
1132	0.198689	0.198031	0.137384	0.155792	0.196059
1133	0.196388	0.201812	0.140835	0.154477	0.196059
1134	0.19573	0.197867	0.143136	0.154641	0.197538
1135	0.196388	0.200497	0.144451	0.156942	0.197045
1136	0.195073	0.197703	0.145766	0.152505	0.193101
1137	0.196717	0.198689	0.150368	0.155627	0.202798
1138	0.195402	0.197374	0.147574	0.152998	0.194087
1139	0.194909	0.19836	0.14971	0.15119	0.194909
1140	0.197538	0.197703	0.150532	0.155627	0.199511
1141	0.196717	0.198853	0.153655	0.149546	0.196717
1142	0.199018	0.195237	0.158257	0.148067	0.195402
1143	0.196717	0.196223	0.158257	0.148396	0.198524
1144	0.197374	0.197867	0.160887	0.149875	0.197045
1145	0.200825	0.19836	0.163352	0.154806	0.199839
1146	0.194744	0.198524	0.165982	0.151025	0.196552
1147	0.19836	0.194744	0.162695	0.148889	0.198524
1148	0.199346	0.196388	0.167954	0.152176	0.196223
1149	0.198196	0.198196	0.166804	0.154477	0.197538
1150	0.19836	0.197374	0.172556	0.156778	0.196059
1151	0.196388	0.196059	0.170091	0.155956	0.196717
1152	0.19836	0.200825	0.171406	0.158914	0.197045
1153	0.19573	0.202305	0.129001	0.154477	0.195566
1154	0.198031	0.197538	0.001789	0.160887	0.200825
1155	0.19573	0.197374	0.00672	0.161215	0.19573
1156	0.198196	0.201319	0.017567	0.165817	0.200825
1157	0.195073	0.201319	0.020526	0.165817	0.197703
1158	0.19458	0.202305	0.029237	0.166311	0.19721
1159	0.198853	0.19721	0.037783	0.166968	0.197538
1160	0.193758	0.194416	0.039263	0.169926	0.198689
1161	0.19573	0.195237	0.04896	0.168776	0.192772
1162	0.195402	0.197538	0.053562	0.169926	0.196881
1163	0.185376	0.197538	0.060793	0.172556	0.196059
1164	0.191457	0.197045	0.06556	0.171406	0.195402
1165	0.195237	0.197703	0.070983	0.174528	0.197538
1166	0.18817	0.199182	0.076079	0.173049	0.198196
1167	0.193429	0.199511	0.080516	0.176336	0.195895
1168	0.191786	0.200497	0.084296	0.177815	0.196388
1169	0.189485	0.199182	0.08972	0.178637	0.199018
1170	0.18817	0.197538	0.091857	0.177158	0.196388
1171	0.183075	0.202469	0.098595	0.180116	0.19836
1172	0.110265	0.197538	0.100732	0.180116	0.196881
1173	0.021019	0.200497	0.104348	0.181103	0.195566
1174	-0.000183	0.199511	0.107635	0.178144	0.196223
1175	0.000474	0.197374	0.111744	0.182253	0.196717
1176	-0.000183	0.194087	0.114209	0.182911	0.196552
1177	-0.000512	0.199018	0.118318	0.182911	0.197045
1178	-0.000183	0.201483	0.118811	0.184718	0.194909
1179	0.000474	0.196552	0.123906	0.184554	0.199675
1180	0.001132	0.197374	0.127194	0.186033	0.199839
1181	0.002775	0.199182	0.126207	0.18439	0.199346
1182	0.009021	0.198524	0.131631	0.192608	0.203784
1183	0.011158	0.196717	0.129823	0.190635	0.198853
1184	0.000474	0.197867	0.135904	0.187513	0.199675
1185	0.001132	0.196717	0.136069	0.188992	0.198031
1186	0.00294	0.197867	0.138863	0.188992	0.193594
1187	0.007049	0.196881	0.140178	0.187677	0.198689
1188	0.002118	0.200497	0.14856	0.192115	0.197538
1189	0.00935	0.199839	0.144122	0.190964	0.194416
1190	0.014445	0.199182	0.147081	0.190307	0.193101
1191	0.023484	0.202469	0.151025	0.192279	0.19721
1192	0.029072	0.199182	0.15119	0.190471	0.200004
1193	0.037619	0.198689	0.153491	0.192772	0.19836
1194	0.036633	0.19836	0.153655	0.189649	0.201976
1195	0.045672	0.197374	0.154477	0.193594	0.196881
1196	0.049288	0.197045	0.158257	0.188992	0.20099
1197	0.057177	0.19573	0.161709	0.193594	0.200332
1198	0.062766	0.19458	0.159736	0.191457	0.197045
1199	0.069176	0.200168	0.163845	0.191457	0.198853
1200	0.069669	0.199018	0.165982	0.191457	0.197374
1201	0.076243	0.195566	0.169926	0.193922	0.197703
1202	0.081502	0.194087	0.167625	0.195073	0.197867
1203	0.081995	0.204441	0.167297	0.192115	0.199839
1204	0.087419	0.200004	0.168776	0.195073	0.196059
1205	0.083639	0.200168	0.16516	0.192443	0.199182
1206	0.084296	0.20099	0.167132	0.191128	0.193265
1207	0.089227	0.200332	0.167297	0.192279	0.197703
1208	0.026607	0.200497	0.169762	0.19458	0.194416
1209	0.008035	0.199346	0.170584	0.195402	0.182089
1210	0.008363	0.19836	0.175021	0.197374	0.17913
1211	0.001296	0.195073	0.176829	0.192608	0.178144
1212	0.004419	0.196717	0.176501	0.199018	0.172556
1213	0.00294	0.196552	0.177322	0.19458	0.174857
1214	0.003926	0.199675	0.177487	0.195073	0.177815
1215	0.00031	0.194744	0.165489	0.19573	0.173871
1216	0.001132	0.200004	0.136398	0.198031	0.17913
1217	0.002447	0.196881	0.106978	0.195237	0.177322
1218	0.001625	0.199675	0.088898	0.193922	0.178802
1219	-1.9e-05	0.199018	0.096294	0.195566	0.176172
1220	0.001132	0.200004	0.097116	0.195237	0.177322
1221	-0.001005	0.200332	0.10139	0.193101	0.177158
1222	0.000639	0.200661	0.105005	0.194416	0.180116
1223	0.001954	0.199511	0.109772	0.196059	0.179295
1224	-0.000347	0.200825	0.109936	0.193265	0.179952
1225	0.000967	0.199511	0.117003	0.19836	0.183404
1226	-0.000512	0.193922	0.115853	0.19573	0.184883
1227	0.000967	0.197538	0.123906	0.197867	0.185047
1228	0.001789	0.198031	0.123578	0.19573	0.191621
1229	0.000146	0.197045	0.127358	0.197867	0.187677
1230	-0.000347	0.197703	0.130316	0.198031	0.187513
1231	0.000967	0.197867	0.131467	0.198031	0.188334
1232	-0.000347	0.196881	0.136069	0.195402	0.185047
1233	-0.000183	0.200661	0.138863	0.197867	0.185705
1234	0.001296	0.194251	0.141986	0.198689	0.187677
1235	0.00031	0.19458	0.143136	0.199182	0.187841
1236	0.000639	0.199839	0.146423	0.200497	0.188827
1237	-1.9e-05	0.198196	0.144944	0.198031	0.186855
1238	-0.000183	0.199346	0.145766	0.194909	0.18554
1239	0.000146	0.200661	0.149382	0.197045	0.189156
1240	0.000146	0.199346	0.153655	0.19836	0.18817
1241	-0.000347	0.201976	0.147409	0.196223	0.187184
1242	-0.000183	0.201976	0.136233	0.198853	0.188006
1243	-0.000512	0.198853	0.119469	0.195073	0.188334
1244	-0.000841	0.201154	0.097609	0.200661	0.194087
1245	-1.9e-05	0.199018	0.076079	0.198853	0.191293
1246	0.000146	0.197538	0.078544	0.197538	0.193758
1247	0.000146	0.197538	0.080352	0.195073	0.192936
1248	0.000474	0.19836	0.083146	0.196717	0.19458
1249	0.00031	0.196552	0.090213	0.195073	0.193922
1250	0.000474	0.199511	0.094487	0.19836	0.193758
1251	-0.000183	0.193594	0.098924	0.198689	0.198689
1252	-1.9e-05	0.195073	0.101718	0.19836	0.193429
1253	-0.000512	0.196717	0.104677	0.19721	0.191457
1254	-0.000512	0.196881	0.109607	0.194251	0.193429
1255	-0.000676	0.195402	0.112401	0.199839	0.189649
1256	-1.9e-05	0.201319	0.110593	0.196881	0.192936
1257	0.000146	0.199839	0.11536	0.196059	0.1908
1258	0.00031	0.197374	0.115031	0.197538	0.194087
1259	0.000474	0.201154	0.11536	0.197867	0.194416
1260	0.00031	0.195402	0.112894	0.196717	0.194416
1261	0.000474	0.197045	0.11158	0.201483	0.198031
1262	-1.9e-05	0.197374	0.105498	0.198853	0.198853
1263	-0.000512	0.198031	0.09876	0.19836	0.19721
1264	-0.000512	0.197045	0.101554	0.202633	0.196552
1265	-0.000347	0.198853	0.098924	0.196552	0.198689
1266	-0.000512	0.19721	0.078873	0.19721	0.195566
1267	-1.9e-05	0.199018	0.035482	0.199346	0.198524
1268	0.00031	0.197867	0.023977	0.194909	0.196717
1269	0.00031	0.197867	0.014938	0.194251	0.197538
1270	0.00031	0.197703	0.006556	0.197374	0.197045
1271	0.000474	0.199018	0.010007	0.193101	0.196552
1272	0.00031	0.199182	0.015924	0.197374	0.194251
1273	0.000146	0.196717	0.019704	0.196388	0.197867
1274	-0.000183	0.200332	0.0271	0.196881	0.19458
1275	-0.000512	0.195237	0.034332	0.198524	0.19458
1276	-0.000183	0.197703	0.040413	0.198196	0.196552
1277	-0.000512	0.196717	0.04748	0.199675	0.198031
1278	-1.9e-05	0.199018	0.053069	0.201319	0.198853
1279	0.000146	0.197374	0.057013	0.199182	0.198689
1280	-1.9e-05	0.198031	0.063259	0.202962	0.19721
1281	0.00031	0.198031	0.06671	0.201319	0.199839
1282	0.000474	0.198524	0.071805	0.199182	0.198196
1283	0.000146	0.195237	0.078544	0.196881	0.197045
1284	-0.000183	0.197538	0.08331	0.194744	0.202305
1285	-0.000347	0.19836	0.086762	0.199018	0.197867
1286	-0.000183	0.20099	0.091199	0.195237	0.197867
1287	-0.000512	0.200332	0.100075	0.198031	0.197867
1288	-0.000676	0.199346	0.098102	0.198031	0.194416
1289	-1.9e-05	0.204113	0.10254	0.199511	0.194744
1290	-1.9e-05	0.197045	0.105498	0.197374	0.197703
1291	0.00031	0.197045	0.111087	0.199018	0.196388
1292	0.00031	0.199018	0.113552	0.200661	0.195895
1293	0.000474	0.199018	0.115689	0.199839	0.197045
1294	0.00031	0.19573	0.118647	0.198524	0.198524
1295	-0.000183	0.200332	0.121277	0.200332	0.199675
1296	-0.000512	0.196059	0.123413	0.197538	0.197538
1297	-0.000676	0.194909	0.125386	0.198689	0.198196
1298	-0.000676	0.199675	0.131302	0.201319	0.199182
1299	-0.000347	0.19721	0.132124	0.200661	0.198853
1300	-0.000183	0.197374	0.135247	0.201647	0.19721
1301	0.000146	0.200332	0.136891	0.201319	0.200825
1302	0.000146	0.200661	0.138534	0.201319	0.20099
1303	0.00031	0.197045	0.140506	0.199182	0.198689
1304	0.000474	0.197374	0.146095	0.198524	0.200004
1305	0.000146	0.198689	0.140835	0.195402	0.200168
1306	-0.000183	0.200332	0.145766	0.19836	0.199675
1307	-0.000183	0.197374	0.14971	0.196717	0.199346
1308	-0.000512	0.196717	0.151683	0.198524	0.198196
1309	-0.000347	0.199018	0.151683	0.196717	0.199675
1310	-0.000347	0.19721	0.153491	0.199839	0.197538
1311	-1.9e-05	0.195073	0.154312	0.200332	0.196717
1312	0.000146	0.199675	0.156778	0.200004	0.203455
1313	0.000639	0.198031	0.158093	0.199018	0.201647
1314	0.00031	0.199511	0.158586	0.200332	0.200332
1315	0.00031	0.198196	0.161873	0.196223	0.199182
1316	0.000474	0.198524	0.16138	0.198524	0.200661
1317	-0.000183	0.198031	0.166311	0.201647	0.191128
1318	-0.000512	0.199018	0.161215	0.197867	0.003433
1319	-0.000512	0.197374	0.163516	0.19836	0.001132
1320	-0.000512	0.197374	0.169269	0.194087	0.000803
1321	-0.000512	0.199346	0.17157	0.197867	0.004748
1322	-0.000183	0.196717	0.169762	0.197374	0.006391
1323	-1.9e-05	0.198196	0.174035	0.198196	0.016417
1324	0.000474	0.197703	0.168612	0.196717	0.022827
1325	0.00031	0.195566	0.166968	0.200497	0.028579
1326	0.00031	0.191128	0.162695	0.198196	0.033839
1327	0.00031	0.197045	0.159736	0.198196	0.039098
1328	-0.000183	0.195566	0.161051	0.200497	0.037783
1329	-0.000347	0.197867	0.1576	0.200168	0.047152
1330	-0.000512	0.194251	0.161544	0.199839	0.050932
1331	-0.000512	0.199018	0.161873	0.198689	0.056849
1332	-0.000347	0.198031	0.16401	0.201647	0.063916
1333	-0.000183	0.19573	0.162859	0.200825	0.071641
1334	0.000146	0.197045	0.168447	0.202633	0.07838
1335	0.00031	0.201319	0.165653	0.198689	0.077722
1336	0.00031	0.197867	0.165982	0.19836	0.08331
1337	0.000474	0.19458	0.16779	0.200332	0.083146
1338	0.00031	0.19573	0.170584	0.197703	0.067861
1339	0.00031	0.195402	0.175679	0.197045	0.005734
1340	-0.000512	0.192608	0.17272	0.19836	0.002775
1341	-0.000347	0.194251	0.172392	0.198524	0.00409
1342	-0.000183	0.19721	0.175679	0.197045	0.013294
1343	-0.000512	0.195402	0.17272	0.199511	0.004912
1344	-0.000183	0.195237	0.17272	0.198689	0.005241
1345	0.00031	0.193594	0.175186	0.200497	0.010993
1346	0.00031	0.19836	0.173871	0.199182	0.022827
1347	0.000146	0.192772	0.175515	0.20214	0.024635
1348	0.00031	0.195073	0.175186	0.199182	0.034661
1349	0.00031	0.196223	0.177322	0.197703	0.03729
1350	-0.000183	0.194909	0.175021	0.199839	0.042714
1351	-0.000183	0.195895	0.17798	0.201976	0.055205
1352	-0.000512	0.193265	0.180281	0.19721	0.056849
1353	-0.000512	0.198524	0.176665	0.198689	0.064574
1354	-0.000512	0.194087	0.176008	0.199018	0.068354
1355	0.000146	0.193265	0.182253	0.199182	0.077558
1356	0.00031	0.193429	0.181267	0.195073	0.080352
1357	0.00031	0.196717	0.181267	0.198689	0.086926
1358	0.000474	0.193758	0.182089	0.202633	0.090049
1359	0.000474	0.186362	0.181431	0.200004	0.094487
1360	0.000474	0.190964	0.181596	0.199346	0.096294
1361	0.000146	0.19458	0.18061	0.199675	0.100403
1362	-0.000183	0.193758	0.182911	0.200004	0.107635
1363	-0.000512	0.194909	0.184225	0.199018	0.109443
1364	-0.000512	0.195073	0.187513	0.19836	0.111251
1365	-0.000512	0.194087	0.187841	0.199839	0.113716
1366	-0.000183	0.194909	0.18817	0.199182	0.118318
1367	-1.9e-05	0.193594	0.185047	0.199511	0.122263
1368	0.000474	0.19573	0.186198	0.198196	0.124728
1369	0.00031	0.192115	0.183239	0.199511	0.128344
1370	0.000474	0.191457	0.185212	0.197703	0.130974
1371	0.000146	0.190964	0.185869	0.195566	0.13311
1372	-1.9e-05	0.191293	0.186526	0.194416	0.137384
1373	-0.000183	0.188006	0.185376	0.198853	0.138699
1374	-0.000347	0.189485	0.187677	0.196552	0.142314
1375	-0.000512	0.186526	0.187841	0.198196	0.140178
1376	-0.000512	0.18817	0.186855	0.197867	0.147409
1377	-1.9e-05	0.180774	0.187019	0.200004	0.146423
1378	0.00031	0.177158	0.185869	0.198031	0.148067
1379	0.00031	0.160558	0.189649	0.200825	0.151518
1380	0.000474	0.147245	0.183075	0.199018	0.151683
1381	0.00031	0.090871	0.188663	0.197538	0.149382
1382	0.000474	0.087584	0.190635	0.196223	0.149053
1383	-0.000347	0.087419	0.186526	0.199182	0.150368
1384	-0.000183	0.082817	0.18554	0.197867	0.146423
1385	-0.000183	0.083475	0.18439	0.20099	0.144944
1386	-0.000512	0.080681	0.187677	0.197867	0.141657
1387	-0.000512	0.077722	0.187513	0.200168	0.145437
1388	-0.000183	0.077886	0.188334	0.199346	0.142807
1389	0.000146	0.08216	0.188499	0.201812	0.146423
1390	0.00031	0.078051	0.190307	0.200004	0.142807
1391	0.000474	0.081338	0.184225	0.199018	0.14478
1392	0.00031	0.080187	0.185212	0.19721	0.142314
1393	0.00031	0.082982	0.180116	0.199511	0.142972
1394	-0.000183	0.08972	0.182417	0.199018	0.141821
1395	-0.000512	0.08857	0.18176	0.197045	0.142807
1396	-0.000512	0.088734	0.181267	0.200825	0.140013
1397	-0.000512	0.084954	0.18061	0.196223	0.136233
1398	-0.000347	0.082817	0.177487	0.199839	0.13459
1399	-1.9e-05	0.078051	0.166311	0.197703	0.128508
1400	0.000146	0.080845	0.14215	0.199839	0.122592
1401	0.000146	0.076572	0.140013	0.198196	0.118647
1402	0.00031	0.075585	0.133603	0.200825	0.110593
1403	0.00031	0.06293	0.123249	0.19721	0.103691
1404	0.000146	0.050439	0.106813	0.199018	0.099089
1405	-1.9e-05	0.051589	0.026278	0.19836	0.095801
1406	-0.000183	0.054712	0.000967	0.197374	0.093993
1407	-0.000512	0.052575	0.000803	0.199675	0.088898
1408	-0.000347	0.055041	0.00787	0.19836	0.090049
1409	-0.000512	0.055863	0.018554	0.200168	0.085611
1410	-0.000183	0.056191	0.001625	0.200497	0.00146
1411	-1.9e-05	0.060629	0.000803	0.199839	0.000474
1412	0.00031	0.058985	-0.000183	0.19836	0.000474
1413	0.000474	0.0603	0.006062	0.203291	0.000146
1414	0.000474	0.053233	0.009514	0.194909	-0.000183
1415	0.00031	0.052575	0.016417	0.197538	-0.000347
1416	-1.9e-05	0.051589	0.024799	0.197703	-0.000512
1417	-0.000183	0.040906	0.033181	0.198524	-0.000347
1418	-0.000512	0.0437	0.037619	0.197374	0.000146
1419	-0.000512	0.046823	0.046494	0.195895	0.002118
1420	-0.000512	0.047809	0.052247	0.198853	0.005241
1421	-1.9e-05	0.040084	0.057013	0.198031	0.014116
1422	0.000146	0.032688	0.06408	0.197374	0.020526
1423	0.000146	0.037619	0.066875	0.19721	0.025292
1424	0.000146	0.03992	0.072134	0.204113	0.03236
1425	0.00031	0.044029	0.074764	0.198853	0.034989
1426	0.00031	0.046659	0.081009	0.19836	0.038934
1427	0.000146	0.046166	0.085447	0.197374	0.040249
1428	-0.000183	0.048467	0.089556	0.19836	0.043207
1429	-0.000183	0.047809	0.091364	0.19573	0.043207
1430	-0.000676	0.051754	0.098595	0.197867	0.044522
1431	-0.000512	0.051096	0.097609	0.196717	0.048302
1432	-1.9e-05	0.054548	0.103526	0.198689	0.051425
1433	0.000146	0.055205	0.106156	0.196223	0.051918
1434	0.00031	0.058985	0.107635	0.199675	0.055863
1435	0.000146	0.057671	0.107635	0.205263	0.051918
1436	0.00031	0.063259	0.110429	0.19721	0.056849
1437	-1.9e-05	0.058657	0.115853	0.199182	0.052904
1438	-1.9e-05	0.061122	0.115195	0.197867	0.055041
1439	-0.000512	0.063587	0.115524	0.202633	0.058492
1440	-0.000347	0.058328	0.116675	0.197538	0.053397
1441	-0.000347	0.059478	0.118811	0.199839	0.054383
1442	-0.000512	0.058985	0.120948	0.19836	0.059972
1443	-1.9e-05	0.059972	0.121605	0.200497	0.057342
1444	0.00031	0.059643	0.120126	0.199346	0.057999
1445	0.00031	0.060793	0.125057	0.200004	0.061122
1446	0.000474	0.059972	0.128673	0.202798	0.052411
1447	0.000474	0.062766	0.12933	0.196388	0.057342
1448	0.00031	0.059807	0.132289	0.197538	0.055534
1449	-0.000183	0.063259	0.135576	0.200332	0.055698
1450	-0.000347	0.064245	0.138205	0.198196	0.056191
1451	-0.000512	0.064245	0.136891	0.196717	0.055863
1452	-0.000512	0.065395	0.142479	0.19836	0.055041
1453	-0.000183	0.06934	0.140835	0.199675	0.057671
1454	-1.9e-05	0.067861	0.140671	0.201483	0.054548
1455	0.000146	0.069504	0.141	0.199346	0.054383
1456	0.000146	0.073284	0.144287	0.199675	0.056849
1457	0.00031	0.067039	0.142807	0.205427	0.054548
1458	0.000474	0.070819	0.146095	0.198196	0.052904
1459	0.000146	0.070819	0.147081	0.193265	0.052082
1460	-1.9e-05	0.072134	0.15234	0.200825	0.049781
1461	-0.000183	0.071477	0.148724	0.195402	0.048631
1462	-0.000183	0.074106	0.153491	0.196552	0.0437
1463	-0.000512	0.074271	0.154148	0.194744	0.047152
1464	0.00031	0.072956	0.157764	0.199018	0.049124
1465	-1.9e-05	0.074271	0.159408	0.197703	0.045837
1466	0.00031	0.076572	0.1576	0.197045	0.04896
1467	0.00031	0.076079	0.159243	0.19836	0.045837
1468	0.000474	0.076079	0.158421	0.201154	0.045672
1469	0.000146	0.0769	0.159736	0.195566	0.044358
1470	0.000146	0.07953	0.161873	0.19721	0.045344
1471	-0.000183	0.081831	0.163681	0.198196	0.044193
1472	-0.000183	0.079037	0.162202	0.197538	0.045672
1473	-0.000512	0.083639	0.164667	0.19836	0.043371
1474	-0.000512	0.083475	0.163352	0.197538	0.042714
1475	0.000474	0.085611	0.166804	0.202305	0.045179
1476	-1.9e-05	0.093993	0.165489	0.199182	0.044193
1477	-1.9e-05	0.096459	0.167297	0.20099	0.042057
1478	0.000474	0.096294	0.167461	0.199346	0.043371
1479	0.000474	0.096788	0.167625	0.201483	0.045508
1480	0.00031	0.096294	0.169762	0.19721	0.040742
1481	0.00031	0.100732	0.171406	0.194087	0.048467
1482	-1.9e-05	0.099746	0.17272	0.197703	0.045179
1483	-0.000183	0.103033	0.173214	0.197374	0.04633
1484	-0.000347	0.104677	0.175021	0.19573	0.043865
1485	-0.000512	0.108128	0.172556	0.198031	0.046001
1486	-0.000183	0.109772	0.176501	0.20099	0.043865
1487	-0.000183	0.111908	0.173542	0.198689	0.045837
1488	0.000146	0.115195	0.174857	0.198524	0.046001
1489	0.00031	0.122756	0.174364	0.198689	0.045344
1490	0.000474	0.12177	0.173542	0.197045	0.046001
1491	0.00031	0.122263	0.175186	0.196059	0.046001
1492	0.00031	0.125714	0.175515	0.200497	0.049124
1493	-0.000183	0.128015	0.173214	0.19836	0.046494
1494	-0.000183	0.128344	0.180116	0.197538	0.047152
1495	-0.000512	0.128015	0.176994	0.199675	0.043865
1496	-0.000347	0.135576	0.179295	0.197703	0.000474
1497	-0.000347	0.13459	0.177815	0.199018	0.00409
1498	-1.9e-05	0.135576	0.178473	0.199839	0.001954
1499	-1.9e-05	0.132946	0.18176	0.19721	-1.9e-05
1500	0.00031	0.138534	0.180116	0.198196	0.000474
1501	0.000474	0.139192	0.182253	0.192772	-0.000512
1502	0.000146	0.137384	0.178637	0.194416	0.000639
1503	0.000474	0.145766	0.180938	0.197374	-0.000347
1504	-1.9e-05	0.146916	0.178637	0.197703	-0.000512
1505	-0.000347	0.146259	0.175515	0.199839	-0.000512
1506	-0.000347	0.150039	0.159901	0.194909	0.000474
1507	-0.000347	0.152998	0.114538	0.19836	0.00031
1508	-0.000347	0.14971	0.104677	0.199018	-1.9e-05
1509	-0.000183	0.162859	0.107964	0.202962	0.000803
1510	-1.9e-05	0.153819	0.111087	0.200497	0.000474
1511	0.00031	0.155956	0.113223	0.200661	0.000639
1512	0.00031	0.155134	0.11651	0.193101	0.000146
1513	0.000474	0.15875	0.12177	0.197045	-1.9e-05
1514	0.000474	0.158257	0.129001	0.198196	-0.000347
1515	-0.000183	0.157928	0.12555	0.199182	0.000146
1516	-0.000183	0.158421	0.128837	0.199182	-0.000183
1517	-0.000512	0.156285	0.132453	0.19721	0.000474
1518	-0.000183	0.160229	0.135576	0.19836	-0.000183
1519	-0.000512	0.159243	0.137712	0.196388	0.000803
1520	0.00031	0.161544	0.142314	0.197867	0.000146
1521	0.00031	0.162366	0.140671	0.195237	0.000803
1522	0.000474	0.163681	0.146916	0.196388	0.000146
1523	0.00031	0.163352	0.143301	0.185705	-0.000183
1524	0.000474	0.166311	0.145766	0.195237	-0.000676
1525	0.000474	0.164831	0.146752	0.197703	-0.000183
1526	-1.9e-05	0.166639	0.148724	0.198853	-0.000841
1527	-0.000183	0.170419	0.150861	0.199018	-1.9e-05
1528	-0.000512	0.167625	0.152011	0.199182	0.00031
1529	-0.000512	0.169762	0.155792	0.198524	0.000146
1530	-0.000841	0.169105	0.153984	0.198524	0.000639
1531	-1.9e-05	0.168776	0.155463	0.200004	0.000474
1532	-1.9e-05	0.168447	0.151518	0.199018	0.000967
1533	0.000146	0.166968	0.151025	0.199675	0.000146
1534	0.00031	0.167625	0.139685	0.189485	-1.9e-05
1535	0.00031	0.164174	0.074928	0.19573	-0.000347
1536	0.000474	0.163188	0.039427	0.199839	-0.000347
1537	-1.9e-05	0.166639	0.040906	0.201154	-0.000512
1538	-1.9e-05	0.168118	0.03088	0.200168	-0.000512
1539	-0.000347	0.167297	0.03614	0.202633	-1.9e-05
1540	-0.000512	0.165324	0.041235	0.201812	0.000146
1541	-0.000512	0.166968	0.0437	0.20214	0.000146
1542	-0.000183	0.154477	0.048631	0.202962	0.000146
1543	-1.9e-05	0.147903	0.051096	0.201154	0.00031
1544	0.000474	0.146916	0.057999	0.199511	0.00031
1545	0.000146	0.127687	0.056849	0.191128	-0.000183
1546	0.000146	0.115853	0.05652	0.198853	-0.000183
1547	0.00031	0.071148	0.05652	0.197538	-0.000347
1548	-1.9e-05	0.04748	0.061122	0.199839	-0.000347
1549	-0.000347	0.039756	0.058985	0.197538	-0.000347
1550	-0.000512	0.03729	0.064409	0.199839	0.000146
1551	-0.000183	0.031538	0.064738	0.196223	0.00031
1552	-0.000512	0.026114	0.071805	0.200661	-1.9e-05
1553	-0.000183	0.007213	0.070983	0.198853	0.000474
1554	0.000146	0.006227	0.079037	0.198689	0.00031
1555	0.000146	0.004255	0.083475	0.196552	0.000474
1556	0.000474	0.005076	0.081174	0.191621	-1.9e-05
1557	0.00031	0.005569	0.087255	0.198689	-0.000183
1558	0.000474	0.00672	0.081009	0.197374	-0.000512
1559	-1.9e-05	0.00294	0.075585	0.197703	-0.000512
1560	-0.000347	0.001296	0.067368	0.196717	-0.000347
1561	-0.000183	0.003926	0.06556	0.196717	-1.9e-05
1562	-0.000347	0.003433	0.005241	0.192279	0.000803
1563	-0.000512	0.003104	-1.9e-05	0.201319	0.000146
1564	-0.000347	-0.001334	-0.001334	0.197867	0.000474
1565	0.000146	0.003761	0.00146	0.200004	0.000474
1566	0.00031	0.003268	0.003597	0.198524	0.000639
1567	0.000146	0.002611	-0.003799	0.195895	0.000146
1568	0.00031	0.00294	0.002447	0.198031	0.000146
1569	0.00031	0.005241	0.000639	0.197703	-0.000183
1570	-0.000183	0.00146	-1.9e-05	0.198524	-0.000347
1571	-0.000183	0.003926	0.003433	0.197374	-0.000347
1572	-0.000512	0.002118	0.006227	0.197703	0.000146
1573	-0.000512	0.004255	0.012144	0.196223	-0.000347
1574	-0.000512	0.003104	0.022498	0.195237	0.000639
1575	-0.000183	0.004419	0.027593	0.195237	0.000639
1576	-1.9e-05	0.001132	0.034661	0.197538	-0.000676
1577	0.000146	0.000803	0.037783	0.198524	0.000967
1578	0.000474	0.002118	0.043207	0.197703	-0.000183
1579	0.00031	0.003761	0.048467	0.196388	-0.000183
1580	0.000474	0.003597	0.053562	0.199346	-0.000347
1581	0.000146	0.003926	0.050274	0.197045	0.000639
1582	-0.000347	0.003597	0.006884	0.200332	-1.9e-05
1583	-0.000512	0.002447	0.000474	0.199675	0.000803
1584	-0.000512	0.003268	-0.000183	0.198689	0.000803
1585	-0.000512	0.004419	-0.000183	0.202469	0.00031
1586	-0.000347	0.005241	-0.000183	0.199182	0.000803
1587	-1.9e-05	0.00409	-0.000512	0.19458	0.000474
1588	0.00031	0.007706	-0.000347	0.197045	0.000639
1589	0.00031	0.001296	-1.9e-05	0.19458	-0.000347
1590	0.000146	0.003433	0.000474	0.190307	-0.000183
1591	0.000474	0.004419	0.000474	0.195402	-0.000841
1592	-1.9e-05	0.006884	0.000474	0.195566	0.000474
1593	-0.000347	0.007542	0.00031	0.198689	-1.9e-05
1594	-0.000347	0.007706	0.000474	0.198524	0.000474
1595	-0.000512	0.013294	-1.9e-05	0.197045	0.000803
1596	-0.000512	0.011486	-0.000183	0.199675	0.00031
1597	-0.000183	0.011158	-1.9e-05	0.199839	0.000146
1598	0.000146	0.011322	-0.000183	0.198524	0.001625
1599	0.000146	0.0105	-0.000512	0.19836	0.00031
1600	0.00031	0.003104	0.001296	0.200332	0.000474
1601	0.000146	0.005734	-0.001827	0.198853	-0.000183
1602	0.000146	0.011486	0.00409	0.198689	-0.000183
1603	-1.9e-05	0.00935	0.004748	0.198689	-1.9e-05
1604	-0.000347	0.005734	0.003104	0.197045	-0.001169
1605	-0.000347	0.007213	-0.000347	0.198031	0.000146
1606	-0.000347	0.005405	0.00146	0.195566	0.00031
1607	-0.000676	0.010664	0.002447	0.197045	0.000146
1608	-0.000183	0.011815	-0.001334	0.192772	-1.9e-05
1609	0.000146	0.014938	-0.000347	0.196059	0.000639
1610	0.00031	0.022334	0.000146	0.197374	-1.9e-05
1611	0.000474	0.011815	0.003926	0.197538	-0.000512
1612	0.000474	0.016581	0.004419	0.19836	0.000639
1613	0.000146	0.023649	0.007049	0.200497	-0.001169
1614	-0.000347	0.029566	0.006391	0.199675	0.00031
1615	-0.000183	0.035318	0.003104	0.199511	-0.000676
1616	-0.000183	0.043207	0.005241	0.201319	0.00031
1617	-0.000347	0.044686	0.009678	0.199182	0.001132
1618	-0.000512	0.05389	0.01313	0.20099	0.001132
1619	-0.000183	0.062601	0.016088	0.19573	0.001132
1620	-0.000183	0.061944	0.010336	0.198689	0.001132
1621	0.000146	0.066217	0.01576	0.199511	0.000146
1622	0.00031	0.071312	0.01954	0.193758	0.000474
1623	0.000146	0.076079	0.028579	0.194251	-0.000512
1624	0.00031	0.081174	0.030552	0.196223	0.000474
1625	-0.000183	0.085776	0.03729	0.198196	-0.000347
1626	-0.000347	0.089063	0.043043	0.196717	-0.000841
1627	-0.000347	0.094322	0.048302	0.197867	-0.000183
1628	-0.000512	0.093829	0.052082	0.198031	0.000967
1629	-0.000676	0.100732	0.057671	0.200004	0.000146
1630	-0.000183	0.100568	0.061286	0.198524	0.001296
1631	0.000146	0.106649	0.060629	0.199346	0.000639
1632	0.000146	0.109936	0.063094	0.199511	0.000803
1633	0.00031	0.113059	0.065724	0.20099	-1.9e-05
1634	0.000146	0.115853	0.06293	0.197867	0.000474
1635	0.000146	0.119304	0.03236	0.200004	-1.9e-05
1636	-1.9e-05	0.122427	0.004255	0.201319	-1.9e-05
1637	-0.000183	0.123249	0.006062	0.201154	0.000474
1638	-0.000512	0.125057	0.011979	0.199346	0.000146
1639	-0.000512	0.126865	0.018225	0.198524	0.000967
1640	-0.000347	0.131138	0.023977	0.201647	-1.9e-05
1641	-0.000183	0.126865	0.03088	0.197374	0.000803
1642	0.000146	0.132617	0.03614	0.199182	-0.000183
1643	0.000146	0.135576	0.039098	0.196223	0.000803
1644	0.000474	0.135576	0.043371	0.197703	-0.000512
1645	-1.9e-05	0.135411	0.045837	0.196552	-0.000183
1646	0.00031	0.13952	0.046987	0.198853	-0.000841
1647	-1.9e-05	0.141	0.035647	0.19721	-0.000512
1648	-0.000183	0.142807	0.027593	0.196552	-0.000676
1649	-0.000676	0.144122	0.030716	0.199018	-1.9e-05
1650	-0.000347	0.148231	0.008199	0.199839	0.000639
1651	-0.000512	0.145273	-0.000512	0.201154	0.000146
1652	-0.000183	0.14856	-1.9e-05	0.200332	0.000474
1653	0.000146	0.14971	0.004748	0.199675	0.00146
1654	0.000146	0.154148	0.010336	0.195237	0.000639
1655	0.000474	0.151025	0.013459	0.200004	-0.000347
1656	0.00031	0.152505	0.01954	0.196881	0.000474
1657	0.00031	0.152505	0.026936	0.194416	-1.9e-05
1658	-1.9e-05	0.155792	0.007377	0.200004	-1.9e-05
1659	-0.000183	0.158257	0.000639	0.200661	-0.000183
1660	-0.000512	0.154477	0.00031	0.195895	0.00031
1661	-0.000347	0.160229	0.00146	0.200168	-1.9e-05
1662	-0.000676	0.156942	0.004419	0.200168	0.00146
1663	-0.000183	0.158914	0.010829	0.196388	0.000474
1664	0.00031	0.158421	0.016581	0.198196	0.00031
1665	0.000146	0.160887	0.015431	0.198196	0.001296
1666	0.00031	0.158914	0.013787	0.19836	-0.000183
1667	0.00031	0.16253	0.019211	0.199346	-0.000512
1668	0.00031	0.161544	0.023156	0.197045	-0.000183
1669	-1.9e-05	0.163023	0.008035	0.195073	-0.000183
1670	-0.000347	0.164338	0.005734	0.197045	-0.001005
1671	-0.000347	0.163516	0.002611	0.196717	0.000474
1672	-0.000347	0.164667	0.005734	0.198031	0.000474
1673	-0.000676	0.166475	0.000474	0.19721	0.001625
1674	-0.000183	0.162695	0.005898	0.198853	0.000639
1675	0.000146	0.167132	0.004748	0.201154	0.00031
1676	0.000146	0.166639	0.00787	0.197045	0.000146
1677	-1.9e-05	0.167297	-0.000676	0.197703	-0.000676
1678	0.00031	0.171241	0.000803	0.196059	-0.000347
1679	0.00031	0.167461	0.002118	0.196881	-0.000183
1680	-1.9e-05	0.169926	0.001954	0.197867	-0.000676
1681	-0.000183	0.16894	0.000803	0.19836	-0.000347
1682	-0.000512	0.169269	0.000639	0.198031	0.000474
1683	-0.000676	0.172556	0.00409	0.19836	-1.9e-05
1684	-0.000347	0.173214	0.005405	0.194744	0.000474
1685	-0.000183	0.169105	0.010007	0.193594	0.000474
1686	0.000146	0.169433	0.012801	0.188827	-0.000183
1687	0.00031	0.168283	0.010664	0.189978	0.000474
1688	0.00031	0.16779	-1.9e-05	0.188006	-1.9e-05
1689	0.000474	0.168612	0.002118	0.147574	-0.000347
1690	0.00031	0.164667	0.000639	0.090542	-1.9e-05
1691	-1.9e-05	0.158093	0.00146	0.04255	-1.9e-05
1692	-0.000347	0.142643	0.005734	0.023484	0.000474
1693	-0.000512	0.107306	0.010336	0.014773	0.000803
1694	-0.000512	0.09991	0.005405	0.013623	0.000639
1695	-0.000347	0.101554	0.00672	0.008528	0.000474
1696	-0.000512	0.10632	0.017239	0.00146	0.000474
1697	0.000146	0.10632	0.019868	0.00146	0.000474
1698	0.000474	0.100403	0.029566	0.002775	0.00031
1699	0.00031	0.09613	0.021512	0.002282	-1.9e-05
1700	0.00031	0.100568	0.027922	0.002282	-0.000183
1701	0.000146	0.101225	0.023977	0.002447	-0.000512
1702	-0.000183	0.102704	0.021841	0.002447	-0.000512
1703	-0.000347	0.105334	0.021841	0.001954	-0.000183
1704	-0.000347	0.096459	0.01691	0.005405	-1.9e-05
1705	-0.000512	0.093993	0.008035	0.00146	0.000146
1706	-0.000676	0.08594	0.010664	0.007213	0.00031
1707	-0.000512	0.080681	0.00787	0.004419	0.000639
1708	-1.9e-05	0.086433	0.008035	0.002775	0.00031
1709	-1.9e-05	0.089391	0.017239	0.000803	0.00031
1710	0.000146	0.091857	0.014116	0.001954	-1.9e-05
1711	0.00031	0.094322	0.021841	0.00146	-0.000183
1712	0.000474	0.098924	0.021512	0.000639	0.00031
1713	0.000146	0.09991	0.021512	0.001625	-0.000347
1714	-0.000183	0.104184	0.017896	0.004912	-0.000347
1715	-0.000347	0.105005	0.01576	0.000474	-0.000183
1716	-0.000512	0.106156	0.014938	0.001296	0.00031
1717	-0.000512	0.108621	0.009185	0.003268	0.00031
1718	-0.000347	0.11158	0.00294	0.000146	0.000639
1719	-1.9e-05	0.114538	0.00294	-1.9e-05	0.000146
1720	0.000146	0.112237	0.006062	-0.000512	0.00031
1721	0.000146	0.114538	0.002118	0.002282	-1.9e-05
1722	0.00031	0.111251	-0.001662	-0.000347	-1.9e-05
1723	0.000146	0.092186	0.004748	0.001954	-0.000676
1724	-0.000183	0.073778	0.00031	0.000639	-0.000676
1725	-0.000347	0.07049	0.006884	0.000474	0.000803
1726	-0.000347	0.067861	0.002118	0.001132	0.00031
1727	-0.000676	0.060793	-1.9e-05	0.000639	0.000474
1728	-0.000512	0.046494	-0.000347	-1.9e-05	-1.9e-05
1729	-0.000347	0.05652	-0.000183	-0.000183	0.000474
1730	-1.9e-05	0.04896	0.000146	-0.000512	0.000474
1731	0.000146	0.051425	0.005076	-0.000676	0.00031
1732	0.000474	0.044851	0.000474	0.00031	-0.000347
1733	0.00031	0.044686	0.000474	-0.000676	-1.9e-05
1734	0.00031	0.044851	0.001132	-0.000347	-0.001005
1735	0.000146	0.039427	-0.000512	0.001132	-0.000347
1736	-1.9e-05	0.039756	0.000967	0.000639	-0.000183
1737	-0.000512	0.034661	0.000146	0.000474	-0.000183
1738	-0.000676	0.039427	0.000967	0.001296	0.000146
1739	-0.000512	0.031209	-0.001498	-0.000841	0.000146
1740	-0.000347	0.037619	0.000803	0.00031	0.001296
1741	-1.9e-05	0.036797	-0.002484	-0.000183	0.000803
1742	0.000146	0.042221	0.001789	-0.000183	0.000639
1743	0.000146	0.033181	0.000474	-0.000512	-0.000183
1744	0.00031	0.012801	0.000639	-0.000183	-0.000347
1745	0.000474	0.018718	0.000474	-1.9e-05	-0.000347
1746	-1.9e-05	0.026936	0.000474	0.000474	-0.000183
1747	-1.9e-05	0.028251	0.000474	0.000146	-1.9e-05
1748	-0.000512	0.026114	0.000474	0.00031	0.00031
1749	-0.000347	0.036469	0.00031	0.00031	-1.9e-05
1750	-0.000512	0.038769	-0.000347	0.00031	0.000474
1751	-0.000347	0.045508	-0.000183	-1.9e-05	0.000146
1752	0.000146	0.051425	-0.000347	-0.000183	0.000474
1753	0.000146	0.062437	-1.9e-05	-0.000183	0.000146
1754	0.00031	0.061615	-0.000183	-0.000512	0.000146
1755	0.000146	0.069176	0.000146	-1.9e-05	-0.000347
1756	0.000146	0.072791	0.000474	-0.000347	-0.000183
1757	-1.9e-05	0.077722	0.000474	0.000474	-0.000676
1758	-0.000347	0.081338	0.00031	0.000474	-0.000347
1759	-0.000347	0.086433	0.00031	0.000474	-1.9e-05
1760	-0.000347	0.09235	-1.9e-05	-1.9e-05	0.000146
1761	-0.000512	0.095801	-0.000347	0.000146	0.00031
1762	-0.000347	0.099746	-0.000512	-1.9e-05	0.000146
1763	-1.9e-05	0.104184	-0.000676	-0.000347	0.000146
1764	0.00031	0.113059	0.000474	-0.000841	-1.9e-05
1765	0.00031	0.108293	-1.9e-05	-0.000512	-1.9e-05
1766	0.00031	0.115195	0.000474	-0.000183	-1.9e-05
1767	0.000146	0.116182	0.002447	0.00031	-0.000183
1768	-0.000183	0.122098	0.011322	0.000146	-0.000347
1769	-1.9e-05	0.120455	0.015431	0.00031	-0.000183
1770	-0.000512	0.126207	0.002611	0.000639	0.000146
1771	-0.000347	0.128015	0.010993	0.000146	0.000146
1772	-0.000512	0.13196	0.006227	0.000803	0.000146
1773	-0.000183	0.133768	0.002775	-0.000347	0.000474
1774	0.000146	0.138863	0.003926	-0.000183	0.000474
1775	-1.9e-05	0.14478	-0.004785	-0.000512	-1.9e-05
1776	0.00031	0.140506	0.007049	-1.9e-05	-0.000183
1777	0.00031	0.144287	0.007542	-1.9e-05	-0.000347
1778	0.00031	0.145602	0.010007	-0.000183	-0.000347
1779	-1.9e-05	0.148067	0.010993	0.000146	-0.000183
1780	-0.000183	0.147903	0.011158	0.000474	-0.000347
1781	-0.000347	0.149382	0.011815	0.000474	-0.000183
1782	-0.000512	0.150039	0.004912	0.000146	0.000146
1783	-0.000512	0.150039	0.001789	-1.9e-05	0.00031
1784	-0.000347	0.154312	-1.9e-05	-0.000347	0.00031
1785	-1.9e-05	0.158914	0.006062	-1.9e-05	0.000474
1786	0.00031	0.161709	-0.003963	-0.000183	0.00031
1787	0.000146	0.159079	0.008857	-0.000183	-1.9e-05
1788	0.00031	0.162037	0.010993	-1.9e-05	-0.000183
1789	0.00031	0.166311	0.009843	0.001132	-0.000512
1790	-0.000183	0.161709	0.01428	-0.000841	-0.000512
1791	-0.000183	0.16894	0.0105	0.000639	-0.000183
1792	-0.000512	0.165982	0.017239	0.000639	-0.000183
1793	-0.000512	0.170419	0.015431	0.000474	0.000474
1794	-0.000347	0.17272	0.01428	-0.000183	0.00031
1795	-0.000347	0.169598	0.004419	-1.9e-05	0.00031
1796	0.000146	0.17272	-0.000841	-0.000183	0.00031
1797	0.000146	0.173214	-0.007908	-0.000512	0.000146
1798	0.000474	0.171899	-0.000512	-0.000347	-0.000183
1799	0.000474	0.173049	0.00031	-0.000183	-0.000512
1800	0.00031	0.173378	0.003433	0.00031	-0.000512
1801	-0.000183	0.171077	0.001132	-1.9e-05	-0.000512
1802	-0.000183	0.174857	0.001954	0.000639	-0.000512
1803	-0.000512	0.169598	-1.9e-05	0.000146	0.000146
1804	-0.000347	0.17798	0.006556	0.000146	0.000146
1805	-0.000512	0.176501	0.012965	-1.9e-05	0.00031
1806	-0.000183	0.180116	0.004748	0.000146	0.000474
1807	-1.9e-05	0.181103	0.00146	-0.000347	0.000474
1808	-1.9e-05	0.179295	-0.006264	-0.000183	0.000146
1809	0.00031	0.183732	-0.000841	-0.000183	-0.000183
1810	0.000146	0.184225	-1.9e-05	-0.000183	-0.000347
1811	0.000474	0.184225	0.00031	0.000803	-0.000512
1812	-1.9e-05	0.183732	0.00031	-0.000183	-0.000512
1813	-0.000183	0.185376	0.000474	0.000474	-0.000347
1814	-0.000347	0.183075	-0.001169	0.000146	-1.9e-05
1815	-0.000347	0.186855	0.000803	-1.9e-05	0.00031
1816	-0.000512	0.186691	0.001132	-0.000183	0.00031
1817	-0.000183	0.187677	0.003761	-1.9e-05	0.000474
1818	0.000146	0.186362	0.010993	-0.000347	0.00031
1819	0.000146	0.181596	0.006062	-0.000183	0.00031
1820	0.000146	0.18439	-1.9e-05	-0.000676	-0.000347
1821	0.000639	0.187513	0.000639	-1.9e-05	-0.000347
1822	0.000146	0.187348	0.001625	-1.9e-05	-0.000347
1823	-1.9e-05	0.188663	-0.000183	0.000146	-0.000347
1824	-0.000183	0.190471	0.002118	0.000803	-0.000512
1825	-0.000347	0.1908	0.001789	0.001132	-1.9e-05
1826	-0.000347	0.192115	0.009678	0.000474	0.00031
1827	-0.000347	0.191293	0.015102	0.000146	0.00031
1828	-0.000347	0.193101	0.016746	-0.000183	0.000639
1829	-1.9e-05	0.190635	0.014938	-0.000347	0.00031
1830	0.000146	0.181924	0.021348	-1.9e-05	0.000146
1831	0.000146	0.188827	0.020362	-0.000512	0.000146
1832	0.000474	0.193758	0.018389	-0.000512	-0.000512
1833	0.00031	0.1908	0.019704	-0.000183	-0.000347
1834	0.000146	0.195073	0.023484	0.000146	-0.000347
1835	-0.000183	0.192772	0.022169	0.000146	-0.000347
1836	-0.000347	0.191621	0.014116	0.00031	0.000146
1837	-0.000512	0.194251	0.014938	0.000474	-1.9e-05
1838	-0.000512	0.189978	0.014773	0.00031	0.00031
1839	-0.000512	0.194416	0.019375	-0.000512	0.000146
1840	0.000146	0.193594	0.021676	-1.9e-05	0.000474
1841	0.000146	0.184883	0.025785	-0.000676	0.000146
1842	0.000474	0.192936	0.028744	-0.000512	-0.000183
1843	0.00031	0.194251	0.036797	-0.000512	-0.000512
1844	0.00031	0.195402	0.042878	0.00031	-0.000841
1845	-1.9e-05	0.197045	0.049453	0.000639	-0.000512
1846	-0.000183	0.195237	0.050603	-0.000347	-1.9e-05
1847	-0.000347	0.194251	0.056356	0.000474	-1.9e-05
1848	-0.000512	0.194087	0.061944	0.000639	0.00031
1849	-0.000512	0.197703	0.064902	0.000639	0.00031
1850	-0.000512	0.194744	0.06671	-0.000512	0.00031
1851	-1.9e-05	0.194909	0.057506	-0.000183	0.000639
1852	0.00031	0.183897	0.063259	-0.000512	0.000146
1853	0.000474	0.195237	0.061122	-0.000347	-0.000183
1854	0.00031	0.192608	0.064902	-0.000183	-0.000347
1855	0.000474	0.1908	0.068682	0.000146	-0.000512
1856	0.000146	0.19458	0.074764	0.00031	-0.000676
1857	-0.000347	0.194909	0.075585	0.000639	-0.000183
1858	-0.000347	0.197703	0.081174	0.000967	-1.9e-05
1859	-0.000512	0.196388	0.08594	0.000967	-1.9e-05
1860	-0.000347	0.199018	0.089885	0.000639	0.000146
1861	-0.000183	0.198689	0.090049	-1.9e-05	0.000474
1862	-1.9e-05	0.199511	0.094322	0.000146	0.000474
1863	0.000146	0.188992	0.09613	-0.000841	0.00031
1864	0.000146	0.197045	0.088898	0.000146	-0.000347
1865	0.00031	0.196717	0.09613	-0.000676	-0.000347
1866	0.000146	0.199675	0.09991	0.00031	-0.000183
1867	-1.9e-05	0.197538	0.103197	0.000474	-0.000512
1868	-0.000183	0.196059	0.105334	0.000639	0.000146
1869	-0.000183	0.196223	0.108293	0.000146	-1.9e-05
1870	-0.000512	0.197867	0.10895	0.000474	0.00031
1871	-0.000512	0.198524	0.112401	0.000474	-1.9e-05
1872	-0.000183	0.19721	0.115195	-0.000183	0.000474
1873	0.000146	0.197867	0.117825	-0.000676	0.000474
1874	0.00031	0.191457	0.118647	-0.000347	0.00031
1875	0.00031	0.197538	0.122098	-0.000183	-0.000183
1876	0.000146	0.197045	0.122263	-0.000183	-0.000347
1877	0.000146	0.199675	0.126043	0.000146	-0.000183
1878	-0.000183	0.199018	0.124399	-0.000347	-0.000676
1879	-0.000183	0.200332	0.122263	0.000803	-1.9e-05
1880	-0.000347	0.197867	0.1267	0.000474	0.000146
1881	-0.000347	0.200661	0.128673	0.000803	0.000146
1882	-0.000512	0.19836	0.130974	0.000474	0.000474
1883	-0.000347	0.196717	0.131138	0.00031	0.000146
1884	-1.9e-05	0.195073	0.129495	-0.000183	0.000639
1885	0.000146	0.191621	0.13196	-0.000512	0.000474
1886	0.000474	0.195895	0.134097	-0.000183	-1.9e-05
1887	0.00031	0.195895	0.118154	-0.000183	-0.000347
1888	0.000474	0.196717	0.113059	-1.9e-05	-0.000512
1889	-0.000183	0.198196	0.104677	0.00031	-0.000512
1890	-0.000347	0.19836	0.099253	0.000474	-0.000347
1891	-0.000347	0.198196	0.08857	0.00031	0.000146
1892	-0.000512	0.19836	0.088898	0.000146	0.00031
1893	-0.000347	0.198689	0.085611	0.00031	0.00031
1894	-0.000347	0.198196	0.088405	0.000146	0.000146
1895	0.000146	0.196388	0.087584	-0.000347	0.00031
1896	0.00031	0.197538	0.088734	-1.9e-05	0.000474
1897	0.000146	0.19721	0.089556	-0.000347	-0.000183
1898	0.000474	0.199018	0.083968	0.000146	-0.000347
1899	0.000474	0.196223	0.074764	0.000474	-0.000347
1900	0.000146	0.197703	0.062437	0.000146	-0.000347
1901	-0.000183	0.197045	0.05652	0.000639	-0.000183
1902	-0.000512	0.196717	0.050768	0.000146	-1.9e-05
1903	-0.000512	0.200825	0.050768	0.000803	0.00031
1904	-0.000347	0.200332	0.053726	0.000146	0.000474
1905	-1.9e-05	0.200004	0.059972	0.000146	0.00031
1906	-1.9e-05	0.206414	0.062766	-0.000512	0.000474
1907	0.000474	0.196717	0.065231	-0.000347	0.000474
1908	0.000146	0.195237	0.060958	-0.000347	-0.000183
1909	0.000474	0.202305	0.060958	0.00031	-0.000347
1910	0.000474	0.196717	0.060465	0.00031	-0.000512
1911	-1.9e-05	0.199675	0.057013	0.000474	-0.000676
1912	-0.000183	0.199182	0.057835	0.00031	-0.000183
1913	-0.000512	0.201154	0.051589	0.000639	-0.000183
1914	-0.000347	0.198524	0.050439	0.000639	-1.9e-05
1915	-0.000512	0.200661	0.039098	0.000639	0.000474
1916	-0.000183	0.200168	0.032195	-0.000183	0.000639
1917	-1.9e-05	0.199675	0.025457	0.00031	0.000474
1918	0.000146	0.199839	0.025292	-0.000347	0.00031
1919	0.00031	0.198031	0.015102	-0.000347	-1.9e-05
1920	0.00031	0.199839	0.022498	0.000146	-0.000183
1921	0.000146	0.196717	0.023813	0.000146	-0.000347
1922	0.00031	0.198031	0.027429	0.000146	-0.000347
1923	-0.000347	0.201154	0.024635	0.000146	-0.000512
1924	-0.000183	0.199182	0.025621	0.000146	-1.9e-05
1925	-0.000347	0.198689	0.027758	0.00031	0.00031
1926	-0.000512	0.200661	0.027265	0.000639	0.00031
1927	-0.000347	0.199839	0.030552	-0.000512	0.000474
1928	0.000146	0.200004	0.035482	-0.000183	0.000146
1929	0.000474	0.199675	0.042221	-0.000347	0.00031
1930	0.000474	0.197374	0.044686	-0.000347	-1.9e-05
1931	0.00031	0.199018	0.052247	0.000146	-0.000347
1932	0.00031	0.200332	0.055698	0.000146	-0.000512
1933	-1.9e-05	0.202305	0.061451	0.000639	-0.000512
1934	-1.9e-05	0.20362	0.065067	0.000803	-0.000676
1935	-0.000183	0.20214	0.069833	0.000803	-1.9e-05
1936	-0.000512	0.199511	0.07312	0.00031	0.000146
1937	-0.000512	0.201647	0.078215	0.000639	0.00031
1938	-0.000347	0.199182	0.081995	-0.000183	0.000474
1939	-1.9e-05	0.199018	0.083475	-0.000183	0.000474
1940	-1.9e-05	0.200004	0.086762	-0.000183	0.00031
1941	0.00031	0.198689	0.093336	-0.000183	0.000146
1942	0.000474	0.19721	0.095966	-0.000347	-0.000512
1943	0.000474	0.200332	0.095308	0.000474	-0.000676
1944	0.00031	0.198853	0.100732	0.00031	-0.000512
1945	-0.000183	0.195895	0.102211	-1.9e-05	-0.000512
1946	-0.000512	0.199018	0.108457	0.000474	-1.9e-05
1947	-0.000347	0.199182	0.107635	0.000803	0.000474
1948	-0.000512	0.196552	0.111251	0.000474	0.00031
1949	-0.000183	0.197703	0.03236	0.000474	0.000474
1950	0.000146	0.197538	0.032195	-0.000183	0.00031
1951	0.00031	0.200332	0.038441	-0.000183	0.000146
1952	0.00031	0.203948	0.045508	-0.000347	-0.000183
1953	0.00031	0.199675	0.049617	0.000474	-0.000512
1954	0.00031	0.204277	0.054548	0.00031	-0.000183
1955	0.000146	0.197867	0.057835	0.000146	-0.000183
1956	-0.000183	0.198853	0.064409	0.000474	-0.000347
1957	-0.000512	0.19836	0.06408	0.000639	-0.000183
1958	-0.000512	0.199346	0.02069	0.000474	0.000146
1959	-0.000512	0.19721	0.003761	0.000146	0.00031
1960	-0.000512	0.200004	0.005898	0.00031	0.000146
1961	0.000146	0.19573	0.011322	-0.000512	0.000146
1962	0.000146	0.19836	0.017896	-0.000512	0.00031
1963	0.000146	0.194909	0.023649	-0.000347	-0.000183
1964	0.000474	0.198196	0.028744	-0.000347	-1.9e-05
1965	0.00031	0.200332	0.038605	-1.9e-05	-0.000512
1966	-1.9e-05	0.198196	0.041235	-1.9e-05	-0.000347
1967	-1.9e-05	0.198853	0.037619	0.000474	-0.000512
1968	-0.000347	0.200004	0.022991	0.000639	-0.000183
1969	-0.000347	0.200825	0.001296	0.000803	0.000474
1970	-0.000512	0.200661	0.003761	0.00031	0.00031
1971	-0.000183	0.201812	0.008199	-0.000183	0.00031
1972	-1.9e-05	0.199675	0.005405	-0.000183	0.000474
1973	-1.9e-05	0.200168	0.001132	-0.000512	0.000146
1974	0.000146	0.199346	-0.000347	-0.000512	-0.000183
1975	0.00031	0.200168	0.000146	-0.000347	-0.000347
1976	0.000474	0.198853	0.000146	-1.9e-05	-0.000347
1977	0.000146	0.199346	0.000146	0.00031	-0.000347
1978	-1.9e-05	0.198689	0.000474	0.000146	-0.000347
1979	-0.000347	0.201319	0.000146	0.001296	0.000146
1980	-0.000347	0.196717	0.000146	0.002282	0.000146
1981	-0.000512	0.19458	-1.9e-05	0.000639	0.000146
1982	-0.000183	0.198196	-0.000183	0.00031	0.000146
1983	0.000146	0.196717	-0.000347	-1.9e-05	0.000639
1984	0.000146	0.197538	-0.000512	0.000803	0.000146
1985	0.000146	0.200332	-0.000183	0.000967	0.000146
1986	0.00031	0.202798	0.000146	0.002118	-1.9e-05
1987	0.00031	0.198524	0.00031	0.002611	-0.000512
1988	0.000146	0.202305	0.000639	0.003268	-0.000512
1989	-0.000183	0.201812	0.00031	0.00146	-0.000183
1990	-0.000347	0.201483	0.000803	0.001132	-1.9e-05
1991	-0.000183	0.199018	0.000639	0.005405	0.00031
1992	-0.000512	0.201812	0.00294	-0.000183	0.000146
1993	-0.000347	0.197538	0.006391	0.00294	0.00031
1994	0.000146	0.199018	0.003761	0.009843	0.000474
1995	0.00031	0.19836	0.006227	0.016088	0.000474
1996	0.00031	0.197703	0.00146	0.022169	-1.9e-05
1997	0.000474	0.19573	-0.001005	0.031373	-0.000183
1998	0.000474	0.195566	0.003761	0.035154	-0.000347
1999	0.000146	0.198031	0.001789	0.044686	-0.000347
2000	-0.000183	0.19721	0.000146	0.048631	-0.000183
2001	-0.000183	0.20099	0.000146	0.053069	-0.000183
2002	-0.000512	0.195402	0.002447	0.060465	0.000146
2003	-0.000512	0.198524	-0.000512	0.066875	0.00031
2004	-0.000347	0.197703	-0.000512	0.071641	0.000146
2005	-1.9e-05	0.199182	-0.000183	0.077722	0.000474
2006	-1.9e-05	0.200332	0.003926	0.07953	0.00031
2007	0.000146	0.204441	0.002118	0.081338	-1.9e-05
2008	0.00031	0.200497	0.005734	0.090542	-0.000347
2009	0.000474	0.199839	0.011651	0.0935	-0.000347
2010	0.000146	0.200825	0.017074	0.098267	-0.000512
2011	-1.9e-05	0.198689	0.015924	0.100896	-1.9e-05
2012	-0.000183	0.199675	0.018225	0.10895	-1.9e-05
2013	-0.000512	0.198853	0.004912	0.109279	0.00031
2014	-0.000347	0.200661	0.000803	0.112073	0.000474
2015	-0.000347	0.197703	0.004583	0.115853	0.000146
2016	0.000146	0.201154	0.003104	0.121441	0.000474
2017	0.00031	0.196552	0.004748	0.117168	0.000474
2018	0.000474	0.197867	0.000967	0.125714	-0.000347
2019	0.00031	0.200332	0.005241	0.126865	-0.000347
2020	0.00031	0.200004	0.003926	0.128837	-0.000183
2021	0.000146	0.198853	0.000639	0.133768	-0.000512
2022	-0.000347	0.201154	-1.9e-05	0.133932	-0.000183
2023	-0.000347	0.201976	0.00031	0.137877	-1.9e-05
2024	-0.000347	0.200332	0.000146	0.139849	0.00031
2025	-0.000347	0.200825	-0.000183	0.145108	0.000474
2026	-0.000183	0.199182	-0.000183	0.145437	0.00031
2027	0.000146	0.199182	-0.000347	0.148067	0.000639
2028	0.000146	0.19721	-0.000512	0.134097	0.00031
2029	0.000474	0.200332	-0.000347	0.13574	-1.9e-05
2030	0.000146	0.19836	0.000146	0.141328	-1.9e-05
2031	0.000474	0.202469	0.000146	0.142972	-0.000347
2032	0.000146	0.19573	0.000474	0.140178	-0.000347
2033	-0.000183	0.200332	0.000474	0.145273	-0.000676
2034	-0.000183	0.196717	0.000639	0.147081	-1.9e-05
2035	-0.000347	0.19573	-0.000183	0.148067	0.00031
2036	-0.000347	0.200004	-0.000183	0.150368	0.000474
2037	-0.000347	0.199675	-0.000347	0.15497	-1.9e-05
2038	-1.9e-05	0.198853	-0.000512	0.155792	0.000639
2039	-1.9e-05	0.201647	-0.000512	0.156778	0.00031
2040	0.00031	0.203291	-1.9e-05	0.157928	-0.000183
2041	0.000474	0.199018	0.000146	0.161709	-0.000347
2042	0.000474	0.201647	0.000474	0.161051	-0.000512
2043	0.000146	0.19721	0.000474	0.162037	-0.000512
2044	-0.000183	0.199839	0.000474	0.164667	-0.000512
2045	-0.000347	0.200497	0.00031	0.165489	-1.9e-05
2046	-0.000347	0.200168	0.000146	0.168447	0.00031
2047	-0.000183	0.197538	-0.000347	0.168283	0.000474
2048	-0.000347	0.197374	-0.000347	0.171406	0.00031
2049	-1.9e-05	0.197374	-0.000512	0.171241	0.000146
2050	0.00031	0.196717	-0.000512	0.173049	0.00031
2051	0.00031	0.19458	-0.000183	0.173049	-0.000183
2052	0.000474	0.196717	-0.000183	0.173871	-0.000347
2053	0.000474	0.196223	0.000146	0.176008	-0.000183
2054	-1.9e-05	0.199018	0.00031	0.171734	-0.000676
2055	-0.000347	0.201483	0.00031	0.176829	-0.000676
2056	-0.000183	0.206085	0.000474	0.175021	0.000146
2057	-0.000512	0.202469	-1.9e-05	0.173049	0.00031
2058	-0.000512	0.201483	-0.000183	0.174364	0.00031
2059	-0.000347	0.201976	-0.000347	0.180281	0.000474
2060	0.000146	0.197538	-0.000512	0.180445	0.000474
2061	0.00031	0.202633	-0.000347	0.182417	0.00031
2062	0.00031	0.199346	-0.000183	0.184061	-0.000183
2063	0.00031	0.198689	-1.9e-05	0.185047	-0.000183
2064	0.00031	0.199675	0.00031	0.184061	-0.000183
2065	0.00031	0.199182	0.00031	0.184718	-0.000512
2066	-0.000183	0.197703	0.00031	0.182911	-0.000512
2067	-0.000183	0.201154	0.000474	0.185376	-1.9e-05
2068	-0.000347	0.204441	0.00031	0.187677	-1.9e-05
2069	-0.000512	0.199839	-0.000183	0.186033	0.00031
2070	-0.000183	0.199018	-0.000183	0.188827	0.000146
2071	0.000146	0.200825	-0.000347	0.184554	0.000474
2072	0.000146	0.201647	-0.000347	0.185047	0.00031
2073	0.000474	0.201483	-0.000183	0.186033	-0.000183
2074	0.00031	0.199018	-0.000183	0.186855	-0.000347
2075	0.00031	0.198524	0.00031	0.18932	-0.000512
2076	0.000146	0.200497	0.00031	0.190142	-0.000512
2077	-0.000183	0.199346	0.00031	0.190142	-0.000183
2078	-0.000183	0.204277	0.000639	0.191621	-1.9e-05
2079	-1.9e-05	0.196552	-1.9e-05	0.191128	0.000146
2080	-0.000183	0.199675	-0.000183	0.193101	0.000146
2081	-0.000347	0.199182	-0.000347	0.19721	0.000474
2082	0.000146	0.198524	-0.000512	0.192115	0.000639
2083	0.00031	0.199182	-0.000676	0.191621	0.000146
2084	0.00031	0.201154	-0.000183	0.19195	0.000146
2085	0.00031	0.195073	-1.9e-05	0.191457	-0.000347
2086	0.000474	0.197374	0.000146	0.191293	-0.000512
2087	0.000146	0.201483	0.00031	0.193265	-0.000347
2088	-1.9e-05	0.196059	0.000639	0.1908	-0.000512
2089	-0.000183	0.203291	0.00031	0.192936	-1.9e-05
2090	-0.000512	0.200497	-1.9e-05	0.191293	0.000146
2091	-0.000512	0.200168	-0.000347	0.194744	0.000146
2092	-0.000347	0.199018	-0.000183	0.190471	0.00031
2093	0.000146	0.199511	-0.000347	0.193429	0.000474
2094	0.000146	0.199018	-0.000676	0.194744	0.00031
2095	0.000474	0.200168	-0.000347	0.195566	-1.9e-05
2096	0.000474	0.195237	0.000146	0.192772	-0.000183
2097	0.000474	0.200332	0.000474	0.194251	-0.000347
2098	0.00031	0.198031	0.000146	0.197045	-0.000183
2099	-0.000183	0.198196	0.00031	0.195566	-0.000183
2100	-0.000347	0.198524	0.00031	0.196717	-1.9e-05
2101	-0.000347	0.19836	0.000146	0.196717	-0.000183
2102	-0.000347	0.201319	-0.000183	0.194909	0.00031
2103	-0.000512	0.199511	-0.000183	0.194416	0.000639
2104	-1.9e-05	0.200168	-0.000347	0.194744	0.000474
2105	0.000146	0.197703	-0.000512	0.193594	0.000146
2106	0.00031	0.201154	-0.000347	0.19573	-0.000183
2107	0.000146	0.193429	-1.9e-05	0.195566	-0.000512
2108	0.000474	0.199511	0.00031	0.191786	-0.000347
2109	0.000146	0.199511	0.000474	0.195895	-0.000512
2110	-0.000183	0.197045	0.000474	0.197045	-0.000183
2111	-0.000347	0.202305	0.00031	0.197374	-1.9e-05
2112	-0.000183	0.202305	-1.9e-05	0.197045	0.00031
2113	-0.000347	0.200825	-0.000183	0.196881	0.000474
2114	-0.000512	0.201154	-0.000512	0.197045	0.00031
2115	-1.9e-05	0.201154	-0.000676	0.19721	0.000474
2116	0.000146	0.198031	-0.000676	0.19836	0.000474
2117	-0.000183	0.201647	-0.000183	0.200825	-1.9e-05
2118	0.00031	0.198031	-1.9e-05	0.198196	-0.000183
2119	0.000474	0.199839	0.000474	0.197374	-0.000347
2120	-1.9e-05	0.200168	0.000146	0.195566	-0.000347
2121	-0.000183	0.199182	0.00031	0.195073	-0.000347
2122	-0.000347	0.198031	0.000146	0.194087	-0.000183
2123	-0.000347	0.202798	-1.9e-05	0.197374	0.000146
2124	-0.000347	0.199511	-0.000183	0.191786	0.000146
2125	-0.000347	0.198031	-0.000183	0.197045	0.000474
2126	-0.000183	0.199675	-0.000183	0.193429	0.000474
2127	0.000146	0.200332	-0.000347	0.196388	0.000146
2128	0.00031	0.199182	-0.000347	0.199675	-1.9e-05
2129	0.000639	0.198689	0.000146	0.196059	-1.9e-05
2130	0.00031	0.199346	-1.9e-05	0.197703	-0.000512
2131	0.000146	0.199018	0.00031	0.198689	-0.000183
2132	-0.000183	0.200004	0.000474	0.200825	-0.000183
2133	-0.000347	0.20099	0.000639	0.198689	0.001132
2134	-0.000512	0.205263	0.000146	0.198524	-0.000183
2135	-0.000347	0.203948	-0.000347	0.19573	0.000803
2136	-0.000183	0.198031	-0.000347	0.198689	0.000803
2137	0.000146	0.198689	-0.000183	0.199511	0.000474
2138	0.000146	0.200661	-0.000676	0.197703	0.000639
2139	0.00031	0.198524	-0.000183	0.196388	0.000146
2140	0.000146	0.199346	0.000146	0.199018	-0.000183
2141	0.00031	0.197538	0.00031	0.195402	-0.000347
2142	0.00031	0.198196	0.00031	0.194251	0.000146
2143	-0.000347	0.199018	0.000474	0.19836	-0.000512
2144	-0.000183	0.201319	0.000474	0.196881	0.000639
2145	-0.000512	0.199018	-1.9e-05	0.199675	-1.9e-05
2146	-0.000512	0.199675	-0.000183	0.197374	0.000474
2147	-0.000347	0.199839	-0.000512	0.201647	0.000639
2148	-1.9e-05	0.198689	-0.000347	0.19836	0.000474
2149	0.000146	0.200332	-0.000347	0.198853	0.00031
2150	0.00031	0.200497	-0.000347	0.198853	0.000474
2151	0.000639	0.200497	0.000146	0.202798	0.000474
2152	0.00031	0.200825	-1.9e-05	0.196717	0.000803
2153	0.000146	0.200661	0.00031	0.19836	0.000474
2154	0.008857	0.199346	0.000474	0.198196	0.004583
2155	0.016253	0.200168	0.000474	0.19836	0.009678
2156	0.018554	0.199018	0.000146	0.198689	-0.00873
2157	0.020362	0.199182	-0.000183	0.200497	0.002447
2158	0.028415	0.200825	-0.000512	0.201812	0.002447
2159	0.032031	0.199346	-0.000676	0.195895	0.000639
2160	0.036304	0.201483	-0.000347	0.198853	0.004748
2161	0.039263	0.200168	-0.000347	0.197703	0.002282
2162	0.046001	0.200168	0.000146	0.201483	0.003268
2163	0.045837	0.200004	0.000146	0.198031	0.00146
2164	0.04896	0.200332	0.00031	0.19836	-0.002155
2165	0.049124	0.200004	0.000474	0.198689	0.001132
2166	0.048467	0.200004	0.000474	0.198689	0.002118
2167	0.051589	0.200497	0.000146	0.197045	0.003104
2168	0.050439	0.200661	-0.000347	0.198031	0.012308
2169	0.047645	0.200168	-0.000512	0.200332	0.015595
2170	0.000146	0.200661	-0.000183	0.19721	0.010171
2171	0.00031	0.198524	-0.000512	0.195566	0.009185
2172	0.00031	0.200332	-0.000347	0.194416	0.018718
2173	0.000474	0.196717	0.00031	0.19721	0.004419
2174	0.002611	0.199346	0.00031	0.196552	0.009514
2175	0.011486	0.198524	0.000146	0.193922	0.017239
2176	0.017074	0.197538	0.000474	0.196552	0.018225
2177	0.021676	0.199346	0.000474	0.199182	0.006884
2178	0.022334	0.20099	0.000146	0.197374	0.008692
2179	0.029401	0.201647	-0.000183	0.196059	0.016088
2180	0.029401	0.199675	-0.000512	0.196717	0.021841
2181	0.031702	0.200004	-0.000512	0.20099	0.00935
2182	0.033346	0.196059	-0.000512	0.192115	0.005405
2183	0.034003	0.201976	-0.000183	0.200004	0.00787
2184	0.035318	0.204934	0.000146	0.199182	0.007706
2185	0.03236	0.201812	0.000146	0.199182	0.010829
2186	0.028744	0.200497	0.00031	0.19836	0.008199
2187	0.030387	0.200168	0.000146	0.199675	0.018389
2188	0.027265	0.200168	0.000474	0.199675	0.003597
2189	0.029237	0.199839	0.000146	0.197703	0.007049
2190	0.031373	0.198524	-0.000183	0.196881	0.011158
2191	0.031045	0.200004	-0.000512	0.198031	0.015431
2192	0.034661	0.199839	-0.000512	0.201154	0.022005
2193	0.034825	0.199839	-0.000512	0.198524	0.022991
2194	0.038276	0.200497	-0.000183	0.200168	0.02973
2195	0.037783	0.198689	0.000146	0.197867	0.009021
2196	0.040906	0.199346	0.000146	0.199511	0.010171
2197	0.04107	0.197374	0.000474	0.19573	0.002282
2198	0.04255	0.199839	0.00031	0.200004	0.003761
2199	0.046494	0.197538	0.00031	0.199018	0.00409
2200	0.037619	0.198031	-0.000183	0.198853	0.010829
2201	0.040413	0.207071	-0.000183	0.198031	0.014445
2202	0.042878	0.202633	-0.000347	0.199839	0.024306
2203	0.040577	0.199511	-0.000512	0.199182	0.015431
2204	0.040413	0.201647	-0.000512	0.198689	0.008363
2205	0.043865	0.201483	-0.000347	0.200004	0.00672
2206	0.043371	0.202305	0.000146	0.195895	0.007377
2207	0.052247	0.200661	0.000146	0.19836	0.010336
2208	0.044686	0.198031	0.000146	0.200004	0.010993
2209	0.04896	0.198853	0.00031	0.200004	0.019047
2210	0.052247	0.198689	0.000146	0.197538	0.019704
2211	0.053069	0.200497	0.000146	0.200497	0.008035
2212	0.054548	0.198196	-1.9e-05	0.19836	0.007377
2213	0.060136	0.201319	-0.000512	0.199182	0.013952
2214	0.057671	0.199346	-0.000512	0.197045	0.006391
2215	0.058985	0.198853	-0.000676	0.196717	0.007706
2216	0.060793	0.204606	-0.000347	0.198853	0.017403
2217	0.058657	0.200497	-1.9e-05	0.197703	0.024799
2218	0.06408	0.198689	0.00031	0.19836	0.028579
2219	0.058985	0.201319	0.000639	0.196223	0.034168
2220	0.063752	0.198031	0.000474	0.193758	0.027922
2221	0.069504	0.202633	0.00031	0.197374	0.030552
2222	0.067368	0.199182	0.00031	0.198524	0.035975
2223	0.063587	0.199346	-0.000347	0.194087	0.041399
2224	0.065231	0.201319	-0.000512	0.199839	0.047809
2225	0.063094	0.197867	-0.000512	0.198853	0.052247
2226	0.065067	0.200168	-0.000512	0.199182	0.031209
2227	0.065724	0.199675	-0.000347	0.200168	0.040577
2228	0.065724	0.198196	0.000146	0.200004	0.040084
2229	0.066875	0.19721	0.00031	0.194087	0.03729
2230	0.063259	0.200168	0.000474	0.199018	0.047316
2231	0.067039	0.198196	0.000474	0.195073	0.054712
2232	0.065888	0.200004	0.00031	0.197045	0.056356
2233	0.06556	0.200168	0.000146	0.19721	0.057671
2234	0.064245	0.201319	-0.000183	0.196881	0.063752
2235	0.067696	0.20214	-0.000512	0.199182	0.066217
2236	0.063259	0.201483	-0.000512	0.199675	0.063094
2237	0.065231	0.200332	-0.000512	0.198689	0.054383
2238	0.060465	0.203291	-0.000347	0.199675	0.064574
2239	0.0603	0.199511	-0.000183	0.201154	0.067368
2240	0.056191	0.198689	0.000146	0.199511	0.069011
2241	0.056027	0.199511	0.000146	0.204113	0.076407
2242	0.056027	0.199346	0.00031	0.199675	0.002775
2243	0.054548	0.199346	0.000474	0.201483	0.002447
2244	0.055041	0.19836	0.000146	0.199018	0.00294
2245	0.053069	0.200497	-0.000183	0.198853	0.011158
2246	0.05652	0.197703	-0.000183	0.196223	0.00935
2247	0.051918	0.200168	-0.000347	0.198853	0.007542
2248	0.054219	0.19836	-0.000347	0.197703	0.009678
2249	0.052082	0.199018	-1.9e-05	0.196717	0.019868
2250	0.053233	0.20099	-1.9e-05	0.19721	0.022169
2251	0.052411	0.199839	-1.9e-05	0.197867	0.028086
2252	0.051589	0.198196	0.000146	0.200004	0.031373
2253	0.054712	0.197867	0.000146	0.19836	0.012965
2254	0.059807	0.197867	0.000474	0.19836	0.004912
2255	0.056849	0.197374	0.000146	0.199346	0.008199
2256	0.053069	0.201483	-0.000183	0.198689	0.014445
2257	0.062108	0.196552	-0.000183	0.196717	0.015924
2258	0.058492	0.19721	-0.000183	0.199675	0.025621
2259	0.063094	0.196717	-0.000512	0.198031	0.031867
2260	0.061615	0.200168	-0.000347	0.200497	0.039427
2261	0.064574	0.194909	-1.9e-05	0.199675	0.04255
2262	0.067532	0.197703	0.00031	0.197867	0.051589
2263	0.067368	0.200332	0.00031	0.197374	0.054548
2264	0.069997	0.199511	0.000474	0.19721	0.0603
2265	0.069504	0.195566	0.00031	0.197703	0.052411
2266	0.069504	0.197538	0.00031	0.196388	0.058985
2267	0.067532	0.197703	-0.000183	0.198196	0.064245
2268	0.063587	0.198524	-0.000183	0.197538	0.059314
2269	0.063916	0.199839	-0.000183	0.196881	0.04633
2270	0.059478	0.198196	-0.000512	0.194909	0.026936
2271	0.064902	0.199346	-0.000512	0.19836	0.033017
2272	0.065395	0.19836	-1.9e-05	0.197703	0.039756
2273	0.064245	0.201154	0.00031	0.197867	0.043865
2274	0.064902	0.199675	0.000146	0.197703	0.048302
2275	0.067696	0.200661	0.00031	0.201812	0.05537
2276	0.064409	0.198196	0.00031	0.198524	0.057177
2277	0.06671	0.196717	0.000146	0.202305	0.056684
2278	0.070983	0.199675	-0.000183	0.200661	0.059314
2279	0.07049	0.198031	-0.000347	0.199182	0.006062
2280	0.071805	0.197703	-0.000347	0.198853	0.00031
2281	0.067368	0.200004	-0.000676	0.198524	0.006227
2282	0.064738	0.197045	-0.000183	0.196552	0.012637
2283	0.06293	0.196552	0.000146	0.200332	0.022663
2284	0.067039	0.199675	0.00031	0.198524	0.027922
2285	0.065067	0.201812	0.000146	0.198524	0.032853
2286	0.068025	0.202798	0.000474	0.201976	0.012144
2287	0.066381	0.199018	0.00031	0.198031	0.018389
2288	0.068682	0.200332	0.000474	0.197538	0.026114
2289	0.068189	0.200332	-0.000347	0.197867	0.033346
2290	0.066217	0.201319	-0.000183	0.204934	0.03729
2291	0.066381	0.198689	-0.000676	0.199511	0.037619
2292	0.068025	0.201647	-0.000512	0.198853	0.002775
2293	0.066875	0.198196	-0.000183	0.201812	0.006227
2294	0.06556	0.19836	0.000146	0.199018	0.010171
2295	0.067368	0.196223	0.00031	0.19836	-0.000512
2296	0.064902	0.197867	0.000474	0.198524	0.009678
2297	0.06934	0.196059	0.000639	0.19836	0.00935
2298	0.066875	0.197703	0.000639	0.199675	0.020526
2299	0.066546	0.195073	0.000146	0.198031	0.025457
2300	0.067696	0.200004	-0.000183	0.199018	0.032688
2301	0.070819	0.199018	-0.000512	0.198853	0.037948
2302	0.066053	0.197703	-0.000347	0.197538	0.04107
2303	0.074271	0.200004	-0.000512	0.200168	0.042385
2304	0.071148	0.199346	-0.000183	0.197867	0.054219
2305	0.074271	0.19836	0.000146	0.202305	0.054383
2306	0.075092	0.200004	0.00031	0.19721	0.057342
2307	0.071805	0.204606	0.00031	0.198853	0.071805
2308	0.075421	0.197045	0.000474	0.19836	0.060629
2309	0.0769	0.198853	0.00031	0.198689	0.075092
2310	0.078708	0.201319	0.00031	0.197045	0.079366
2311	0.076079	0.201812	-0.000183	0.199346	0.084296
2312	0.081009	0.201647	-0.000347	0.198524	0.007542
2313	0.070655	0.199346	-0.000347	0.199182	0.013952
2314	0.077722	0.200332	-0.000347	0.200168	0.022005
2315	0.079037	0.19721	-0.000347	0.200168	0.03088
2316	0.079037	0.194251	0.000146	0.200004	0.03236
2317	0.080516	0.196717	0.00031	0.197538	0.040249
2318	0.07953	0.199839	-1.9e-05	0.198853	0.045837
2319	0.084132	0.197045	0.00031	0.196223	-0.007086
2320	0.087584	0.200497	0.00031	0.19721	0.010007
2321	0.090871	0.198031	0.000146	0.197538	0.009843
2322	0.09613	0.198524	-0.000183	0.202305	0.017239
2323	0.100732	0.198524	-0.000347	0.200825	0.022827
2324	0.10139	0.201812	-0.000512	0.197045	0.023484
2325	0.106978	0.201647	-0.000676	0.198853	0.014116
2326	0.107964	0.207564	-0.000183	0.200661	0.023649
2327	0.113716	0.197867	0.000146	0.20362	0.030059
2328	0.116675	0.197867	0.000474	0.199018	0.036304
2329	0.119304	0.200332	0.00031	0.201647	0.043536
2330	0.122427	0.197045	0.000474	0.196059	0.040577
2331	0.126536	0.197703	0.000474	0.188334	0.05274
2332	0.127029	0.196717	0.00031	0.177651	0.058164
2333	0.131467	0.200004	-0.000183	0.172227	0.063094
2334	0.135904	0.197374	-0.000512	0.16401	0.067368
2335	0.135411	0.200332	-0.000512	0.15875	0.072956
2336	0.138041	0.200661	-0.000512	0.154148	0.07575
2337	0.141493	0.201812	-0.000347	0.151354	0.086926
2338	0.141328	0.198524	0.000146	0.14478	0.084461
2339	0.147409	0.200332	0.00031	0.136562	0.091199
2340	0.149053	0.198196	0.000146	0.132289	0.095801
2341	0.149875	0.200004	0.000474	0.128344	0.090871
2342	0.152176	0.199018	0.000474	0.125221	0.077558
2343	0.151847	0.20099	0.000146	0.118811	0.080516
2344	0.155134	0.198031	-0.000183	0.119633	0.087255
2345	0.157928	0.198524	-0.000347	0.122427	0.088734
2346	0.157928	0.200497	-0.000512	0.113881	0.093665
2347	0.158093	0.195895	-0.000512	0.111251	0.096294
2348	0.159901	0.198524	-0.000347	0.111415	0.103362
2349	0.159243	0.195895	-1.9e-05	0.107142	0.104019
2350	0.162037	0.202305	0.00031	0.105992	0.102869
2351	0.162037	0.19836	0.000146	0.105334	0.106978
2352	0.165982	0.198853	0.00031	0.103033	0.103197
2353	0.16779	0.198689	0.000474	0.099253	0.107635
2354	0.165489	0.198853	0.000146	0.100239	0.106485
2355	0.170913	0.197703	-0.000347	0.098431	0.097445
2356	0.172227	0.199839	-0.000512	0.096952	0.102047
2357	0.172227	0.199675	-0.000512	0.097774	0.00031
2358	0.172556	0.199511	-0.000512	0.098431	0.008363
2359	0.173707	0.202469	-0.000347	0.09876	0.014445
2360	0.175515	0.204606	-1.9e-05	0.09498	0.022169
2361	0.175679	0.201812	0.00031	0.094158	0.028086
2362	0.174693	0.201319	0.00031	0.094815	0.035647
2363	0.178802	0.199675	0.00031	0.095308	0.038441
2364	0.176501	0.199182	0.000474	0.09498	0.047809
2365	0.176665	0.197703	0.000474	0.100568	0.05537
2366	0.176829	0.196223	-0.000183	0.103526	0.058985
2367	0.179788	0.200004	-0.000183	0.10895	0.035647
2368	0.176172	0.198689	-0.000347	0.109607	0.018061
2369	0.178144	0.200825	-0.000512	0.116017	0.016253
2370	0.184061	0.199346	-0.000183	0.114374	0.024306
2371	0.183239	0.201154	-1.9e-05	0.121441	0.031867
2372	0.183732	0.19721	0.000146	0.123413	0.035647
2373	0.182253	0.199675	0.000474	0.127522	0.04255
2374	0.186691	0.199675	0.00031	0.125221	0.044193
2375	0.182746	0.199675	0.000146	0.127029	0.049288
2376	0.185212	0.202633	0.000474	0.132289	0.053726
2377	0.185212	0.201154	-0.000347	0.136069	0.051261
2378	0.188992	0.200004	-0.000347	0.141821	0.055534
2379	0.185047	0.199839	-0.000183	0.141164	0.054548
2380	0.18439	0.200332	-0.000512	0.148067	0.049781
2381	0.186033	0.199675	-0.000512	0.144287	0.022498
2382	0.186855	0.199346	0.00031	0.149875	0.026771
2383	0.182253	0.197703	0.00031	0.15119	0.034332
2384	0.186033	0.197703	0.00031	0.152833	0.039263
2385	0.188827	0.20214	0.000474	0.154312	0.042878
2386	0.185376	0.204113	0.000474	0.155956	0.04633
2387	0.189978	0.197703	0.000474	0.158421	0.054219
2388	0.187841	0.20214	-1.9e-05	0.158586	0.061286
2389	0.188663	0.199346	-0.000183	0.160229	0.063916
2390	0.188827	0.200004	-0.000347	0.160394	0.071477
2391	0.190471	0.199511	-0.000512	0.166146	0.078544
2392	0.18817	0.199675	-0.000183	0.16401	0.080516
2393	0.192279	0.200168	-0.000183	0.169598	0.085776
2394	0.189156	0.199675	-1.9e-05	0.165817	0.089227
2395	0.190964	0.196717	0.00031	0.168447	0.091692
2396	0.189485	0.198031	0.000474	0.167625	0.097281
2397	0.1908	0.200497	0.000474	0.174693	0.100239
2398	0.189156	0.19573	0.000146	0.176008	0.102376
2399	0.189485	0.199346	-0.000347	0.17535	0.108786
2400	0.18817	0.200004	-0.000347	0.171899	0.106649
2401	0.187677	0.203784	-0.000512	0.176829	0.114045
2402	0.191621	0.198853	-0.000512	0.177815	0.118976
2403	0.189156	0.199182	-0.000512	0.176665	0.119633
2404	0.192772	0.198689	-1.9e-05	0.18439	0.117003
2405	0.190635	0.198524	0.000146	0.177487	0.114867
2406	0.190964	0.200168	0.000146	0.175679	0.029072
2407	0.192115	0.198196	0.00031	0.178966	0.036962
2408	0.195895	0.199511	0.000474	0.176172	0.03236
2409	0.19195	0.197867	0.00031	0.179952	0.036797
2410	0.195402	0.202469	-0.000183	0.184225	0.043536
2411	0.193429	0.196388	-0.000183	0.180281	0.046494
2412	0.193922	0.197045	-0.000676	0.184718	0.049781
2413	0.192443	0.198853	-0.000512	0.186033	0.048631
2414	0.189485	0.199182	-0.000183	0.185376	0.050603
2415	0.191786	0.19721	0.000146	0.188006	0.051261
2416	0.188663	0.201976	0.000474	0.187019	0.059643
2417	0.192772	0.199511	0.00031	0.187184	0.027265
2418	0.19195	0.200332	0.00031	0.186362	0.012472
2419	0.190964	0.202469	0.000474	0.188334	0.019047
2420	0.190964	0.19721	0.00031	0.184554	0.02447
2421	0.195402	0.200661	-0.000183	0.187184	0.029237
2422	0.192772	0.199018	-0.000183	0.184225	0.03729
2423	0.195073	0.196881	-0.000512	0.187513	0.039427
2424	0.19458	0.199839	-0.000512	0.185376	0.044851
2425	0.194744	0.195073	-0.000512	0.186691	0.04748
2426	0.194909	0.20099	0.000146	0.185705	0.047152
2427	0.199182	0.198031	0.00031	0.189485	0.028908
2428	0.196223	0.197374	0.000146	0.18817	0.01313
2429	0.194251	0.199346	0.00031	0.189814	0.018882
2430	0.196717	0.197867	0.00031	0.19195	0.024142
2431	0.193922	0.199346	0.000146	0.192443	0.030387
2432	0.191621	0.199346	-1.9e-05	0.191786	0.035647
2433	0.194744	0.201319	-0.000347	0.192772	0.040906
2434	0.196223	0.200332	-0.000347	0.192608	0.003104
2435	0.192279	0.202305	-0.000512	0.195073	0.000639
2436	0.194744	0.202962	-0.000512	0.194416	-0.000347
2437	0.193101	0.196388	-1.9e-05	0.192608	0.000803
2438	0.195895	0.200168	-1.9e-05	0.19195	-1.9e-05
2439	0.193101	0.201154	0.00031	0.194087	-0.000512
2440	0.195566	0.195566	0.000474	0.193265	-0.000183
2441	0.194744	0.199675	0.000474	0.192115	-0.000183
2442	0.196388	0.198689	0.000146	0.194251	0.000146
2443	0.197374	0.196552	-0.000183	0.1908	0.000474
2444	0.196881	0.199675	-0.000512	0.194087	0.00031
2445	0.195566	0.196388	-0.000347	0.192936	0.000639
2446	0.194251	0.198689	-0.000512	0.193594	0.000639
2447	0.198031	0.19721	-0.000183	0.192115	-1.9e-05
2448	0.192279	0.199182	-1.9e-05	0.196717	-0.000347
2449	0.196717	0.197374	-1.9e-05	0.194909	-0.000347
2450	0.194416	0.201812	0.00031	0.193758	-0.000347
2451	0.194744	0.202305	0.000474	0.193594	-0.000512
2452	0.197045	0.201154	0.00031	0.194744	-0.000347
2453	0.196223	0.200004	0.000474	0.196059	0.000146
2454	0.195073	0.200168	-1.9e-05	0.190964	0.00031
2455	0.198031	0.199675	-0.000183	0.19458	0.000474
2456	0.194087	0.199346	-0.000347	0.19458	0.00031
2457	0.195402	0.201154	-0.000512	0.193101	0.000474
2458	0.197045	0.199675	-0.000676	0.193265	0.000146
2459	0.197703	0.199675	-1.9e-05	0.19195	-0.000183
2460	0.196552	0.193922	0.00031	0.189485	-0.000347
2461	0.193265	0.196223	0.00031	0.192115	-0.000676
2462	0.196223	0.198031	0.00031	0.195566	-0.000512
2463	0.197374	0.19836	0.000474	0.193758	-0.000183
2464	0.19458	0.197538	0.000146	0.197374	0.000146
2465	0.195566	0.200168	-0.000183	0.191293	0.000146
2466	0.198031	0.200168	-0.000183	0.195237	0.000146
2467	0.193429	0.200168	-0.000512	0.19458	0.00031
2468	0.196223	0.200825	-0.000512	0.193429	0.00031
2469	0.196059	0.203784	-0.000512	0.192279	-0.000183
2470	0.197045	0.199675	0.000146	0.192608	-0.000347
2471	0.196388	0.198853	0.00031	0.189814	-0.000347
2472	0.197045	0.198689	0.000146	0.191457	-0.000512
2473	0.19721	0.199018	0.00031	0.189978	-0.000347
2474	0.197703	0.20099	0.00031	0.191128	-0.000347
2475	0.199182	0.194087	0.00031	0.190635	0.000146
2476	0.196223	0.198196	-0.000183	0.185869	0.00031
2477	0.199511	0.19721	-0.000347	0.179623	0.00031
2478	0.19721	0.199839	-0.000183	0.165324	0.000474
2479	0.198031	0.199675	-0.000512	0.156285	0.00031
2480	0.195237	0.19721	-0.000183	0.161051	0.00031
2481	0.201647	0.196717	-1.9e-05	0.159079	-0.000183
2482	0.199511	0.19836	0.000474	0.157271	-0.000347
2483	0.201812	0.200825	0.00031	0.160394	-0.000512
2484	0.199675	0.200825	0.000474	0.161215	-0.000512
2485	0.203948	0.20214	0.00031	0.162202	-0.000512
2486	0.201647	0.19836	0.000474	0.159736	0.000146
2487	0.196388	0.200497	-0.000183	0.159079	0.000146
2488	0.186033	0.198524	-0.000183	0.158093	0.000474
2489	0.028086	0.201976	-0.000347	0.159408	0.000474
2490	0.000474	0.198196	-0.000183	0.159572	0.00031
2491	0.000639	0.200168	-0.000347	0.160558	0.000146
2492	0.000146	0.195566	0.000146	0.162037	-0.000183
2493	0.001132	0.198853	0.002282	0.160394	-0.000347
2494	0.00031	0.197703	0.008857	0.160558	-0.000512
2495	0.00031	0.19836	0.000967	0.164667	-0.000676
2496	-0.000183	0.195895	0.000639	0.163023	-0.000183
2497	-0.000347	0.193758	0.000474	0.166475	-1.9e-05
2498	-0.000347	0.197374	0.010336	0.171077	0.00031
2499	-0.000183	0.19836	0.013952	0.169433	0.00031
