Ladekurvenmessung

Zeit: 2018_05_04 10.04.51

Info: FVA3, v = 1.05, T = 23, F = 20, h = 591.0

Ladewiderstand[Ohm]: 1012700

Störkapazität[pF]: 0.000000

Entladezeit[ms]: 200

Abtastrate[Hz]: 250000

Anzahl der Messwerte: 2500.000000

Verzögerung[ms]: 1

Ladespannung[V]: 0.200000


	Kurve_1	Kurve_2	Kurve_3	Kurve_4
0	-0.002155	-1.9e-05	0.000803	-0.001498
1	0.002447	0.003268	0.003268	0.00031
2	0.000803	-0.001662	0.00146	-0.002813
3	0.00146	0.002118	-0.001991	0.000639
4	0.005569	0.003433	0.000639	-0.001498
5	0.001625	0.003433	-0.002484	0.000639
6	0.003433	0.002447	-0.001991	-0.001005
7	0.000474	0.00031	-0.000183	0.00146
8	0.001789	-0.003635	-0.008401	-0.000512
9	-0.000841	0.00031	-0.005771	-0.003306
10	0.000474	0.00146	-0.004456	0.00146
11	-0.001662	0.001954	-0.002484	0.001132
12	-0.003799	0.002118	0.001296	-0.001005
13	-0.003635	-0.000512	-0.005607	-0.001662
14	-0.001169	-1.9e-05	0.001296	0.002447
15	-0.004621	-0.001498	0.000803	-0.001991
16	0.000146	-0.001498	0.00031	-0.006757
17	0.00146	-0.002977	-0.001662	-0.001827
18	-0.000347	-0.001498	-0.000676	-1.9e-05
19	0.000803	0.002775	-0.004785	-0.003142
20	0.00031	0.000803	-0.001662	-0.000512
21	0.000146	-0.000841	-0.000841	-0.008072
22	0.001954	0.007049	-0.001991	-0.002155
23	0.001296	0.001789	-0.005443	-1.9e-05
24	-0.000512	-0.004128	-0.008237	-0.001498
25	0.002775	0.002447	-0.008894	0.000474
26	-0.001498	0.001954	-0.005771	-0.001169
27	-0.001169	0.001789	-0.003799	-0.001169
28	-0.002155	0.000639	-0.007415	-0.001334
29	-0.000676	0.000146	-0.001827	0.000967
30	-0.001334	-0.003963	-0.007744	-0.001827
31	-0.000841	0.00146	-0.001334	0.000146
32	-0.002813	0.000146	-0.000183	-0.000183
33	-0.007579	0.00031	-0.002648	0.002611
34	0.001625	-0.000347	-0.003799	-0.000841
35	-0.004456	0.00031	-0.004292	-0.001005
36	0.001296	0.005241	-0.004621	0.000967
37	-0.002484	0.00146	-0.003963	-0.000512
38	-0.001334	0.002118	-0.005936	-0.001662
39	-0.001005	0.000967	-0.003799	-0.000512
40	0.000803	0.002611	-0.001169	0.000474
41	-0.001662	-0.001005	-0.009223	-0.002155
42	0.000639	0.004748	-0.001334	-0.00232
43	0.001132	-0.002648	-0.003142	-0.001662
44	-0.001334	0.004419	-0.004621	0.001132
45	-0.005278	-0.00232	-0.003142	0.001132
46	-0.003142	0.002282	-0.003142	0.00294
47	-0.00232	-0.000841	-0.00347	-0.004456
48	-0.004785	0.000474	-0.002155	0.004748
49	-0.001827	0.000639	-0.00347	-0.000512
50	-0.000676	-0.001169	-0.002155	-1.9e-05
51	-0.005771	0.000639	-0.002648	0.001296
52	-0.0061	-0.000512	-0.003142	-0.001334
53	0.00031	0.000803	-0.00232	-0.000512
54	-0.001169	-0.001334	-0.001662	-0.001498
55	-0.000512	0.00294	0.000967	0.002118
56	0.000146	-0.000841	-0.004128	-1.9e-05
57	-0.000347	0.000803	-0.002813	0.00031
58	0.001789	-0.004621	-0.006264	-0.003142
59	0.001132	0.002447	-0.003963	-0.001334
60	-0.005443	-0.00347	-0.004785	-0.003142
61	-0.001005	-0.000347	-0.003142	0.001132
62	-0.002484	-0.000183	-0.003963	-0.000841
63	-0.002648	-0.000676	-0.002155	0.000146
64	-0.002977	-0.002484	-0.003963	-0.002977
65	0.00031	-0.00232	-0.006264	0.00031
66	0.00031	-0.002155	-0.002155	0.004419
67	-0.001662	-0.006264	-0.001662	0.002775
68	-0.001334	-1.9e-05	-0.004292	0.000967
69	0.00409	-0.000676	-0.000841	0.004419
70	-0.002648	0.001625	-0.001662	-0.001991
71	-0.00232	-0.002155	-0.001827	0.00031
72	-0.001662	-0.000512	0.000803	0.004255
73	-0.001334	-0.003635	-0.001169	0.000639
74	-0.000183	-0.000676	0.003761	0.001132
75	-0.002977	-0.001498	-0.001169	0.001132
76	0.001296	0.000474	-0.001334	0.00294
77	-0.001498	0.00031	-0.001662	0.00031
78	0.000146	0.003104	-0.001169	0.000803
79	-0.000347	0.000639	-0.004456	0.001132
80	-0.001334	0.001625	-0.002155	0.005076
81	-0.002813	0.003104	-0.005443	-0.000183
82	0.000146	0.002447	-0.004785	0.003268
83	-0.002813	-0.001827	-0.004128	0.001296
84	-0.00347	0.001132	-0.003306	0.003104
85	-0.001991	0.000803	-0.004621	0.002447
86	-0.004456	-0.002155	0.000146	0.000803
87	-0.00232	0.001954	-0.002484	0.00146
88	-0.002977	-0.001498	0.00031	0.00146
89	-0.000841	-0.000676	0.008528	0.001296
90	-0.001005	-0.001498	-0.003799	-0.000183
91	-0.014318	-0.000512	-0.002648	0.000803
92	-0.004621	0.000967	-0.000347	-0.002155
93	-0.000841	0.003597	-0.001498	0.002282
94	-0.002977	-0.000841	-0.000676	0.002118
95	-0.004621	0.000639	-0.001005	0.00146
96	-0.001662	-0.000183	0.000146	-1.9e-05
97	-0.00347	-0.000676	-1.9e-05	0.001625
98	-0.006593	-0.002484	-0.003799	-0.000347
99	-0.003142	-0.005114	-0.003142	0.007377
100	-0.001662	0.00031	0.001625	0.007542
101	-0.00347	-0.001005	-0.001169	0.002447
102	-0.010045	-0.000183	0.000639	0.004748
103	-0.005936	-0.000676	0.001625	-0.001334
104	-0.002648	0.002118	0.002118	0.001789
105	-0.004292	-0.002484	0.000474	-0.000676
106	-0.004949	-0.001005	0.001296	0.00031
107	-0.001827	-0.001334	-0.000676	-0.001169
108	-0.005607	-0.001005	0.003761	0.00031
109	-1.9e-05	-0.001827	0.001625	-0.000512
110	-0.002813	0.000474	0.004419	0.000146
111	-0.001005	-0.001334	-0.004292	0.000474
112	-0.000676	-0.000676	-0.001334	0.000474
113	-0.000841	0.00146	-0.00232	0.003761
114	-0.00347	-0.001498	0.001132	-0.001827
115	-0.004292	0.003926	-0.001827	-0.001827
116	-0.002813	-0.003635	-0.001169	0.002447
117	-0.002155	-0.003306	-1.9e-05	-0.000347
118	-0.005443	-0.000183	-0.001662	0.001296
119	-0.002813	-0.000841	0.00409	0.003926
120	-0.005936	-0.003963	-0.004128	0.000639
121	-1.9e-05	-0.001334	0.002447	0.002118
122	-0.00232	-0.005443	-0.010866	0.003104
123	-0.003306	-0.003142	-0.000512	-0.00232
124	-0.00347	-0.001498	0.002447	0.001954
125	-0.004292	0.001132	0.003926	-0.001005
126	-0.001827	0.005241	-0.000347	-0.00232
127	-0.000512	0.003268	0.002282	0.000967
128	-0.001169	-0.003799	-0.001005	-0.002155
129	-0.000676	0.001789	-0.001334	0.00031
130	-0.000347	0.000803	-0.000841	-0.000183
131	-0.003142	0.000474	-0.000841	0.001789
132	0.001625	-0.001334	0.00031	0.00294
133	0.00409	-0.004949	-0.005936	0.001132
134	0.000474	0.002611	-0.004949	0.002447
135	0.000803	-0.001334	-0.001991	-0.00873
136	-0.003635	0.000639	0.001132	0.000803
137	-0.00347	-0.004621	-0.001005	-0.000183
138	-0.001498	-0.004128	0.000639	0.002118
139	-0.004785	0.000474	0.001132	0.000146
140	-0.004456	0.000967	0.004255	0.00146
141	-0.001827	0.001789	0.002118	-0.000676
142	-0.003142	0.001954	0.004748	-0.001827
143	0.002775	0.00031	-1.9e-05	-0.003142
144	-0.001827	0.000474	0.003104	-0.000183
145	-0.001662	0.00031	0.000803	-0.001991
146	-0.004785	-0.001498	-0.00232	-0.006429
147	0.003104	0.003761	0.000639	-0.000676
148	-0.002484	-0.01366	-0.002155	0.000146
149	0.001132	-0.003142	-0.002484	0.006391
150	-0.000676	-0.002813	-0.003142	0.00294
151	0.000639	0.000639	0.001789	0.002447
152	-0.002648	0.001296	0.002118	0.003104
153	-0.001334	-0.002484	0.002611	0.001789
154	-0.001498	-0.001005	0.000639	0.000803
155	-0.00347	-0.000183	0.002775	-0.002484
156	-0.004456	-0.001169	-0.001827	0.002282
157	-0.003306	-0.001334	0.001625	0.002775
158	0.000639	-0.001991	0.00031	-0.00347
159	-0.003306	-0.002484	0.004419	-0.000512
160	-0.001005	-0.002648	0.00031	0.000474
161	-0.001991	0.000639	-0.001827	-0.001827
162	-0.003635	-0.00232	0.000639	-0.002813
163	-0.000841	-1.9e-05	-0.001005	-0.000183
164	-0.004949	-0.00232	-0.001498	-0.001662
165	-0.006429	-0.003306	-1.9e-05	0.003433
166	-0.000841	0.001132	0.000146	0.007377
167	-0.003799	-0.000347	-0.001005	0.001132
168	-0.001991	-0.001169	0.000803	0.003597
169	0.002611	-0.00232	-0.001334	0.002775
170	-0.001991	0.00031	0.003268	0.002611
171	-0.003306	-0.001498	-0.001498	-0.003142
172	-0.003635	-0.001991	-0.001991	-0.000841
173	-0.006264	-0.003799	-0.005278	-0.004456
174	-0.000183	-0.001334	0.004748	0.002447
175	-0.002484	0.001625	-0.001991	0.002611
176	-0.002977	-0.001334	-1.9e-05	0.000967
177	0.000639	-1.9e-05	0.002118	0.002282
178	-0.002155	-0.000841	-0.001334	0.003268
179	-0.001169	-0.000512	0.004255	0.000146
180	0.000639	0.000146	-0.000512	0.003104
181	-1.9e-05	0.00031	0.000639	0.001132
182	-0.003306	-0.004621	0.000967	0.00031
183	-0.003306	-0.001827	-0.00232	0.00294
184	0.002611	0.003104	-0.001662	0.001625
185	-0.001334	0.002118	0.000474	0.000639
186	-0.002813	-0.001334	-0.001169	0.000474
187	-0.001334	0.000803	0.002775	0.004748
188	-0.003306	-0.001498	-0.000841	0.002118
189	-0.002484	-0.001334	0.001789	0.005076
190	-0.001334	0.000967	0.000474	0.002282
191	0.001296	0.000146	0.003104	0.00672
192	-0.002648	0.002447	0.002282	0.003433
193	-0.004128	-0.006429	0.001625	-1.9e-05
194	-0.001169	0.00146	0.003926	0.001132
195	-0.002977	-0.001498	0.000474	0.000474
196	-0.000347	0.000146	0.003761	0.00031
197	0.001625	0.001296	0.000639	-0.000183
198	0.001296	0.001132	0.000967	0.003433
199	0.001625	0.000803	-0.002484	0.002282
200	0.001954	-1.9e-05	0.000474	0.006227
201	0.001954	0.000146	-0.001498	0.000146
202	0.001954	-0.000512	0.002775	0.004912
203	-1.9e-05	-0.000512	-0.002648	0.00031
204	-0.003635	0.00146	0.002447	0.001954
205	-0.00232	-0.000676	0.000639	0.00031
206	-0.001827	-0.000183	-1.9e-05	0.003433
207	-0.001498	-0.001005	0.00031	-0.000347
208	-0.003142	-0.006429	0.002447	-0.001169
209	-0.000512	-0.000347	0.002118	0.000803
210	-0.004621	-0.004785	-0.001169	-0.003306
211	-0.002155	0.00031	-0.001334	0.007213
212	-0.004128	-0.004292	-0.000841	-0.00347
213	-0.004621	-0.001991	0.000474	0.002775
214	-0.00347	-0.00232	-0.001662	-0.001334
215	0.000474	0.002611	0.002447	0.003926
216	0.001132	-0.002977	0.000146	0.002611
217	0.000639	0.000967	0.001132	0.002611
218	0.000967	0.000967	0.000639	-0.000676
219	-0.00232	0.000639	0.00146	-0.000183
220	0.002118	0.001132	-1.9e-05	0.000803
221	-0.002155	-0.000676	-1.9e-05	0.002118
222	0.000474	0.000803	-0.001005	-0.001498
223	-0.003306	-0.002813	-0.003963	0.006062
224	-0.001169	-0.002648	-0.001662	0.005076
225	-0.00232	-0.003306	-0.000512	0.001296
226	-0.001334	-0.001498	0.00031	0.002775
227	-0.002155	-0.002648	-0.000841	0.000146
228	-0.000841	0.000803	-0.00232	0.000967
229	-0.002648	-0.001498	0.001296	-0.002813
230	-0.002484	-0.000347	0.003761	0.004255
231	-0.003142	0.000803	-0.000347	-0.000676
232	0.002447	-0.000841	0.003926	0.00146
233	-0.001991	-0.002155	0.000474	-0.002813
234	-0.00347	0.005076	0.005569	0.000474
235	-0.002813	0.000146	0.00294	-0.001991
236	-0.004456	-0.000347	-0.001498	-0.001498
237	0.000474	0.003597	0.000803	-0.001334
238	-0.001827	-0.001334	0.001789	-0.001334
239	0.00031	0.001132	0.002282	-1.9e-05
240	-0.002813	-0.002155	-0.000512	-0.000183
241	-0.001498	-0.000183	0.00146	-0.001005
242	-0.001169	0.002118	0.000967	0.002282
243	-0.000676	-0.003963	0.003597	0.000639
244	-0.00232	-0.000183	0.002118	-0.000841
245	-0.001334	0.000474	0.001132	0.000967
246	-0.003963	-0.002648	0.001132	-0.002648
247	0.000639	0.000639	0.001954	-0.000841
248	-0.003306	0.003597	-0.000512	-0.002813
249	-0.006593	0.002118	0.006391	-0.00232
250	-0.004292	0.000146	-0.001991	-0.002155
251	0.00031	0.003926	0.006062	0.003761
252	0.00787	0.014773	0.012801	0.009185
253	0.015431	0.017896	0.019868	0.018061
254	0.028086	0.027922	0.026443	0.023156
255	0.032688	0.033839	0.038934	0.033017
256	0.039756	0.041892	0.041399	0.040249
257	0.045508	0.045179	0.047809	0.047152
258	0.054548	0.048631	0.054712	0.052411
259	0.058328	0.058164	0.058657	0.055698
260	0.063094	0.064902	0.066381	0.065231
261	0.06556	0.067532	0.070326	0.06556
262	0.072463	0.072298	0.076736	0.074928
263	0.078051	0.077229	0.08331	0.077065
264	0.083639	0.083475	0.090542	0.086597
265	0.086104	0.086597	0.092679	0.088898
266	0.092843	0.092514	0.098431	0.101554
267	0.097938	0.099089	0.102047	0.096788
268	0.100896	0.103362	0.10517	0.104512
269	0.104348	0.106978	0.109772	0.106813
270	0.109443	0.112237	0.116182	0.108128
271	0.115031	0.117003	0.116182	0.114538
272	0.118811	0.118976	0.11799	0.117825
273	0.122098	0.118811	0.122592	0.125879
274	0.123578	0.118483	0.125879	0.127358
275	0.126372	0.127029	0.126536	0.130152
276	0.128673	0.128673	0.12818	0.131796
277	0.132617	0.132289	0.135411	0.13574
278	0.135576	0.134754	0.133603	0.136233
279	0.136726	0.140013	0.137055	0.139027
280	0.138205	0.138699	0.141164	0.140013
281	0.141657	0.143465	0.146588	0.147738
282	0.147574	0.14478	0.147081	0.147081
283	0.147574	0.149053	0.153491	0.146916
284	0.152011	0.156285	0.15497	0.150204
285	0.148724	0.152505	0.157764	0.149053
286	0.15497	0.15497	0.159079	0.15497
287	0.152998	0.156613	0.159901	0.155627
288	0.158914	0.158586	0.160229	0.158586
289	0.158093	0.157271	0.160558	0.15875
290	0.159901	0.164503	0.163845	0.161873
291	0.158914	0.161215	0.160722	0.160394
292	0.166311	0.165982	0.170091	0.166311
293	0.162366	0.166311	0.163023	0.164996
294	0.165489	0.166475	0.167954	0.169598
295	0.166311	0.166475	0.167625	0.167132
296	0.164338	0.167625	0.172556	0.169762
297	0.169926	0.170584	0.173214	0.170913
298	0.170913	0.163023	0.17272	0.17272
299	0.176501	0.176008	0.175843	0.173871
300	0.171077	0.173214	0.17798	0.176829
301	0.176501	0.176994	0.172556	0.176501
302	0.174857	0.175843	0.177487	0.176336
303	0.176994	0.179952	0.180938	0.177158
304	0.174693	0.176665	0.177487	0.178309
305	0.177487	0.17798	0.182417	0.178637
306	0.177815	0.178309	0.183568	0.179295
307	0.179952	0.180281	0.183075	0.182089
308	0.179459	0.182417	0.179952	0.182253
309	0.187348	0.18176	0.183897	0.182417
310	0.185376	0.183732	0.182911	0.182253
311	0.183239	0.184883	0.185212	0.186198
312	0.180774	0.18554	0.183568	0.185212
313	0.17798	0.179459	0.190142	0.185047
314	0.183732	0.18439	0.18817	0.182417
315	0.179623	0.184061	0.189649	0.188827
316	0.181596	0.18439	0.184554	0.191786
317	0.181596	0.183732	0.191128	0.190307
318	0.186033	0.188006	0.189978	0.188992
319	0.186362	0.186526	0.189156	0.189649
320	0.187841	0.188827	0.19195	0.189978
321	0.185869	0.189156	0.195073	0.19195
322	0.189156	0.191786	0.193429	0.189156
323	0.188827	0.188992	0.189156	0.187841
324	0.191128	0.188499	0.192279	0.192936
325	0.188992	0.188334	0.19195	0.188827
326	0.191293	0.192115	0.193429	0.192608
327	0.190142	0.191621	0.190635	0.19195
328	0.188992	0.191621	0.191621	0.193101
329	0.194416	0.192443	0.191293	0.193101
330	0.191621	0.190635	0.192115	0.196717
331	0.189978	0.191786	0.19195	0.194416
332	0.190635	0.193758	0.19573	0.197045
333	0.192443	0.194744	0.195402	0.195566
334	0.189156	0.19458	0.19836	0.19573
335	0.193101	0.192279	0.193758	0.195895
336	0.189814	0.191128	0.197374	0.191457
337	0.193101	0.193265	0.198524	0.198031
338	0.192115	0.1908	0.194087	0.19573
339	0.191293	0.195402	0.199839	0.197867
340	0.191293	0.194744	0.196717	0.190964
341	0.194416	0.19573	0.197045	0.199675
342	0.194251	0.193429	0.197045	0.195073
343	0.192608	0.197703	0.199018	0.19721
344	0.194087	0.197045	0.192115	0.196717
345	0.194909	0.193758	0.198031	0.19836
346	0.195402	0.193922	0.197703	0.199182
347	0.193101	0.194251	0.196717	0.197703
348	0.186691	0.194416	0.197703	0.199182
349	0.195402	0.195566	0.199839	0.20099
350	0.192936	0.195566	0.204934	0.202633
351	0.195566	0.195237	0.20362	0.196388
352	0.196059	0.198031	0.202305	0.202469
353	0.192936	0.192608	0.199182	0.198196
354	0.194744	0.195895	0.20362	0.200004
355	0.194251	0.192772	0.196881	0.200168
356	0.194087	0.196388	0.200661	0.200168
357	0.193594	0.19836	0.20099	0.197703
358	0.197374	0.201812	0.200497	0.199675
359	0.196552	0.201812	0.198853	0.197374
360	0.19721	0.197703	0.201647	0.197538
361	0.201647	0.199182	0.200825	0.196388
362	0.199346	0.198853	0.203291	0.196881
363	0.196059	0.197703	0.19836	0.200168
364	0.196388	0.194909	0.196717	0.197045
365	0.193758	0.197538	0.200004	0.200497
366	0.192772	0.197867	0.196059	0.20362
367	0.195566	0.194416	0.201483	0.204441
368	0.190635	0.195895	0.201483	0.200168
369	0.192772	0.199839	0.191786	0.203291
370	0.194251	0.189978	0.192115	0.200004
371	0.194909	0.195237	0.197045	0.201976
372	0.197045	0.195895	0.198031	0.201647
373	0.198031	0.201319	0.195237	0.202305
374	0.197538	0.199675	0.193922	0.198689
375	0.19721	0.195402	0.197703	0.201483
376	0.199346	0.201319	0.190635	0.202305
377	0.195566	0.199018	0.193265	0.200661
378	0.200004	0.200004	0.19573	0.203291
379	0.193594	0.197703	0.197538	0.201647
380	0.196059	0.201812	0.198524	0.202305
381	0.194744	0.197045	0.196388	0.200168
382	0.197703	0.199346	0.201647	0.202305
383	0.199182	0.199511	0.198689	0.200332
384	0.196717	0.197374	0.199511	0.204113
385	0.200661	0.192608	0.199182	0.201483
386	0.198031	0.195566	0.198196	0.204113
387	0.194251	0.197374	0.200497	0.201976
388	0.198031	0.196059	0.201154	0.20362
389	0.194251	0.19836	0.201319	0.205921
390	0.192279	0.197045	0.205263	0.201483
391	0.193922	0.201647	0.200825	0.200168
392	0.196552	0.197703	0.201812	0.201976
393	0.19573	0.196717	0.204441	0.199018
394	0.197045	0.198196	0.202633	0.197867
395	0.199839	0.200497	0.204113	0.201154
396	0.195402	0.194909	0.20099	0.201647
397	0.198853	0.195402	0.202305	0.201483
398	0.197045	0.198689	0.206578	0.200004
399	0.197374	0.197703	0.202962	0.204606
400	0.196881	0.197538	0.203126	0.205263
401	0.196717	0.19721	0.207564	0.20099
402	0.199182	0.194744	0.205427	0.203784
403	0.191786	0.194909	0.206249	0.20214
404	0.19573	0.196223	0.206085	0.200661
405	0.197538	0.194251	0.206085	0.202633
406	0.196717	0.195895	0.206578	0.203784
407	0.197703	0.199346	0.208386	0.202469
408	0.200825	0.201976	0.205592	0.19836
409	0.195566	0.200825	0.208879	0.19836
410	0.196717	0.199511	0.207564	0.198031
411	0.196223	0.198689	0.205756	0.196881
412	0.193265	0.198196	0.207728	0.198853
413	0.194416	0.196223	0.204934	0.196552
414	0.196059	0.201647	0.203784	0.201154
415	0.196552	0.192115	0.204441	0.198031
416	0.197867	0.200004	0.206414	0.201319
417	0.200825	0.192936	0.205263	0.20477
418	0.194251	0.191128	0.209372	0.204277
419	0.199839	0.191457	0.201483	0.201812
420	0.197374	0.195237	0.206742	0.20362
421	0.197045	0.195237	0.205592	0.199675
422	0.202798	0.193265	0.208715	0.203455
423	0.196059	0.196223	0.207728	0.201483
424	0.193594	0.196881	0.208715	0.198689
425	0.197045	0.196881	0.209701	0.201319
426	0.198031	0.195237	0.20099	0.201154
427	0.195237	0.198031	0.200332	0.199675
428	0.194909	0.194416	0.200497	0.19836
429	0.19721	0.198031	0.204277	0.203455
430	0.197703	0.194744	0.20362	0.197703
431	0.201483	0.202633	0.20477	0.200825
432	0.197867	0.196552	0.200497	0.199018
433	0.197703	0.194744	0.203455	0.201154
434	0.198524	0.19721	0.203291	0.198853
435	0.196059	0.197374	0.205263	0.198689
436	0.196717	0.19458	0.201812	0.200168
437	0.199018	0.199182	0.206414	0.199346
438	0.203126	0.196717	0.201319	0.196552
439	0.19836	0.197703	0.204606	0.202962
440	0.203784	0.197867	0.206907	0.200004
441	0.197867	0.199346	0.208879	0.196388
442	0.197703	0.198524	0.208715	0.199346
443	0.19573	0.197538	0.206907	0.19836
444	0.186362	0.201976	0.210523	0.199018
445	0.193594	0.201154	0.20855	0.196223
446	0.199018	0.201647	0.150204	0.198689
447	0.196881	0.19836	0.151518	0.197045
448	0.196881	0.199018	0.155792	0.201976
449	0.19836	0.197374	0.15119	0.202305
450	0.19721	0.197045	0.156942	0.197374
451	0.19836	0.199018	0.153491	0.197703
452	0.197374	0.198853	0.15875	0.201483
453	0.199675	0.19721	0.159901	0.199839
454	0.196717	0.199675	0.159901	0.200497
455	0.191128	0.197867	0.163845	0.200661
456	0.19573	0.199839	0.167297	0.197867
457	0.198689	0.201483	0.166311	0.201647
458	0.190635	0.197538	0.168447	0.193101
459	0.195895	0.199018	0.169269	0.198853
460	0.187184	0.198196	0.16779	0.193758
461	0.193594	0.197703	0.172392	0.198853
462	0.19836	0.196881	0.17157	0.195402
463	0.195895	0.199675	0.173049	0.196881
464	0.198031	0.198524	0.172556	0.198689
465	0.197374	0.198689	0.170255	0.197045
466	0.196881	0.197045	0.17535	0.195073
467	0.196223	0.200332	0.174857	0.197045
468	0.19721	0.197374	0.17535	0.199018
469	0.19836	0.198853	0.174693	0.199018
470	0.198689	0.200168	0.175186	0.199839
471	0.196223	0.199182	0.175679	0.200497
472	0.197045	0.199182	0.178637	0.199511
473	0.196388	0.198524	0.177815	0.196552
474	0.198853	0.205263	0.17913	0.201319
475	0.197045	0.19721	0.176665	0.197703
476	0.196059	0.201154	0.177815	0.19836
477	0.19573	0.201483	0.17798	0.200497
478	0.194909	0.199675	0.177322	0.197374
479	0.198031	0.198689	0.175679	0.197867
480	0.196717	0.201647	0.121605	0.198031
481	0.198853	0.199018	0.125057	0.195895
482	0.197374	0.199018	0.130152	0.201812
483	0.198524	0.200004	0.131138	0.191621
484	0.197703	0.200168	0.13196	0.199346
485	0.200004	0.202305	0.133603	0.200004
486	0.196388	0.19573	0.136069	0.200497
487	0.197538	0.209372	0.135247	0.200825
488	0.194416	0.200825	0.140342	0.200661
489	0.197045	0.20099	0.143465	0.198196
490	0.195566	0.198524	0.143465	0.195566
491	0.198524	0.198689	0.146916	0.201483
492	0.194909	0.197703	0.147903	0.198689
493	0.199182	0.200497	0.149875	0.202469
494	0.196223	0.200497	0.15234	0.198689
495	0.19458	0.200497	0.153819	0.200497
496	0.197045	0.199182	0.153326	0.200661
497	0.197045	0.197045	0.159901	0.200168
498	0.195566	0.201483	0.153984	0.201647
499	0.196717	0.200825	0.158093	0.207235
500	0.196223	0.19836	0.159736	0.197867
501	0.197703	0.201976	0.161709	0.198524
502	0.199839	0.201319	0.158421	0.200497
503	0.193429	0.198853	0.16138	0.19836
504	0.199182	0.200825	0.161544	0.202469
505	0.198853	0.199346	0.164503	0.201154
506	0.196717	0.199511	0.161215	0.198031
507	0.196717	0.198689	0.162202	0.202305
508	0.198689	0.194251	0.164338	0.201647
509	0.197538	0.201319	0.161544	0.198853
510	0.19836	0.200332	0.164338	0.207071
511	0.197045	0.198524	0.164503	0.198689
512	0.194744	0.201647	0.169105	0.201647
513	0.19573	0.196552	0.168118	0.192608
514	0.195402	0.198853	0.170748	0.203291
515	0.194251	0.197703	0.169269	0.197703
516	0.195402	0.198031	0.176994	0.195073
517	0.199346	0.198196	0.178966	0.199675
518	0.197045	0.199182	0.174693	0.199839
519	0.198524	0.20099	0.176994	0.200168
520	0.19836	0.200168	0.173871	0.199675
521	0.199839	0.201976	0.176336	0.207235
522	0.197374	0.199839	0.162037	0.199018
523	0.197374	0.201976	0.166804	0.200332
524	0.195402	0.192115	0.166311	0.200332
525	0.196552	0.200004	0.170419	0.203291
526	0.196552	0.202962	0.169433	0.200497
527	0.19836	0.198031	0.171899	0.20099
528	0.195237	0.201483	0.171406	0.196552
529	0.197703	0.196223	0.170913	0.203784
530	0.198196	0.197374	0.172227	0.203948
531	0.197703	0.200332	0.171899	0.203126
532	0.19836	0.202798	0.173542	0.206742
533	0.196388	0.200825	0.17535	0.199675
534	0.19836	0.201483	0.176829	0.200661
535	0.19573	0.200168	0.175843	0.20214
536	0.200497	0.200332	0.175679	0.204934
537	0.200661	0.203291	0.178309	0.201647
538	0.199675	0.202962	0.180281	0.202798
539	0.19721	0.200168	0.176665	0.198031
540	0.193265	0.202633	0.180774	0.20362
541	0.196059	0.201154	0.18176	0.200825
542	0.196388	0.199346	0.180938	0.204113
543	0.198689	0.199018	0.182746	0.201976
544	0.19721	0.199675	0.180774	0.201976
545	0.197867	0.200004	0.183897	0.199839
546	0.195895	0.197703	0.182582	0.204441
547	0.195566	0.200497	0.182417	0.201812
548	0.193758	0.199182	0.18554	0.202305
549	0.199018	0.202962	0.188006	0.200168
550	0.194744	0.200332	0.186198	0.198689
551	0.198031	0.200497	0.187348	0.203784
552	0.197374	0.201976	0.186691	0.20099
553	0.19836	0.20362	0.186198	0.201812
554	0.201319	0.200661	0.185376	0.194087
555	0.197045	0.20362	0.189156	0.201483
556	0.196717	0.199182	0.189978	0.199839
557	0.200661	0.202305	0.191786	0.200332
558	0.200661	0.201647	0.187348	0.199675
559	0.197538	0.202633	0.189814	0.200004
560	0.199511	0.202798	0.187348	0.202305
561	0.19195	0.201154	0.188663	0.199018
562	0.192608	0.199346	0.190142	0.201483
563	0.195895	0.199346	0.18932	0.20099
564	0.19721	0.201976	0.187348	0.202633
565	0.194416	0.200497	0.191621	0.192772
566	0.196388	0.200004	0.1908	0.200661
567	0.195402	0.199675	0.192443	0.199018
568	0.197374	0.198524	0.192443	0.20099
569	0.19836	0.200661	0.190964	0.197538
570	0.196223	0.204606	0.193594	0.193101
571	0.197045	0.201812	0.192936	0.20099
572	0.196059	0.202633	0.191621	0.201812
573	0.198524	0.201483	0.194087	0.197867
574	0.19836	0.20099	0.195073	0.201647
575	0.202633	0.198689	0.192279	0.199675
576	0.194416	0.19836	0.191128	0.189814
577	0.202469	0.200497	0.186526	0.19721
578	0.195237	0.19836	0.195402	0.201812
579	0.199675	0.196717	0.195073	0.205263
580	0.197045	0.197703	0.1908	0.203948
581	0.198196	0.199346	0.196881	0.201483
582	0.19573	0.199018	0.19721	0.199675
583	0.197045	0.200661	0.195237	0.202305
584	0.197703	0.199511	0.196223	0.201319
585	0.195402	0.199511	0.206578	0.203126
586	0.193429	0.201154	0.194744	0.202305
587	0.199346	0.204934	0.198524	0.19721
588	0.19836	0.20099	0.196223	0.196388
589	0.200004	0.203784	0.199675	0.199346
590	0.198524	0.196388	0.196223	0.197703
591	0.194744	0.200661	0.197867	0.19836
592	0.196223	0.199182	0.198524	0.194909
593	0.196388	0.196881	0.196881	0.199182
594	0.198689	0.199182	0.199511	0.20099
595	0.197374	0.196552	0.198031	0.199182
596	0.198689	0.199839	0.199018	0.199018
597	0.197538	0.199182	0.198853	0.199675
598	0.195073	0.201154	0.197538	0.19721
599	0.198031	0.19836	0.198196	0.195566
600	0.198524	0.199346	0.201812	0.200497
601	0.196717	0.198031	0.19836	0.199511
602	0.197045	0.128015	0.201647	0.198689
603	0.194416	0.005405	0.198196	0.199511
604	0.19458	0.01576	0.203291	0.199346
605	0.198524	0.023813	0.20099	0.196223
606	0.199839	0.034003	0.200332	0.200332
607	0.200168	0.040906	0.185212	0.197867
608	0.196717	0.045179	0.200168	0.198031
609	0.197538	0.053397	0.19721	0.199839
610	0.20214	0.052411	0.199346	0.195895
611	0.194909	0.061122	0.198031	0.19836
612	0.197374	0.065888	0.197867	0.197374
613	0.201647	0.071641	0.196388	0.199182
614	0.199182	0.07575	0.196223	0.19721
615	0.199675	0.080187	0.201647	0.20362
616	0.19721	0.083803	0.198031	0.201154
617	0.198196	0.090049	0.199839	0.203126
618	0.196717	0.092679	0.191293	0.200332
619	0.197703	0.100896	0.198031	0.201976
620	0.198031	0.102047	0.196717	0.201154
621	0.196717	0.108621	0.199346	0.196388
622	0.198031	0.114867	0.197703	0.199839
623	0.195566	0.115031	0.198689	0.199675
624	0.197703	0.120126	0.195073	0.199346
625	0.199182	0.126372	0.193594	0.19836
626	0.199346	0.125714	0.19458	0.197538
627	0.197045	0.127358	0.195402	0.201976
628	0.200332	0.133439	0.19195	0.202633
629	0.198031	0.131631	0.192279	0.206249
630	0.198524	0.135904	0.192279	0.201154
631	0.197867	0.138534	0.193429	0.200497
632	0.20477	0.141164	0.195895	0.201812
633	0.194909	0.146259	0.193429	0.198196
634	0.19836	0.143136	0.194087	0.198524
635	0.195566	0.144122	0.193922	0.197867
636	0.191457	0.149546	0.198853	0.202633
637	0.195895	0.147738	0.195402	0.205263
638	0.194744	0.150039	0.195237	0.196881
639	0.199182	0.153655	0.195402	0.202305
640	0.198196	0.153326	0.19573	0.200332
641	0.203291	0.159079	0.19195	0.200497
642	0.19721	0.159901	0.192443	0.199346
643	0.200004	0.159243	0.192936	0.198524
644	0.194251	0.168283	0.191786	0.199346
645	0.194416	0.166639	0.192115	0.200332
646	0.197703	0.163516	0.190142	0.19836
647	0.197045	0.168283	0.193922	0.199018
648	0.196388	0.166639	0.190471	0.198196
649	0.196388	0.169433	0.193594	0.201319
650	0.197045	0.167954	0.193101	0.200497
651	0.196388	0.171406	0.193758	0.202633
652	0.196717	0.17157	0.190471	0.20099
653	0.19721	0.173871	0.193101	0.199018
654	0.197538	0.176008	0.19458	0.203455
655	0.19458	0.179623	0.193758	0.199511
656	0.197703	0.172392	0.197045	0.200168
657	0.196552	0.175186	0.191786	0.19721
658	0.194416	0.176501	0.19195	0.200825
659	0.195402	0.178637	0.192443	0.196059
660	0.193758	0.180116	0.194087	0.199675
661	0.19721	0.177815	0.192936	0.19836
662	0.200004	0.178966	0.193594	0.200004
663	0.19721	0.181431	0.19195	0.197538
664	0.194416	0.182746	0.193265	0.199675
665	0.198853	0.183404	0.192608	0.200168
666	0.196059	0.179295	0.194744	0.199182
667	0.196552	0.182746	0.192936	0.202962
668	0.192772	0.184554	0.194087	0.203291
669	0.19836	0.186855	0.195402	0.200661
670	0.195237	0.186198	0.19721	0.202305
671	0.197045	0.187184	0.193758	0.20099
672	0.197045	0.185869	0.197703	0.201319
673	0.198524	0.187348	0.196388	0.202305
674	0.195073	0.185047	0.198196	0.200332
675	0.200004	0.185705	0.195895	0.199839
676	0.199839	0.191128	0.19573	0.202962
677	0.197374	0.182253	0.196552	0.20099
678	0.198689	0.186198	0.195566	0.195073
679	0.197867	0.192936	0.199346	0.201647
680	0.198196	0.190471	0.195073	0.199511
681	0.197374	0.192772	0.197867	0.195073
682	0.199182	0.192936	0.196223	0.197374
683	0.196059	0.192115	0.199346	0.199346
684	0.199182	0.192279	0.194251	0.197045
685	0.199839	0.193265	0.200168	0.195895
686	0.20099	0.191786	0.193922	0.200168
687	0.198853	0.195895	0.197867	0.204277
688	0.19721	0.188499	0.19721	0.199675
689	0.199839	0.188827	0.197538	0.20099
690	0.198524	0.19836	0.197867	0.202633
691	0.200497	0.18932	0.195237	0.200661
692	0.198689	0.192772	0.199346	0.200004
693	0.197045	0.19573	0.195895	0.196388
694	0.199018	0.192936	0.199839	0.201812
695	0.197703	0.193922	0.196388	0.197374
696	0.19573	0.197374	0.20099	0.198853
697	0.198196	0.191621	0.19836	0.198853
698	0.196388	0.195402	0.197538	0.203455
699	0.196717	0.19721	0.196223	0.195895
700	0.195237	0.189649	0.199675	0.200332
701	0.197538	0.194251	0.196717	0.199182
702	0.196388	0.198689	0.194416	0.199182
703	0.19836	0.195073	0.199839	0.198853
704	0.198524	0.196881	0.199675	0.197867
705	0.19836	0.197045	0.200004	0.201812
706	0.196388	0.193101	0.19836	0.198689
707	0.194909	0.200497	0.201812	0.199675
708	0.194416	0.194909	0.198853	0.198853
709	0.198196	0.198689	0.198524	0.200004
710	0.193594	0.196388	0.196717	0.196717
711	0.194416	0.195237	0.200497	0.19836
712	0.196059	0.197045	0.197867	0.196717
713	0.192608	0.199346	0.198031	0.194909
714	0.19573	0.197703	0.199346	0.193101
715	0.195237	0.196717	0.200004	0.19573
716	0.197867	0.19721	0.197374	0.19836
717	0.196717	0.196388	0.200332	0.192608
718	0.20099	0.200168	0.199839	0.197867
719	0.198031	0.199346	0.19721	0.197538
720	0.199182	0.199675	0.199346	0.199018
721	0.197374	0.197374	0.198031	0.197703
722	0.198196	0.196717	0.201154	0.200497
723	0.196881	0.195402	0.197703	0.197045
724	0.199346	0.200168	0.197374	0.198196
725	0.194909	0.197703	0.196059	0.196388
726	0.199018	0.19836	0.199675	0.197045
727	0.197538	0.198689	0.195566	0.200168
728	0.196388	0.197867	0.198853	0.197867
729	0.200825	0.200661	0.197867	0.197538
730	0.195073	0.19573	0.193922	0.196552
731	0.197703	0.195566	0.19721	0.190964
732	0.195566	0.198524	0.19836	0.195566
733	0.195073	0.199018	0.198196	0.198689
734	0.194744	0.198031	0.199511	0.190471
735	0.198689	0.201154	0.198196	0.198524
736	0.198031	0.199346	0.200497	0.197045
737	0.200497	0.198524	0.201319	0.19573
738	0.200332	0.198196	0.197867	0.197538
739	0.199018	0.200004	0.198196	0.200332
740	0.197703	0.200661	0.200168	0.196881
741	0.200004	0.198524	0.196388	0.201647
742	0.201976	0.198524	0.197703	0.192772
743	0.195237	0.200497	0.201319	0.199511
744	0.196552	0.202305	0.197703	0.200497
745	0.195895	0.19836	0.201647	0.193758
746	0.197045	0.200004	0.19573	0.196059
747	0.197374	0.200825	0.203784	0.197045
748	0.195237	0.202633	0.203291	0.19458
749	0.199182	0.201319	0.199839	0.196717
750	0.197374	0.200497	0.200168	0.197374
751	0.197867	0.20214	0.196388	0.194909
752	0.200168	0.200168	0.200825	0.19836
753	0.196881	0.198689	0.198853	0.19721
754	0.198524	0.200004	0.202962	0.196717
755	0.197867	0.201647	0.19836	0.199182
756	0.196717	0.199839	0.197538	0.198031
757	0.192115	0.20099	0.200825	0.19573
758	0.195566	0.201976	0.205099	0.196717
759	0.198031	0.19721	0.200004	0.198196
760	0.19458	0.20099	0.20362	0.200004
761	0.196059	0.197867	0.199346	0.194909
762	0.195895	0.198689	0.205427	0.196552
763	0.196059	0.201483	0.195237	0.196881
764	0.195073	0.201483	0.201976	0.19836
765	0.194909	0.201976	0.201812	0.197374
766	0.197045	0.201647	0.199018	0.193594
767	0.200497	0.20099	0.201319	0.195566
768	0.196388	0.199018	0.197703	0.196223
769	0.200004	0.094651	0.201976	0.201976
770	0.199839	0.094651	0.199675	0.200168
771	0.199182	0.101718	0.200004	0.200332
772	0.198524	0.103855	0.197867	0.199182
773	0.19836	0.1101	0.201319	0.201154
774	0.19836	0.111744	0.197045	0.199839
775	0.196388	0.117332	0.196059	0.198689
776	0.195895	0.11914	0.1908	0.19721
777	0.196388	0.125714	0.199675	0.200004
778	0.197045	0.127029	0.198031	0.19836
779	0.19458	0.129495	0.194909	0.196552
780	0.193429	0.13196	0.204277	0.199675
781	0.197374	0.135576	0.203291	0.202633
782	0.196388	0.141164	0.200332	0.197538
783	0.196552	0.140835	0.202305	0.195237
784	0.197703	0.147738	0.200497	0.19721
785	0.193758	0.146259	0.200004	0.196059
786	0.200825	0.150697	0.200332	0.198853
787	0.19721	0.15234	0.198524	0.19836
788	0.199018	0.160229	0.199839	0.199839
789	0.199511	0.155463	0.199346	0.199511
790	0.195895	0.159079	0.197045	0.201647
791	0.197867	0.158093	0.199182	0.200004
792	0.199018	0.162202	0.201976	0.203455
793	0.196881	0.162202	0.199839	0.19836
794	0.196881	0.160394	0.201976	0.199511
795	0.197374	0.166968	0.201812	0.201483
796	0.192772	0.166639	0.200004	0.199182
797	0.196552	0.173049	0.201154	0.203126
798	0.194744	0.168776	0.200168	0.19573
799	0.196223	0.169269	0.20362	0.200661
800	0.197867	0.170584	0.198524	0.198196
801	0.196881	0.172063	0.200332	0.20099
802	0.196881	0.174693	0.202305	0.196223
803	0.199018	0.178637	0.200004	0.20477
804	0.198031	0.179623	0.199511	0.201976
805	0.195895	0.176172	0.198689	0.201483
806	0.199182	0.184554	0.19836	0.202633
807	0.191293	0.182253	0.197045	0.203291
808	0.195237	0.182253	0.197045	0.199511
809	0.193922	0.182911	0.199018	0.198524
810	0.195237	0.180774	0.200332	0.200168
811	0.194909	0.18176	0.200661	0.199346
812	0.194251	0.184883	0.199839	0.201647
813	0.191786	0.18439	0.202962	0.198031
814	0.198689	0.186033	0.200497	0.206085
815	0.196552	0.18932	0.201483	0.205263
816	0.19458	0.18817	0.20362	0.201483
817	0.19721	0.1908	0.199839	0.20362
818	0.19721	0.192772	0.202962	0.204606
819	0.199675	0.190635	0.199346	0.201812
820	0.196717	0.193101	0.202469	0.203455
821	0.196388	0.192279	0.199675	0.20362
822	0.196717	0.192608	0.201647	0.201319
823	0.198853	0.194416	0.200497	0.201976
824	0.198031	0.193922	0.201154	0.202305
825	0.199839	0.195073	0.19836	0.206249
826	0.193594	0.195566	0.201812	0.20362
827	0.197867	0.197703	0.202962	0.204606
828	0.195402	0.197045	0.197703	0.206907
829	0.195895	0.19721	0.201319	0.206907
830	0.199182	0.194744	0.202962	0.205921
831	0.197045	0.196059	0.196552	0.205099
832	0.193922	0.193265	0.199018	0.20477
833	0.197045	0.194087	0.200825	0.206414
834	0.198853	0.195895	0.201647	0.205099
835	0.196552	0.197045	0.20362	0.206085
836	0.197045	0.19836	0.203126	0.205756
837	0.19721	0.201319	0.200661	0.207235
838	0.197374	0.201647	0.203784	0.204113
839	0.19836	0.201319	0.199675	0.205263
840	0.196552	0.201647	0.200004	0.206907
841	0.194087	0.199839	0.200825	0.207071
842	0.200661	0.203455	0.200168	0.200825
843	0.194744	0.198031	0.200004	0.196552
844	0.196552	0.202469	0.200825	0.205592
845	0.195237	0.200168	0.202305	0.205263
846	0.197374	0.199182	0.202962	0.206578
847	0.195895	0.200004	0.202305	0.207071
848	0.191621	0.199839	0.198853	0.207071
849	0.195402	0.205756	0.199182	0.204277
850	0.196881	0.202962	0.200825	0.210851
851	0.197045	0.207564	0.19836	0.206907
852	0.196388	0.20362	0.201319	0.210194
853	0.199182	0.20099	0.201483	0.204113
854	0.193594	0.202798	0.207071	0.206742
855	0.197374	0.201976	0.202798	0.207071
856	0.194909	0.200332	0.203455	0.204934
857	0.193594	0.201319	0.204277	0.204277
858	0.197374	0.201647	0.198031	0.208222
859	0.194744	0.202633	0.196552	0.206578
860	0.194416	0.20477	0.198524	0.206249
861	0.197374	0.202962	0.198031	0.208057
862	0.19573	0.202469	0.198853	0.205921
863	0.196059	0.200332	0.200497	0.208386
864	0.195402	0.197703	0.200004	0.206085
865	0.191457	0.201319	0.201812	0.207893
866	0.18932	0.196059	0.197867	0.20477
867	0.194087	0.196388	0.206578	0.209865
868	0.19721	0.194909	0.204934	0.209536
869	0.195566	0.201319	0.203126	0.207893
870	0.194744	0.199675	0.200168	0.206414
871	0.197045	0.204441	0.202305	0.210194
872	0.197867	0.205921	0.205592	0.21496
873	0.197538	0.200332	0.201812	0.209701
874	0.199182	0.201812	0.199346	0.209865
875	0.194087	0.200661	0.201483	0.205263
876	0.196388	0.202469	0.20099	0.209043
877	0.194087	0.200004	0.199018	0.207071
878	0.198689	0.201483	0.205756	0.205427
879	0.197867	0.202962	0.199675	0.207235
880	0.19573	0.201319	0.198031	0.208222
881	0.195073	0.200825	0.195566	0.204441
882	0.197374	0.205756	0.20214	0.210687
883	0.197703	0.199675	0.199346	0.208386
884	0.199018	0.199839	0.202798	0.209208
885	0.200168	0.198689	0.201812	0.208222
886	0.193265	0.197703	0.202798	0.205592
887	0.198031	0.199346	0.202962	0.207564
888	0.19721	0.198524	0.203126	0.204606
889	0.197045	0.199675	0.206085	0.204277
890	0.195895	0.19721	0.205099	0.204934
891	0.195237	0.199839	0.205592	0.204441
892	0.19721	0.199675	0.20099	0.197867
893	0.19836	0.202633	0.202305	0.206249
894	0.201812	0.202798	0.200004	0.204934
895	0.195402	0.200332	0.203784	0.206249
896	0.199346	0.199018	0.199839	0.204441
897	0.195073	0.197538	0.20362	0.206249
898	0.196388	0.19836	0.201319	0.20477
899	0.198031	0.19836	0.199675	0.206414
900	0.196388	0.195402	0.202633	0.204934
901	0.195402	0.196388	0.203291	0.205099
902	0.194416	0.196552	0.201154	0.206742
903	0.194744	0.194087	0.200661	0.202962
904	0.198689	0.200004	0.201976	0.204441
905	0.196552	0.200168	0.202962	0.205427
906	0.195073	0.196223	0.202305	0.20099
907	0.193594	0.199675	0.199675	0.201154
908	0.192443	0.200661	0.204277	0.203948
909	0.191786	0.199839	0.197867	0.200332
910	0.193758	0.200332	0.200661	0.201812
911	0.19573	0.195895	0.20099	0.200168
912	0.196881	0.197374	0.201647	0.201812
913	0.195895	0.197867	0.197538	0.200332
914	0.193922	0.196223	0.201483	0.19836
915	0.197538	0.194909	0.199018	0.203784
916	0.198196	0.194909	0.201154	0.206085
917	0.203126	0.197045	0.197867	0.202469
918	0.201647	0.199018	0.199018	0.205756
919	0.196717	0.198689	0.199511	0.204277
920	0.197538	0.196388	0.202305	0.201154
921	0.196881	0.197703	0.204441	0.201483
922	0.19573	0.195895	0.199018	0.199182
923	0.196059	0.197045	0.20099	0.206578
924	0.195402	0.19721	0.201647	0.202305
925	0.195566	0.198196	0.205099	0.205592
926	0.199839	0.196388	0.193922	0.20214
927	0.197374	0.198853	0.200661	0.204606
928	0.197538	0.19458	0.198524	0.202798
929	0.193429	0.195402	0.196388	0.203784
930	0.197045	0.194087	0.193758	0.202305
931	0.193594	0.195566	0.201154	0.201154
932	0.197374	0.196552	0.199511	0.205263
933	0.193594	0.196223	0.197045	0.201812
934	0.193758	0.196388	0.199675	0.206085
935	0.19721	0.195402	0.198853	0.205099
936	0.197374	0.196552	0.199839	0.203291
937	0.196881	0.193922	0.199839	0.202962
938	0.197045	0.193594	0.204277	0.205756
939	0.194909	0.193922	0.197045	0.202633
940	0.182582	0.196717	0.199346	0.205921
941	0.195073	0.195237	0.196552	0.204277
942	0.200168	0.202305	0.200497	0.206414
943	0.197867	0.194744	0.196223	0.204113
944	0.19721	0.197703	0.199675	0.202305
945	0.197045	0.195237	0.197374	0.201976
946	0.196388	0.195237	0.196388	0.20099
947	0.196881	0.197538	0.19836	0.201483
948	0.197045	0.193429	0.196388	0.203455
949	0.19721	0.190307	0.199018	0.205099
950	0.199182	0.196388	0.195402	0.20362
951	0.193265	0.195402	0.196717	0.206249
952	0.196552	0.193265	0.19721	0.202469
953	0.19573	0.200004	0.197703	0.204934
954	0.194909	0.195402	0.19721	0.201154
955	0.196059	0.194416	0.199182	0.205099
956	0.193101	0.193429	0.195073	0.203126
957	0.191621	0.198196	0.199182	0.202633
958	0.195237	0.195237	0.200004	0.201319
959	0.19573	0.196223	0.203948	0.203784
960	0.196388	0.192608	0.189649	0.201812
961	0.194087	0.196552	0.197703	0.201483
962	0.196881	0.192608	0.197867	0.203126
963	0.193758	0.193265	0.19836	0.203291
964	0.195566	0.195566	0.195895	0.202962
965	0.191128	0.190471	0.199018	0.203291
966	0.199511	0.193265	0.195237	0.205099
967	0.199675	0.1908	0.19458	0.203455
968	0.195566	0.195895	0.198196	0.20362
969	0.199839	0.194744	0.19721	0.204277
970	0.196388	0.192115	0.199511	0.208386
971	0.19573	0.18817	0.190635	0.202962
972	0.194251	0.196388	0.198853	0.205263
973	0.195073	0.193594	0.196552	0.197538
974	0.196552	0.194744	0.197867	0.201812
975	0.196223	0.195073	0.196223	0.202469
976	0.192608	0.193101	0.196059	0.201976
977	0.199018	0.196552	0.197374	0.202305
978	0.194909	0.196223	0.19458	0.202305
979	0.196059	0.195402	0.195566	0.207728
980	0.198196	0.193758	0.199839	0.200332
981	0.200004	0.193594	0.194416	0.202305
982	0.194251	0.186198	0.199346	0.201812
983	0.197045	0.195237	0.197374	0.203784
984	0.195566	0.192936	0.19458	0.189156
985	0.196717	0.192936	0.198853	0.200004
986	0.196388	0.193429	0.195566	0.199346
987	0.194416	0.191457	0.20099	0.203126
988	0.194744	0.19195	0.195895	0.199675
989	0.193265	0.196223	0.195073	0.204441
990	0.197045	0.191128	0.201154	0.200332
991	0.199182	0.193594	0.200497	0.201647
992	0.197374	0.194744	0.199839	0.198031
993	0.196717	0.189156	0.201154	0.196223
994	0.19836	0.194909	0.198524	0.197703
995	0.194087	0.193922	0.199018	0.190471
996	0.197374	0.192772	0.199675	0.195895
997	0.197374	0.194087	0.198524	0.197703
998	0.194744	0.191293	0.200332	0.198031
999	0.192936	0.187677	0.199675	0.196552
1000	0.197374	0.193594	0.194744	0.198853
1001	0.19573	0.193758	0.198853	0.195566
1002	0.196223	0.194744	0.204113	0.196552
1003	0.19721	0.193265	0.197703	0.196552
1004	0.193101	0.193101	0.201976	0.198524
1005	0.196717	0.192936	0.197867	0.195566
1006	0.196717	0.195566	0.198524	0.195566
1007	0.197045	0.193594	0.197867	0.193429
1008	0.18932	0.198853	0.203291	0.193429
1009	0.192279	0.193594	0.202469	0.193594
1010	0.190964	0.191128	0.202469	0.193758
1011	0.193922	0.192115	0.197045	0.193101
1012	0.193101	0.196388	0.20099	0.192115
1013	0.195073	0.194744	0.202633	0.193594
1014	0.194744	0.193101	0.197703	0.194909
1015	0.197538	0.196717	0.200004	0.196223
1016	0.197374	0.195895	0.195073	0.189978
1017	0.198689	0.199182	0.201483	0.19836
1018	0.193922	0.196059	0.196388	0.189156
1019	0.194744	0.201976	0.199511	0.192772
1020	0.192608	0.19721	0.19721	0.190471
1021	0.194416	0.19573	0.200661	0.193922
1022	0.197867	0.197374	0.195402	0.196881
1023	0.195402	0.195895	0.200004	0.197374
1024	0.200004	0.19836	0.198196	0.192772
1025	0.192443	0.194744	0.19195	0.195237
1026	0.198196	0.192443	0.196552	0.196717
1027	0.195402	0.197045	0.199346	0.195237
1028	0.198524	0.198031	0.196059	0.195073
1029	0.198031	0.196552	0.196717	0.19458
1030	0.197045	0.190307	0.199839	0.200332
1031	0.196717	0.19836	0.199839	0.193922
1032	0.197374	0.196059	0.198853	0.199182
1033	0.197703	0.194744	0.199018	0.194744
1034	0.19573	0.198524	0.201976	0.19836
1035	0.195402	0.19721	0.199182	0.191786
1036	0.195237	0.200004	0.19721	0.199675
1037	0.196717	0.197867	0.200825	0.19836
1038	0.196717	0.199675	0.202798	0.198689
1039	0.198196	0.197374	0.19458	0.199346
1040	0.200332	0.198196	0.201154	0.198196
1041	0.199839	0.188334	0.200332	0.195566
1042	0.196059	0.196552	0.197538	0.196388
1043	0.196223	0.197867	0.201319	0.199182
1044	0.195237	0.194251	0.19721	0.198853
1045	0.195402	0.196223	0.200661	0.19836
1046	0.193594	0.19721	0.199346	0.19836
1047	0.192936	0.196388	0.202962	0.201483
1048	0.195895	0.19458	0.198853	0.196388
1049	0.197703	0.202305	0.202305	0.202305
1050	0.195895	0.198524	0.199839	0.196552
1051	0.198031	0.199675	0.197703	0.199346
1052	0.193922	0.200825	0.198524	0.199346
1053	0.194416	0.199511	0.201154	0.197538
1054	0.200661	0.194251	0.197867	0.20099
1055	0.193101	0.200332	0.200497	0.199839
1056	0.199839	0.201154	0.196059	0.201319
1057	0.197867	0.197538	0.200497	0.200497
1058	0.192443	0.198524	0.199346	0.20214
1059	0.196223	0.199511	0.196717	0.199675
1060	0.194416	0.197538	0.203291	0.20099
1061	0.196881	0.19721	0.198031	0.199346
1062	0.193429	0.203126	0.200332	0.204277
1063	0.193922	0.19573	0.200168	0.197703
1064	0.195895	0.196881	0.199675	0.202469
1065	0.196717	0.200004	0.202962	0.200825
1066	0.19573	0.200332	0.200497	0.200004
1067	0.196717	0.201319	0.201812	0.201483
1068	0.190307	0.20214	0.20099	0.200332
1069	0.195073	0.204113	0.198031	0.200168
1070	0.196881	0.201483	0.199839	0.200004
1071	0.197867	0.203948	0.200661	0.200004
1072	0.196223	0.201647	0.198689	0.202633
1073	0.197374	0.201812	0.197045	0.207728
1074	0.197374	0.199346	0.196223	0.202962
1075	0.197867	0.200661	0.196388	0.202633
1076	0.196388	0.195566	0.197045	0.203291
1077	0.198689	0.19836	0.199675	0.202962
1078	0.190307	0.198689	0.198524	0.201154
1079	0.19573	0.200332	0.198689	0.204441
1080	0.197867	0.198524	0.19836	0.203948
1081	0.192772	0.202798	0.202305	0.202469
1082	0.197703	0.201812	0.20099	0.202305
1083	0.194744	0.197538	0.202798	0.200825
1084	0.196059	0.202469	0.200497	0.202962
1085	0.194416	0.202633	0.202633	0.201154
1086	0.197703	0.20099	0.201319	0.197538
1087	0.196223	0.201319	0.199346	0.201647
1088	0.196881	0.201976	0.197703	0.199018
1089	0.195237	0.200332	0.201976	0.205592
1090	0.201154	0.199675	0.201812	0.200332
1091	0.203291	0.200004	0.196388	0.200825
1092	0.198031	0.200004	0.200661	0.206742
1093	0.197374	0.199675	0.200332	0.199675
1094	0.195566	0.168447	0.197867	0.20214
1095	0.194087	0.084954	0.19836	0.202305
1096	0.194087	0.092021	0.200825	0.202469
1097	0.196552	0.0935	0.197374	0.20099
1098	0.193265	0.09876	0.203126	0.202633
1099	0.197867	0.107306	0.201319	0.202633
1100	0.192443	0.111744	0.204934	0.20362
1101	0.194416	0.114702	0.199675	0.200004
1102	0.195895	0.117003	0.202305	0.201647
1103	0.196717	0.119469	0.202633	0.20099
1104	0.197538	0.126372	0.201647	0.20099
1105	0.196059	0.131467	0.200168	0.205263
1106	0.199018	0.132124	0.198689	0.197374
1107	0.200825	0.13574	0.199018	0.203291
1108	0.197045	0.135904	0.19573	0.199675
1109	0.198196	0.138534	0.197703	0.200661
1110	0.200825	0.137877	0.197867	0.200332
1111	0.19573	0.145602	0.201647	0.201812
1112	0.190142	0.144122	0.198196	0.197538
1113	0.19573	0.14856	0.200168	0.199511
1114	0.194251	0.147081	0.200661	0.198853
1115	0.189978	0.149053	0.204441	0.198689
1116	0.193922	0.155134	0.200004	0.196223
1117	0.194416	0.155956	0.203291	0.196881
1118	0.198524	0.155956	0.200004	0.199018
1119	0.196717	0.162037	0.200661	0.200825
1120	0.199182	0.163681	0.200497	0.199675
1121	0.197045	0.163023	0.200332	0.198196
1122	0.199182	0.166475	0.201154	0.198689
1123	0.196552	0.165817	0.198524	0.194909
1124	0.199018	0.16779	0.193594	0.203291
1125	0.197374	0.171899	0.196223	0.198524
1126	0.197703	0.176008	0.203291	0.199511
1127	0.198689	0.173214	0.197538	0.200004
1128	0.196059	0.174364	0.197703	0.199346
1129	0.193429	0.173049	0.200168	0.198196
1130	0.195073	0.178802	0.197703	0.196881
1131	0.194087	0.173707	0.196717	0.197703
1132	0.195073	0.181103	0.199675	0.19721
1133	0.194087	0.178802	0.20099	0.198524
1134	0.193758	0.177322	0.198524	0.194744
1135	0.198689	0.182582	0.198031	0.198031
1136	0.194251	0.181431	0.20099	0.19458
1137	0.196717	0.181924	0.202633	0.197538
1138	0.197045	0.181431	0.19836	0.195237
1139	0.196717	0.185869	0.198853	0.197374
1140	0.198689	0.181596	0.199511	0.194416
1141	0.195237	0.188827	0.199018	0.199675
1142	0.196059	0.186198	0.198524	0.194251
1143	0.196223	0.188334	0.198689	0.198689
1144	0.196223	0.185705	0.198689	0.192115
1145	0.193758	0.187184	0.199346	0.196388
1146	0.19721	0.186033	0.200332	0.19836
1147	0.195402	0.185376	0.200332	0.197703
1148	0.189814	0.19195	0.200661	0.19195
1149	0.197045	0.192115	0.200332	0.193429
1150	0.197374	0.1908	0.202633	0.196717
1151	0.193101	0.191786	0.201812	0.190635
1152	0.19836	0.192772	0.201976	0.193922
1153	0.193594	0.189156	0.200168	0.190964
1154	0.196059	0.191457	0.199839	0.191786
1155	0.195402	0.191457	0.199511	0.189485
1156	0.192936	0.188827	0.202305	0.187841
1157	0.199182	0.190142	0.199675	0.18932
1158	0.203455	0.192443	0.199675	0.188334
1159	0.199675	0.195566	0.197045	0.188663
1160	0.19458	0.191786	0.199018	0.187019
1161	0.198524	0.195073	0.196059	0.189814
1162	0.19195	0.192115	0.198689	0.187184
1163	0.193594	0.1908	0.195402	0.191128
1164	0.19195	0.195402	0.198689	0.188827
1165	0.195402	0.194909	0.197867	0.189156
1166	0.195566	0.190307	0.200004	0.188827
1167	0.196552	0.195073	0.20099	0.189814
1168	0.196552	0.192608	0.199511	0.18554
1169	0.197867	0.194744	0.201483	0.190964
1170	0.19836	0.193594	0.200004	0.188827
1171	0.19573	0.196059	0.198689	0.188499
1172	0.196388	0.192115	0.199182	0.189156
1173	0.195895	0.194416	0.199839	0.186033
1174	0.196717	0.193758	0.195402	0.186691
1175	0.197703	0.191293	0.195895	0.190142
1176	0.196388	0.193429	0.198524	0.186198
1177	0.198689	0.196717	0.197867	0.185869
1178	0.195402	0.193758	0.199018	0.187348
1179	0.196388	0.194909	0.199511	0.187841
1180	0.198031	0.191293	0.196552	0.190142
1181	0.19458	0.193101	0.198524	0.18932
1182	0.198524	0.197538	0.199346	0.188334
1183	0.198031	0.195895	0.201154	0.188006
1184	0.195566	0.196552	0.197867	0.191128
1185	0.194909	0.193101	0.199182	0.18932
1186	0.197045	0.194251	0.200004	0.191457
1187	0.195895	0.192115	0.197374	0.191128
1188	0.191786	0.191786	0.202305	0.190142
1189	0.194087	0.191457	0.198524	0.189978
1190	0.195237	0.19195	0.201647	0.193265
1191	0.195566	0.192608	0.19836	0.191293
1192	0.196223	0.196223	0.200661	0.189485
1193	0.196388	0.192608	0.199346	0.189649
1194	0.197703	0.192279	0.199346	0.188827
1195	0.19458	0.192443	0.199182	0.190964
1196	0.193758	0.192279	0.198689	0.187513
1197	0.197045	0.193594	0.199018	0.186362
1198	0.195895	0.192279	0.194909	0.187841
1199	0.197703	0.194416	0.197703	0.190964
1200	0.194744	0.189485	0.200168	0.187348
1201	0.197703	0.191293	0.199511	0.195073
1202	0.195402	0.188827	0.199675	0.194251
1203	0.196552	0.193429	0.199346	0.193429
1204	0.196223	0.18932	0.198196	0.192443
1205	0.198031	0.1908	0.20099	0.1908
1206	0.195073	0.186526	0.19836	0.192936
1207	0.189814	0.192608	0.201483	0.19195
1208	0.197045	0.188992	0.197538	0.189156
1209	0.19458	0.190307	0.198524	0.189649
1210	0.197045	0.189814	0.200332	0.189814
1211	0.191621	0.189485	0.198031	0.189978
1212	0.195237	0.191786	0.19836	0.190964
1213	0.193429	0.188334	0.198853	0.190964
1214	0.199346	0.190142	0.198196	0.19458
1215	0.197538	0.188827	0.197867	0.193101
1216	0.199018	0.1908	0.198031	0.193265
1217	0.197045	0.194087	0.198524	0.191293
1218	0.194744	0.189814	0.199839	0.194744
1219	0.197374	0.190307	0.196552	0.191786
1220	0.193922	0.189156	0.20099	0.195402
1221	0.194744	0.190964	0.199346	0.192279
1222	0.193922	0.188006	0.200661	0.192936
1223	0.19836	0.191457	0.199182	0.193101
1224	0.192279	0.190471	0.200004	0.188006
1225	0.196059	0.190307	0.192772	0.190964
1226	0.196717	0.190635	0.195402	0.190471
1227	0.201812	0.191457	0.197867	0.193265
1228	0.194087	0.194416	0.198031	0.188663
1229	0.197045	0.196552	0.196388	0.189978
1230	0.196059	0.191128	0.19573	0.189814
1231	0.197538	0.192443	0.200497	0.193101
1232	0.19573	0.193758	0.199182	0.191128
1233	0.198196	0.19721	0.198524	0.189814
1234	0.19836	0.192608	0.198031	0.191621
1235	0.195402	0.193594	0.201976	0.193429
1236	0.196388	0.189814	0.198524	0.188334
1237	0.194909	0.192936	0.200497	0.19721
1238	0.195895	0.192936	0.195237	0.194087
1239	0.193101	0.192772	0.200825	0.195895
1240	0.194416	0.194416	0.199839	0.193758
1241	0.193101	0.192608	0.199839	0.18817
1242	0.198689	0.195895	0.202633	0.190307
1243	0.194251	0.193429	0.200661	0.188992
1244	0.195895	0.196223	0.20099	0.18817
1245	0.196059	0.194909	0.198853	0.1908
1246	0.19573	0.195402	0.199018	0.192608
1247	0.196552	0.199182	0.199346	0.188827
1248	0.197703	0.200661	0.19836	0.194909
1249	0.196717	0.196059	0.195402	0.188334
1250	0.196059	0.195237	0.19573	0.190307
1251	0.19836	0.196223	0.19721	0.192115
1252	0.195237	0.193594	0.198689	0.190471
1253	0.197538	0.193758	0.199346	0.192608
1254	0.195073	0.196881	0.201319	0.192279
1255	0.196552	0.193922	0.198689	0.193101
1256	0.196552	0.197045	0.199675	0.191621
1257	0.195237	0.198031	0.200168	0.193429
1258	0.190635	0.19721	0.199675	0.189485
1259	0.193101	0.199018	0.198031	0.190964
1260	0.196388	0.199346	0.199839	0.188992
1261	0.186691	0.179952	0.198524	0.189156
1262	0.19195	0.181267	0.199182	0.188663
1263	0.191293	0.183897	0.197867	0.188006
1264	0.194744	0.184554	0.199346	0.189485
1265	0.196717	0.184061	0.201812	0.190964
1266	0.199839	0.184225	0.196552	0.189485
1267	0.198689	0.187184	0.199346	0.190471
1268	0.196388	0.184061	0.195402	0.191621
1269	0.199346	0.187184	0.202469	0.190964
1270	0.195895	0.18817	0.197703	0.191621
1271	0.199675	0.188334	0.196717	0.194087
1272	0.1908	0.186362	0.19836	0.190471
1273	0.193429	0.091199	0.19836	0.185705
1274	0.195073	0.045837	0.198689	0.190471
1275	0.193101	0.052082	0.196552	0.187513
1276	0.193758	0.056356	0.196881	0.190471
1277	0.19721	0.000474	0.194744	0.189978
1278	0.195237	0.006062	0.196059	0.191128
1279	0.197703	0.013294	0.198524	0.191293
1280	0.194909	0.025292	0.198689	0.191621
1281	0.196059	0.029894	0.195237	0.186526
1282	0.191457	0.039591	0.199018	0.193922
1283	0.194087	0.047645	0.198031	0.186033
1284	0.196552	0.054219	0.198853	0.187513
1285	0.196717	0.058164	0.197867	0.188992
1286	0.194087	0.066875	0.201154	0.187513
1287	0.197538	0.069011	0.19573	0.190142
1288	0.196881	0.072627	0.197374	0.188006
1289	0.19836	0.080681	0.199511	0.192279
1290	0.199839	0.083475	0.199346	0.185047
1291	0.196881	0.089556	0.198196	0.183897
1292	0.194416	0.09498	0.199346	0.187184
1293	0.184061	0.097938	0.199018	0.187513
1294	0.19195	0.103362	0.201647	0.187348
1295	0.193101	0.105334	0.199018	0.188499
1296	0.194416	0.108293	0.199511	0.184554
1297	0.193265	0.117003	0.201647	0.190964
1298	0.196552	0.117825	0.201647	0.18439
1299	0.192443	0.12177	0.199839	0.187184
1300	0.193758	0.121605	0.199675	0.187184
1301	0.196388	0.128673	0.199346	0.184225
1302	0.197703	0.13311	0.197045	0.184554
1303	0.19573	0.131467	0.19836	0.18439
1304	0.190635	0.13574	0.19721	0.183732
1305	0.193101	0.135576	0.19836	0.181596
1306	0.196388	0.139027	0.199346	0.184061
1307	0.199018	0.139192	0.200661	0.183404
1308	0.197045	0.145108	0.199182	0.184718
1309	0.194909	0.139356	0.199182	0.179952
1310	0.196881	0.146259	0.203126	0.183404
1311	0.19458	0.143301	0.199018	0.184061
1312	0.192443	0.148067	0.201483	0.182582
1313	0.190635	0.150697	0.199018	0.178309
1314	0.193594	0.151683	0.200004	0.181431
1315	0.191457	0.154148	0.196223	0.18176
1316	0.194416	0.157107	0.200004	0.177815
1317	0.19573	0.159243	0.198853	0.177815
1318	0.196552	0.158586	0.198853	0.18176
1319	0.19836	0.161709	0.197703	0.17798
1320	0.195402	0.160229	0.197045	0.177322
1321	0.199182	0.163188	0.19836	0.18176
1322	0.192936	0.164503	0.20099	0.177158
1323	0.192279	0.165653	0.198524	0.178966
1324	0.191293	0.170255	0.199182	0.17798
1325	0.192936	0.169433	0.202633	0.177815
1326	0.195566	0.167132	0.196059	0.17798
1327	0.193594	0.171077	0.200661	0.174528
1328	0.193594	0.170748	0.194744	0.173542
1329	0.19458	0.169598	0.200497	0.175021
1330	0.196388	0.163681	0.195895	0.174693
1331	0.192115	0.176172	0.194909	0.172063
1332	0.198196	0.173378	0.198524	0.173871
1333	0.195073	0.175021	0.198689	0.170255
1334	0.195073	0.173542	0.197867	0.169762
1335	0.19573	0.180116	0.198689	0.169269
1336	0.197045	0.180116	0.197538	0.169105
1337	0.196881	0.173049	0.193922	0.172227
1338	0.196717	0.17913	0.196881	0.165817
1339	0.193922	0.178966	0.197538	0.16138
1340	0.194744	0.17913	0.198524	0.161709
1341	0.196717	0.176829	0.196881	0.161709
1342	0.192772	0.179459	0.196881	0.162202
1343	0.193429	0.178473	0.199839	0.162037
1344	0.195073	0.179623	0.198853	0.162366
1345	0.194251	0.179788	0.201154	0.161873
1346	0.194416	0.179623	0.201976	0.158257
1347	0.19573	0.182253	0.198689	0.160394
1348	0.190142	0.184061	0.202962	0.158586
1349	0.194251	0.185869	0.201976	0.152011
1350	0.193429	0.182417	0.19836	0.153655
1351	0.196059	0.184554	0.202305	0.15497
1352	0.19573	0.182746	0.199018	0.152011
1353	0.195237	0.072791	0.19836	0.150204
1354	0.195566	0.018554	0.199346	0.148396
1355	0.196717	0.028251	0.200661	0.15119
1356	0.192608	0.033839	0.197867	0.146752
1357	0.197374	0.041399	0.20099	0.146423
1358	0.194087	0.045015	0.197703	0.14593
1359	0.191621	0.052411	0.205921	0.150697
1360	0.194416	0.058985	0.198524	0.141
1361	0.194251	0.063259	0.199018	0.141986
1362	0.193265	0.067203	0.201319	0.143136
1363	0.192608	0.07312	0.197045	0.141164
1364	0.196059	0.079694	0.200661	0.141
1365	0.188992	0.081831	0.202305	0.14215
1366	0.194744	0.088241	0.19836	0.137219
1367	0.194744	0.095801	0.201319	0.140835
1368	0.197045	0.095966	0.202798	0.13952
1369	0.195237	0.100568	0.199675	0.136891
1370	0.198689	0.107635	0.200004	0.137384
1371	0.192608	0.110922	0.197374	0.132617
1372	0.195895	0.112237	0.199182	0.134754
1373	0.196059	0.114374	0.199018	0.134425
1374	0.195566	0.118483	0.200332	0.132289
1375	0.196223	0.123742	0.199675	0.136069
1376	0.197045	0.12555	0.199511	0.131302
1377	0.195237	0.128673	0.198853	0.130481
1378	0.196059	0.131796	0.199675	0.132782
1379	0.198689	0.132946	0.197045	0.132617
1380	0.199018	0.137548	0.199511	0.132453
1381	0.194909	0.140671	0.199018	0.128344
1382	0.193922	0.142643	0.203291	0.129166
1383	0.195402	0.150368	0.199018	0.132946
1384	0.194744	0.144122	0.202962	0.12933
1385	0.19458	0.147409	0.199346	0.130809
1386	0.19458	0.15234	0.198196	0.129495
1387	0.19458	0.158257	0.19721	0.132289
1388	0.19458	0.152176	0.197703	0.12933
1389	0.199346	0.159736	0.200497	0.131138
1390	0.200168	0.15497	0.199018	0.130316
1391	0.195895	0.161051	0.197703	0.133439
1392	0.198689	0.165653	0.197867	0.124893
1393	0.191457	0.160722	0.199675	0.132782
1394	0.197538	0.164174	0.197374	0.13837
1395	0.194087	0.16516	0.196881	0.137548
1396	0.196552	0.164996	0.195566	0.137877
1397	0.194909	0.164174	0.199182	0.140178
1398	0.194909	0.172227	0.199182	0.144451
1399	0.189649	0.172227	0.199511	0.142314
1400	0.194416	0.17272	0.201976	0.152176
1401	0.192936	0.171734	0.199182	0.146095
1402	0.194087	0.175679	0.200168	0.150204
1403	0.193594	0.175021	0.197045	0.139192
1404	0.194251	0.178966	0.199511	0.151354
1405	0.195566	0.175515	0.200004	0.150039
1406	0.194251	0.180938	0.199018	0.154806
1407	0.191786	0.17913	0.200168	0.158586
1408	0.193594	0.177651	0.201976	0.1576
1409	0.196059	0.181267	0.196388	0.166311
1410	0.192443	0.179952	0.198853	0.164996
1411	0.195402	0.181596	0.197045	0.167625
1412	0.195402	0.179788	0.195402	0.173378
1413	0.197538	0.184061	0.196881	0.176008
1414	0.203948	0.181267	0.19836	0.16779
1415	0.197374	0.183404	0.197703	0.17913
1416	0.193429	0.184225	0.19836	0.181431
1417	0.195237	0.187513	0.199018	0.187513
1418	0.194909	0.18439	0.201976	0.188006
1419	0.194744	0.188006	0.199839	0.193265
1420	0.197538	0.185869	0.199675	0.19458
1421	0.193101	0.191621	0.200661	0.195566
1422	0.197374	0.188827	0.197703	0.197867
1423	0.194909	0.187513	0.202469	0.20477
1424	0.196388	0.189978	0.19836	0.204441
1425	0.197045	0.190142	0.196881	0.201812
1426	0.195566	0.189156	0.196717	0.206578
1427	0.195566	0.1908	0.196881	0.209536
1428	0.197703	0.1908	0.195402	0.214138
1429	0.19573	0.190307	0.196388	0.216111
1430	0.197045	0.191786	0.197867	0.218905
1431	0.196388	0.191128	0.197703	0.217754
1432	0.195237	0.195237	0.20214	0.22663
1433	0.192936	0.193265	0.197867	0.223014
1434	0.190635	0.192608	0.200004	0.228766
1435	0.194416	0.192608	0.199018	0.231232
1436	0.192279	0.193429	0.199511	0.230081
1437	0.200661	0.193429	0.197045	0.232875
1438	0.190964	0.195073	0.199839	0.235176
1439	0.19721	0.194251	0.202305	0.235176
1440	0.195237	0.195402	0.201812	0.236491
1441	0.195073	0.194251	0.202469	0.239942
1442	0.194087	0.194744	0.200168	0.241586
1443	0.195073	0.193594	0.19721	0.242901
1444	0.196223	0.196059	0.199018	0.245037
1445	0.197867	0.194416	0.195402	0.248982
1446	0.196059	0.19573	0.194251	0.246517
1447	0.195566	0.194744	0.198031	0.249804
1448	0.198524	0.191786	0.19573	0.249804
1449	0.196059	0.202633	0.199675	0.255721
1450	0.195895	0.196223	0.198689	0.252598
1451	0.193429	0.196388	0.200004	0.255885
1452	0.193101	0.199511	0.197703	0.257857
1453	0.193922	0.198031	0.201154	0.256871
1454	0.194909	0.196223	0.199018	0.260651
1455	0.193922	0.199675	0.201319	0.260651
1456	0.196717	0.19836	0.201319	0.263774
1457	0.191457	0.199511	0.201812	0.262952
1458	0.192772	0.198524	0.195237	0.257529
1459	0.196717	0.203126	0.198524	0.261638
1460	0.193429	0.20855	0.195895	0.26361
1461	0.193758	0.192608	0.19721	0.262459
1462	0.197867	0.201483	0.197867	0.265253
1463	0.197703	0.196223	0.197867	0.267719
1464	0.199839	0.197703	0.199346	0.266075
1465	0.199182	0.197867	0.197374	0.265746
1466	0.19836	0.200332	0.199839	0.271335
1467	0.196059	0.199346	0.204606	0.271006
1468	0.194909	0.200825	0.196881	0.271992
1469	0.19458	0.199675	0.198196	0.271992
1470	0.19721	0.201483	0.200497	0.270842
1471	0.194744	0.211344	0.195566	0.275444
1472	0.193265	0.200661	0.200004	0.271006
1473	0.196717	0.202469	0.199182	0.274293
1474	0.192443	0.199511	0.200497	0.275115
1475	0.195073	0.200825	0.198196	0.271992
1476	0.195237	0.20099	0.193594	0.270348
1477	0.197703	0.202962	0.195073	0.273964
1478	0.196388	0.199839	0.198524	0.273471
1479	0.198196	0.204113	0.195237	0.273636
1480	0.194909	0.201812	0.19573	0.271499
1481	0.198031	0.202469	0.196552	0.269362
1482	0.199839	0.207564	0.197045	0.270348
1483	0.194087	0.200332	0.200661	0.268047
1484	0.196717	0.199675	0.197538	0.271828
1485	0.193101	0.204277	0.198853	0.267554
1486	0.195237	0.201483	0.198689	0.269362
1487	0.192279	0.200332	0.200168	0.26624
1488	0.19458	0.201976	0.200661	0.269855
1489	0.194909	0.20099	0.198524	0.26476
1490	0.194909	0.203784	0.201976	0.260323
1491	0.193265	0.202633	0.197703	0.262459
1492	0.197045	0.203455	0.202305	0.26098
1493	0.192772	0.202305	0.199346	0.258843
1494	0.199675	0.202633	0.200497	0.2572
1495	0.197703	0.202469	0.196059	0.256871
1496	0.195237	0.205263	0.197538	0.256214
1497	0.197867	0.201812	0.199018	0.252598
1498	0.194251	0.201812	0.199511	0.251119
1499	0.197867	0.200497	0.200497	0.252598
1500	0.193101	0.202962	0.188006	0.249146
1501	0.197374	0.201976	0.195566	0.243558
1502	0.194909	0.207235	0.197045	0.247832
1503	0.197703	0.204934	0.19836	0.246845
1504	0.195566	0.192443	0.200497	0.243723
1505	0.195237	0.201812	0.200661	0.246517
1506	0.194251	0.199182	0.199511	0.24323
1507	0.19573	0.20477	0.199839	0.243065
1508	0.190142	0.202962	0.202633	0.239285
1509	0.192279	0.206414	0.201976	0.236655
1510	0.195402	0.203291	0.197703	0.236984
1511	0.193265	0.203948	0.19836	0.237148
1512	0.193922	0.200497	0.19836	0.235176
1513	0.196552	0.206742	0.199675	0.235834
1514	0.197703	0.200332	0.200168	0.232711
1515	0.197045	0.192936	0.19836	0.233039
1516	0.197703	0.202798	0.197374	0.233039
1517	0.19458	0.205263	0.198853	0.228766
1518	0.200168	0.205263	0.196881	0.230738
1519	0.197045	0.202962	0.200332	0.230245
1520	0.193265	0.204277	0.199018	0.227287
1521	0.197703	0.203126	0.195895	0.226465
1522	0.196717	0.201483	0.19836	0.227944
1523	0.192608	0.203291	0.197703	0.223507
1524	0.19573	0.205921	0.198196	0.22663
1525	0.195566	0.201154	0.20099	0.220877
1526	0.195073	0.198689	0.203784	0.223342
1527	0.195073	0.201154	0.199675	0.222028
1528	0.19195	0.20214	0.196717	0.220055
1529	0.19836	0.201154	0.19721	0.219562
1530	0.195566	0.203291	0.198689	0.22022
1531	0.193265	0.201812	0.199511	0.216439
1532	0.193758	0.200004	0.197045	0.218412
1533	0.196059	0.200497	0.19721	0.218247
1534	0.191786	0.201319	0.19721	0.215618
1535	0.195566	0.201647	0.196881	0.217919
1536	0.193594	0.199511	0.196388	0.215946
1537	0.198853	0.200332	0.199675	0.216768
1538	0.195073	0.198196	0.199182	0.21381
1539	0.196881	0.201319	0.200168	0.216111
1540	0.195073	0.198853	0.199839	0.212495
1541	0.193101	0.200497	0.198196	0.212166
1542	0.193429	0.198853	0.200497	0.21233
1543	0.195566	0.197703	0.201319	0.212824
1544	0.195237	0.197703	0.203291	0.21118
1545	0.193594	0.201319	0.198524	0.212824
1546	0.197374	0.199839	0.198853	0.210194
1547	0.195237	0.200825	0.200168	0.21233
1548	0.193265	0.199018	0.199839	0.207893
1549	0.193758	0.19458	0.199511	0.208879
1550	0.195402	0.199839	0.197867	0.208057
1551	0.195566	0.195566	0.197867	0.205263
1552	0.199346	0.199675	0.19836	0.213974
1553	0.195566	0.195566	0.198689	0.206907
1554	0.197867	0.197867	0.198524	0.209372
1555	0.197374	0.195402	0.196388	0.209208
1556	0.195237	0.197867	0.199182	0.208879
1557	0.19721	0.196059	0.201812	0.205921
1558	0.193265	0.199018	0.196552	0.210851
1559	0.191128	0.194251	0.198524	0.206578
1560	0.192772	0.19573	0.201154	0.203455
1561	0.194087	0.193265	0.197374	0.205427
1562	0.191457	0.188992	0.201319	0.208222
1563	0.19195	0.196059	0.200004	0.207893
1564	0.192772	0.192772	0.199511	0.205592
1565	0.1908	0.195895	0.199346	0.209208
1566	0.193101	0.195073	0.199346	0.205921
1567	0.19721	0.199182	0.200661	0.206907
1568	0.195073	0.191621	0.19721	0.206085
1569	0.198031	0.197703	0.194416	0.207728
1570	0.197867	0.196388	0.200497	0.20362
1571	0.195566	0.196717	0.194744	0.204934
1572	0.196552	0.19573	0.196881	0.206249
1573	0.195073	0.19573	0.200004	0.203948
1574	0.19573	0.192443	0.199511	0.201319
1575	0.195237	0.198853	0.201154	0.204277
1576	0.196717	0.193922	0.196059	0.205592
1577	0.196388	0.196552	0.201319	0.205099
1578	0.194744	0.198196	0.200661	0.205921
1579	0.195895	0.009514	0.198524	0.20477
1580	0.19836	0.018225	0.198031	0.205099
1581	0.192115	0.024964	0.200497	0.202962
1582	0.197867	0.033839	0.198031	0.201976
1583	0.19573	0.040906	0.197045	0.203126
1584	0.199182	0.049617	0.197374	0.20477
1585	0.196717	0.052904	0.199839	0.201319
1586	0.205099	0.0603	0.19721	0.203455
1587	0.200332	0.063916	0.199839	0.203455
1588	0.19721	0.070819	0.200168	0.204277
1589	0.199018	0.078051	0.199018	0.204113
1590	0.195237	0.082817	0.199182	0.202962
1591	0.196717	0.082982	0.19458	0.201976
1592	0.19195	0.091199	0.199839	0.20099
1593	0.195402	0.09613	0.200661	0.202305
1594	0.194909	0.09613	0.20099	0.201483
1595	0.195566	0.102869	0.200004	0.204934
1596	0.191293	0.107964	0.203291	0.203784
1597	0.19836	0.113059	0.200332	0.201319
1598	0.193758	0.11651	0.200661	0.204441
1599	0.197045	0.122592	0.200661	0.20362
1600	0.197538	0.125714	0.20214	0.204606
1601	0.19573	0.125221	0.201319	0.202798
1602	0.197538	0.128508	0.19721	0.209536
1603	0.194416	0.13311	0.196717	0.200332
1604	0.195566	0.135411	0.196717	0.201976
1605	0.195237	0.139356	0.200332	0.205099
1606	0.198853	0.138699	0.195895	0.201483
1607	0.196223	0.141986	0.199839	0.203126
1608	0.200497	0.141986	0.199182	0.204441
1609	0.195566	0.146423	0.200497	0.20362
1610	0.191786	0.146588	0.19836	0.200332
1611	0.198196	0.150039	0.201976	0.197374
1612	0.195073	0.148396	0.197538	0.200497
1613	0.192279	0.153162	0.200332	0.203784
1614	0.196881	0.1576	0.199018	0.201154
1615	0.196881	0.153819	0.197374	0.200332
1616	0.192772	0.155956	0.200332	0.204113
1617	0.194909	0.16138	0.194744	0.203291
1618	0.194087	0.161051	0.198853	0.201319
1619	0.197867	0.159572	0.198524	0.203784
1620	0.197374	0.169433	0.198031	0.204441
1621	0.197703	0.163023	0.199346	0.201483
1622	0.19836	0.168118	0.19836	0.202469
1623	0.197374	0.170255	0.197703	0.199839
1624	0.195895	0.167297	0.20362	0.203948
1625	0.197538	0.169926	0.197538	0.202633
1626	0.194416	0.170584	0.194416	0.202305
1627	0.197867	0.171077	0.196717	0.202305
1628	0.192608	0.171406	0.199675	0.199182
1629	0.197703	0.174035	0.196881	0.202305
1630	0.193429	0.171734	0.198853	0.205756
1631	0.195237	0.176829	0.194909	0.204934
1632	0.200004	0.178144	0.201812	0.200332
1633	0.197374	0.175021	0.202469	0.202305
1634	0.19721	0.175186	0.198689	0.201647
1635	0.198853	0.011651	0.201483	0.201483
1636	0.195895	0.014609	0.198524	0.200004
1637	0.192608	0.027429	0.200332	0.202633
1638	0.197374	0.02973	0.199182	0.20099
1639	0.194416	0.038441	0.197867	0.200825
1640	0.197538	0.041728	0.198853	0.204606
1641	0.196717	0.047809	0.199675	0.203455
1642	0.196881	0.054712	0.197867	0.205099
1643	0.193101	0.058328	0.19836	0.202633
1644	0.196881	0.065888	0.201812	0.201319
1645	0.194909	0.069669	0.19721	0.200825
1646	0.194909	0.076243	0.199675	0.20214
1647	0.196223	0.07838	0.200332	0.200825
1648	0.194744	0.088077	0.199839	0.203126
1649	0.193429	0.081502	0.200004	0.201812
1650	0.194744	0.0935	0.199511	0.202798
1651	0.195073	0.097445	0.197045	0.20214
1652	0.193101	0.100732	0.196552	0.208879
1653	0.195566	0.105498	0.201647	0.201976
1654	0.19573	0.108786	0.201319	0.197538
1655	0.19573	0.112237	0.199675	0.202305
1656	0.194909	0.115524	0.199675	0.19836
1657	0.196881	0.116839	0.197703	0.201647
1658	0.192772	0.116839	0.199839	0.19836
1659	0.19721	0.118154	0.197703	0.197867
1660	0.191621	0.115195	0.199511	0.201647
1661	0.191786	0.00409	0.194251	0.194909
1662	0.197703	0.010171	0.199839	0.198031
1663	0.192936	0.02069	0.200332	0.20099
1664	0.193265	0.030387	0.199346	0.199182
1665	0.198031	0.038276	0.199675	0.203784
1666	0.196552	0.042221	0.199018	0.200497
1667	0.191786	0.051425	0.199182	0.202633
1668	0.197867	0.053233	0.198031	0.204606
1669	0.194251	0.061944	0.199675	0.20099
1670	0.195895	0.064738	0.199018	0.201319
1671	0.195073	0.070162	0.201483	0.201812
1672	0.198196	0.077065	0.201647	0.199839
1673	0.196223	0.081009	0.19458	0.20362
1674	0.197045	0.086269	0.19836	0.204113
1675	0.192608	0.089556	0.20099	0.200825
1676	0.197703	0.094487	0.198031	0.204113
1677	0.197867	0.101718	0.19721	0.200332
1678	0.19721	0.10517	0.19836	0.201976
1679	0.195895	0.103197	0.19458	0.201647
1680	0.195073	0.113552	0.200004	0.202633
1681	0.197703	0.108128	0.201319	0.201154
1682	0.196881	0.114702	0.194251	0.202798
1683	0.193101	0.115031	0.194416	0.201976
1684	0.193429	0.12177	0.201812	0.202962
1685	0.194251	0.123413	0.200497	0.202305
1686	0.19195	0.127358	0.20099	0.200661
1687	0.203126	0.130809	0.200168	0.203126
1688	0.195402	0.133275	0.200332	0.200497
1689	0.197703	0.137548	0.197703	0.202305
1690	0.19721	0.141657	0.199511	0.201647
1691	0.196059	0.143301	0.198689	0.202633
1692	0.195402	0.141657	0.199018	0.20099
1693	0.196388	0.14478	0.196059	0.202962
1694	0.196223	0.144122	0.198196	0.200332
1695	0.196059	0.149546	0.20214	0.200168
1696	0.196881	0.149217	0.197538	0.198853
1697	0.195237	0.15119	0.200497	0.201319
1698	0.194416	0.148067	0.199346	0.201647
1699	0.194909	0.157271	0.200825	0.201812
1700	0.196552	0.153655	0.198196	0.202633
1701	0.197538	0.155299	0.201647	0.204113
1702	0.197867	0.159901	0.203291	0.201976
1703	0.19195	0.161051	0.199346	0.199018
1704	0.197538	0.162695	0.197538	0.197703
1705	0.193922	0.163516	0.203126	0.198853
1706	0.194744	0.166968	0.201483	0.198853
1707	0.193594	0.168283	0.199346	0.200332
1708	0.194909	0.169105	0.199511	0.200004
1709	0.196552	0.169105	0.198031	0.199182
1710	0.199018	0.173378	0.199839	0.201812
1711	0.196223	0.170419	0.19721	0.192772
1712	0.19573	0.172227	0.198524	0.196552
1713	0.198689	0.174857	0.194909	0.196059
1714	0.194416	0.173871	0.199511	0.201812
1715	0.196717	0.172556	0.195237	0.200168
1716	0.197374	0.175679	0.200332	0.201812
1717	0.198524	0.181924	0.201812	0.198853
1718	0.192772	0.176665	0.20099	0.198524
1719	0.198689	0.177815	0.198853	0.199511
1720	0.195237	0.180445	0.201647	0.201319
1721	0.197045	0.182582	0.198853	0.200497
1722	0.194251	0.182582	0.199346	0.201319
1723	0.192115	0.182582	0.201154	0.201483
1724	0.191457	0.182253	0.198031	0.19721
1725	0.195566	0.186855	0.19836	0.200332
1726	0.19836	0.179295	0.200168	0.196881
1727	0.195402	0.186033	0.198524	0.199839
1728	0.19573	0.185047	0.196881	0.197045
1729	0.19721	0.186198	0.200661	0.20099
1730	0.197703	0.183239	0.192608	0.19721
1731	0.193429	0.187841	0.198689	0.201812
1732	0.193429	0.189156	0.199182	0.202633
1733	0.194744	0.186855	0.200825	0.201647
1734	0.198853	0.187513	0.196552	0.201647
1735	0.192608	0.193429	0.20214	0.199511
1736	0.19721	0.18554	0.199182	0.202305
1737	0.192443	0.187348	0.198031	0.198853
1738	0.192936	0.189485	0.204441	0.20099
1739	0.192279	0.189978	0.202469	0.201647
1740	0.194744	0.189978	0.200661	0.196717
1741	0.192279	0.192115	0.198524	0.192772
1742	0.19573	0.194909	0.199182	0.199511
1743	0.19458	0.191457	0.200497	0.198853
1744	0.197045	0.190307	0.200332	0.200004
1745	0.197703	0.194251	0.196717	0.197703
1746	0.194744	0.192443	0.198196	0.199346
1747	0.198853	0.193594	0.195402	0.198853
1748	0.195895	0.190471	0.201976	0.200004
1749	0.197703	0.192115	0.200497	0.201483
1750	0.196388	0.194087	0.200004	0.200497
1751	0.196388	0.194251	0.200332	0.200661
1752	0.197045	0.192772	0.199018	0.199839
1753	0.196223	0.196223	0.197867	0.198196
1754	0.192608	0.193758	0.203291	0.197703
1755	0.195895	0.195073	0.201154	0.203948
1756	0.193429	0.193101	0.198524	0.19836
1757	0.195073	0.195073	0.200497	0.197703
1758	0.191621	0.194909	0.199511	0.198524
1759	0.192115	0.197045	0.198853	0.20214
1760	0.196552	0.193101	0.201483	0.197867
1761	0.193101	0.196223	0.200497	0.199675
1762	0.195073	0.191293	0.197867	0.201647
1763	0.195237	0.194087	0.198196	0.198689
1764	0.199839	0.200004	0.196223	0.203948
1765	0.192936	0.195402	0.200168	0.201319
1766	0.195895	0.193101	0.196552	0.198689
1767	0.19573	0.196059	0.198853	0.20214
1768	0.195237	0.192115	0.199346	0.197703
1769	0.197045	0.196059	0.196881	0.201647
1770	0.195566	0.195073	0.200497	0.201647
1771	0.193594	0.193594	0.203291	0.199511
1772	0.194744	0.197374	0.198853	0.202305
1773	0.194909	0.192936	0.199675	0.196552
1774	0.199675	0.195895	0.201812	0.201319
1775	0.196223	0.19836	0.198689	0.203784
1776	0.1908	0.19721	0.199346	0.197374
1777	0.197703	0.196223	0.195073	0.200497
1778	0.196059	0.198853	0.198031	0.202633
1779	0.194909	0.196717	0.195566	0.199511
1780	0.194416	0.198031	0.20214	0.201319
1781	0.195895	0.198196	0.196717	0.199675
1782	0.190964	0.19573	0.202305	0.199018
1783	0.200168	0.195566	0.203291	0.201647
1784	0.196717	0.195402	0.201154	0.202469
1785	0.19573	0.196223	0.200332	0.201976
1786	0.196552	0.197703	0.204606	0.201154
1787	0.196223	0.199346	0.201319	0.201483
1788	0.19458	0.194087	0.198524	0.200332
1789	0.199346	0.200168	0.19836	0.202798
1790	0.194087	0.193101	0.199675	0.201483
1791	0.194251	0.200168	0.199182	0.20099
1792	0.196223	0.199511	0.19836	0.196059
1793	0.192936	0.196388	0.202305	0.197867
1794	0.197045	0.196223	0.198524	0.199511
1795	0.194251	0.201319	0.200004	0.197867
1796	0.192936	0.195895	0.200825	0.20099
1797	0.195073	0.201154	0.199018	0.201154
1798	0.198689	0.200332	0.200332	0.200825
1799	0.196717	0.19573	0.196552	0.200004
1800	0.198196	0.198689	0.199511	0.201812
1801	0.195237	0.196552	0.194744	0.198689
1802	0.196223	0.20099	0.195895	0.199018
1803	0.196881	0.196059	0.200497	0.200332
1804	0.19458	0.200661	0.197045	0.201154
1805	0.195073	0.195402	0.197538	0.202305
1806	0.193922	0.201154	0.200497	0.202633
1807	0.194909	0.197374	0.198853	0.19836
1808	0.194416	0.197867	0.202798	0.199675
1809	0.193429	0.196388	0.202962	0.204113
1810	0.188334	0.19458	0.199511	0.199839
1811	0.197374	0.19573	0.19721	0.200168
1812	0.193594	0.197867	0.201976	0.202469
1813	0.194087	0.194744	0.199675	0.20099
1814	0.196552	0.195237	0.197703	0.199839
1815	0.195895	0.197374	0.200168	0.202469
1816	0.191293	0.197374	0.197045	0.199839
1817	0.197045	0.200332	0.199018	0.202469
1818	0.195895	0.199346	0.200004	0.199182
1819	0.197374	0.199839	0.199675	0.202633
1820	0.196717	0.197703	0.200004	0.202305
1821	0.196223	0.199182	0.19836	0.202469
1822	0.202305	0.197374	0.198196	0.203784
1823	0.193429	0.198853	0.20099	0.203291
1824	0.195566	0.198689	0.199511	0.202633
1825	0.19573	0.201812	0.200332	0.204441
1826	0.197374	0.202469	0.198853	0.201976
1827	0.194416	0.200004	0.198853	0.201976
1828	0.195402	0.199675	0.200497	0.203784
1829	0.195566	0.200004	0.19721	0.201976
1830	0.195402	0.199839	0.195402	0.205263
1831	0.198853	0.196552	0.190142	0.201812
1832	0.20214	0.200825	0.196059	0.203784
1833	0.203126	0.198031	0.18932	0.202469
1834	0.195073	0.201154	0.193758	0.201319
1835	0.195895	0.199839	0.199346	0.20214
1836	0.19721	0.198853	0.196717	0.202305
1837	0.197867	0.196717	0.198689	0.20214
1838	0.198031	0.19836	0.197867	0.202469
1839	0.199182	0.197045	0.198524	0.202305
1840	0.193758	0.198853	0.198689	0.203948
1841	0.198524	0.194744	0.199182	0.205592
1842	0.195237	0.197045	0.189814	0.204277
1843	0.195402	0.196717	0.192608	0.206249
1844	0.188499	0.197703	0.203948	0.206578
1845	0.19458	0.199018	0.197538	0.203784
1846	0.193429	0.198853	0.198853	0.201976
1847	0.196388	0.196717	0.197703	0.204277
1848	0.194087	0.197374	0.198196	0.202798
1849	0.194416	0.200497	0.197374	0.202469
1850	0.195402	0.200661	0.199511	0.201812
1851	0.195566	0.201483	0.199346	0.202962
1852	0.197045	0.196059	0.199675	0.199675
1853	0.194251	0.196881	0.199018	0.202962
1854	0.197867	0.20362	0.198031	0.20099
1855	0.184554	0.199839	0.202305	0.209865
1856	0.196388	0.193429	0.199182	0.205756
1857	0.194416	0.197703	0.200004	0.20477
1858	0.195895	0.195402	0.200004	0.201812
1859	0.196388	0.19573	0.196881	0.202305
1860	0.194087	0.194909	0.198196	0.203126
1861	0.194416	0.198689	0.199346	0.201812
1862	0.19573	0.197045	0.199511	0.202798
1863	0.193922	0.19458	0.196717	0.201154
1864	0.195073	0.195237	0.200332	0.201483
1865	0.195566	0.197703	0.197045	0.200332
1866	0.19195	0.19836	0.198853	0.200332
1867	0.19573	0.197538	0.198196	0.200661
1868	0.194416	0.203948	0.196552	0.201319
1869	0.195566	0.197374	0.200497	0.200661
1870	0.195566	0.198689	0.197374	0.201976
1871	0.197045	0.201154	0.193758	0.198853
1872	0.195073	0.19721	0.199346	0.20099
1873	0.19721	0.196552	0.198524	0.20099
1874	0.196223	0.196881	0.197703	0.201483
1875	0.198524	0.193429	0.19573	0.200332
1876	0.19721	0.20099	0.19721	0.201319
1877	0.196388	0.197703	0.19721	0.191457
1878	0.195073	0.193429	0.197703	0.203455
1879	0.196388	0.203948	0.200004	0.204113
1880	0.194087	0.195895	0.199511	0.199346
1881	0.197703	0.197045	0.19836	0.202469
1882	0.197867	0.199182	0.19721	0.201154
1883	0.193922	0.201647	0.202469	0.201812
1884	0.195237	0.198031	0.195895	0.198853
1885	0.192443	0.201319	0.200661	0.201319
1886	0.193922	0.197045	0.197867	0.199675
1887	0.199675	0.199675	0.198031	0.200497
1888	0.195237	0.200825	0.195237	0.199018
1889	0.18932	0.201154	0.200168	0.200168
1890	0.196388	0.188663	0.197538	0.201812
1891	0.19458	0.196223	0.19836	0.197703
1892	0.195073	0.199182	0.200332	0.199675
1893	0.194744	0.19721	0.196552	0.199511
1894	0.196717	0.200004	0.199675	0.206249
1895	0.193429	0.196388	0.199346	0.195895
1896	0.197538	0.200332	0.200497	0.201976
1897	0.193758	0.196223	0.198853	0.202962
1898	0.194744	0.197374	0.199675	0.201483
1899	0.19573	0.198689	0.199839	0.20214
1900	0.193101	0.201319	0.202962	0.197538
1901	0.196223	0.192115	0.196223	0.198689
1902	0.193922	0.199511	0.200004	0.200332
1903	0.193922	0.200497	0.200332	0.200004
1904	0.19458	0.201319	0.197374	0.198196
1905	0.197867	0.202305	0.19458	0.199018
1906	0.193265	0.200825	0.197045	0.192772
1907	0.195237	0.204113	0.196717	0.201483
1908	0.191293	0.197045	0.198689	0.204606
1909	0.193594	0.198196	0.198196	0.198031
1910	0.194909	0.199018	0.200332	0.199018
1911	0.193922	0.196223	0.199018	0.199182
1912	0.197045	0.194909	0.196223	0.196059
1913	0.19458	0.197867	0.200168	0.19573
1914	0.193265	0.19458	0.198524	0.198689
1915	0.194744	0.196059	0.200332	0.200661
1916	0.195237	0.201154	0.197045	0.199675
1917	0.191786	0.199182	0.201154	0.196717
1918	0.195402	0.19836	0.199839	0.198853
1919	0.193594	0.200332	0.198031	0.197703
1920	0.196881	0.201483	0.200332	0.199511
1921	0.197538	0.200004	0.19836	0.196717
1922	0.196717	0.201154	0.197538	0.200004
1923	0.192279	0.19836	0.198031	0.195073
1924	0.199346	0.200661	0.200497	0.199675
1925	0.194416	0.203784	0.195566	0.197045
1926	0.195073	0.205921	0.200004	0.197045
1927	0.19836	0.204441	0.197867	0.197703
1928	0.193758	0.20099	0.195895	0.197538
1929	0.196717	0.19721	0.193594	0.197867
1930	0.196223	0.19721	0.198524	0.200661
1931	0.199018	0.199346	0.199018	0.199839
1932	0.193101	0.198524	0.193101	0.198524
1933	0.19721	0.199675	0.199346	0.199675
1934	0.193758	0.198524	0.202962	0.194744
1935	0.199346	0.200168	0.201483	0.199346
1936	0.193101	0.200332	0.197703	0.195402
1937	0.194909	0.199182	0.199182	0.197703
1938	0.194909	0.19836	0.200168	0.195402
1939	0.193594	0.202305	0.195402	0.197045
1940	0.200661	0.197703	0.199511	0.197045
1941	0.197867	0.199018	0.196881	0.199346
1942	0.195895	0.200004	0.200332	0.195237
1943	0.196059	0.199839	0.200497	0.195895
1944	0.201319	0.200168	0.196552	0.19836
1945	0.192608	0.199675	0.199839	0.195237
1946	0.195566	0.196717	0.198689	0.19458
1947	0.192936	0.199511	0.199511	0.197045
1948	0.19458	0.196552	0.198031	0.197374
1949	0.195073	0.196388	0.201812	0.195566
1950	0.194744	0.200825	0.199018	0.19458
1951	0.193594	0.199511	0.197045	0.19836
1952	0.196059	0.202305	0.200497	0.199346
1953	0.192608	0.199182	0.200497	0.199182
1954	0.196388	0.199182	0.197867	0.195895
1955	0.196223	0.19721	0.19458	0.199675
1956	0.196223	0.201812	0.199675	0.197867
1957	0.196223	0.205263	0.201483	0.193758
1958	0.190307	0.20362	0.199675	0.197867
1959	0.194251	0.199511	0.19573	0.19573
1960	0.194251	0.201812	0.201647	0.196059
1961	0.193429	0.199182	0.196717	0.195895
1962	0.195073	0.197374	0.199182	0.198689
1963	0.194744	0.197703	0.196717	0.197374
1964	0.195566	0.201976	0.200168	0.201319
1965	0.200825	0.201647	0.197374	0.19836
1966	0.195895	0.194909	0.19836	0.203948
1967	0.19573	0.201976	0.198031	0.206085
1968	0.192608	0.200825	0.201976	0.199839
1969	0.195073	0.201154	0.198031	0.199182
1970	0.192279	0.200004	0.198524	0.198196
1971	0.192115	0.198524	0.198689	0.201319
1972	0.194416	0.202633	0.199511	0.198689
1973	0.19458	0.20099	0.200004	0.200497
1974	0.196717	0.202305	0.19721	0.198853
1975	0.196717	0.20214	0.199346	0.199675
1976	0.193265	0.198853	0.196223	0.198853
1977	0.196881	0.199346	0.197374	0.200168
1978	0.195566	0.197538	0.196552	0.199675
1979	0.192772	0.202798	0.197703	0.197867
1980	0.198196	0.19836	0.195402	0.199839
1981	0.196223	0.201647	0.19573	0.199346
1982	0.195237	0.197538	0.195237	0.201154
1983	0.192936	0.200661	0.19836	0.198689
1984	0.19458	0.199839	0.197374	0.202633
1985	0.192936	0.201154	0.200497	0.199675
1986	0.195237	0.201812	0.200004	0.201154
1987	0.193594	0.200168	0.197045	0.201812
1988	0.195073	0.198853	0.197867	0.199018
1989	0.19458	0.203291	0.200332	0.200004
1990	0.196717	0.207564	0.200332	0.202633
1991	0.195402	0.200004	0.198031	0.196059
1992	0.196059	0.204441	0.199018	0.200661
1993	0.196552	0.20099	0.19721	0.197703
1994	0.192772	0.203126	0.200168	0.198031
1995	0.197867	0.202469	0.19721	0.199675
1996	0.196717	0.200497	0.200168	0.198689
1997	0.197538	0.202305	0.199018	0.201976
1998	0.194744	0.201483	0.198031	0.203455
1999	0.199511	0.203291	0.194251	0.203455
2000	0.197045	0.203126	0.197374	0.201154
2001	0.193594	0.204606	0.201319	0.202305
2002	0.195566	0.20099	0.20214	0.199839
2003	0.194087	0.203455	0.197703	0.205263
2004	0.193265	0.200497	0.200332	0.197045
2005	0.193101	0.20362	0.20477	0.20362
2006	0.197867	0.200004	0.197045	0.201483
2007	0.196059	0.200825	0.200661	0.201976
2008	0.195566	0.200332	0.200497	0.196059
2009	0.193758	0.204441	0.198031	0.200168
2010	0.194087	0.201319	0.198031	0.198524
2011	0.195566	0.202962	0.198689	0.197867
2012	0.195402	0.205099	0.196717	0.201483
2013	0.196552	0.200661	0.197045	0.200332
2014	0.194087	0.201812	0.196059	0.201483
2015	0.196552	0.202798	0.201319	0.201812
2016	0.196717	0.203455	0.196717	0.200497
2017	0.198524	0.202962	0.199511	0.200661
2018	0.195073	0.202469	0.200497	0.198031
2019	0.196552	0.202469	0.197867	0.197045
2020	0.196552	0.206085	0.200332	0.201483
2021	0.19573	0.199018	0.197867	0.201812
2022	0.196388	0.206742	0.199675	0.201483
2023	0.195402	0.201154	0.19836	0.202798
2024	0.193758	0.20099	0.200661	0.200332
2025	0.19573	0.202962	0.197374	0.202962
2026	0.194251	0.203126	0.197538	0.201319
2027	0.19195	0.204113	0.196881	0.19836
2028	0.196717	0.211509	0.20099	0.202633
2029	0.197538	0.205427	0.198196	0.201812
2030	0.195073	0.204277	0.19836	0.199675
2031	0.202469	0.206742	0.195566	0.200825
2032	0.196059	0.203948	0.198853	0.20099
2033	0.195402	0.202633	0.198031	0.200497
2034	0.197538	0.201483	0.193429	0.199346
2035	0.194744	0.204113	0.198196	0.203948
2036	0.195073	0.199839	0.196223	0.200332
2037	0.195073	0.204113	0.200497	0.202798
2038	0.192443	0.204113	0.20099	0.200661
2039	0.197045	0.202469	0.200497	0.203455
2040	0.196388	0.199182	0.200004	0.204441
2041	0.190142	0.203291	0.200332	0.200825
2042	0.193265	0.205921	0.200825	0.200332
2043	0.191621	0.202633	0.200168	0.204441
2044	0.192936	0.203948	0.200497	0.197703
2045	0.011158	0.203784	0.199182	0.200332
2046	0.021183	0.203455	0.196388	0.197374
2047	0.028579	0.201647	0.198853	0.192772
2048	0.034989	0.20099	0.200497	0.199018
2049	0.042057	0.199839	0.198853	0.197538
2050	0.051754	0.202633	0.202305	0.200497
2051	0.056027	0.200825	0.199018	0.200004
2052	0.0603	0.201319	0.202798	0.201976
2053	0.067039	0.202469	0.200332	0.202798
2054	0.07312	0.204606	0.200004	0.202305
2055	0.072791	0.201647	0.196552	0.202798
2056	0.075585	0.203126	0.197867	0.20099
2057	0.085776	0.205263	0.194416	0.20214
2058	0.086597	0.198689	0.201812	0.199511
2059	0.09235	0.201483	0.197703	0.19836
2060	0.093829	0.199018	0.201647	0.199839
2061	0.102704	0.199182	0.199839	0.199182
2062	0.106813	0.198853	0.197703	0.196881
2063	0.110265	0.203784	0.198689	0.200497
2064	0.114867	0.199346	0.198524	0.20099
2065	0.121277	0.201483	0.196881	0.205427
2066	0.121277	0.199675	0.197867	0.192772
2067	0.124399	0.201812	0.198031	0.202798
2068	0.127851	0.201154	0.197703	0.204277
2069	0.12933	0.201483	0.199511	0.203455
2070	0.128508	0.199675	0.19836	0.201812
2071	0.138205	0.200004	0.199675	0.202962
2072	0.139192	0.200004	0.200661	0.203126
2073	0.137055	0.199839	0.199675	0.201647
2074	0.142972	0.203291	0.198031	0.202633
2075	0.143465	0.201976	0.202469	0.20362
2076	0.149053	0.202633	0.196059	0.202633
2077	0.145108	0.204277	0.19721	0.200825
2078	0.149053	0.197867	0.198853	0.201319
2079	0.15234	0.193922	0.198196	0.201319
2080	0.153491	0.202305	0.19458	0.201647
2081	0.158421	0.199675	0.197703	0.198853
2082	0.1576	0.200497	0.199018	0.198689
2083	0.159243	0.197703	0.193594	0.202633
2084	0.161873	0.202469	0.19721	0.201647
2085	0.16138	0.200497	0.194416	0.202633
2086	0.164667	0.199182	0.198196	0.201647
2087	0.168776	0.199511	0.198031	0.203291
2088	0.162366	0.200004	0.196881	0.202469
2089	0.168283	0.19836	0.196552	0.202962
2090	0.168447	0.200004	0.20099	0.203126
2091	0.16779	0.198689	0.199018	0.200661
2092	0.167461	0.19836	0.200825	0.199675
2093	0.175021	0.200825	0.200332	0.201483
2094	0.171899	0.196388	0.200332	0.200661
2095	0.172885	0.199346	0.199839	0.202469
2096	0.174857	0.198524	0.200497	0.203455
2097	0.174364	0.200004	0.19836	0.203455
2098	0.175186	0.199018	0.197703	0.199839
2099	0.176008	0.202633	0.199839	0.205099
2100	0.177158	0.201319	0.20362	0.199511
2101	0.178144	0.200004	0.200332	0.199839
2102	0.180281	0.198031	0.199675	0.202305
2103	0.178637	0.196881	0.200497	0.202305
2104	0.181431	0.19836	0.199346	0.199511
2105	0.179623	0.200661	0.199182	0.204113
2106	0.182089	0.195073	0.200332	0.202962
2107	0.182911	0.20099	0.206578	0.200332
2108	0.181103	0.200497	0.199839	0.20362
2109	0.17913	0.196717	0.20099	0.202962
2110	0.180445	0.199839	0.201976	0.204113
2111	0.181103	0.197703	0.200825	0.201319
2112	0.182089	0.196881	0.202798	0.200332
2113	0.180774	0.194251	0.197374	0.199839
2114	0.183568	0.19458	0.200661	0.201483
2115	0.187513	0.193922	0.198524	0.198689
2116	0.186855	0.197045	0.199182	0.202305
2117	0.186198	0.193594	0.198853	0.205592
2118	0.188006	0.196552	0.200661	0.204277
2119	0.189649	0.197045	0.196388	0.199675
2120	0.187841	0.196717	0.20099	0.203126
2121	0.190964	0.196388	0.199675	0.201154
2122	0.188663	0.197374	0.198853	0.203948
2123	0.1908	0.198196	0.197703	0.201319
2124	0.187513	0.19721	0.200004	0.199675
2125	0.188334	0.197374	0.202962	0.204934
2126	0.193429	0.194087	0.203126	0.197538
2127	0.190471	0.197045	0.200497	0.203948
2128	0.190964	0.192279	0.197703	0.203784
2129	0.190471	0.196388	0.057671	0.20214
2130	0.190307	0.198853	0.057342	0.202469
2131	0.191786	0.197703	0.0603	0.205427
2132	0.195402	0.197867	0.069504	0.200497
2133	0.190635	0.197045	0.077393	0.201647
2134	0.193101	0.196881	0.081502	0.20099
2135	0.191457	0.195237	0.085776	0.20099
2136	0.193265	0.199839	0.091035	0.203291
2137	0.19573	0.192608	0.09613	0.200004
2138	0.195237	0.196223	0.09876	0.204606
2139	0.190471	0.196059	0.104184	0.199018
2140	0.194416	0.195895	0.108293	0.204113
2141	0.192115	0.193922	0.110922	0.200168
2142	0.193594	0.197374	0.117003	0.20214
2143	0.196717	0.19195	0.120455	0.200332
2144	0.193594	0.195073	0.121605	0.203291
2145	0.191457	0.1908	0.126043	0.198853
2146	0.192279	0.191457	0.132946	0.200004
2147	0.194251	0.193101	0.13196	0.205099
2148	0.193594	0.191786	0.135904	0.205263
2149	0.195895	0.190142	0.140342	0.20362
2150	0.192115	0.194909	0.143136	0.202962
2151	0.194416	0.19573	0.142807	0.202305
2152	0.193101	0.196388	0.14593	0.198689
2153	0.196552	0.193594	0.146752	0.207071
2154	0.195237	0.194251	0.146752	0.199511
2155	0.194416	0.196552	0.150532	0.199018
2156	0.192608	0.192608	0.152011	0.199511
2157	0.192608	0.190142	0.155463	0.198524
2158	0.193101	0.193758	0.155956	0.198031
2159	0.192115	0.193429	0.158914	0.201319
2160	0.195402	0.190471	0.1576	0.201154
2161	0.192115	0.193758	0.161544	0.201319
2162	0.192772	0.1908	0.166475	0.202469
2163	0.193594	0.191621	0.164667	0.205263
2164	0.200004	0.192115	0.165489	0.20362
2165	0.191621	0.190964	0.170255	0.200661
2166	0.191457	0.193101	0.168283	0.203291
2167	0.192115	0.193922	0.17272	0.197374
2168	0.194744	0.194251	0.170913	0.200004
2169	0.193429	0.194744	0.173542	0.201647
2170	0.198031	0.195566	0.174035	0.203784
2171	0.192772	0.192772	0.175515	0.19836
2172	0.196552	0.198524	0.176008	0.200825
2173	0.197045	0.194909	0.178309	0.197703
2174	0.196388	0.193101	0.177158	0.199182
2175	0.205427	0.19195	0.176501	0.199018
2176	0.193922	0.195402	0.180445	0.199018
2177	0.195566	0.192443	0.179952	0.199018
2178	0.194744	0.193265	0.180281	0.200661
2179	0.196223	0.193101	0.181924	0.202962
2180	0.196059	0.190471	0.182417	0.201812
2181	0.195402	0.192279	0.182911	0.200332
2182	0.198196	0.194087	0.187019	0.201154
2183	0.196059	0.193758	0.188006	0.201154
2184	0.19721	0.196059	0.190635	0.196881
2185	0.197867	0.195237	0.184883	0.198689
2186	0.193101	0.195237	0.185869	0.200168
2187	0.195073	0.19721	0.188827	0.196059
2188	0.193922	0.194909	0.183897	0.197374
2189	0.196223	0.197538	0.186691	0.19836
2190	0.195073	0.194416	0.189485	0.197867
2191	0.196717	0.191293	0.189649	0.196881
2192	0.195895	0.197703	0.188663	0.199018
2193	0.196223	0.197538	0.191786	0.198524
2194	0.194251	0.189485	0.190471	0.199018
2195	0.19458	0.193758	0.190471	0.203126
2196	0.197538	0.192608	0.189814	0.199675
2197	0.185705	0.194087	0.193101	0.200825
2198	0.194251	0.193594	0.192443	0.197703
2199	0.19458	0.192443	0.19458	0.197703
2200	0.195402	0.193594	0.190964	0.201812
2201	0.193922	0.190635	0.193265	0.197538
2202	0.195402	0.194416	0.194251	0.201976
2203	0.197867	0.195895	0.193758	0.198031
2204	0.194087	0.197045	0.190964	0.19836
2205	0.197374	0.193922	0.194416	0.19721
2206	0.194909	0.195402	0.191293	0.20099
2207	0.195237	0.195402	0.188663	0.195073
2208	0.18554	0.193265	0.192608	0.200004
2209	0.193758	0.195073	0.1908	0.197045
2210	0.193265	0.190635	0.196552	0.195566
2211	0.19721	0.1908	0.190142	0.200825
2212	0.196223	0.193429	0.193758	0.197538
2213	0.197374	0.190142	0.194251	0.198524
2214	0.19573	0.191621	0.195895	0.200825
2215	0.191457	0.194251	0.195073	0.200168
2216	0.200332	0.192772	0.195073	0.195402
2217	0.196717	0.191128	0.197045	0.200332
2218	0.194416	0.189156	0.196223	0.200497
2219	0.192608	0.1908	0.196388	0.202633
2220	0.193922	0.190307	0.19573	0.19573
2221	0.19458	0.191786	0.19573	0.194744
2222	0.197045	0.188499	0.195402	0.197538
2223	0.195566	0.190471	0.196552	0.197703
2224	0.195566	0.189978	0.195237	0.19573
2225	0.193758	0.192279	0.191128	0.19836
2226	0.195566	0.189649	0.191786	0.196717
2227	0.196388	0.192115	0.195402	0.199346
2228	0.199675	0.164831	0.195895	0.197703
2229	0.196059	0.165489	0.194087	0.198031
2230	0.19836	0.166639	0.195895	0.205427
2231	0.193758	0.168776	0.194744	0.195895
2232	0.193429	0.172885	0.19721	0.200332
2233	0.196552	0.169105	0.202962	0.19721
2234	0.195895	0.174693	0.197703	0.198524
2235	0.195073	0.174528	0.19573	0.195402
2236	0.194416	0.176336	0.198031	0.200825
2237	0.194909	0.178144	0.195895	0.198853
2238	0.196059	0.181267	0.197374	0.193594
2239	0.198031	0.181267	0.198196	0.19721
2240	0.194087	0.184225	0.196717	0.19573
2241	0.191293	0.18439	0.195073	0.201319
2242	0.195566	0.183239	0.197045	0.192772
2243	0.197045	0.187677	0.194087	0.192443
2244	0.192115	0.183897	0.199346	0.193758
2245	0.193101	0.18554	0.192608	0.195073
2246	0.194251	0.186362	0.196223	0.193594
2247	0.196388	0.181431	0.197045	0.197703
2248	0.197045	0.191128	0.195895	0.192772
2249	0.194416	0.156778	0.200661	0.193429
2250	0.196717	0.152176	0.199675	0.194416
2251	0.193594	0.159243	0.196552	0.196552
2252	0.197374	0.155299	0.199018	0.197538
2253	0.197374	0.160887	0.199675	0.194909
2254	0.197703	0.166146	0.193594	0.195073
2255	0.194251	0.164174	0.198853	0.194744
2256	0.196059	0.164831	0.196717	0.195566
2257	0.192443	0.167461	0.196552	0.19458
2258	0.194251	0.163023	0.198689	0.192443
2259	0.194744	0.167625	0.198853	0.191128
2260	0.19573	0.171406	0.198031	0.195073
2261	0.19573	0.129659	0.197045	0.191128
2262	0.198853	0.135904	0.196059	0.198689
2263	0.197374	0.105827	0.198196	0.195237
2264	0.197045	0.11273	0.196388	0.192608
2265	0.197703	0.115853	0.19458	0.193101
2266	0.199346	0.123085	0.201154	0.197045
2267	0.198524	0.122263	0.19721	0.196717
2268	0.195073	0.12818	0.19721	0.197867
2269	0.196223	0.129659	0.198196	0.195895
2270	0.195073	0.133603	0.201319	0.200004
2271	0.200168	0.134754	0.197867	0.198689
2272	0.194416	0.134918	0.201154	0.19836
2273	0.19721	0.137877	0.199839	0.196717
2274	0.194251	0.144944	0.199675	0.193265
2275	0.194087	0.146752	0.197374	0.195402
2276	0.19458	0.147738	0.196717	0.193922
2277	0.194416	0.15234	0.193758	0.196717
2278	0.197045	0.151025	0.198196	0.194744
2279	0.197374	0.15497	0.195895	0.196881
2280	0.197045	0.156942	0.198853	0.195895
2281	0.196223	0.164503	0.195895	0.19458
2282	0.194744	0.159901	0.198031	0.197374
2283	0.192608	0.160887	0.202469	0.199675
2284	0.195237	0.161544	0.198031	0.196223
2285	0.194744	0.165324	0.197538	0.189156
2286	0.198524	0.164503	0.196881	0.197045
2287	0.195073	0.166804	0.199675	0.196223
2288	0.195402	0.165324	0.197867	0.198853
2289	0.195566	0.168283	0.200825	0.195566
2290	0.196059	0.171734	0.201319	0.198524
2291	0.194416	0.172885	0.199511	0.195566
2292	0.194251	0.171734	0.198689	0.19573
2293	0.195073	0.173049	0.199018	0.201483
2294	0.19573	0.1742	0.203126	0.202798
2295	0.193594	0.173378	0.197867	0.195566
2296	0.19458	0.176501	0.19721	0.188663
2297	0.200004	0.178144	0.19721	0.193922
2298	0.192608	0.176829	0.199182	0.199182
2299	0.203455	0.178473	0.200168	0.194087
2300	0.192936	0.181267	0.204113	0.199018
2301	0.19458	0.181103	0.201319	0.19836
2302	0.192608	0.180445	0.199346	0.198689
2303	0.195895	0.177158	0.19836	0.197045
2304	0.197374	0.182089	0.201647	0.203291
2305	0.196717	0.180774	0.203455	0.199182
2306	0.19573	0.180281	0.198196	0.196717
2307	0.194087	0.183568	0.196881	0.192115
2308	0.194087	0.182582	0.199839	0.195237
2309	0.194416	0.191128	0.202798	0.197045
2310	0.19573	0.180774	0.198196	0.200497
2311	0.191786	0.183404	0.196552	0.196881
2312	0.196881	0.185376	0.19836	0.19573
2313	0.196388	0.187184	0.198853	0.195073
2314	0.197538	0.184883	0.198196	0.194251
2315	0.197045	0.185869	0.200004	0.203455
2316	0.196717	0.189485	0.193265	0.202469
2317	0.196059	0.190142	0.19836	0.201976
2318	0.196881	0.188827	0.196717	0.197045
2319	0.197374	0.188663	0.199182	0.200661
2320	0.198196	0.189156	0.200004	0.200168
2321	0.196717	0.183239	0.198853	0.20214
2322	0.196388	0.185212	0.200825	0.197045
2323	0.194909	0.186033	0.203455	0.198031
2324	0.198031	0.191293	0.201319	0.20099
2325	0.192608	0.188827	0.200825	0.200168
2326	0.196223	0.190142	0.201812	0.201647
2327	0.195895	0.190471	0.188006	0.202469
2328	0.19573	0.192608	0.198031	0.199839
2329	0.198031	0.190471	0.196223	0.198853
2330	0.197538	0.194087	0.198196	0.200168
2331	0.195237	0.195566	0.196223	0.19836
2332	0.197703	0.189485	0.196059	0.199675
2333	0.197538	0.191128	0.196388	0.200332
2334	0.197045	0.192772	0.193429	0.201812
2335	0.200004	0.190142	0.195073	0.201812
2336	0.194416	0.19195	0.193922	0.201976
2337	0.197538	0.191128	0.199182	0.203126
2338	0.197045	0.19195	0.194251	0.202633
2339	0.196552	0.195895	0.196223	0.202305
2340	0.195895	0.192279	0.200661	0.198689
2341	0.199182	0.197867	0.200661	0.20099
2342	0.194087	0.194251	0.20099	0.196388
2343	0.191128	0.192772	0.200004	0.198524
2344	0.196388	0.194744	0.19836	0.201976
2345	0.195566	0.19721	0.200168	0.200332
2346	0.198524	0.191457	0.199018	0.199839
2347	0.196717	0.19721	0.199675	0.20214
2348	0.194251	0.193101	0.199839	0.200661
2349	0.197703	0.197867	0.200332	0.204934
2350	0.200168	0.199182	0.200661	0.20362
2351	0.193758	0.196388	0.200825	0.202305
2352	0.198524	0.198524	0.198524	0.202469
2353	0.195073	0.198031	0.20099	0.201976
2354	0.19721	0.196059	0.19836	0.198853
2355	0.193922	0.197045	0.198689	0.199346
2356	0.19836	0.199839	0.199839	0.20362
2357	0.196388	0.193594	0.204441	0.200497
2358	0.194744	0.197867	0.199018	0.203126
2359	0.197045	0.195566	0.206085	0.199346
2360	0.195402	0.196552	0.196881	0.200497
2361	0.194744	0.199839	0.191293	0.20099
2362	0.195402	0.200825	0.199182	0.200004
2363	0.198689	0.200004	0.19721	0.197867
2364	0.188663	0.200168	0.199182	0.201154
2365	0.193265	0.197867	0.197045	0.204277
2366	0.196059	0.198031	0.199346	0.206414
2367	0.198031	0.202305	0.196881	0.200661
2368	0.196552	0.198689	0.200332	0.201647
2369	0.197374	0.198853	0.197703	0.203291
2370	0.197374	0.199511	0.200168	0.20099
2371	0.198031	0.201319	0.196552	0.202305
2372	0.199675	0.200497	0.197703	0.200497
2373	0.195402	0.198031	0.200497	0.205263
2374	0.199346	0.203126	0.201154	0.199511
2375	0.194909	0.202469	0.200825	0.205921
2376	0.19573	0.197867	0.194251	0.201976
2377	0.195895	0.202469	0.201154	0.200661
2378	0.196717	0.200004	0.197867	0.202305
2379	0.193922	0.202305	0.19836	0.20099
2380	0.195895	0.201483	0.197867	0.201976
2381	0.197867	0.201483	0.197867	0.200661
2382	0.197045	0.196717	0.199346	0.202305
2383	0.196223	0.198689	0.195237	0.202305
2384	0.200168	0.202962	0.193265	0.201483
2385	0.199182	0.197703	0.199018	0.198689
2386	0.198196	0.201647	0.196388	0.203126
2387	0.197538	0.196881	0.197374	0.201483
2388	0.196881	0.199675	0.199675	0.202962
2389	0.197703	0.19836	0.197045	0.201319
2390	0.193429	0.197045	0.200168	0.205099
2391	0.197867	0.195895	0.200332	0.204113
2392	0.196717	0.199511	0.201647	0.20362
2393	0.196388	0.195073	0.198196	0.201647
2394	0.195073	0.196059	0.201976	0.203784
2395	0.195895	0.19721	0.198031	0.202798
2396	0.196717	0.196552	0.20099	0.200004
2397	0.205921	0.199675	0.199675	0.202633
2398	0.194909	0.193265	0.201976	0.201976
2399	0.195402	0.197045	0.199511	0.204113
2400	0.19836	0.196552	0.198031	0.204277
2401	0.194251	0.19573	0.200497	0.200661
2402	0.196881	0.194744	0.202469	0.200332
2403	0.197374	0.197374	0.19836	0.20362
2404	0.196717	0.194909	0.199511	0.200497
2405	0.196717	0.198031	0.20099	0.202305
2406	0.195237	0.197045	0.201154	0.197703
2407	0.195566	0.196223	0.197867	0.20214
2408	0.195237	0.195402	0.200661	0.20214
2409	0.195566	0.1908	0.199675	0.207893
2410	0.194909	0.192279	0.196552	0.197703
2411	0.196388	0.194909	0.197538	0.196881
2412	0.193594	0.192443	0.196223	0.204606
2413	0.195895	0.194087	0.201483	0.200168
2414	0.20214	0.194416	0.199182	0.208386
2415	0.195895	0.195073	0.201319	0.205263
2416	0.197045	0.195073	0.198524	0.204606
2417	0.197045	0.19721	0.201812	0.20214
2418	0.196717	0.196223	0.197045	0.206414
2419	0.197374	0.18932	0.19836	0.200661
2420	0.197045	0.196059	0.19721	0.203126
2421	0.197045	0.195073	0.196552	0.201483
2422	0.196881	0.193922	0.193594	0.205592
2423	0.198196	0.193594	0.197703	0.205099
2424	0.194744	0.19458	0.199839	0.204113
2425	0.197867	0.195402	0.195895	0.204934
2426	0.196059	0.196388	0.196552	0.205921
2427	0.197703	0.19458	0.200004	0.205592
2428	0.195237	0.19458	0.198853	0.201483
2429	0.196717	0.191621	0.192608	0.208222
2430	0.195566	0.180116	0.199346	0.200332
2431	0.195566	0.195237	0.201812	0.204441
2432	0.195073	0.195073	0.199018	0.202798
2433	0.192115	0.195073	0.19836	0.202962
2434	0.193758	0.194744	0.202962	0.202469
2435	0.19458	0.195073	0.200004	0.202798
2436	0.195566	0.196223	0.199018	0.201812
2437	0.19573	0.195237	0.198853	0.203291
2438	0.198689	0.19458	0.199839	0.20214
2439	0.196059	0.196059	0.19721	0.202633
2440	0.198524	0.19458	0.197703	0.206578
2441	0.194909	0.188827	0.199675	0.201647
2442	0.197703	0.192936	0.198524	0.204441
2443	0.19458	0.194087	0.199346	0.201647
2444	0.195895	0.19195	0.196717	0.202633
2445	0.196059	0.192115	0.201319	0.202633
2446	0.196717	0.195402	0.200004	0.20099
2447	0.198689	0.199018	0.201483	0.203126
2448	0.193758	0.194909	0.202305	0.205099
2449	0.1908	0.192936	0.199346	0.201154
2450	0.193922	0.193429	0.198031	0.206414
2451	0.196717	0.193758	0.196223	0.204606
2452	0.1908	0.196388	0.199182	0.202798
2453	0.198196	0.193429	0.197374	0.200825
2454	0.19721	0.198196	0.19836	0.201812
2455	0.194251	0.194251	0.198031	0.201319
2456	0.193758	0.195895	0.199182	0.200661
2457	0.195895	0.195895	0.198689	0.194744
2458	0.19573	0.191786	0.203126	0.199182
2459	0.195402	0.190964	0.199018	0.20214
2460	0.194087	0.193594	0.201647	0.200497
2461	0.195895	0.19458	0.200661	0.200004
2462	0.196388	0.194087	0.200497	0.20362
2463	0.194909	0.192443	0.200004	0.20214
2464	0.192936	0.189814	0.201319	0.205427
2465	0.195237	0.190964	0.200004	0.204277
2466	0.194909	0.190964	0.199182	0.20362
2467	0.197538	0.193101	0.200497	0.20099
2468	0.196223	0.073449	0.199511	0.201812
2469	0.196552	0.082488	0.198853	0.202305
2470	0.198853	0.084461	0.197703	0.201647
2471	0.198196	0.09235	0.197374	0.200825
2472	0.196223	0.092679	0.195895	0.200168
2473	0.198524	0.099746	0.199839	0.20099
2474	0.196223	0.102869	0.193265	0.195566
2475	0.195073	0.106978	0.199182	0.199346
2476	0.198031	0.109114	0.198196	0.201976
2477	0.196717	0.114374	0.194909	0.197703
2478	0.197703	0.117332	0.198196	0.201154
2479	0.19836	0.118976	0.201319	0.198689
2480	0.197374	0.126043	0.198689	0.202469
2481	0.195895	0.122263	0.197538	0.201319
2482	0.195566	0.128344	0.20099	0.203784
2483	0.199182	0.135247	0.203784	0.202798
2484	0.202305	0.138699	0.200825	0.202469
2485	0.198853	0.13459	0.199675	0.201647
2486	0.195237	0.144122	0.196388	0.199346
2487	0.198689	0.14215	0.199018	0.200004
2488	0.194087	0.14593	0.19836	0.201647
2489	0.196552	0.147738	0.199182	0.199346
2490	0.197045	0.151683	0.200661	0.198689
2491	0.197374	0.153819	0.19836	0.199018
2492	0.195402	0.149382	0.199839	0.198524
2493	0.197045	0.157764	0.199018	0.199675
2494	0.194744	0.155463	0.198196	0.199182
2495	0.19836	0.157271	0.198196	0.200332
2496	0.19573	0.159079	0.19836	0.198196
2497	0.196881	0.165653	0.199018	0.201483
2498	0.198853	0.160065	0.199018	0.200497
2499	0.204277	0.165817	0.198689	0.20099
