Ladekurvenmessung

Zeit: 2018_05_02 15.23.18

Info: FVA3, v = 0.5753, T = 40, F = 20, h = 293.0

Ladewiderstand[Ohm]: 1012700

Störkapazität[nF]: 0.000000

Entladezeit[ms]: 100

Abtastrate[Hz]: 250000

Anzahl der Messwerte: 2500

Verzögerung [ms]: 1


	Kurve_1	Kurve_2	Kurve_3	Kurve_4	Kurve_5	Kurve_6
0	0.010865	0.011095	0.002772	0.004647	0.008726	0.002476
1	0.010437	0.014615	0.001489	0.006358	0.006687	0.004186
2	0.011687	0.009582	0.0006	0.00366	0.006851	0.004219
3	0.013431	0.01399	0.000732	0.00616	0.007542	0.003035
4	0.011029	0.012148	0.001752	0.004351	0.005667	0.003857
5	0.011523	0.015142	0.002081	0.002344	0.007904	0.005437
6	0.010503	0.011128	-0.000189	0.006127	0.008694	0.004252
7	0.014089	0.015076	0.004581	0.005437	0.005568	0.006654
8	0.010503	0.009779	0.003792	0.005996	0.009582	0.00343
9	0.01297	0.015109	0.008003	0.006884	0.011852	0.002574
10	0.009088	0.013332	0.00037	0.002739	0.011029	0.005568
11	0.014023	0.014484	0.005108	0.004877	0.008332	0.00037
12	0.015635	0.003989	0.001752	0.006588	0.00945	0.00491
13	0.011457	0.008825	0.004548	0.004186	0.00945	0.003167
14	0.011457	0.00774	0.005075	0.003989	0.008068	0.001587
15	0.013497	0.005634	0.002936	0.003528	0.002903	0.002245
16	0.009352	0.003989	0.002509	0.002673	0.007838	0.00218
17	0.010174	0.005864	0.002541	0.004055	0.006687	0.002081
18	0.009516	0.006489	0.002212	0.003825	0.006391	0.004186
19	0.007641	0.001554	0.003627	0.001818	0.004713	0.001883
20	0.011391	0.006424	0.005206	0.000864	0.010141	0.003496
21	0.006983	0.006917	0.003397	0.006259	0.005634	-0.000354
22	0.011194	0.009977	0.006391	0.003298	0.006785	0.002541
23	0.011687	0.008529	0.001653	0.006884	0.007871	-5.8e-05
24	0.010865	0.005634	0.004088	0.0057	0.006917	0.00287
25	0.012674	0.006555	0.003561	0.005667	0.009319	0.002048
26	0.011161	0.005634	0.003463	0.0057	0.00616	0.003134
27	0.008825	0.007641	0.001324	0.005371	0.008726	0.00264
28	0.008463	0.00899	0.006818	0.007147	0.005108	0.001818
29	0.013003	0.008003	0.000831	0.006983	0.006193	0.001949
30	0.007904	0.007707	-0.001176	0.005897	0.005897	0.001785
31	0.006325	0.009384	0.007805	0.00672	0.00593	0.000897
32	0.011161	0.006621	0.002838	0.003759	0.002673	0.001324
33	0.008101	0.009977	8e-06	0.003035	0.005305	0.001686
34	0.010306	0.011951	0.00162	0.002969	0.002706	-0.000716
35	0.010536	0.008891	-0.000551	0.003726	-0.005617	0.003594
36	0.006259	0.008068	-0.001012	0.003101	0.002377	-0.00315
37	0.012247	0.006489	0.00162	0.002081	0.003594	-0.001505
38	0.011029	0.008266	0.004252	0.0006	0.004121	-0.004894
39	0.011457	0.007443	0.002476	0.004186	0.002607	-0.00065
40	0.012016	0.008792	0.004417	0.007443	0.004844	-0.001143
41	0.011687	0.01274	0.00287	0.004252	0.00264	0.000995
42	0.009253	0.010404	0.003759	0.003989	-2.5e-05	-0.002262
43	0.014188	0.0107	0.002739	0.003298	-0.001472	-0.001374
44	0.008694	0.011457	0.002706	0.004351	0.005338	-0.000485
45	0.012378	0.011687	0.003364	0.004713	0.001028	0.000666
46	0.012049	0.013201	0.004384	0.003989	0.00139	0.00116
47	0.010964	0.010865	0.004154	0.002838	0.000535	0.002311
48	0.012938	0.010371	0.002015	0.003594	0.002476	-0.001571
49	0.012247	0.008595	0.000864	0.001851	0.000962	-0.002459
50	0.013135	0.009055	-0.000518	0.000864	0.003035	-0.000255
51	0.009878	0.007871	0.003857	-0.000189	-0.000189	-0.003676
52	0.01228	0.008529	0.000304	0.002147	-0.000716	0.000206
53	0.008957	0.009352	0.001225	0.000436	0.000633	-0.002262
54	0.012444	0.009977	0.002969	0.002969	0.000469	0.000239
55	0.00718	0.008134	0.001851	0.00037	0.000436	-0.001604
56	0.013102	0.010503	0.003397	0.001785	-0.000288	-0.002393
57	0.010997	0.009944	0.002147	0.003199	-0.000452	-0.000485
58	0.011951	0.008299	0.00389	0.002443	-0.003183	-0.000387
59	0.002772	0.008628	0.005437	0.003265	-0.001242	-0.001176
60	0.012609	0.008397	0.004581	0.004976	-0.002196	-0.001834
61	0.013003	0.008463	0.001883	0.005371	-0.002887	-0.002163
62	0.013497	0.011227	0.006621	0.001982	-0.003578	-0.0019
63	0.013826	0.008726	0.001851	0.005371	-9e-05	7.4e-05
64	0.011951	0.011062	0.004713	0.000469	-0.003874	0.000798
65	0.012938	0.010635	0.003528	0.001851	-0.001834	0.000271
66	0.010602	0.005206	0.005634	-0.003347	-0.004071	-0.003676
67	0.015898	0.008397	0.001324	-0.001275	-0.003347	0.001061
68	0.011523	0.005075	0.00264	0.00445	-0.002163	-0.002262
69	0.012214	0.002739	0.002476	0.003857	-0.003249	0.000535
70	0.011095	0.006424	0.001554	0.000173	-0.00394	-0.001341
71	0.013398	0.008266	0.003265	0.003759	-0.006703	-0.00213
72	0.012938	0.007312	0.00037	0.003528	-0.004992	0.001851
73	0.01399	0.009944	0.004811	0.006917	-0.005979	0.000502
74	0.013168	0.005239	0.001587	0.006588	-0.004104	0.00116
75	0.015273	0.009384	0.00366	0.005437	-0.004071	0.000436
76	0.011424	0.008759	0.002081	-0.00167	-0.00542	0.00162
77	0.014319	0.009779	0.005338	0.004186	-0.005223	0.000765
78	0.014484	0.009681	0.002903	0.007147	-0.004433	0.000962
79	0.013497	0.011358	0.003528	0.005535	-0.011375	0.00116
80	0.015504	0.007443	0.00491	0.005502	-0.003874	0.001785
81	0.011654	0.00922	0.005206	0.004219	-0.006736	-0.000123
82	0.014056	0.010273	0.001291	0.00616	-0.006341	0.000304
83	0.016195	0.010042	-0.000387	0.005601	-0.005256	0.001489
84	0.016458	0.011951	0.005798	0.008332	-0.009006	0.002739
85	0.014056	0.007213	0.00241	0.008595	-0.004828	0.003134
86	0.016951	0.009911	0.003693	0.007608	-0.006868	0.002344
87	0.014385	0.008825	0.002081	0.00695	-0.006407	0.000929
88	0.016326	0.010042	0.00514	0.0057	-0.005979	-0.002328
89	0.018991	0.007049	0.000206	0.00695	-0.007361	-0.0019
90	0.019123	0.009878	0.004483	0.005766	-0.006835	-0.001637
91	0.015964	0.008068	0.002509	0.008397	-0.002295	0.002114
92	0.018695	0.005469	0.001094	0.006193	-0.010026	0.00287
93	0.021886	0.007114	0.002509	0.007871	-0.007493	-0.001406
94	0.020603	0.008562	0.004022	0.006917	-0.009598	0.005206
95	0.017247	0.007147	0.004647	0.010042	-0.008217	0.00616
96	0.021195	0.009088	0.004285	0.006818	-0.009467	0.003232
97	0.019781	0.009121	0.00287	0.010207	-0.005782	0.000337
98	0.0183	0.008957	0.005963	0.007575	-0.007624	0.004713
99	0.019813	0.009319	0.003956	0.007904	-0.008118	0.002476
100	0.02534	0.00797	0.001193	0.009779	-0.006703	0.003792
101	0.018432	0.009648	0.003561	0.005667	-0.005552	0.002838
102	0.019517	0.007378	0.001785	0.006588	-0.004663	0.002936
103	0.02011	0.007674	-2.5e-05	0.006325	-0.004104	0.004483
104	0.021096	0.007279	0.00162	0.00491	-0.006703	0.003265
105	0.020307	0.007871	0.001785	0.005404	-0.00871	0.008233
106	0.017971	0.006259	0.00514	0.006983	-0.007361	0.002739
107	0.02034	0.008266	0.005371	0.004548	-0.009697	0.005108
108	0.022873	0.006325	0.00139	0.007411	-0.007888	0.004877
109	0.019517	0.010635	0.002805	0.005305	-0.009368	0.001456
110	0.019287	0.007509	0.005798	0.00774	-0.005552	0.002509
111	0.021919	0.007476	0.00241	0.005009	-0.010388	0.001028
112	0.02261	0.008562	-0.000255	0.006292	-0.00746	0.005733
113	0.021787	0.008792	0.003726	0.005075	-0.005979	0.001686
114	0.023761	0.008661	0.002838	0.006555	-0.005914	0.005502
115	0.023399	0.008595	0.004121	0.009549	-0.007131	0.006193
116	0.019616	0.007542	0.007016	0.007641	-0.006374	0.003989
117	0.023235	0.003298	0.003199	0.003167	-0.008217	0.005469
118	0.022215	0.003923	0.005963	0.002509	-0.007065	0.004384
119	0.022347	0.006489	0.003989	0.00287	-0.007394	0.00445
120	0.024748	0.005437	0.003528	0.002311	-0.005979	0.002805
121	0.02261	0.006884	0.003825	0.006062	-0.006736	0.002245
122	0.02942	0.009845	0.002805	0.00014	-0.007624	0.004713
123	0.022314	0.005798	0.002476	0.003199	-0.006901	0.001818
124	0.023498	0.008924	0.00491	0.002311	-0.005387	0.004022
125	0.023728	0.007838	0.002739	0.002114	-0.00542	0.004252
126	0.023268	0.004713	0.003463	0.007082	-0.010618	0.004384
127	0.02465	0.007049	0.004483	0.003693	-0.007526	0.001949
128	0.025011	0.006456	0.005371	0.002838	-0.008414	0.004186
129	0.022873	0.006654	0.006818	0.005831	-0.010026	0.005798
130	0.023465	0.0082	0.00774	0.003167	-0.008907	0.004186
131	0.02511	0.0082	0.004844	0.006424	-0.004861	0.00491
132	0.025077	0.010108	0.002212	0.003167	-0.006736	0.002772
133	0.027808	0.011293	0.00445	0.004384	-0.004992	0.004022
134	0.025077	0.010141	0.002476	0.004154	-0.007986	0.004186
135	0.028203	0.007114	0.00287	0.003397	-0.002328	0.005338
136	0.025998	0.005338	0.002673	0.00241	-0.003973	0.00514
137	0.027775	0.007937	0.002706	0.002476	-0.004828	0.004515
138	0.022083	0.005404	0.003298	0.002311	-0.003709	0.00037
139	0.023663	0.007246	0.000502	0.00366	-0.003742	0.00366
140	0.022445	0.003726	0.000929	0.002969	-0.00394	0.003759
141	0.026525	0.009713	0.007937	0.002147	-0.002426	0.005305
142	0.024584	0.000831	0.001883	0.003331	0.001554	0.00616
143	0.025702	0.004515	0.002344	0.001818	-0.004565	0.006062
144	0.027051	0.003561	0.00162	0.001028	-0.002657	0.00514
145	0.02738	0.005601	0.001522	0.003068	-0.00394	0.007279
146	0.027808	0.005733	0.001949	0.001489	-0.001933	0.007707
147	0.028104	0.00616	0.003594	0.002147	-0.003347	0.005371
148	0.028038	0.004515	0.001982	0.003199	-0.002032	0.01001
149	0.024979	0.003825	0.004515	0.000107	-0.002393	0.006226
150	0.027347	0.00366	-0.001703	0.002377	-0.000584	0.012148
151	0.021787	0.003101	-0.000189	0.003397	-0.000452	0.011293
152	0.025637	0.008266	0.003726	4.1e-05	-0.003479	0.01001
153	0.029979	0.003364	-9e-05	0.002673	0.003528	0.010108
154	0.023827	0.004186	0.000568	0.000732	-0.002953	0.014385
155	0.028236	0.00241	-0.000255	0.000206	0.003035	0.008759
156	0.027282	-0.002953	0.003068	-0.000847	4.1e-05	0.010174
157	0.028005	-0.000387	-0.000913	0.002344	-0.000716	0.010437
158	0.026854	0.003759	0.0082	8e-06	0.000304	0.011457
159	0.02863	0.003989	-0.000354	0.00287	-0.000617	0.014352
160	0.023827	0.001785	8e-06	-0.0019	0.001061	0.012247
161	0.023959	0.000535	0.002476	0.001291	0.001686	0.009516
162	0.025768	0.003232	0.005634	0.002969	-0.002032	0.014911
163	0.024156	-0.001999	0.003101	0.004614	0.000337	0.012609
164	0.025077	0.000173	0.003923	0.000897	0.003364	0.011654
165	0.025669	0.000337	0.002147	0.004548	0.002048	0.015273
166	0.026887	0.000239	0.004219	0.001094	0.003496	0.009384
167	0.028663	-0.001703	0.003199	-0.000452	0.00366	0.010273
168	0.023728	-0.007032	0.000798	8e-06	0.00468	0.01228
169	0.026525	0.000765	0.002574	0.00116	0.003265	0.01126
170	0.027183	-0.001801	0.000666	0.001686	0.006127	0.01024
171	0.023136	0.0006	0.003364	-0.001472	0.003857	0.01228
172	0.021656	0.001061	-0.001341	-0.000156	0.004285	0.012148
173	0.022709	0.000864	0.002377	0.000864	0.004647	0.009845
174	0.021031	-0.005289	0.001883	0.001587	0.00445	0.010602
175	0.021853	0.001456	0.00116	0.000206	0.003528	0.010207
176	0.021853	-0.001538	0.001127	0.004844	0.006029	0.011029
177	0.023432	-0.001571	0.002081	0.00264	0.002509	0.013036
178	0.022676	7.4e-05	0.002245	0.002805	0.005897	0.010898
179	0.021393	-0.000979	0.003594	0.000107	0.005075	0.009286
180	0.01909	-5.8e-05	0.000535	0.001587	0.002574	0.01251
181	0.023103	-0.000683	0.00162	0.003627	0.002838	0.008397
182	0.022511	0.00162	0.000897	0.0006	0.005272	0.010898
183	0.017708	0.00264	-0.001571	0.00162	0.0057	0.010306
184	0.019484	0.002147	-0.002032	0.004515	0.005305	0.012148
185	0.017905	8e-06	-0.001472	0.001785	0.009023	0.009549
186	0.019715	0.00514	0.001982	0.002673	0.008463	0.011654
187	0.020735	0.001028	-0.00065	0.001587	0.009516	0.010503
188	0.019057	0.001686	0.001554	-0.000551	0.006753	0.008957
189	0.019715	0.002081	0.000568	0.001752	0.013267	0.005601
190	0.017346	0.006325	0.000864	-0.00065	0.011457	0.00593
191	0.016458	0.000831	-0.001966	0.001851	0.006226	0.006095
192	0.018136	0.003265	0.000337	-0.002854	0.010964	0.006687
193	0.013036	0.002673	-0.002163	-0.001472	0.011852	0.006259
194	0.020636	0.003167	0.001785	0.001719	0.008529	0.006029
195	0.015043	0.002443	-0.00167	0.001028	0.006358	0.008628
196	0.015339	0.002936	-0.004367	0.001818	0.008562	0.008003
197	0.016721	0.006456	0.003364	0.000173	0.009911	0.011194
198	0.015701	0.003792	-0.003775	0.00514	0.009384	0.006884
199	0.013201	0.006095	-0.000781	-0.000814	0.009845	0.010306
200	0.015405	0.005601	-0.000387	-0.000913	0.011819	0.007542
201	0.012345	0.007147	8e-06	0.000304	0.003265	0.0082
202	0.015175	0.004252	-0.002854	0.001719	0.008529	0.008299
203	0.018563	0.007772	0.000535	-0.000584	0.010042	0.005272
204	0.01251	0.005798	0.000173	0.002015	0.00945	0.004121
205	0.01297	0.008792	-0.000617	0.004515	0.008463	0.007114
206	0.011556	0.005897	0.000304	0.000271	0.011293	0.004976
207	0.013793	0.005766	-0.000123	0.002114	0.008365	0.006391
208	0.01149	0.005371	-0.001012	-0.000551	0.011161	0.006127
209	0.011161	0.008628	0.001456	0.00218	0.009779	0.006489
210	0.005634	0.00695	-0.000617	-0.000387	0.013267	0.008529
211	0.00899	0.006687	4.1e-05	-0.002986	0.008957	0.005667
212	0.007542	0.010207	0.00241	-2.5e-05	0.010273	0.006753
213	0.008332	0.00593	0.002278	-0.001341	0.008825	0.002936
214	-0.001209	0.007016	0.00139	-0.0019	0.007542	0.006095
215	0.006292	0.00774	0.003397	0.000962	0.011556	0.00389
216	0.007049	0.00899	-0.001143	0.000962	0.010141	0.007542
217	0.003627	0.005305	0.003726	-0.00111	0.012641	0.004055
218	0.006983	0.005831	0.003759	-0.001374	0.011589	0.003002
219	0.004351	0.008595	0.001489	0.000568	0.010371	0.005568
220	0.004022	0.00945	0.002114	-0.004433	0.013003	0.009648
221	0.001456	0.00899	0.002541	-0.000156	0.014023	0.001916
222	0.003989	0.011589	0.002673	7.4e-05	0.010832	0.004285
223	0.002344	0.012839	0.000206	0.000897	0.014221	-0.000485
224	0.00162	0.009253	0.001916	7.4e-05	0.008924	0.001193
225	0.000798	0.010108	-0.000716	0.002509	0.013036	-0.000617
226	-0.001933	0.010174	0.001883	0.003989	0.012181	-0.000387
227	-0.001735	0.010404	-0.002689	-0.001735	0.010964	0.003792
228	-0.002459	0.010602	0.00287	-0.001341	0.008036	0.00116
229	-0.00394	0.01172	-0.003413	-0.000551	0.011128	0.003232
230	-0.004269	0.011589	0.00218	-0.001242	0.009088	0.004252
231	-0.006045	0.013727	0.00218	-0.001374	0.010174	0.001818
232	-0.00723	0.011457	0.002147	-0.001077	0.00945	-0.000123
233	-0.003512	0.014418	-0.000189	0.00116	0.009779	0.001028
234	-0.005914	0.018168	0.003364	0.00139	0.012181	0.000107
235	-0.003018	0.0158	0.005502	0.000239	0.013003	0.000206
236	-0.006802	0.012082	0.002805	0.000798	0.010668	-0.000222
237	-0.006769	0.016227	0.003594	0.000699	0.011194	0.002969
238	-0.008019	0.013267	0.000271	-0.001735	0.011622	0.000765
239	-0.007493	0.014484	0.005206	-0.002558	0.008694	0.00014
240	-0.007822	0.016853	0.002838	0.002147	0.011983	-0.000617
241	-0.01075	0.011951	0.002607	0.002443	0.007411	-0.003644
242	-0.012757	0.014681	0.000798	-0.000123	0.010898	-0.002328
243	-0.016474	0.018136	0.00366	-0.001472	0.009319	-0.004433
244	-0.014073	0.015504	0.000666	0.000897	0.008628	-0.002262
245	-0.016046	0.014319	0.001028	-0.001143	0.007114	-0.006144
246	-0.015783	0.014582	0.003199	0.000337	0.011983	-0.001209
247	-0.017494	0.015109	0.001719	0.000831	0.007772	-0.001374
248	-0.016573	0.011885	0.002344	0.001489	0.006785	-0.000419
249	-0.02414	0.013497	0.000271	4.1e-05	0.008792	0.003167
250	-0.014303	0.013563	0.001028	0.001456	0.008101	0.001587
251	-0.017757	0.016392	0.007805	0.0057	0.009911	0.001949
252	-0.006506	0.028203	0.015635	0.010931	0.020998	0.012345
253	0.000469	0.033499	0.018267	0.022643	0.022807	0.021853
254	0.006917	0.04327	0.030769	0.025669	0.030966	0.022873
255	0.014254	0.047679	0.031131	0.033434	0.037974	0.03044
256	0.017675	0.055311	0.041362	0.037842	0.045935	0.03771
257	0.023301	0.058174	0.04656	0.008496	0.05518	0.041231
258	0.031196	0.062516	0.053403	0.00922	0.057845	0.050442
259	0.035111	0.07232	0.059358	0.016951	0.063306	0.05995
260	0.037579	0.075643	0.065872	0.02182	0.068339	0.061858
261	0.042251	0.081565	0.070083	0.033763	0.069063	0.070017
262	0.04781	0.086467	0.073143	0.035901	0.073899	0.07663
263	0.050574	0.093639	0.081565	0.045869	0.080512	0.076926
264	0.054193	0.096271	0.086171	0.051495	0.083144	0.075182
265	0.060444	0.100613	0.094593	0.056529	0.08821	0.089033
266	0.065543	0.102225	0.093803	0.061102	0.092882	0.093672
267	0.070313	0.109661	0.099824	0.06732	0.096304	0.100087
268	0.073899	0.110648	0.10285	0.073307	0.100909	0.10114
269	0.07561	0.115846	0.10999	0.074853	0.102719	0.109562
270	0.080446	0.119958	0.110779	0.082157	0.107193	0.114234
271	0.084986	0.126965	0.11828	0.088112	0.106831	0.112358
272	0.087881	0.128413	0.119234	0.094988	0.109233	0.119497
273	0.089658	0.130321	0.120748	0.097883	0.11397	0.120879
274	0.0915	0.136309	0.125156	0.102522	0.119793	0.124728
275	0.094198	0.138579	0.126538	0.103179	0.12078	0.127492
276	0.093606	0.140586	0.132131	0.108378	0.122392	0.128347
277	0.098639	0.141507	0.13167	0.110648	0.124202	0.135256
278	0.1016	0.146442	0.132361	0.119991	0.124465	0.137888
279	0.102291	0.144435	0.13292	0.118478	0.126933	0.13723
280	0.107687	0.150093	0.140322	0.122162	0.127591	0.143974
281	0.108114	0.148942	0.14154	0.126801	0.126768	0.148777
282	0.112786	0.155028	0.147001	0.125715	0.128413	0.148087
283	0.117425	0.151409	0.14631	0.13417	0.133019	0.150192
284	0.118576	0.154732	0.151936	0.134598	0.131045	0.156015
285	0.118346	0.158713	0.152791	0.137394	0.134269	0.156575
286	0.12361	0.160983	0.154995	0.138974	0.135223	0.157364
287	0.121899	0.162036	0.147692	0.143415	0.139467	0.158779
288	0.127821	0.164273	0.157989	0.142527	0.140717	0.16072
289	0.12509	0.164108	0.157726	0.146475	0.141737	0.161838
290	0.12792	0.163648	0.161147	0.144435	0.142691	0.167431
291	0.130716	0.167892	0.163187	0.151574	0.144139	0.166115
292	0.133447	0.166049	0.163944	0.131209	0.144534	0.168352
293	0.132394	0.168484	0.165161	0.135026	0.142362	0.169405
294	0.135124	0.169504	0.166313	0.136046	0.145323	0.171971
295	0.138151	0.168648	0.168089	0.140586	0.147363	0.177169
296	0.135914	0.170129	0.17003	0.139993	0.144303	0.174702
297	0.142	0.173814	0.172267	0.144797	0.147067	0.178979
298	0.139105	0.168418	0.172991	0.141342	0.149929	0.180459
299	0.143612	0.172234	0.17332	0.141408	0.14983	0.181578
300	0.145389	0.172169	0.173254	0.146343	0.149666	0.182071
301	0.146606	0.172202	0.175327	0.147133	0.149172	0.18296
302	0.149995	0.17457	0.176676	0.14483	0.150028	0.184769
303	0.154337	0.175327	0.176972	0.151344	0.075413	0.18694
304	0.145784	0.17582	0.176775	0.154666	0.084131	0.186743
305	0.150422	0.176906	0.181249	0.15414	0.083999	0.189276
306	0.155818	0.180558	0.187039	0.15539	0.091632	0.190329
307	0.150258	0.180328	0.183815	0.15187	0.093441	0.187236
308	0.155851	0.177202	0.18342	0.158055	0.096665	0.192533
309	0.155061	0.179604	0.185855	0.1597	0.100482	0.192796
310	0.156015	0.179308	0.183946	0.157989	0.105976	0.193092
311	0.156476	0.174998	0.184407	0.159733	0.103607	0.192204
312	0.160884	0.1774	0.183025	0.161444	0.106009	0.197435
313	0.157529	0.178419	0.186973	0.161773	0.107983	0.195001
314	0.162167	0.180953	0.187927	0.16299	0.109529	0.198521
315	0.160128	0.178847	0.185986	0.165852	0.112293	0.197665
316	0.162858	0.176676	0.189177	0.164898	0.11374	0.200889
317	0.164404	0.178847	0.190789	0.167234	0.115977	0.203916
318	0.166214	0.177893	0.191415	0.167004	0.11805	0.203028
319	0.167431	0.177597	0.19125	0.169635	0.123018	0.19987
320	0.168714	0.179505	0.193356	0.169964	0.122623	0.203423
321	0.169504	0.179999	0.193948	0.171182	0.12509	0.203686
322	0.170721	0.184933	0.193191	0.171642	0.125255	0.20543
323	0.172563	0.180426	0.192632	0.176347	0.127788	0.205002
324	0.169339	0.182334	0.198159	0.16776	0.125649	0.205824
325	0.170359	0.181578	0.194211	0.17559	0.130387	0.206416
326	0.173879	0.18013	0.195724	0.179374	0.131341	0.20668
327	0.172103	0.182466	0.1925	0.179735	0.128939	0.211154
328	0.171807	0.182071	0.192105	0.180887	0.1294	0.209081
329	0.175426	0.1799	0.197271	0.178123	0.127788	0.212042
330	0.17286	0.181644	0.195494	0.178551	0.127755	0.211121
331	0.177926	0.182598	0.197534	0.180755	0.123018	0.213358
332	0.178551	0.18036	0.198192	0.179999	0.121307	0.214214
333	0.180328	0.179999	0.194869	0.066267	0.11907	0.213753
334	0.180657	0.180393	0.195922	0.008101	0.120517	0.218819
335	0.1824	0.183486	0.193915	0.014582	0.11624	0.220201
336	0.184407	0.179176	0.196284	0.023564	0.118346	0.216286
337	0.183453	0.181578	0.19931	0.030374	0.113905	0.216155
338	0.184275	0.181183	0.194672	0.040375	0.114497	0.220234
339	0.186052	0.183321	0.200725	0.043468	0.113082	0.219115
340	0.187532	0.181347	0.197698	0.054193	0.117556	0.220399
341	0.184045	0.18365	0.198817	0.056562	0.113016	0.22155
342	0.188947	0.183617	0.201087	0.064885	0.11374	0.221879
343	0.189803	0.182631	0.198554	0.068043	0.116405	0.217898
344	0.18898	0.180854	0.198093	0.073801	0.114464	0.222405
345	0.189967	0.178321	0.197106	0.077354	0.114332	0.224577
346	0.191316	0.181611	0.196711	0.083473	0.112194	0.226222
347	0.190888	0.182269	0.197336	0.087026	0.112918	0.221747
348	0.190888	0.181709	0.198817	0.09206	0.109299	0.224906
349	0.189572	0.181611	0.197534	0.098705	0.111075	0.225531
350	0.192402	0.181808	0.19783	0.099001	0.116175	0.225037
351	0.192105	0.178748	0.195231	0.107391	0.116142	0.224478
352	0.195132	0.182927	0.197665	0.105417	0.115221	0.228228
353	0.194803	0.181282	0.19602	0.114168	0.123906	0.227702
354	0.194211	0.181775	0.19704	0.113608	0.121504	0.227011
355	0.193454	0.183321	0.19533	0.118675	0.126209	0.229183
356	0.196053	0.187894	0.199935	0.127229	0.125551	0.228525
357	0.19658	0.182762	0.197797	0.127426	0.12282	0.227176
358	0.196316	0.183848	0.200034	0.130354	0.125978	0.226551
359	0.196942	0.18467	0.197632	0.133414	0.130157	0.226649
360	0.200363	0.182795	0.19829	0.136868	0.129729	0.227472
361	0.198981	0.184144	0.200955	0.136605	0.131571	0.228755
362	0.203159	0.180097	0.195757	0.136868	0.133381	0.226748
363	0.203028	0.183256	0.198521	0.141178	0.130683	0.228985
364	0.199442	0.179867	0.200297	0.145981	0.136046	0.225794
365	0.200791	0.180525	0.198521	0.141441	0.139632	0.227176
366	0.202765	0.180887	0.197139	0.144402	0.138349	0.225597
367	0.205857	0.182203	0.200528	0.143448	0.1395	0.227636
368	0.203587	0.176347	0.198159	0.147922	0.142099	0.225958
369	0.201778	0.179834	0.2001	0.150225	0.141375	0.225958
370	0.202238	0.18036	0.199146	0.15414	0.148087	0.225728
371	0.205068	0.18092	0.19987	0.155127	0.144435	0.22688
372	0.207864	0.181644	0.201054	0.156114	0.147856	0.226057
373	0.206482	0.178748	0.202271	0.155719	0.149238	0.220168
374	0.20816	0.18115	0.202304	0.167036	0.151278	0.223294
375	0.209016	0.180887	0.203456	0.155686	0.152528	0.218458
376	0.20918	0.181282	0.20158	0.16276	0.149008	0.219017
377	0.211911	0.177169	0.201317	0.164404	0.149633	0.218852
378	0.206449	0.183387	0.19806	0.162529	0.151738	0.215957
379	0.210035	0.179538	0.202863	0.163154	0.151969	0.213523
380	0.21224	0.179999	0.20237	0.163352	0.15085	0.21497
381	0.207996	0.177893	0.199771	0.169964	0.153976	0.210496
382	0.207864	0.179966	0.202403	0.166543	0.152067	0.213391
383	0.210068	0.17661	0.201383	0.170261	0.155818	0.211384
384	0.213852	0.174077	0.202469	0.17003	0.15493	0.211088
385	0.211845	0.17582	0.199245	0.171938	0.159371	0.210331
386	0.2127	0.17809	0.20668	0.17082	0.158845	0.210825
387	0.214246	0.177893	0.204936	0.170293	0.161509	0.210529
388	0.216253	0.177334	0.20158	0.172136	0.161805	0.207963
389	0.21599	0.178485	0.20385	0.174373	0.162365	0.204179
390	0.218161	0.178716	0.203982	0.173682	0.166773	0.202896
391	0.217405	0.178913	0.202041	0.177564	0.16447	0.203291
392	0.218425	0.181249	0.203225	0.175755	0.164865	0.197632
393	0.217668	0.179637	0.201317	0.175031	0.165161	0.203982
394	0.214543	0.177103	0.204344	0.179867	0.167102	0.198323
395	0.216385	0.180229	0.202765	0.177005	0.170853	0.200758
396	0.218918	0.182795	0.203883	0.180064	0.16855	0.198883
397	0.21826	0.183157	0.202896	0.177531	0.170622	0.20056
398	0.216122	0.1799	0.201482	0.17763	0.172103	0.195757
399	0.220826	0.180821	0.199245	0.177465	0.170951	0.19658
400	0.217734	0.179604	0.201186	0.17582	0.173353	0.193619
401	0.218326	0.178617	0.202107	0.177005	0.175294	0.194211
402	0.218655	0.180558	0.19908	0.180229	0.172333	0.195757
403	0.22132	0.178847	0.202205	0.173419	0.173189	0.194014
404	0.219115	0.178683	0.201613	0.174504	0.174669	0.197665
405	0.220004	0.178354	0.205528	0.177959	0.172695	0.197896
406	0.219806	0.182762	0.203357	0.178584	0.175985	0.194935
407	0.220431	0.180229	0.205594	0.181479	0.177696	0.191744
408	0.22178	0.168912	0.203554	0.181775	0.174175	0.189803
409	0.219609	0.16072	0.205397	0.178025	0.173748	0.188454
410	0.222537	0.161575	0.204574	0.178321	0.178419	0.190855
411	0.219741	0.159108	0.206186	0.167727	0.174998	0.188618
412	0.22076	0.162595	0.200988	7.4e-05	0.176807	0.187302
413	0.217536	0.162299	0.201284	0.005404	0.180953	0.184243
414	0.226024	0.001028	0.206087	0.003726	0.176775	0.187598
415	0.220004	7.4e-05	0.203225	0.015767	0.180426	0.187006
416	0.218951	0.000107	0.207502	0.018563	0.179341	0.184506
417	0.216977	7.4e-05	0.201087	0.019155	0.182762	0.184374
418	0.21928	0.00014	0.204772	0.000995	0.177136	0.183585
419	0.219083	0.001193	0.203324	0.010668	0.181512	0.182269
420	0.217635	0.003397	0.203817	0.018267	0.178979	0.179045
421	0.223261	0.008036	0.204443	0.025505	0.182302	0.153811
422	0.221155	0.016984	0.204508	0.030473	0.181545	0.155818
423	0.220366	0.021985	0.203916	0.039783	0.185789	0.157002
424	0.220563	0.031394	0.205594	0.044192	0.180097	0.156311
425	0.22178	0.036822	0.203094	0.052482	0.181084	0.093145
426	0.218984	0.035046	0.208358	0.057055	0.183387	0.03748
427	0.221715	0.036691	0.204443	0.064359	0.18092	0.03544
428	0.219346	0.029091	0.202666	0.069162	0.182269	0.030703
429	0.218556	0.034585	0.208325	0.07436	0.181973	0.041033
430	0.217273	0.020965	0.205035	0.077518	0.184604	0.044126
431	0.215036	0.012872	0.206844	0.062878	0.181183	0.050475
432	0.214378	0.00218	0.201811	0.035243	0.185131	0.053667
433	0.217964	0.004154	0.202567	0.026097	0.185526	0.059457
434	0.215069	-0.000419	0.199343	0.02386	0.185328	0.006851
435	0.213852	0.001225	0.203587	0.006489	0.18467	0.013563
436	0.213227	-0.00111	0.20339	0.013826	0.186644	0.023663
437	0.214279	0.000568	0.204015	0.01126	0.183387	0.026097
438	0.215628	7.4e-05	0.192303	0.017116	0.187631	0.032019
439	0.214641	0.004154	0.195428	0.023301	0.182565	0.041099
440	0.21474	0.012609	0.196284	0.030835	0.18592	0.000535
441	0.217602	0.016622	0.197567	0.037645	0.187072	-0.000452
442	0.215365	0.023959	0.189309	0.043599	0.186546	0.011325
443	0.212733	0.030835	0.195165	0.048732	0.189177	0.01524
444	0.216089	0.043764	0.199902	0.053699	0.185328	0.003989
445	0.212601	0.043665	0.193125	0.060181	0.187434	0.004483
446	0.21576	0.055015	0.197402	0.046626	0.185953	0.011918
447	0.214806	0.057417	0.195659	0.021952	0.18365	0.014879
448	0.213095	0.064128	0.192632	0.02692	0.186381	0.021327
449	0.210759	0.066366	0.19352	0.03646	0.188223	0.011983
450	0.208061	0.072616	0.195198	0.038237	0.18648	-0.000123
451	0.208226	0.076663	0.193257	0.04656	0.187171	0.005634
452	0.209377	0.08321	0.195724	0.051495	0.188454	0.000535
453	0.20816	0.08673	0.19477	0.060115	0.188519	0.00162
454	0.208654	0.089132	0.198422	0.062122	0.186907	0.00366
455	0.209904	0.086368	0.195297	0.066826	0.188355	0.000107
456	0.209081	0.097323	0.197402	0.071103	0.187006	0.000271
457	0.208489	0.10466	0.196645	0.077091	0.183946	0.001225
458	0.208917	0.107983	0.198817	0.086533	0.187829	0.000502
459	0.203752	0.111536	0.196777	0.088803	0.186973	0.00616
460	0.201087	0.116109	0.196448	0.09377	0.188487	4.1e-05
461	0.201251	0.120682	0.200857	0.096929	0.188783	0.000502
462	0.196349	0.123215	0.194507	0.100909	0.185953	0.000568
463	0.176182	0.12792	0.193652	0.104528	0.188026	0.000206
464	0.118971	0.127952	0.19352	0.108312	0.190362	-5.8e-05
465	0.125189	0.13292	0.193849	0.106075	0.187105	0.00014
466	0.128347	0.134236	0.195099	0.112523	0.190526	0.000173
467	0.129696	0.133447	0.196678	0.114595	0.186578	0.000107
468	0.125551	0.134006	0.19454	0.120057	0.19125	0.000107
469	0.13371	0.137921	0.193553	0.118938	0.192796	0.000239
470	0.13598	0.141573	0.192763	0.124432	0.191711	4.1e-05
471	0.136901	0.145027	0.194737	0.124827	0.18694	0.000271
472	0.141211	0.152956	0.195461	0.129104	0.190033	8e-06
473	0.141671	0.143185	0.196152	0.136078	0.18569	7.4e-05
474	0.144599	0.153679	0.195428	0.135092	0.189342	-5.8e-05
475	0.146113	0.154074	0.194737	0.138776	0.188092	-2.5e-05
476	0.149699	0.156246	0.19602	0.134598	0.184473	7.4e-05
477	0.148284	0.159437	0.195593	0.001258	0.186546	0.000271
478	0.152232	0.159667	0.193092	0.010437	0.18648	0.000502
479	0.152363	0.160424	0.195198	0.019024	0.186118	0.001061
480	0.153877	0.163516	0.195659	0.020702	0.186414	0.000666
481	0.15437	0.163516	0.192467	0.033006	0.18977	0.000436
482	0.157134	0.166609	0.194112	0.038138	0.185131	0.001291
483	0.157463	0.168188	0.192237	0.044784	0.190164	0.000633
484	0.159897	0.171478	0.192632	0.052054	0.188487	8e-06
485	0.161213	0.171445	0.190329	0.058108	0.191908	-0.000617
486	0.16197	0.170754	0.194112	0.061464	0.189046	0.002147
487	0.166313	0.174143	0.192829	0.065181	0.189506	0.001291
488	0.162529	0.170228	0.186348	0.069491	0.188717	0.000502
489	0.168188	0.177794	0.189934	0.075577	0.191053	0.000107
490	0.169339	0.172498	0.192171	0.080644	0.186447	0.000864
491	0.172169	0.177597	0.19329	0.081203	0.185197	0.000173
492	0.168385	0.176511	0.192533	0.088013	0.190263	7.4e-05
493	0.171774	0.178255	0.193191	0.09456	0.185986	-9e-05
494	0.166872	0.179999	0.193356	0.096994	0.188914	-2.5e-05
495	0.177235	0.1799	0.194079	0.102127	0.191579	8e-06
496	0.170688	0.181413	0.194277	0.106963	0.18898	0.000173
497	0.176215	0.185986	0.19375	0.109595	0.18921	0.002147
498	0.179045	0.179604	0.194079	0.113608	0.186315	0.00037
499	0.174866	0.18296	0.194573	0.114497	0.184637	0.000502
500	0.176413	0.184341	0.189934	0.119103	0.186644	7.4e-05
501	0.176149	0.182861	0.19352	0.120846	0.186546	0.001028
502	0.1799	0.184572	0.187565	0.12361	0.18875	0.000337
503	0.175491	0.185986	0.18977	0.123412	0.19046	0.000107
504	0.178025	0.178354	0.189408	0.13269	0.188947	7.4e-05
505	0.178123	0.178156	0.189737	0.131473	0.188783	0.000239
506	0.181808	0.18092	0.190855	0.137296	0.19023	-2.5e-05
507	0.18092	0.18115	0.192402	0.138217	0.188388	0.000666
508	0.182038	0.184045	0.195231	0.142	0.188487	0.000436
509	0.181117	0.184604	0.195724	0.143711	0.189243	0.000173
510	0.18421	0.185624	0.192105	0.14483	0.18875	0.000173
511	0.18319	0.186151	0.197106	0.148416	0.189506	0.00014
512	0.185427	0.186118	0.193323	0.149764	0.188322	0.000239
513	0.17638	0.186217	0.191053	0.153647	0.187894	0.000337
514	0.184341	0.187302	0.193224	0.153745	0.187631	0.000271
515	0.187335	0.185361	0.191875	0.154732	0.192467	0.000337
516	0.183585	0.184539	0.196316	0.155949	0.188651	-2.5e-05
517	0.184078	0.186578	0.192829	0.155259	0.193685	-2.5e-05
518	0.186184	0.187006	0.196185	0.160588	0.191349	-9e-05
519	0.186052	0.185855	0.194375	0.150949	0.187236	8e-06
520	0.184144	0.187467	0.196415	0.155686	0.19046	0.000633
521	0.190033	0.074853	0.193553	0.161082	0.18977	0.000206
522	0.185888	0.023301	0.194112	0.15947	0.190987	0.001127
523	0.192961	0.02636	0.192994	0.159009	0.188947	0.002443
524	0.189046	0.034092	0.197863	0.158022	0.189243	0.000107
525	0.189046	0.042974	0.19375	0.154337	0.189539	0.000173
526	0.187105	0.044619	0.195659	0.149435	0.18898	0.000173
527	0.190197	0.057417	0.197665	0.141178	0.18648	0.000107
528	0.188454	0.054226	0.192829	0.13519	0.189474	0.000995
529	0.192434	0.067945	0.198817	0.123643	0.188388	0.002969
530	0.192632	0.069984	0.196119	0.11601	0.191316	-0.000189
531	0.191217	0.077354	0.197106	0.106667	0.188816	-2.5e-05
532	0.191151	0.082223	0.193224	0.093507	0.191283	7.4e-05
533	0.195099	0.088539	0.195461	0.073669	0.188487	7.4e-05
534	0.194112	0.089099	0.194803	0.066398	0.190921	0.000239
535	0.195593	0.096567	0.195099	0.061431	0.187763	7.4e-05
536	0.194211	0.098771	0.194244	0.060082	0.190987	0.000107
537	0.194375	0.104561	0.194836	0.05087	0.193553	4.1e-05
538	0.195724	0.10841	0.194803	0.051364	0.189408	0.006325
539	0.194507	0.111009	0.197994	0.04735	0.190362	0.000304
540	0.199212	0.115582	0.196613	0.041856	0.190164	8e-06
541	0.196448	0.119563	0.195724	0.033927	0.190164	-0.000156
542	0.197896	0.122195	0.199508	0.026624	0.191546	-2.5e-05
543	0.197106	0.127492	0.195395	0.025242	0.191579	7.4e-05
544	0.200495	0.12861	0.195395	0.025604	0.189605	0.000173
545	0.195395	0.127163	0.19454	0.026459	0.194573	0.000173
546	0.201021	0.004483	0.198554	0.02534	0.187236	0.000798
547	0.200363	0.012938	0.190395	0.026755	0.1875	7.4e-05
548	0.198916	0.016227	0.19204	0.018366	0.194244	0.000304
549	0.20056	0.026656	0.190691	0.022051	0.196152	-2.5e-05
550	0.199705	0.03396	0.18796	0.014023	0.192994	8e-06
551	0.197929	0.042349	0.189835	0.01251	0.19431	-9e-05
552	0.202271	0.049192	0.188223	0.004844	0.192073	4.1e-05
553	0.20056	0.058667	0.186348	0.00593	0.194704	7.4e-05
554	0.197205	0.063109	0.185723	0.000864	0.194145	0.000173
555	0.201449	0.067122	0.187894	0.00389	0.190921	8e-06
556	0.200659	0.069721	0.187927	0.009286	0.193783	0.000107
557	0.202041	0.076301	0.190099	0.004252	0.192796	0.000107
558	0.201811	0.079953	0.187401	0.005831	0.19102	0.000107
559	0.201087	0.089296	0.189079	0.007378	0.190822	4.1e-05
560	0.201087	0.09104	0.192796	0.013135	0.192369	-5.8e-05
561	0.202041	0.092751	0.190691	0.016951	0.191053	-0.000123
562	0.202633	0.100745	0.189342	0.019813	0.192796	-0.000156
563	0.201186	0.102818	0.190296	0.025209	0.192533	-0.000189
564	0.204344	0.107358	0.189046	0.033565	0.19306	8e-06
565	0.202436	0.112161	0.191415	0.032381	0.192895	8e-06
566	0.204443	0.115385	0.188158	0.040342	0.195527	7.4e-05
567	0.203488	0.120024	0.19306	0.043073	0.19227	4.1e-05
568	0.201646	0.12282	0.190724	0.051495	0.193224	4.1e-05
569	0.202205	0.128018	0.189671	0.054752	0.193816	7.4e-05
570	0.202403	0.128479	0.191678	0.059819	0.19556	-9e-05
571	0.201909	0.131538	0.194046	0.064095	0.193849	-5.8e-05
572	0.202765	0.133677	0.190691	0.071629	0.192796	-0.000156
573	0.199902	0.136539	0.19148	0.078801	0.193849	-0.000123
574	0.202995	0.142066	0.190428	0.076301	0.194014	-0.000156
575	0.202798	0.141178	0.191184	0.084953	0.194145	-5.8e-05
576	0.203423	0.144139	0.190493	0.089494	0.194079	4.1e-05
577	0.198685	0.146968	0.191842	0.095251	0.19454	4.1e-05
578	0.20033	0.004548	0.188487	0.099725	0.190526	4.1e-05
579	0.20112	0.005173	0.188487	0.104627	0.192007	7.4e-05
580	0.202798	0.016162	0.193027	0.110088	0.191744	4.1e-05
581	0.199738	0.022347	0.192731	0.116569	0.191217	-2.5e-05
582	0.201515	0.03192	0.192763	0.115648	0.191711	-2.5e-05
583	0.203653	0.035967	0.190099	0.121669	0.193323	-0.000123
584	0.202008	0.0461	0.19352	0.120912	0.192632	-9e-05
585	0.204607	0.046593	0.191744	0.122656	0.196711	-0.000189
586	0.20033	0.058404	0.194408	0.1294	0.195099	-0.000123
587	0.205298	0.062352	0.187697	0.126604	0.196316	8e-06
588	0.20283	0.067846	0.193191	0.130058	0.195823	7.4e-05
589	0.205528	0.072485	0.193882	0.132953	0.194737	0.00014
590	0.203883	0.077123	0.192533	0.133677	0.195395	4.1e-05
591	0.205002	0.083802	0.191776	0.135453	0.193388	7.4e-05
592	0.203094	0.085973	0.192698	0.137427	0.194244	4.1e-05
593	0.205133	0.091204	0.190066	0.138513	0.194507	-2.5e-05
594	0.201975	0.091237	0.192533	0.138151	0.195297	-9e-05
595	0.203752	0.101567	0.192434	0.131341	0.192073	-9e-05
596	0.20464	0.100745	0.193158	0.125978	0.196942	-9e-05
597	0.201383	0.106831	0.186414	0.121373	0.195231	-9e-05
598	0.200462	0.106042	0.189112	0.121702	0.194902	-2.5e-05
599	0.205298	0.115517	0.192533	0.117589	0.195856	4.1e-05
600	0.203916	0.107522	0.190493	0.126636	0.199245	7.4e-05
601	0.203127	0.113049	0.195955	0.127294	0.195231	7.4e-05
602	0.205265	0.119103	0.194606	0.130321	0.197764	7.4e-05
603	0.20056	0.120879	0.192763	0.134236	0.196382	-2.5e-05
604	0.200824	0.123873	0.191941	0.135092	0.192533	-5.8e-05
605	0.201021	0.126998	0.195593	0.137559	0.198587	-0.000123
606	0.203653	0.132854	0.19579	0.140586	0.19375	-9e-05
607	0.20033	0.132723	0.193849	0.139599	0.19602	-0.000123
608	0.203094	0.136111	0.19454	0.143349	0.197007	-5.8e-05
609	0.199508	0.13644	0.192665	0.144994	0.193454	-2.5e-05
610	0.199113	0.133315	0.193948	0.145323	0.198817	4.1e-05
611	0.196942	0.139171	0.193257	0.150324	0.197665	7.4e-05
612	0.200857	0.145027	0.193717	0.151376	0.1925	0.000107
613	0.200133	0.145553	0.19352	0.153647	0.196942	4.1e-05
614	0.197172	0.147462	0.197106	0.154962	0.193388	4.1e-05
615	0.198126	0.152495	0.191184	0.15664	0.194704	-5.8e-05
616	0.196448	0.156542	0.201054	0.157923	0.195889	-9e-05
617	0.196613	0.15539	0.195889	0.162398	0.193816	-9e-05
618	0.197435	0.157265	0.19704	0.162431	0.199376	-0.000123
619	0.199705	0.16299	0.196974	0.163089	0.199409	-9e-05
620	0.198455	0.16197	0.19352	0.165359	0.194441	8e-06
621	0.20033	0.164799	0.194573	0.168122	0.19602	4.1e-05
622	0.197731	0.163319	0.195527	0.167168	0.197929	4.1e-05
623	0.198488	0.167036	0.194737	0.166181	0.195527	7.4e-05
624	0.196678	0.167102	0.19454	0.164865	0.198192	0.00014
625	0.196284	0.170853	0.194935	0.169438	0.197468	4.1e-05
626	0.193487	0.166247	0.194112	0.173945	0.194935	8e-06
627	0.195922	0.173057	0.197139	0.171379	0.196053	-9e-05
628	0.194672	0.169932	0.197764	0.176676	0.194869	-9e-05
629	0.192073	0.17207	0.190329	0.173814	0.195066	-0.000123
630	0.191908	0.169767	0.194408	0.176742	0.198192	-9e-05
631	0.194408	0.170326	0.199442	0.176906	0.193487	8e-06
632	0.19556	0.173419	0.195823	0.17355	0.198455	4.1e-05
633	0.194408	0.172333	0.197534	0.176446	0.198192	7.4e-05
634	0.195889	0.175689	0.195659	0.180097	0.197369	0.000107
635	0.196876	0.174899	0.19681	0.176775	0.198455	4.1e-05
636	0.194408	0.174472	0.195988	0.177761	0.197896	4.1e-05
637	0.193685	0.173024	0.195527	0.180854	0.198718	8e-06
638	0.194737	0.176742	0.194244	0.17967	0.199113	-0.000123
639	0.191579	0.174439	0.196053	0.179966	0.200495	-0.000123
640	0.194079	0.178354	0.194211	0.179406	0.199705	-9e-05
641	0.189276	0.178419	0.192731	0.183289	0.200988	-5.8e-05
642	0.190954	0.179308	0.198093	0.179604	0.197896	0.000173
643	0.193027	0.175162	0.192994	0.181644	0.19987	0.000107
644	0.193421	0.18319	0.196053	0.183091	0.200922	0.000107
645	0.192961	0.182696	0.19454	0.183683	0.198192	0.00014
646	0.198126	0.182631	0.195626	0.184341	0.197698	0.000107
647	0.193849	0.183979	0.195428	0.183025	0.200363	0.000304
648	0.192533	0.185032	0.193882	0.18671	0.195691	0.000107
649	0.190099	0.184835	0.194244	0.185032	0.196942	0.000206
650	0.1925	0.184275	0.197007	0.184341	0.199672	8e-06
651	0.191316	0.187269	0.192237	0.188125	0.200034	-5.8e-05
652	0.19204	0.188158	0.197007	0.188223	0.200001	8e-06
653	0.193191	0.191447	0.196645	0.18875	0.198587	0.00014
654	0.189474	0.18546	0.197369	0.187664	0.199902	0.000206
655	0.191316	0.193948	0.194211	0.188256	0.192073	0.000107
656	0.188848	0.187467	0.194211	0.190987	0.200199	0.000107
657	0.187368	0.190888	0.192994	0.189506	0.197929	7.4e-05
658	0.187203	0.191184	0.195033	0.188158	0.199606	4.1e-05
659	0.190757	0.191151	0.195198	0.191974	0.198422	8e-06
660	0.184539	0.189901	0.194178	0.191118	0.201909	-2.5e-05
661	0.186282	0.191711	0.194737	0.188487	0.198389	-2.5e-05
662	0.186842	0.191579	0.194046	0.191086	0.195856	-0.000123
663	0.189375	0.191086	0.194343	0.187598	0.200462	-0.000156
664	0.188158	0.192698	0.197402	0.190724	0.200396	8e-06
665	0.190789	0.188684	0.19579	0.189112	0.194836	0.000107
666	0.189309	0.191349	0.195889	0.190921	0.199968	0.000107
667	0.191711	0.191579	0.197764	0.191316	0.201218	0.00014
668	0.187598	0.191217	0.194441	0.192698	0.202008	7.4e-05
669	0.18569	0.191908	0.198027	0.191974	0.19987	0.00014
670	0.192171	0.197139	0.19375	0.196514	0.202271	-2.5e-05
671	0.184736	0.195066	0.195757	0.197336	0.203159	-5.8e-05
672	0.189934	0.2001	0.19602	0.195264	0.202502	-9e-05
673	0.18694	0.193388	0.193224	0.195033	0.198883	-9e-05
674	0.189112	0.198027	0.197172	0.192237	0.20033	-0.000123
675	0.182334	0.198587	0.193915	0.197271	0.202173	8e-06
676	0.188717	0.199771	0.195165	0.195198	0.199508	4.1e-05
677	0.186842	0.198126	0.193454	0.198159	0.199212	0.000107
678	0.186907	0.198093	0.196645	0.196316	0.197567	7.4e-05
679	0.186249	0.196284	0.19352	0.200922	0.199442	7.4e-05
680	0.183782	0.196645	0.196086	0.197896	0.201317	8e-06
681	0.184966	0.199442	0.192796	0.198258	0.197994	-2.5e-05
682	0.186447	0.197205	0.195691	0.197073	0.197929	-5.8e-05
683	0.186381	0.199245	0.194507	0.203159	0.20158	-0.000123
684	0.187006	0.199606	0.200626	0.202173	0.19829	-0.000123
685	0.190691	0.199277	0.196119	0.201186	0.199146	-0.000123
686	0.18546	0.200396	0.197665	0.199606	0.202304	-2.5e-05
687	0.191711	0.201449	0.196547	0.200988	0.200626	8e-06
688	0.188816	0.200363	0.194869	0.202633	0.199508	8e-06
689	0.189901	0.204837	0.196481	0.20158	0.203883	0.000173
690	0.19023	0.197896	0.193586	0.202534	0.201975	0.000107
691	0.190526	0.199508	0.19431	0.204936	0.2001	7.4e-05
692	0.188618	0.200034	0.196481	0.202929	0.202205	-9e-05
693	0.187368	0.199935	0.198159	0.204212	0.202041	-0.000123
694	0.187664	0.199442	0.195856	0.205265	0.202567	-0.000156
695	0.188552	0.20362	0.199804	0.203456	0.200692	-0.000189
696	0.187072	0.199343	0.196218	0.206285	0.200166	-0.000189
697	0.192895	0.200922	0.19908	0.204903	0.199902	-9e-05
698	0.190559	0.200988	0.197929	0.206482	0.202896	-2.5e-05
699	0.189145	0.204936	0.197139	0.206351	0.197632	4.1e-05
700	0.19204	0.204245	0.192105	0.201942	0.198554	7.4e-05
701	0.190395	0.200824	0.198422	0.207601	0.198027	4.1e-05
702	0.195691	0.205364	0.195691	0.20816	0.198817	8e-06
703	0.190197	0.203785	0.194343	0.204607	0.201021	-9e-05
704	0.192336	0.206087	0.200363	0.208325	0.200955	-5.8e-05
705	0.189145	0.20237	0.199508	0.208423	0.202173	-0.000156
706	0.191546	0.206713	0.199179	0.208292	0.200692	-0.000123
707	0.189605	0.206449	0.19783	0.210858	0.202337	-0.000222
708	0.190855	0.204278	0.200988	0.210562	0.202633	-5.8e-05
709	0.191217	0.20895	0.19806	0.208489	0.205232	-2.5e-05
710	0.192237	0.205166	0.198883	0.205857	0.20135	8e-06
711	0.188947	0.202041	0.196415	0.208029	0.201745	4.1e-05
712	0.190296	0.204311	0.199672	0.204673	0.200692	4.1e-05
713	0.193882	0.204048	0.198422	0.209344	0.200922	8e-06
714	0.193948	0.204772	0.197205	0.206153	0.199541	8e-06
715	0.193388	0.205331	0.200067	0.209871	0.202436	-0.000156
716	0.188651	0.206647	0.201745	0.206548	0.199738	-0.000156
717	0.190987	0.208983	0.201317	0.20793	0.201218	-0.000156
718	0.188816	0.207107	0.200166	0.209016	0.202896	-0.000189
719	0.192895	0.20839	0.202436	0.210002	0.198587	-2.5e-05
720	0.193224	0.208917	0.199442	0.207798	0.20112	-2.5e-05
721	0.194211	0.209641	0.198981	0.21145	0.20237	8e-06
722	0.19329	0.206055	0.200758	0.212437	0.196251	4.1e-05
723	0.193685	0.209641	0.201909	0.206877	0.201778	8e-06
724	0.193454	0.210595	0.198652	0.211582	0.201811	4.1e-05
725	0.190362	0.212338	0.200692	0.209838	0.200626	-9e-05
726	0.191086	0.210529	0.199409	0.211647	0.202995	-9e-05
727	0.192073	0.21122	0.202238	0.210957	0.20033	-0.000123
728	0.18977	0.212832	0.199409	0.214411	0.200659	-0.000189
729	0.189539	0.209575	0.204541	0.211187	0.201778	-0.000156
730	0.190526	0.212141	0.199014	0.211911	0.202567	-9e-05
731	0.193257	0.211976	0.19658	0.212832	0.199705	-2.5e-05
732	0.194277	0.21395	0.198587	0.213523	0.200199	4.1e-05
733	0.194343	0.210759	0.196547	0.212766	0.201449	-2.5e-05
734	0.195001	0.213424	0.204475	0.213095	0.19987	4.1e-05
735	0.196251	0.212733	0.197632	0.211911	0.202962	4.1e-05
736	0.196316	0.213029	0.201515	0.212503	0.200001	-2.5e-05
737	0.195461	0.215727	0.201251	0.211384	0.20158	-9e-05
738	0.195395	0.213424	0.201712	0.213687	0.202041	-0.000189
739	0.193027	0.212799	0.199146	0.213457	0.199639	-0.000156
740	0.196909	0.221024	0.20056	0.211121	0.203785	-0.000222
741	0.195264	0.218589	0.203587	0.214575	0.202863	-9e-05
742	0.198159	0.2178	0.202732	0.210759	0.204146	8e-06
743	0.19533	0.218984	0.200363	0.213424	0.204081	4.1e-05
744	0.196316	0.216056	0.200988	0.212371	0.203357	0.000107
745	0.194573	0.216187	0.197764	0.211384	0.203324	7.4e-05
746	0.196547	0.215168	0.200429	0.210134	0.203883	7.4e-05
747	0.19046	0.213556	0.19602	0.211746	0.203554	8e-06
748	0.193323	0.213885	0.198817	0.210397	0.20283	-9e-05
749	0.195001	0.215661	0.200495	0.213292	0.203159	-0.000123
750	0.193685	0.215266	0.198389	0.210792	0.203521	-9e-05
751	0.195856	0.216286	0.198488	0.210266	0.202962	-0.000156
752	0.196547	0.214872	0.194869	0.210463	0.202008	-9e-05
753	0.198225	0.215069	0.19477	0.2102	0.202534	-2.5e-05
754	0.196547	0.219543	0.200264	0.210134	0.203423	4.1e-05
755	0.199738	0.217536	0.201218	0.210134	0.202765	4.1e-05
756	0.197007	0.213819	0.196744	0.211944	0.20214	0.000107
757	0.2001	0.220892	0.199771	0.20997	0.20158	4.1e-05
758	0.197698	0.214575	0.199573	0.211944	0.204015	-2.5e-05
759	0.1976	0.215858	0.199508	0.211647	0.200429	8e-06
760	0.19658	0.216385	0.201876	0.208687	0.204311	-0.000156
761	0.196547	0.215694	0.202403	0.210233	0.201186	-9e-05
762	0.198192	0.217142	0.202469	0.209048	0.205002	-0.000123
763	0.196119	0.215332	0.202699	0.206548	0.202271	-5.8e-05
764	0.195823	0.216911	0.199541	0.209542	0.201482	-2.5e-05
765	0.196613	0.207173	0.199738	0.205594	0.20112	4.1e-05
766	0.199179	0.215266	0.201745	0.201054	0.20033	4.1e-05
767	0.198192	0.213194	0.199902	0.196448	0.197534	0.000107
768	0.202008	0.215858	0.200659	0.198323	0.19931	0.000173
769	0.204245	0.215793	0.201482	0.19533	0.201712	4.1e-05
770	0.202304	0.216451	0.200429	0.177367	0.199935	-5.8e-05
771	0.199738	0.218326	0.202403	0.176446	0.203127	-0.000156
772	0.204212	0.216845	0.202403	0.00843	0.203423	-0.000123
773	0.200166	0.216122	0.200429	0.017543	0.209443	-0.000156
774	0.201515	0.218622	0.201416	0.024946	0.203225	-2.5e-05
775	0.20464	0.216878	0.201679	0.032019	0.20283	8e-06
776	0.201087	0.218293	0.198883	0.039454	0.204706	8e-06
777	0.202995	0.215266	0.203028	0.047087	0.203982	4.1e-05
778	0.20056	0.215529	0.202271	0.051956	0.20237	7.4e-05
779	0.201975	0.215332	0.201284	0.059786	0.204146	0.000107
780	0.202107	0.215529	0.20237	0.06278	0.201778	8e-06
781	0.20135	0.214214	0.198652	0.070774	0.198784	7.4e-05
782	0.198916	0.215497	0.203752	0.073077	0.198554	8e-06
783	0.20589	0.215003	0.197007	0.080907	0.200001	-5.8e-05
784	0.201416	0.213621	0.159075	0.08117	0.201844	-9e-05
785	0.204903	0.213819	0.148646	0.08877	0.201482	-0.000123
786	0.202798	0.214444	0.153712	0.093573	0.201613	8e-06
787	0.202995	0.215464	0.150422	0.100087	0.201811	0.000107
788	0.202337	0.214937	0.157792	0.103081	0.205101	0.00014
789	0.205265	0.217997	0.158779	0.106568	0.20033	-0.001242
790	0.203094	0.213062	0.156871	0.113247	0.202666	0.001094
791	0.198356	0.212832	0.163187	0.11147	0.202074	0.000107
792	0.201975	0.21372	0.164503	0.119991	0.202238	-5.8e-05
793	0.202765	0.21701	0.166872	0.120715	0.205397	0.000765
794	0.199804	0.215102	0.165391	0.127262	0.204114	-9e-05
795	0.203225	0.216615	0.16957	0.127393	0.202074	-5.8e-05
796	0.198323	0.216484	0.165852	0.133578	0.202403	-0.000847
797	0.198948	0.21497	0.167958	0.128347	0.201515	0.000107
798	0.195001	0.214608	0.16674	0.132394	0.204048	7.4e-05
799	0.194737	0.214773	0.167201	0.135059	0.203127	0.000107
800	0.188158	0.214641	0.167464	0.138908	0.199047	0.000107
801	0.166477	0.214641	0.167497	0.143218	0.203291	0.000107
802	0.147363	0.216187	0.171873	0.142658	0.201054	7.4e-05
803	0.146836	0.212667	0.170655	0.149008	0.203324	-9e-05
804	0.150225	0.21497	0.173715	0.150455	0.200034	-5.8e-05
805	0.151705	0.214707	0.172267	0.153153	0.206713	-0.000156
806	0.156739	0.216286	0.17513	0.155028	0.202469	-0.000156
807	0.159108	0.21599	0.174472	0.162792	0.202798	-2.5e-05
808	0.163911	0.217635	0.176972	0.156344	0.202732	-2.5e-05
809	0.163023	0.216977	0.174208	0.160884	0.202863	4.1e-05
810	0.165556	0.22405	0.176873	0.160522	0.198817	0.000107
811	0.16651	0.215299	0.180657	0.163944	0.201811	4.1e-05
812	0.159766	0.213457	0.175623	0.164733	0.20135	-2.5e-05
813	0.163911	0.211516	0.175853	0.166675	0.202798	0.000239
814	0.168188	0.214411	0.179012	0.166346	0.202469	7.4e-05
815	0.172958	0.214575	0.177005	0.170261	0.201087	-0.000123
816	0.171412	0.210134	0.178518	0.165688	0.202798	-5.8e-05
817	0.177761	0.214115	0.179505	0.169504	0.204541	4.1e-05
818	0.178584	0.212601	0.17582	0.163056	0.202962	0.014319
819	0.176117	0.216944	0.17888	0.170359	0.202173	0.000304
820	0.176676	0.213687	0.178222	0.173912	0.203949	0.000239
821	0.182598	0.21622	0.177235	0.176446	0.202041	0.000732
822	0.182005	0.21372	0.075314	0.175952	0.202008	-5.8e-05
823	0.185756	0.215398	0.040704	0.17638	0.19806	0.0006
824	0.184572	0.213424	0.006193	0.177103	0.203159	0.00014
825	0.188092	0.215562	0.000304	0.179439	0.197797	7.4e-05
826	0.187993	0.214839	8e-06	0.181512	0.200199	-0.000123
827	0.188552	0.213523	-9e-05	0.18092	0.200133	-2.5e-05
828	0.189638	0.215628	-0.000123	0.18319	0.200922	-0.000123
829	0.190131	0.21395	-0.000123	0.179768	0.199837	-0.001242
830	0.186611	0.213391	-2.5e-05	0.18115	0.201778	4.1e-05
831	0.190066	0.213292	-2.5e-05	0.180591	0.202074	7.4e-05
832	0.193915	0.213786	-9e-05	0.181216	0.20056	0.00014
833	0.189079	0.210134	0.003923	0.182137	0.203324	0.00014
834	0.193783	0.212799	0.001653	0.179637	0.200922	0.00014
835	0.191217	0.209279	0.008299	0.183486	0.201909	0.000633
836	0.194935	0.213819	0.019057	0.183453	0.200791	0.002081
837	0.196909	0.208588	0.026755	0.186874	0.201745	0.002048
838	0.197007	0.20816	0.03021	0.184473	0.201218	-0.000288
839	0.199902	0.212075	0.039388	0.18977	0.201975	-2.5e-05
840	0.200297	0.211187	0.048008	0.186447	0.201218	0.000436
841	0.193652	0.214411	0.055279	0.189408	0.201646	-2.5e-05
842	0.204837	0.211022	0.06222	0.185953	0.203357	0.00014
843	0.201186	0.210035	0.067912	0.188618	0.205133	-5.8e-05
844	0.200824	0.211516	0.069261	0.192105	0.206219	0.000732
845	0.201712	0.210595	0.075577	0.189868	0.204212	0.000699
846	0.203785	0.209312	0.080183	0.192237	0.202436	0.008562
847	0.20283	0.209114	0.082618	0.186184	0.20385	0.000962
848	0.198948	0.206745	0.094494	0.18875	0.205265	0.001061
849	0.203949	0.207963	0.094757	0.189112	0.19658	0.004877
850	0.201811	0.206811	0.097949	0.186907	0.201811	0.002936
851	0.202765	0.206976	0.103048	0.189145	0.201646	0.004515
852	0.199606	0.207173	0.108378	0.19046	0.201844	0.000962
853	0.204015	0.207502	0.11124	0.188289	0.20056	0.00014
854	0.203357	0.152429	0.116833	0.190658	0.204673	0.000271
855	0.205693	0.006127	0.11805	0.18977	0.203456	0.000107
856	0.204146	0.01501	0.12134	0.192007	0.20135	0.000929
857	0.207897	0.02386	0.127821	0.191842	0.201284	0.000864
858	0.204903	0.030012	0.126373	0.188585	0.202633	0.000666
859	0.205364	0.041132	0.13394	0.191908	0.20112	0.000436
860	0.206087	0.041724	0.134598	0.19454	0.201449	0.001686
861	0.20464	0.052351	0.13802	0.192961	0.200166	-0.000189
862	0.201745	0.062286	0.139072	0.192796	0.202732	0.001258
863	0.199606	0.064293	0.141474	0.195362	0.20112	0.001752
864	0.205759	0.067254	0.141737	0.191513	0.203357	0.002114
865	0.204673	0.074228	0.143481	0.188947	0.202666	0.000173
866	0.203028	0.079361	0.146277	0.190164	0.205561	0.003923
867	0.20214	0.082716	0.14937	0.191744	0.203916	0.009549
868	0.206581	0.086171	0.149403	0.189835	0.204146	0.006424
869	0.200955	0.091665	0.150883	0.190724	0.203225	0.006226
870	0.203357	0.098508	0.157693	0.19306	0.20362	0.000699
871	0.206252	0.101798	0.156246	0.196448	0.204081	0.006917
872	0.206318	0.105647	0.159667	0.19579	0.199573	0.003792
873	0.204903	0.107259	0.1597	0.192303	0.202304	0.017675
874	0.20714	0.116536	0.164141	0.1976	0.202403	0.034684
875	0.206811	0.117129	0.160325	0.194935	0.203752	0.047054
876	0.205956	0.123445	0.164602	0.194737	0.2001	0.056956
877	0.205462	0.12463	0.162069	0.196678	0.202173	0.063141
878	0.204574	0.1269	0.166346	0.195461	0.201054	0.01376
879	0.206713	0.13246	0.167596	0.196053	0.200429	0.008825
880	0.201646	0.132789	0.164437	0.196218	0.2001	0.009088
881	0.203159	0.136835	0.165918	0.197303	0.201909	0.000995
882	0.205265	0.136407	0.167333	0.196514	0.201942	0.009878
883	0.205857	0.142165	0.167365	0.19806	0.204015	0.020932
884	0.202271	0.143678	0.168517	0.195001	0.203127	0.026689
885	0.204936	0.145652	0.17286	0.197007	0.204212	0.036789
886	0.204837	0.146178	0.170162	0.199113	0.202107	0.041264
887	0.20668	0.1521	0.171412	0.19431	0.201284	0.01853
888	0.203554	0.150817	0.175294	0.197929	0.204146	0.005766
889	0.207469	0.152956	0.174735	0.196876	0.200363	0.018333
890	0.209575	0.154041	0.174603	0.194902	0.204772	0.02238
891	0.207371	0.157759	0.181018	0.19602	0.201876	0.029519
892	0.205035	0.162727	0.177235	0.198225	0.20056	0.038467
893	0.207765	0.160095	0.180097	0.199409	0.200659	0.042909
894	0.207173	0.165326	0.171708	0.198389	0.200133	0.051989
895	0.206581	0.165819	0.178814	0.198718	0.205791	0.05337
896	0.206614	0.164404	0.16776	0.204015	0.203719	0.059128
897	0.206186	0.164207	0.175294	0.198751	0.204081	0.030835
898	0.207173	0.167892	0.177136	0.198323	0.204475	0.006917
899	0.204508	0.167333	0.178123	0.198093	0.206022	0.012115
900	0.205495	0.167694	0.178123	0.197238	0.200626	0.023005
901	0.204936	0.167201	0.180295	0.199409	0.201383	0.029157
902	0.20668	0.169175	0.17888	0.197139	0.201547	0.036559
903	0.205199	0.168221	0.176939	0.200034	0.202238	0.047712
904	0.206416	0.172991	0.182729	0.197994	0.203061	0.049982
905	0.207634	0.169932	0.182861	0.200593	0.200857	0.058634
906	0.204903	0.171478	0.182499	0.199146	0.203225	0.062911
907	0.205956	0.175261	0.184506	0.19885	0.205561	0.068866
908	0.208127	0.171017	0.18342	0.197435	0.201317	0.073537
909	0.207371	0.174768	0.18138	0.201153	0.204903	0.081993
910	0.207305	0.173518	0.185723	0.198323	0.202633	0.084493
911	0.206022	0.176709	0.18194	0.201778	0.20158	0.086204
912	0.205035	0.172892	0.188026	0.199902	0.202403	0.096929
913	0.204245	0.17457	0.184341	0.202765	0.203488	0.099199
914	0.205693	0.173682	0.18194	0.203456	0.202995	0.101962
915	0.206581	0.176709	0.184275	0.199935	0.204541	0.109463
916	0.205068	0.172498	0.185328	0.198948	0.204212	0.108476
917	0.205298	0.179505	0.185526	0.19908	0.207535	0.117885
918	0.203719	0.176149	0.184275	0.202699	0.205495	0.118938
919	0.207107	0.177696	0.18421	0.19908	0.204179	0.119234
920	0.206844	0.175195	0.181413	0.200528	0.203883	0.124695
921	0.207535	0.179834	0.184802	0.200626	0.202765	0.126373
922	0.206449	0.177926	0.183716	0.203159	0.203686	0.130584
923	0.206515	0.177926	0.185394	0.203521	0.202962	0.133381
924	0.205133	0.179637	0.185624	0.203324	0.205002	0.135782
925	0.206285	0.181249	0.18523	0.201317	0.202732	0.142231
926	0.205726	0.180163	0.185822	0.202798	0.202469	0.130321
927	0.205561	0.178387	0.187236	0.202238	0.198817	0.048534
928	0.205726	0.182203	0.185164	0.202765	0.203159	0.008924
929	0.202205	0.178781	0.18694	0.204081	0.203817	0.009582
930	0.204936	0.184637	0.19	0.204903	0.202436	0.019616
931	0.201416	0.178814	0.184703	0.202633	0.201482	0.025209
932	0.203587	0.182696	0.184736	0.203752	0.204081	0.000403
933	0.202107	0.181413	0.184637	0.202896	0.204804	8e-06
934	0.204475	0.182894	0.185361	0.201646	0.202107	0.007279
935	0.200988	0.183058	0.182927	0.204673	0.206087	0.011885
936	0.202502	0.182729	0.185888	0.205956	0.204245	0.023235
937	0.201646	0.184933	0.185131	0.204772	0.204146	0.02965
938	0.201416	0.18319	0.18648	0.202173	0.202008	0.035967
939	0.200396	0.184275	0.18523	0.206713	0.205265	0.044126
940	0.200857	0.183058	0.18523	0.201679	0.202929	0.012181
941	0.20339	0.183848	0.188684	0.201778	0.204739	0.017971
942	0.204936	0.1875	0.186677	0.201712	0.201218	0.026229
943	0.199804	0.187401	0.184012	0.202271	0.201416	0.035144
944	0.203291	0.185197	0.187105	0.201811	0.201021	0.031887
945	0.2077	0.185559	0.188947	0.202633	0.201383	0.037053
946	0.200264	0.185197	0.187072	0.205166	0.202041	0.036066
947	0.20237	0.186973	0.188026	0.205594	0.203061	4.1e-05
948	0.199771	0.184769	0.184802	0.205923	0.203982	0.002574
949	0.200067	0.185723	0.184407	0.20135	0.203423	0.011523
950	0.199837	0.187532	0.185526	0.201745	0.207239	0.019616
951	0.197731	0.189309	0.185723	0.203488	0.200626	0.026459
952	0.200264	0.188322	0.185822	0.200133	0.202995	0.031098
953	0.196382	0.187335	0.185723	0.199935	0.203719	0.033861
954	0.197139	0.187598	0.185855	0.200363	0.195626	0.027117
955	0.200067	0.187138	0.190987	0.198817	0.201218	0.03294
956	0.188651	0.18546	0.186578	0.199376	0.202041	0.035111
957	0.196942	0.189671	0.188322	-0.005157	0.201416	0.038533
958	0.19704	0.185723	0.185986	0.007312	0.204574	0.005831
959	0.195724	0.18694	0.183716	0.01274	0.199738	0.013365
960	0.198521	0.191842	0.182795	0.02261	0.20464	0.019452
961	0.193356	0.192171	0.184473	0.029716	0.203719	0.0309
962	0.195988	0.188026	0.179999	0.038994	0.202666	0.041954
963	0.194474	0.185361	0.180689	0.043665	0.202633	0.044224
964	0.199409	0.192303	0.17967	0.051331	0.20362	0.052318
965	0.194474	0.190757	0.129433	0.056858	0.207996	0.056956
966	0.195856	0.190131	0.102587	0.059588	0.204179	0.06222
967	0.19658	0.189013	0.104792	0.0663	0.20566	0.070017
968	0.194869	0.188717	0.107818	0.073636	0.203752	0.070642
969	0.1925	0.188454	0.096863	0.079657	0.205495	0.07288
970	0.196843	0.189671	0.104232	0.079097	0.202666	0.081466
971	0.191875	0.188092	0.108378	0.086631	0.205627	0.085677
972	0.190625	0.191579	0.111635	0.090777	0.202534	0.091764
973	0.193717	0.189803	0.112983	0.101995	0.204179	0.080051
974	0.191447	0.190559	0.119267	0.100021	0.200593	0.049423
975	0.194244	0.19204	0.117622	0.106239	0.202107	0.04712
976	0.192467	0.192138	0.121142	0.111075	0.20033	0.038796
977	0.193553	0.191184	0.126439	0.113707	0.198981	0.04758
978	0.191908	0.189474	0.129861	0.115714	0.199541	0.012938
979	0.192007	0.190592	0.13088	0.121603	0.201975	0.001785
980	0.190329	0.190954	0.134302	0.122162	0.202863	0.011918
981	0.190855	0.192796	0.13825	0.127229	0.197797	0.018892
982	0.190526	0.1925	0.138513	0.129696	0.201646	0.026558
983	0.192336	0.193619	0.141902	0.127821	0.200824	0.03373
984	0.191842	0.192698	0.146376	0.122064	0.204344	0.04054
985	0.191151	0.195001	0.147133	0.129071	0.20385	0.047317
986	0.190592	0.191908	0.148317	0.134203	0.206055	0.051166
987	0.193685	0.19375	0.149764	0.140783	0.204541	0.059095
988	0.193191	0.190099	0.151738	0.136078	0.206384	0.063536
989	0.192928	0.193125	0.156509	0.142757	0.203949	0.067649
990	0.194112	0.1925	0.158483	0.144566	0.204508	0.076038
991	0.191875	0.190362	0.158088	0.141704	0.20487	0.079262
992	0.192533	0.192533	0.162233	0.144895	0.207074	0.077222
993	0.193191	0.189934	0.164043	0.146935	0.204245	0.083703
994	0.19329	0.197303	0.166313	0.152528	0.203488	0.089066
995	0.193849	0.194145	0.168155	0.151903	0.205331	0.095185
996	0.193849	0.195066	0.169866	0.154864	0.207107	0.0991
997	0.195033	0.193619	0.170688	0.155489	0.204146	0.101271
998	0.194573	0.193882	0.172366	0.157825	0.204706	0.106765
999	0.193191	0.189803	0.171247	0.161608	0.207074	0.01024
1000	0.195428	0.190362	0.170326	0.160424	0.205101	0.018859
1001	0.196777	0.185789	0.173616	0.163977	0.203554	0.021129
1002	0.19306	0.18342	0.173945	0.161279	0.203686	0.03317
1003	0.192895	0.180163	0.174735	0.16503	0.20612	0.036263
1004	0.194046	0.173879	0.177235	0.165885	0.203686	0.041362
1005	0.190822	0.167596	0.177959	0.166905	0.204541	0.050212
1006	0.191579	0.162957	0.181709	0.16776	0.204936	0.055608
1007	0.195066	0.162694	0.179472	0.171576	0.205265	0.062319
1008	0.19352	0.080973	0.178222	0.170228	0.205594	0.07028
1009	0.192895	0.091336	0.178814	0.171511	0.205726	0.073472
1010	0.194902	0.090579	0.180591	0.171445	0.205693	0.079525
1011	0.191612	0.096764	0.181315	0.173485	0.203785	0.088276
1012	0.194408	0.098475	0.180821	0.174603	0.20464	0.089461
1013	0.189276	0.105746	0.180689	0.173945	0.202567	0.096106
1014	0.196415	0.106831	0.184506	0.173419	0.204377	0.101436
1015	0.196645	0.11068	0.184144	0.172925	0.20612	0.10489
1016	0.19	0.113181	0.183848	0.179275	0.207963	0.105746
1017	0.196909	0.11453	0.18546	0.176117	0.206943	0.106173
1018	0.191415	0.118576	0.188618	0.179768	0.205364	0.108608
1019	0.191579	0.122985	0.185789	0.178617	0.206976	0.115747
1020	0.192895	0.128347	0.183058	0.181315	0.205857	0.120879
1021	0.191447	0.128545	0.18796	0.18092	0.207042	0.122195
1022	0.189671	0.131867	0.186743	0.180591	0.205002	0.123939
1023	0.190724	0.134006	0.188059	0.181347	0.205956	0.126867
1024	0.190789	0.136704	0.185723	0.179308	0.20543	0.131209
1025	0.190296	0.139763	0.19046	0.183223	0.201613	0.132591
1026	0.191645	0.141671	0.190789	0.184243	0.204344	0.137723
1027	0.19046	0.145784	0.191151	0.182565	0.203423	0.136967
1028	0.19	0.149172	0.192402	0.184802	0.205462	0.144369
1029	0.188322	0.150225	0.193224	0.188026	0.205528	0.142757
1030	0.192862	0.152396	0.19	0.185986	0.20441	0.146606
1031	0.189112	0.156015	0.193191	0.187894	0.206581	0.147429
1032	0.191118	0.158877	0.197632	0.18648	0.204179	0.152824
1033	0.188618	0.159141	0.192336	0.189046	0.203456	0.152232
1034	0.191513	0.16401	0.193454	0.187434	0.206844	0.153811
1035	0.189737	0.162595	0.191678	0.188092	0.209081	0.154403
1036	0.190066	0.169866	0.198422	0.187829	0.205298	0.154074
1037	0.19102	0.168747	0.195922	0.192533	0.208094	0.158713
1038	0.190329	0.171215	0.195823	0.182795	0.206647	0.156969
1039	0.189177	0.173024	0.195132	0.187993	0.207601	0.159239
1040	0.187697	0.174077	0.194112	0.188322	0.208358	0.148777
1041	0.189112	0.172629	0.19227	0.187993	0.207338	0.154041
1042	0.187467	0.173419	0.194935	0.189309	0.208555	0.156443
1043	0.19	0.174735	0.193915	0.187664	0.2077	0.158779
1044	0.187269	0.178354	0.195494	0.186842	0.207305	0.155193
1045	0.188651	0.180196	0.195231	0.190131	0.20816	0.151376
1046	0.187269	0.179703	0.197961	0.192105	0.206515	0.09785
1047	0.189737	0.183091	0.194639	0.192698	0.205495	0.000502
1048	0.184407	0.184275	0.193027	0.192961	0.209048	0.001554
1049	0.189243	0.185295	0.196251	0.192336	0.209048	0.010141
1050	0.1875	0.185591	0.192994	0.194737	0.208226	0.0208
1051	0.187664	0.188585	0.193816	0.193882	0.206844	0.030341
1052	0.188421	0.187927	0.192138	0.195132	0.207798	0.040836
1053	0.188618	0.190658	0.196152	0.191612	0.206614	0.048205
1054	0.188421	0.189342	0.196645	0.19477	0.208358	0.054292
1055	0.188585	0.189605	0.191184	0.192303	0.211417	0.060213
1056	0.184243	0.189868	0.185197	0.195033	0.21168	0.044718
1057	0.186776	0.19125	0.200725	0.191382	0.205495	0.010898
1058	0.185098	0.191053	0.193027	0.194079	0.208654	0.023235
1059	0.184769	0.195856	0.193717	0.193553	0.207568	0.016589
1060	0.187203	0.196974	0.197435	0.193158	0.206745	0.026064
1061	0.186315	0.190789	0.196942	0.196316	0.207403	0.032282
1062	0.183979	0.196349	0.197172	0.194968	0.207831	0.041856
1063	0.182927	0.190526	0.195198	0.195659	0.20918	0.04485
1064	0.188026	0.192665	0.197106	0.19329	0.207042	0.053338
1065	0.184966	0.189605	0.196909	0.195264	0.209114	0.057746
1066	0.189112	0.194244	0.197961	0.193356	0.209016	0.06199
1067	0.188158	0.193981	0.196613	0.195527	0.210726	0.067912
1068	0.189605	0.196481	0.199113	0.192862	0.209443	0.072715
1069	0.184736	0.193948	0.195132	0.197764	0.209213	0.077716
1070	0.189243	0.196777	0.199606	0.195428	0.207206	0.084427
1071	0.186874	0.194573	0.197896	0.197961	0.209279	0.083308
1072	0.191053	0.194836	0.199771	0.194869	0.208654	0.089658
1073	0.188618	0.198323	0.196152	0.197106	0.210726	0.094395
1074	0.188092	0.195724	0.199508	0.193092	0.210101	0.094527
1075	0.191184	0.199705	0.195099	0.196481	0.203653	0.102028
1076	0.188519	0.19431	0.197271	0.195297	0.210924	0.103081
1077	0.1875	0.196481	0.198784	0.194145	0.206055	0.109266
1078	0.187171	0.193323	0.199935	0.195922	0.208423	0.111635
1079	0.188355	0.200824	0.202436	0.195527	0.205265	0.115122
1080	0.187302	0.194178	0.198718	0.198159	0.20793	0.118576
1081	0.188684	0.196613	0.200692	0.197731	0.204179	0.122491
1082	0.190395	0.194145	0.200528	0.196514	0.206943	0.122031
1083	0.192369	0.196942	0.200889	0.198027	0.207502	0.128545
1084	0.187829	0.196415	0.200857	0.199508	0.20793	0.131769
1085	0.193224	0.194737	0.204377	0.195724	0.208061	0.130716
1086	0.191908	0.188092	0.194935	0.198225	0.208226	0.131078
1087	0.193092	0.196843	0.200725	0.19806	0.208292	0.132821
1088	0.191184	0.195165	0.196876	0.196185	0.20839	0.138283
1089	0.191415	0.195066	0.198587	0.197961	0.208489	0.139039
1090	0.186085	0.194408	0.199738	0.197205	0.207634	0.142395
1091	0.186973	0.193027	0.200955	0.197665	0.206548	0.142132
1092	0.18898	0.19533	0.200264	0.200791	0.207667	0.148383
1093	0.189408	0.191447	0.199672	0.198258	0.206285	0.145817
1094	0.19148	0.19454	0.201054	0.195494	0.207436	0.148942
1095	0.187894	0.19375	0.200297	0.198817	0.208193	0.153087
1096	0.191908	0.193652	0.2026	0.197007	0.206384	0.155752
1097	0.189309	0.191316	0.201482	0.19533	0.207831	0.154798
1098	0.191908	0.190526	0.199245	0.199245	0.201416	0.157331
1099	0.190164	0.190033	0.199837	0.196843	0.207042	0.157265
1100	0.193816	0.19204	0.201284	0.195132	0.204278	0.159075
1101	0.191513	0.189901	0.19885	0.194869	0.203653	0.159272
1102	0.193882	0.185657	0.200199	0.196974	0.203686	0.16174
1103	0.193421	0.172004	0.200593	0.1976	0.205923	0.161904
1104	0.193652	0.082947	0.201482	0.19477	0.204344	0.162299
1105	0.192467	0.007411	0.199343	0.197073	0.211516	0.16526
1106	0.192928	0.000436	0.20566	0.19533	0.20691	0.16572
1107	0.194968	-0.000288	0.203258	0.193685	0.206844	0.166148
1108	0.196349	0.000206	0.201942	0.19533	0.207173	0.166214
1109	0.19375	-0.00542	0.200791	0.196711	0.208983	0.16753
1110	0.191579	-0.000551	0.201383	0.19454	0.205068	0.166576
1111	0.193092	0.000831	0.202271	0.109167	0.20612	0.171445
1112	0.190197	-0.000979	0.200791	0.095711	0.204936	0.170951
1113	0.190691	0.000633	0.200264	0.083934	0.204541	0.172531
1114	0.19204	0.003232	0.203686	0.005634	0.204081	0.173221
1115	0.195198	0.011556	0.200264	0.008595	0.203192	0.173814
1116	0.193454	0.014977	0.203357	0.019057	0.208687	0.178025
1117	0.19658	0.02409	0.203653	0.028005	0.204541	0.172827
1118	0.197435	0.027413	0.202633	0.03248	0.206647	0.176117
1119	0.19885	0.025011	0.202929	0.03771	0.203916	0.174866
1120	0.198422	0.026295	0.201646	0.046955	0.205068	0.174899
1121	0.194343	0.002278	0.203883	0.05439	0.203752	0.17105
1122	0.196678	0.010503	0.202534	0.057417	0.204739	0.173879
1123	0.197501	0.013925	0.201942	0.067188	0.205759	0.178387
1124	0.195757	0.015076	0.201679	0.07436	0.203357	0.179505
1125	0.195033	0.016951	0.20214	0.078604	0.203949	0.176446
1126	0.194968	0.024222	0.201909	0.084592	0.206351	0.179768
1127	0.192138	0.027972	0.201416	0.086105	0.203785	0.177663
1128	0.196415	0.035802	0.20464	0.089855	0.201482	0.180986
1129	0.192632	0.014023	0.20237	0.094001	0.201876	0.179768
1130	0.198488	0.013201	0.198718	0.100219	0.200758	0.181446
1131	0.195988	0.020899	0.19987	0.103541	0.199212	0.18092
1132	0.195922	0.026196	0.202502	0.105153	0.001225	0.182762
1133	0.197896	0.0309	0.201515	0.109957	0.013069	0.183091
1134	0.199705	0.037842	0.200824	0.114069	0.015931	0.182104
1135	0.19704	0.042514	0.202798	0.116471	0.025834	0.18421
1136	0.194869	0.046593	0.207436	0.120649	0.032841	0.181413
1137	0.197797	0.052383	0.200889	0.124235	0.040704	0.18444
1138	0.197106	0.05791	0.203357	0.127788	0.045968	0.182005
1139	0.197994	0.065576	0.202502	0.125978	0.057878	0.180328
1140	0.196053	0.068109	0.201975	0.13473	0.05949	0.182302
1141	0.197303	0.076762	0.20033	0.136473	0.065543	0.183815
1142	0.198619	0.079032	0.201942	0.141507	0.071596	0.18296
1143	0.198126	0.080413	0.199409	0.053995	0.076827	0.18592
1144	0.197797	0.086631	0.202436	0.056331	0.08038	0.185657
1145	0.200955	0.091764	0.202107	0.063766	0.085282	0.18694
1146	0.195132	0.090283	0.199541	0.068701	0.089921	0.191382
1147	0.195099	0.097356	0.204015	0.072518	0.093079	0.187861
1148	0.197073	0.097159	0.199409	0.079854	0.097587	0.186513
1149	0.198455	0.103607	0.201284	0.082058	0.098179	0.190526
1150	0.198554	0.105779	0.20158	0.08367	0.106568	0.189013
1151	0.198554	0.109693	0.202337	0.091204	0.107094	0.18875
1152	0.200528	0.112161	0.198159	0.096994	0.104101	0.190658
1153	0.199376	0.11397	0.201778	0.099626	0.1067	0.188322
1154	0.200264	0.117491	0.202962	0.10772	0.114036	0.190099
1155	0.198751	0.120451	0.208358	0.107456	0.115944	0.18921
1156	0.202962	0.12384	0.201251	0.116734	0.119267	0.190066
1157	0.19931	0.127097	0.199508	0.116273	0.121965	0.190197
1158	0.199804	0.124794	0.201942	0.117556	0.128775	0.191217
1159	0.198488	0.126998	0.203883	0.122425	0.128742	0.189177
1160	0.198784	0.133019	0.201317	0.035605	0.129367	0.19204
1161	0.197007	0.132295	0.202107	0.040803	0.135848	0.19329
1162	0.201811	0.136638	0.203817	0.043863	0.132986	0.191711
1163	0.197929	0.134006	0.200824	0.046758	0.141342	0.190921
1164	0.195955	0.139928	0.202699	0.054423	0.140092	0.19227
1165	0.195724	0.14052	0.201251	0.056693	0.146606	0.192237
1166	0.200692	0.138776	0.199343	0.059753	0.140125	0.191678
1167	0.200396	0.14052	0.195231	0.068076	0.147955	0.193553
1168	0.200199	0.145915	0.196744	0.074097	0.148909	0.195198
1169	0.201284	0.147659	0.197205	0.079591	0.151311	0.194211
1170	0.200034	0.1471	0.195297	0.081762	0.15266	0.192698
1171	0.200659	0.151903	0.195626	0.091435	0.157035	0.192402
1172	0.197764	0.153285	0.198225	0.093606	0.157825	0.195461
1173	0.203686	0.152989	0.197994	0.099462	0.159733	0.192632
1174	0.198488	0.152396	0.195231	0.102324	0.159733	0.192105
1175	0.198587	0.158746	0.194935	0.104561	0.162924	0.195856
1176	0.197863	0.153811	0.196382	0.109562	0.166477	0.192138
1177	0.201745	0.157594	0.195001	0.111338	0.161509	0.194704
1178	0.198718	0.158219	0.193948	0.117194	0.15993	0.194375
1179	0.197929	0.15868	0.194145	0.118116	0.16526	0.190362
1180	0.198159	0.158022	0.19602	0.125715	0.16549	0.195823
1181	0.198258	0.158779	0.1976	0.124268	0.166049	0.192402
1182	0.19783	0.162661	0.196448	0.127591	0.166181	0.195001
1183	0.199343	0.16424	0.19704	0.126834	0.169076	0.196086
1184	0.198126	0.163483	0.197632	0.131177	0.1723	0.193388
1185	0.200791	0.163286	0.196053	0.132624	0.171576	0.195527
1186	0.198422	0.163681	0.195823	0.1395	0.174143	0.193882
1187	0.201054	0.162365	0.200166	0.136046	0.17638	0.193388
1188	0.202502	0.163648	0.195659	0.142823	0.176314	0.195198
1189	0.198751	0.164141	0.197303	0.143481	0.179077	0.192007
1190	0.201153	0.166609	0.171938	0.144599	0.180328	0.193652
1191	0.199212	0.165984	0.125485	0.149468	0.178551	0.194803
1192	0.201054	0.168221	0.127656	0.150258	0.18036	0.195922
1193	0.200166	0.167694	0.129729	0.152396	0.181183	0.193125
1194	0.201284	0.168846	0.132032	0.154601	0.180426	0.191579
1195	0.19783	0.170195	0.127985	0.15618	0.182861	0.19533
1196	0.198685	0.167925	0.133611	0.156871	0.181018	0.193125
1197	0.199014	0.166444	0.137033	0.158779	0.182696	0.198619
1198	0.199179	0.171873	0.141869	0.156114	0.18319	0.196316
1199	0.198948	0.170557	0.141737	0.164273	0.181446	0.196053
1200	0.200922	0.170261	0.142	0.158384	0.180821	0.196185
1201	0.198784	0.171313	0.147626	0.161641	0.18592	0.194244
1202	0.20033	0.171774	0.151508	0.165622	0.183321	0.198685
1203	0.198225	0.173485	0.151015	0.168517	0.184407	0.199343
1204	0.199902	0.175985	0.157529	0.170162	0.184473	0.198554
1205	0.200659	0.177235	0.15289	0.171873	0.185197	0.197369
1206	0.198521	0.176446	0.156311	0.169734	0.186907	0.196547
1207	0.20033	0.180558	0.158647	0.172234	0.185559	0.19908
1208	0.198587	0.176906	0.16095	0.171445	0.188158	0.197501
1209	0.200889	0.178058	0.161213	0.171017	0.187894	0.197863
1210	0.200857	0.177465	0.162727	0.17411	0.187302	0.195264
1211	0.202863	0.180591	0.16299	0.174735	0.183157	0.197139
1212	0.197534	0.180953	0.163747	0.174274	0.182631	0.196909
1213	0.202436	0.179703	0.163056	0.17582	0.185262	0.197764
1214	0.195856	0.183716	0.16526	0.174866	0.184835	0.198159
1215	0.197336	0.184078	0.167925	0.172103	0.185295	0.199179
1216	0.198192	0.178255	0.166313	0.177334	0.186513	0.199376
1217	0.195264	0.180755	0.167365	0.177103	0.178781	0.198027
1218	0.199902	0.183848	0.166773	0.177038	0.186513	0.198916
1219	0.197764	0.18421	0.169701	0.180262	0.184637	0.198027
1220	0.200626	0.184835	0.169208	0.180426	0.186842	0.199541
1221	0.200922	0.184835	0.172925	0.18296	0.18875	0.197632
1222	0.201613	0.187335	0.170458	0.183881	0.184769	0.202008
1223	0.198817	0.185789	0.172761	0.183617	0.188158	0.19931
1224	0.197205	0.190888	0.172827	0.186184	0.185789	0.199804
1225	0.19602	0.191744	0.17332	0.186578	0.186611	0.200725
1226	0.200199	0.190987	0.175162	0.186776	0.186578	0.199343
1227	0.19806	0.189803	0.173649	0.186381	0.186842	0.196777
1228	0.198225	0.191744	0.172267	0.187006	0.181315	0.19704
1229	0.197632	0.19148	0.134368	0.187105	0.188256	0.198258
1230	0.200297	0.18898	0.135453	0.188125	0.184506	0.197007
1231	0.198751	0.189638	0.13473	0.191711	0.188519	0.197929
1232	0.198488	0.191382	0.13927	0.18921	0.188092	0.197435
1233	0.202534	0.187467	0.140619	0.190888	0.189506	0.197863
1234	0.200857	0.192336	0.143218	0.187368	0.187368	0.200659
1235	0.201054	0.193158	0.141573	0.193257	0.189013	0.20158
1236	0.201416	0.194079	0.145685	0.189967	0.187105	0.197534
1237	0.202008	0.191809	0.148218	0.191579	0.184933	0.199837
1238	0.201844	0.194573	0.151311	0.191875	0.188059	0.199245
1239	0.202798	0.198784	0.149501	0.18796	0.18977	0.203488
1240	0.20158	0.19375	0.153416	0.188289	0.191053	0.198126
1241	0.202699	0.195626	0.155489	0.193454	0.190691	0.199475
1242	0.201811	0.195757	0.15289	0.194606	0.189671	0.19681
1243	0.203324	0.197106	0.154403	0.191415	0.187631	0.195856
1244	0.202271	0.19658	0.155949	0.19579	0.188223	0.196613
1245	0.203028	0.198192	0.157759	0.19125	0.18694	0.200166
1246	0.201054	0.195823	0.156311	0.194935	0.190099	0.198389
1247	0.204574	0.196316	0.156311	0.194211	0.187203	0.198652
1248	0.202238	0.193388	0.158516	0.19579	0.187105	0.199376
1249	0.200396	0.19556	0.160292	0.125913	0.188783	0.196777
1250	0.200889	0.195264	0.156772	0.131999	0.062747	0.199672
1251	0.202502	0.195593	0.161838	0.135256	0.060477	0.198192
1252	0.202403	0.197007	0.159371	0.139796	0.063602	0.201383
1253	0.20283	0.191053	0.161904	0.139171	0.037118	0.199442
1254	0.20441	0.198751	0.161345	0.143514	-0.000946	0.200429
1255	0.204048	0.196349	0.16447	0.144205	0.002278	0.2001
1256	0.203192	0.196481	0.167102	0.146573	0.001291	0.200988
1257	0.198685	0.197929	0.165918	0.149534	0.003331	0.201251
1258	0.202107	0.196086	0.167069	0.151771	0.008726	0.202107
1259	0.199113	0.19306	0.165194	0.152594	0.017807	0.199672
1260	0.200462	0.199277	0.168714	0.136967	0.02363	0.203653
1261	0.117852	0.197007	0.166477	0.140454	0.031328	0.195856
1262	0.095777	0.200231	0.169109	0.139303	0.036164	0.197961
1263	0.098508	0.198126	0.166477	0.145323	0.044192	0.198619
1264	0.107325	0.196711	0.16878	0.142921	0.046659	0.197698
1265	0.106864	0.193915	0.165918	0.145323	0.054719	0.201613
1266	0.105121	0.194474	0.1698	0.146277	0.059917	0.198619
1267	0.113444	0.195691	0.167168	0.15108	0.066925	0.202304
1268	0.11555	0.193487	0.167727	0.151771	0.06755	0.202534
1269	0.121504	0.195988	0.169701	0.155324	0.073044	0.201646
1270	0.126636	0.189671	0.171609	0.156739	0.078505	0.199606
1271	0.127492	0.191283	0.170524	0.158746	0.083374	0.200725
1272	0.133315	0.188684	0.173847	0.165688	0.087092	0.203752
1273	0.111174	0.185526	0.173485	0.159864	0.09456	0.20487
1274	0.108312	0.179768	0.173748	0.164207	0.095909	0.198652
1275	0.119201	0.184604	0.122129	0.166017	0.100021	0.200528
1276	0.119037	0.180591	0.124432	0.166576	0.101403	0.200133
1277	0.123018	0.183749	0.125781	0.168221	0.106634	0.199968
1278	0.123182	0.17888	0.127031	0.17059	0.107193	0.19908
1279	0.126472	0.182762	0.130617	0.169175	0.110121	0.201646
1280	0.127689	0.178419	0.133315	0.172037	0.117589	0.20056
1281	0.133348	0.176182	0.133052	0.168879	0.120715	0.199738
1282	0.13519	0.178551	0.133282	0.171938	0.120945	0.203225
1283	0.141737	0.176117	0.129992	0.172234	0.12486	0.202469
1284	0.14154	0.178321	0.132098	0.173682	0.127952	0.203028
1285	0.146113	0.177761	0.133874	0.173682	0.129466	0.200692
1286	0.147527	0.179538	0.123939	0.175327	0.132723	0.200429
1287	0.149764	0.177432	0.124334	0.175788	0.132098	0.199146
1288	0.152594	0.181051	0.128939	0.177103	0.134861	0.201482
1289	0.153712	0.182071	0.128084	0.180887	0.138316	0.198126
1290	0.154732	0.180854	0.131835	0.179045	0.139105	0.20112
1291	0.157397	0.183486	0.135355	0.181315	0.14483	0.200067
1292	0.161871	0.18694	0.139303	0.183683	0.143448	0.203192
1293	0.160193	0.184374	0.136802	0.183124	0.145356	0.203094
1294	0.163845	0.185164	0.143448	0.181216	0.147067	0.203192
1295	0.164372	0.189803	0.143579	0.180295	0.151771	0.199146
1296	0.170721	0.186249	0.146244	0.188585	0.152725	0.197632
1297	0.168155	0.188223	0.146244	0.183683	0.153679	0.198751
1298	0.16855	0.186282	0.147856	0.184407	0.157529	0.199573
1299	0.16776	0.187138	0.150093	0.186973	0.156607	0.200034
1300	0.173353	0.188322	0.15289	0.184604	0.15993	0.196119
1301	0.169701	0.188125	0.151048	0.185789	0.159601	0.202502
1302	0.171215	0.188355	0.156015	0.186315	0.160753	0.196942
1303	0.172827	0.187894	0.158877	0.18796	0.162299	0.196777
1304	0.14937	0.190658	0.159864	0.189177	0.160687	0.196251
1305	0.102686	0.192698	0.16401	0.187006	0.165227	0.199902
1306	0.04327	0.190691	0.168254	0.192303	0.167464	0.195231
1307	0.037941	0.191908	0.154601	0.19148	0.16401	0.199146
1308	0.042448	0.191875	0.158976	0.192566	0.169339	0.195823
1309	0.046231	0.1925	0.164536	0.192369	0.167793	0.197073
1310	0.051035	0.191086	0.160819	0.193388	0.169537	0.19602
1311	0.060181	0.193882	0.164174	0.191316	0.169142	0.196974
1312	0.063273	0.193356	0.161246	0.195428	0.170951	0.196415
1313	0.069688	0.195001	0.166839	0.19431	0.171576	0.195165
1314	0.074656	0.19329	0.167069	0.196777	0.174833	0.193553
1315	0.081137	0.195428	0.169635	0.193356	0.173682	0.194672
1316	0.085019	0.193323	0.168155	0.19477	0.176577	0.196218
1317	0.08979	0.198126	0.173583	0.192138	0.179867	0.196909
1318	0.096106	0.195428	0.170162	0.196514	0.181117	0.19931
1319	0.099166	0.194672	0.173781	0.193915	0.177926	0.197369
1320	0.104857	0.196316	0.173583	0.194836	0.180657	0.198817
1321	0.106831	0.194408	0.175788	0.19806	0.178452	0.197567
1322	0.11295	0.198159	0.179735	0.198159	0.178518	0.201251
1323	0.11499	0.196053	0.177235	0.005042	0.180492	0.198126
1324	0.119958	0.197665	0.179472	0.015602	0.179867	0.196218
1325	0.123149	0.19431	0.179538	0.022873	0.18115	0.197172
1326	0.12917	0.200363	0.181841	0.029288	0.178387	0.198981
1327	0.131407	0.19783	0.180689	0.0385	0.181216	0.199245
1328	0.123906	0.198192	0.182499	0.044817	0.179077	0.197632
1329	0.122129	0.198225	0.176182	0.053239	0.185953	0.198323
1330	0.11351	0.198718	0.179209	0.057121	0.184572	0.19908
1331	0.091369	0.202534	0.175327	0.066398	0.185065	0.198455
1332	0.067418	0.197863	0.178913	0.066069	0.184243	0.197073
1333	0.05337	0.202666	0.173847	0.073768	0.18648	0.198948
1334	0.034782	0.197961	0.175952	0.08094	0.18592	0.196251
1335	0.01297	0.197205	0.178189	0.086434	0.188816	0.200231
1336	0.004252	0.197567	0.180196	0.089033	0.18546	0.198093
1337	0.008792	0.199935	0.18138	0.094922	0.184012	0.198258
1338	0.0057	0.197435	0.179472	0.099133	0.187203	0.201942
1339	0.007279	0.200429	0.17582	0.105581	0.187368	0.198093
1340	0.01126	0.197007	0.182795	0.107818	0.18796	0.198521
1341	0.018037	0.202929	0.185822	0.112358	0.190099	0.198159
1342	0.025867	0.200626	0.187565	0.114957	0.188158	0.19658
1343	0.036	0.201284	0.188289	0.117392	0.187532	0.200067
1344	0.041033	0.198488	0.1875	0.123478	0.188092	0.199541
1345	0.046495	0.201844	0.190362	0.124366	0.188519	0.195001
1346	0.049258	0.20112	0.189704	0.131637	0.191086	0.201383
1347	0.034815	0.197863	0.189803	0.132098	0.189934	0.200791
1348	0.00389	0.200889	0.190296	0.136013	0.191842	0.199475
1349	0.000568	0.201679	0.191744	0.13723	0.189671	0.192434
1350	0.010437	0.197271	0.189835	0.139467	0.189243	0.199442
1351	0.01705	0.198652	0.187796	0.141277	0.191546	0.198554
1352	0.023103	0.201811	0.193388	0.135914	0.191711	0.199212
1353	0.000765	0.197632	0.19431	0.142296	0.192829	0.198225
1354	0.007082	0.199409	0.200396	0.142658	0.190559	0.199968
1355	-0.01246	0.192467	0.198159	0.146968	0.195297	0.19783
1356	0.001522	0.194441	0.199541	0.148514	0.190592	0.199146
1357	0.009779	0.190789	0.200626	0.153778	0.192895	0.200593
1358	0.019155	0.186151	0.201251	0.149699	0.190987	0.201449
1359	0.022281	0.190164	0.196942	0.15187	0.192533	0.199804
1360	0.036164	0.192961	0.197863	0.152495	0.191809	0.200429
1361	0.038039	0.190296	0.198718	0.15789	0.195362	0.200593
1362	0.047317	0.195494	0.19829	0.15641	0.191447	0.203258
1363	0.051462	0.194178	0.200297	0.161213	0.195099	0.200955
1364	0.0562	0.192303	0.20158	0.160424	0.193652	0.199968
1365	0.063734	0.191184	0.202699	0.162496	0.194803	0.199902
1366	0.071037	0.191612	0.20362	0.162825	0.195724	0.202765
1367	0.075018	0.19431	0.206186	0.165984	0.191974	0.19987
1368	0.080775	0.189605	0.201284	0.166115	0.194869	0.200922
1369	0.087947	0.197863	0.203686	0.166543	0.193158	0.201284
1370	0.090678	0.197435	0.202732	0.160555	0.19477	0.199705
1371	0.096106	0.196448	0.205199	0.165128	0.195626	0.199212
1372	0.097883	0.197797	0.206449	0.142987	0.196086	0.195461
1373	0.106568	0.19806	0.20691	0.055904	0.195691	0.200725
1374	0.107456	0.199935	0.206515	0.035177	0.193191	0.19454
1375	0.115023	0.197007	0.205232	0.028597	0.194737	0.198587
1376	0.116076	0.197139	0.206252	0.016096	0.19477	0.198619
1377	0.122689	0.198718	0.208029	0.01501	0.191513	0.200166
1378	0.117951	0.197731	0.206877	0.012345	0.193388	0.200857
1379	0.122886	0.199475	0.205726	0.011753	0.194869	0.199606
1380	0.128972	0.199442	0.204969	0.013497	0.19454	0.201449
1381	0.127788	0.200988	0.205462	0.0208	0.193454	0.200264
1382	0.133183	0.201416	0.206778	0.002969	0.19329	0.197896
1383	0.130913	0.201317	0.207601	0.000271	0.196119	0.201021
1384	0.140158	0.204739	0.209048	-2.5e-05	0.194803	0.198784
1385	0.142823	0.194935	0.208193	4.1e-05	0.200429	0.197468
1386	0.146244	0.201778	0.207107	7.4e-05	0.198126	0.200034
1387	0.148152	0.198916	0.207798	-0.000354	0.197731	0.197896
1388	0.150784	0.203291	0.205791	0.001061	0.195659	0.197336
1389	0.150291	0.19908	0.20464	-0.000748	0.194935	0.195988
1390	0.154041	0.201054	0.203423	0.000337	0.193816	0.200199
1391	0.150784	0.205068	0.204377	-0.000683	0.195066	0.197797
1392	0.155127	0.199573	0.206285	0.002147	0.193388	0.199179
1393	0.155193	0.202403	0.205857	0.005831	0.198685	0.199179
1394	0.154831	0.202896	0.207601	0.010832	0.195395	0.20339
1395	0.15743	0.204081	0.204541	0.016063	0.196744	0.204146
1396	0.157726	0.202929	0.205528	0.021722	0.196711	0.199245
1397	0.162003	0.20283	0.204969	0.031361	0.194639	0.204574
1398	0.161345	0.202765	0.205759	0.036098	0.19885	0.20158
1399	0.043599	0.205364	0.205462	0.046198	0.196876	0.199738
1400	0.063273	0.203324	0.205824	0.053568	0.198784	0.200889
1401	0.068339	0.20441	0.206384	0.056989	0.198356	0.203028
1402	0.07288	0.199606	0.208292	0.063569	0.196316	0.200495
1403	0.07663	0.200133	0.209443	0.067023	0.196415	0.200528
1404	0.003265	0.198159	0.207634	0.068866	0.199705	0.198389
1405	0.009088	0.200758	0.207864	0.078143	0.197731	0.200857
1406	0.017576	0.201416	0.211647	0.084427	0.198981	0.199573
1407	0.024123	0.202929	0.204936	0.082782	0.196645	0.200922
1408	0.031394	0.197303	0.205232	0.089757	0.19704	0.200857
1409	0.038566	0.196284	0.207568	0.087355	0.197073	0.200791
1410	0.044751	0.199606	0.204179	0.092323	0.196514	0.20135
1411	0.001587	0.199212	0.210002	0.093376	0.194803	0.199804
1412	0.006226	0.197172	0.206186	0.100745	0.197501	0.204475
1413	0.018267	0.197369	0.209114	0.102949	0.197731	0.203949
1414	0.02363	0.195659	0.208061	0.107292	0.197567	0.204081
1415	0.02636	0.197139	0.208654	0.109299	0.199277	0.201218
1416	0.03771	0.199442	0.206614	0.116734	0.19885	0.203488
1417	0.041198	0.196843	0.210035	0.117622	0.199146	0.200659
1418	0.049686	0.198619	0.204837	0.119464	0.198587	0.204081
1419	0.056134	0.198718	0.205166	0.124959	0.198093	0.199277
1420	0.063701	0.203456	0.207667	0.127558	0.195724	0.202304
1421	0.055739	0.200758	0.208325	0.130354	0.198981	0.198784
1422	0.071235	0.205495	0.206449	0.132756	0.197961	0.200495
1423	0.073505	0.189835	0.203028	0.134105	0.197567	0.199837
1424	0.081071	0.181907	0.207963	0.136901	0.196481	0.199409
1425	0.084526	0.142263	0.204936	0.142461	0.19783	0.206943
1426	0.090053	0.141309	0.20589	0.141507	0.195691	0.204081
1427	0.093705	0.144468	0.206745	0.145784	0.197632	0.205068
1428	0.094428	0.148087	0.209147	0.145422	0.195395	0.200199
1429	0.099922	0.150916	0.206087	0.147001	0.19602	0.20441
1430	0.108312	0.154107	0.205528	0.149337	0.195659	0.202205
1431	0.108641	0.151837	0.203225	0.152824	0.198784	0.205397
1432	0.109825	0.158121	0.205759	0.151113	0.193454	0.199343
1433	0.114398	0.160786	0.205397	0.156081	0.198258	0.201153
1434	0.116964	0.160259	0.203817	0.156969	0.198323	0.203916
1435	0.117852	0.166642	0.204804	0.156246	0.200462	0.202205
1436	0.11907	0.16549	0.204245	0.15947	0.202304	0.198159
1437	0.124169	0.167234	0.205133	0.159272	0.198587	0.201646
1438	0.130584	0.168221	0.206515	0.161575	0.20158	0.201087
1439	0.128216	0.17207	0.206943	0.161509	0.199639	0.198916
1440	0.131374	0.172267	0.201153	0.163582	0.199508	0.199541
1441	0.132789	0.174504	0.203423	0.162858	0.19829	0.201613
1442	0.134137	0.172892	0.20283	0.167497	0.198225	0.202666
1443	0.132723	0.17582	0.201547	0.167661	0.197139	0.203291
1444	0.131637	0.177992	0.201745	0.1698	0.199376	0.204278
1445	0.137855	0.178123	0.200593	0.167826	0.194672	0.20543
1446	0.136276	0.180525	0.199277	0.172169	0.198126	0.20543
1447	0.139467	0.181709	0.203883	0.171412	0.201021	0.203028
1448	0.138677	0.181446	0.199968	0.176051	0.19987	0.205528
1449	0.137065	0.185559	0.200659	0.169076	0.202238	0.204739
1450	0.138974	0.187368	0.203456	0.173419	0.199541	0.204179
1451	0.138941	0.186315	0.2001	0.175722	0.200462	0.205035
1452	0.140355	0.188684	0.200988	0.174011	0.197336	0.203094
1453	0.140026	0.186644	0.200363	0.17559	0.201054	0.201745
1454	0.141112	0.190592	0.196448	0.177663	0.198258	0.204015
1455	0.142296	0.190066	0.195659	0.179637	0.201284	0.200264
1456	0.145915	0.189737	0.19579	0.176742	0.199606	0.205232
1457	0.141836	0.191678	0.195198	0.182071	0.199212	0.204574
1458	0.14427	0.191809	0.196974	0.180953	0.200791	0.202765
1459	0.145224	0.186447	0.193717	0.183289	0.198619	0.204969
1460	0.146507	0.193191	0.196415	0.178748	0.198159	0.204081
1461	0.14812	0.192533	0.198356	0.186677	0.199146	0.202469
1462	0.151738	0.192763	0.193388	0.187368	0.197303	0.202238
1463	0.153318	0.194902	0.190658	0.181841	0.199146	0.201876
1464	0.155653	0.19329	0.193553	0.183387	0.199804	0.202337
1465	0.157956	0.194046	0.191184	0.184868	0.199146	0.20543
1466	0.157002	0.194737	0.190066	0.186282	0.20283	0.205364
1467	0.159864	0.197501	0.189474	0.185526	0.196974	0.206285
1468	0.159535	0.19556	0.192632	0.188388	0.201811	0.20589
1469	0.159963	0.199212	0.190493	0.187138	0.202008	0.204146
1470	0.162266	0.202238	0.189441	0.188322	0.20056	0.204015
1471	0.16095	0.198619	0.188519	0.189079	0.198981	0.204344
1472	0.161312	0.198258	0.191053	0.187302	0.200396	0.200495
1473	0.164503	0.198192	0.188552	0.189671	0.201218	0.203686
1474	0.16072	0.199705	0.189539	0.190263	0.199804	0.203423
1475	0.164832	0.196843	0.190099	0.188355	0.199146	0.205002
1476	0.166411	0.19829	0.19023	0.191447	0.197106	0.207469
1477	0.166017	0.201613	0.190921	0.187796	0.195428	0.20793
1478	0.166806	0.198126	0.187138	0.192204	0.200528	0.207009
1479	0.165128	0.198126	0.192105	0.19602	0.196152	0.207338
1480	0.169241	0.200001	0.192763	0.191447	0.198587	0.205824
1481	0.169076	0.20135	0.192862	0.193487	0.198093	0.212108
1482	0.172169	0.202469	0.190691	0.195001	0.199508	0.20714
1483	0.173189	0.202271	0.194178	0.192862	0.199606	0.203686
1484	0.173781	0.204048	0.190493	0.192698	0.196942	0.204804
1485	0.173485	0.202041	0.190131	0.193388	0.200659	0.203686
1486	0.174241	0.20339	0.190526	0.192994	0.199277	0.202173
1487	0.173057	0.20487	0.188519	0.193717	0.200659	0.201218
1488	0.178584	0.20283	0.19227	0.19102	0.199212	0.206186
1489	0.176347	0.202403	0.193158	0.194343	0.200626	0.200824
1490	0.179768	0.202962	0.189737	0.193125	0.200495	0.204114
1491	0.177432	0.198225	0.188914	0.195395	0.204146	0.204903
1492	0.175722	0.200528	0.191086	0.191118	0.197468	0.202173
1493	0.177367	0.203686	0.18773	0.195395	0.200396	0.208621
1494	0.177597	0.204673	0.184045	0.194606	0.199047	0.2026
1495	0.178946	0.203488	0.187072	0.193388	0.200725	0.206713
1496	0.179045	0.203752	0.190362	0.19306	0.200133	0.204969
1497	0.178781	0.204607	0.191118	0.193717	0.200133	0.207009
1498	0.180722	0.201383	0.190099	0.192303	0.198323	0.20589
1499	0.184506	0.203159	0.189408	0.193158	0.196053	0.208127
1500	0.18342	0.202074	0.193092	0.193388	0.198948	0.204081
1501	0.183321	0.203686	0.193652	0.195889	0.196448	0.2077
1502	0.180821	0.200297	0.18898	0.194803	0.20033	0.206976
1503	0.18421	0.203488	0.189079	0.195955	0.200495	0.205331
1504	0.182334	0.202765	0.188026	0.194343	0.203192	0.197238
1505	0.183914	0.014056	0.18977	0.197731	0.200363	0.206614
1506	0.184868	0.004351	0.188421	0.195099	0.202008	0.202337
1507	0.185591	0.01399	0.192698	0.195001	0.199573	0.207502
1508	0.182005	0.018596	0.191118	0.195231	0.205528	0.205791
1509	0.185394	0.025373	0.193816	0.194014	0.202304	0.205002
1510	0.186282	0.029519	0.192007	0.197764	0.200922	0.208555
1511	0.184275	0.034914	0.193092	0.194935	0.200001	0.206745
1512	0.185328	0.043402	0.19	0.197303	0.20033	0.210595
1513	0.186019	0.047218	0.193849	0.197303	0.201942	0.209772
1514	0.187335	0.058601	0.193224	0.196974	0.196711	0.206647
1515	0.18921	0.063799	0.19454	0.196053	0.201218	0.206186
1516	0.188026	0.068471	0.194244	0.195823	0.198521	0.206976
1517	0.188848	0.07584	0.193224	0.199935	0.201811	0.206022
1518	0.191118	0.082815	0.193421	0.193191	0.199508	0.207765
1519	0.191053	0.083901	0.192303	0.196185	0.199902	0.208061
1520	0.197961	0.093112	0.192369	0.198258	0.19885	0.206449
1521	0.194375	0.092454	0.194046	0.199475	0.200725	0.206351
1522	0.189934	0.101896	0.193027	0.198159	0.20033	0.206515
1523	0.18921	0.106173	0.189572	0.200988	0.207173	0.205857
1524	0.190296	0.112161	0.192402	0.201054	0.201416	0.20589
1525	0.189572	0.113937	0.190428	0.201251	0.200791	0.208226
1526	0.190493	0.118708	0.192994	0.198356	0.200034	0.207173
1527	0.187532	0.124564	0.191184	0.200791	0.202436	0.210726
1528	0.18875	0.126867	0.19148	0.198027	0.200725	0.203653
1529	0.192566	0.124531	0.187532	0.200034	0.200396	0.208423
1530	0.190954	0.131571	0.191908	0.201712	0.199541	0.20589
1531	0.187664	0.137065	0.193323	0.201613	0.198356	0.208456
1532	0.196218	0.137625	0.192566	0.205133	0.198751	0.207798
1533	0.195889	0.141342	0.196349	0.203883	0.196645	0.210101
1534	0.193158	0.140915	0.195988	0.202732	0.198883	0.207272
1535	0.19556	0.151179	0.194277	0.203587	0.198916	0.20918
1536	0.193586	0.147231	0.194178	0.205791	0.19931	0.20793
1537	0.195593	0.154403	0.194145	0.203028	0.201613	0.20543
1538	0.19329	0.154107	0.193915	0.204804	0.202896	0.208259
1539	0.195362	0.157134	0.197863	0.203061	0.200824	0.208423
1540	0.190921	0.158746	0.194672	0.203817	0.203587	0.202962
1541	0.196316	0.157956	0.19533	0.204508	0.19806	0.203456
1542	0.194474	0.161773	0.195659	0.203061	0.200133	0.21043
1543	0.19148	0.164536	0.195922	0.204508	0.202765	0.210825
1544	0.196382	0.166247	0.195461	0.20589	0.201054	0.210693
1545	0.195132	0.168319	0.19908	0.20566	0.199277	0.208884
1546	0.195494	0.173386	0.195593	0.205824	0.200067	0.208884
1547	0.195626	0.170063	0.19556	0.205627	0.198587	0.208226
1548	0.198422	0.173978	0.197534	0.206976	0.200264	0.209805
1549	0.196185	0.175031	0.198356	0.208884	0.200626	0.209871
1550	0.199146	0.175919	0.197961	0.206614	0.198323	0.209805
1551	0.196382	0.176972	0.19602	0.206976	0.201712	0.2077
1552	0.198521	0.18013	0.199343	0.206449	0.199705	0.209542
1553	0.19806	0.176972	0.195001	0.205693	0.200429	0.209739
1554	0.198981	0.180097	0.197468	0.204048	0.200922	0.207206
1555	0.196547	0.182532	0.196843	0.207074	0.203587	0.207371
1556	0.196974	0.184637	0.19908	0.208588	0.199935	0.2077
1557	0.195198	0.185164	0.198323	0.208917	0.201778	0.207765
1558	0.198916	0.181512	0.200166	0.208654	0.199935	0.208029
1559	0.195362	0.189704	0.197402	0.209608	0.203554	0.20895
1560	0.197501	0.187664	0.200034	0.209016	0.201975	0.204936
1561	0.199409	0.186447	0.198225	0.210989	0.201021	0.211318
1562	0.197369	0.185098	0.197468	0.2102	0.200462	0.205726
1563	0.199573	0.190099	0.201186	0.207897	0.200528	0.206548
1564	0.198685	0.185427	0.199738	0.210463	0.198817	0.209509
1565	0.202436	0.187236	0.200725	0.207667	0.198356	0.20997
1566	0.196349	0.187796	0.201909	0.207502	0.200791	0.206219
1567	0.200297	0.187565	0.198323	0.209772	0.199047	0.209871
1568	0.198225	0.188223	0.200528	0.209608	0.200593	0.207206
1569	0.20056	0.192566	0.202798	0.210134	0.198488	0.208719
1570	0.194606	0.191447	0.199968	0.211318	0.20441	0.208522
1571	0.199672	0.190757	0.201251	0.213358	0.200067	0.204804
1572	0.1976	0.190066	0.20033	0.21043	0.200297	0.208061
1573	0.198488	0.193882	0.200528	0.209542	0.202765	0.205495
1574	0.19477	0.195593	0.200824	0.212898	0.205462	0.207074
1575	0.198817	0.19204	0.200593	0.212075	0.202469	0.205495
1576	0.19046	0.193224	0.200199	0.215135	0.202238	0.206449
1577	0.191908	0.193356	0.202765	0.213819	0.201778	0.203752
1578	0.187039	0.195461	0.200166	0.214575	0.200462	0.206778
1579	0.186907	0.196284	0.201909	0.211878	0.200824	0.203817
1580	0.187598	0.195395	0.199968	0.213621	0.197172	0.205397
1581	0.182598	0.197369	0.200429	0.211483	0.198554	0.202304
1582	0.183716	0.196678	0.199541	0.212371	0.19658	0.206614
1583	0.180163	0.195198	0.199277	0.213621	0.200133	0.205101
1584	0.181775	0.195823	0.200725	0.213259	0.200067	0.206416
1585	0.179341	0.197764	0.200955	0.211088	0.201778	0.204311
1586	0.1799	0.194869	0.202074	0.213292	0.200199	0.205857
1587	0.174077	0.194507	0.199606	0.214839	0.199935	0.205791
1588	0.173748	0.196382	0.201778	0.211483	0.200889	0.201613
1589	0.172465	0.195823	0.199442	0.212404	0.20135	0.203258
1590	0.175491	0.192303	0.203686	0.206877	0.201087	0.204574
1591	0.176478	0.20033	0.201778	0.210002	0.203456	0.203225
1592	0.17457	0.198093	0.203423	0.207996	0.200429	0.199113
1593	0.177136	0.198159	0.199475	0.212141	0.198159	0.209114
1594	0.174768	0.197106	0.202699	0.20566	0.200199	0.20112
1595	0.180064	0.197303	0.193652	0.209081	0.200297	0.206285
1596	0.179735	0.196645	0.203949	0.206647	0.201613	0.203456
1597	0.183124	0.19658	0.199146	0.206943	0.20033	0.200725
1598	0.181611	0.194244	0.198948	0.208423	0.200034	0.203324
1599	0.184473	0.198027	0.201646	0.212536	0.200692	0.202699
1600	0.184144	0.193717	0.200264	0.205364	0.201416	0.203192
1601	0.183486	0.195593	0.204146	0.208522	0.197896	0.205101
1602	0.182828	0.197665	0.202666	0.209772	0.203357	0.204344
1603	0.187829	0.196053	0.201021	0.20668	0.198685	0.203192
1604	0.185065	0.197073	0.201218	0.201712	0.201054	0.20918
1605	0.18592	0.198192	0.202469	0.210693	0.201449	0.202238
1606	0.187203	0.197106	0.199902	0.21122	0.200791	0.202765
1607	0.187302	0.200363	0.202534	0.207864	0.201876	0.2026
1608	0.187927	0.194408	0.20237	0.210628	0.203127	0.201876
1609	0.18796	0.192763	0.202173	0.208588	0.201284	0.200593
1610	0.188289	0.198948	0.201218	0.207798	0.201712	0.200955
1611	0.188355	0.196185	0.201186	0.20385	0.20112	0.196744
1612	0.187368	0.197863	0.204081	0.208555	0.198751	0.202173
1613	0.188914	0.19579	0.205068	0.208423	0.200922	0.199409
1614	0.192928	0.195757	0.204081	0.205726	0.19783	0.199179
1615	0.190066	0.193717	0.203061	0.205528	0.201449	0.201153
1616	0.191974	0.197139	0.202995	0.203653	0.2001	0.198685
1617	0.191513	0.192533	0.200626	0.205759	0.200824	0.200166
1618	0.192632	0.194639	0.20214	0.207831	0.200133	0.199179
1619	0.191447	0.191842	0.201515	0.208621	0.201778	0.199376
1620	0.197731	0.19658	0.203916	0.206351	0.198192	0.199376
1621	0.193685	0.196119	0.202074	0.209542	0.202271	0.202765
1622	0.193224	0.193454	0.202798	0.205331	0.2001	0.19987
1623	0.194014	0.197205	0.201909	0.210628	0.198916	0.200725
1624	0.190625	0.194639	0.204903	0.209016	0.195132	0.198883
1625	0.19227	0.198027	0.202567	0.199376	0.198784	0.198784
1626	0.195001	0.196777	0.204475	0.194343	0.198883	0.199277
1627	0.193849	0.193652	0.205199	0.196843	0.199738	0.196547
1628	0.191842	0.19579	0.202962	0.19375	0.199837	0.195001
1629	0.194343	0.195659	0.201646	0.197929	0.196876	0.197336
1630	0.193849	0.195856	0.202962	0.196613	0.199837	0.196613
1631	0.195264	0.194639	0.200462	0.196909	0.198093	0.196349
1632	0.195527	0.192467	0.201251	0.195362	0.200363	0.198948
1633	0.19556	0.193652	0.200955	0.196974	0.199968	0.199837
1634	0.195593	0.189868	0.203127	0.200462	0.202074	0.19681
1635	0.198027	0.186809	0.202469	0.199343	0.198356	0.198192
1636	0.19533	0.190296	0.20135	0.200988	0.203785	0.195165
1637	0.199639	0.189375	0.203423	0.200001	0.197007	0.198718
1638	0.197238	0.189046	0.202008	0.203554	0.200199	0.19704
1639	0.201745	0.190329	0.204015	0.200199	0.199837	0.196909
1640	0.201153	0.190592	0.200396	0.202699	0.200001	0.195494
1641	0.197567	0.188947	0.202699	0.20112	0.199902	0.197238
1642	0.200429	0.189474	0.201515	0.203127	0.200231	0.197797
1643	0.200659	0.187138	0.200067	0.203192	0.205594	0.196547
1644	0.199705	0.188848	0.197632	0.203324	0.202502	0.194343
1645	0.200593	0.187335	0.20237	0.202995	0.199639	0.193948
1646	0.196909	0.187598	0.19783	0.202666	0.199179	0.195889
1647	0.197961	0.188026	0.199738	0.202666	0.201482	0.191645
1648	0.200857	0.187467	0.2001	0.207272	0.198225	0.19227
1649	0.196843	0.18796	0.200034	0.205759	0.200001	0.192895
1650	0.20033	0.187697	0.198192	0.198751	0.199212	0.195198
1651	0.19829	0.18592	0.2001	0.204146	0.200824	0.196152
1652	0.20033	0.186776	0.123116	0.20112	0.199804	0.194639
1653	0.199639	0.185493	0.125946	0.202534	0.200528	0.195757
1654	0.201942	0.187269	0.129762	0.204081	0.199475	0.19431
1655	0.197205	0.187927	0.13394	0.204344	0.200988	0.196481
1656	0.201942	0.18773	0.137691	0.203094	0.199672	0.193586
1657	0.199475	0.187039	0.139862	0.205726	0.19885	0.196119
1658	0.201251	0.190033	0.143448	0.204212	0.201745	0.195165
1659	0.199639	0.188125	0.145948	0.204903	0.200988	0.195033
1660	0.198817	0.184999	0.140586	0.206482	0.199606	0.192731
1661	0.200166	0.1875	0.146639	0.204903	0.200824	0.190921
1662	0.199212	0.18796	0.152002	0.203159	0.200922	0.191809
1663	0.202304	0.186546	0.150653	0.201416	0.197007	0.193685
1664	0.199376	0.185953	0.150784	0.199935	0.199705	0.191053
1665	0.202173	0.184374	0.154305	0.201482	0.198685	0.193783
1666	0.196974	0.18217	0.155686	0.202995	0.200824	0.194968
1667	0.200231	0.186644	0.158121	0.202962	0.198948	0.191941
1668	0.198356	0.182696	0.161246	0.204212	0.199146	0.189803
1669	0.199343	0.18444	0.163418	0.204114	0.197205	0.19375
1670	0.200988	0.184966	0.16447	0.205462	0.202041	0.190592
1671	0.203554	0.186184	0.166872	0.205166	0.197369	0.190855
1672	0.201909	0.187072	0.165655	0.204903	0.200297	0.193092
1673	0.202469	0.192994	0.169603	0.204212	0.202633	0.191415
1674	0.20214	0.186874	0.169603	0.207371	0.202995	0.193685
1675	0.201679	0.188651	0.172037	0.205528	0.198817	0.192632
1676	0.202041	0.188355	0.171313	0.203982	0.197007	0.191875
1677	0.198652	0.181282	0.173978	0.202304	0.197567	0.19125
1678	0.2001	0.188223	0.171938	0.205857	0.198422	0.193323
1679	0.197139	0.182565	0.175327	0.203719	0.198159	0.189934
1680	0.200725	0.185361	0.175557	0.207403	0.196251	0.192796
1681	0.197007	0.18342	0.175689	0.204443	0.200922	0.191118
1682	0.198126	0.182137	0.177531	0.204706	0.199343	0.193388
1683	0.197797	0.179341	0.176742	0.200199	0.200725	0.190691
1684	0.200133	0.177136	0.180032	0.201942	0.199014	0.191579
1685	0.201218	0.179834	0.179374	0.205002	0.199047	0.19227
1686	0.20033	0.177893	0.180591	0.201876	0.199376	0.190033
1687	0.200659	0.174504	0.182203	0.204903	0.198652	0.19046
1688	0.203159	0.175031	0.185953	0.203916	0.197994	0.189342
1689	0.202107	0.17355	0.184243	0.206976	0.196645	0.190395
1690	0.20033	0.174011	0.187829	0.203982	0.200133	0.190526
1691	0.205035	0.170622	0.185427	0.206318	0.198225	0.192434
1692	0.20135	0.170853	0.187006	0.20464	0.205199	0.191415
1693	0.199212	0.171511	0.186118	0.207403	0.195132	0.195988
1694	0.20135	0.168122	0.191645	0.20362	0.19704	0.19148
1695	0.201712	0.169603	0.182894	0.203587	0.196876	0.192303
1696	0.198225	0.166477	0.185657	0.203159	0.205133	0.189572
1697	0.201416	0.165589	0.186578	0.205068	0.198093	0.191053
1698	0.197961	0.165918	0.184539	0.199968	0.202008	0.190526
1699	0.198619	0.16572	0.189572	0.198652	0.198455	0.190822
1700	0.197303	0.164174	0.184144	0.203456	0.19908	0.19204
1701	0.198685	0.167201	0.191612	0.199409	0.198817	0.192369
1702	0.198883	0.163648	0.193125	0.203785	0.200396	0.192303
1703	0.200133	0.168155	0.191086	0.201613	0.200001	0.193981
1704	0.195889	0.165918	0.183914	0.204245	0.200133	0.193553
1705	0.203916	0.167629	0.200758	0.201218	0.198652	0.192632
1706	0.200264	0.169997	0.190954	0.202041	0.198619	0.192961
1707	0.19908	0.172004	0.193717	0.203488	0.193487	0.190395
1708	0.201745	0.169997	0.190658	0.205364	0.19806	0.190855
1709	0.20056	0.170886	0.195132	0.204212	0.19704	0.194145
1710	0.197501	0.175788	0.195395	0.203686	0.196316	0.190592
1711	0.196909	0.170326	0.192171	0.204673	0.199902	0.190658
1712	0.199606	0.173057	0.194474	0.205495	0.196086	0.192632
1713	0.19806	0.170063	0.192402	0.202995	0.201218	0.188519
1714	0.198258	0.172136	0.190559	0.201613	0.198587	0.191316
1715	0.198619	0.172366	0.19375	0.202633	0.200626	0.192632
1716	0.201087	0.170721	0.19658	0.200396	0.199245	0.18977
1717	0.197961	0.169208	0.19329	0.202238	0.198258	0.193257
1718	0.199541	0.174801	0.19579	0.200199	0.198916	0.19454
1719	0.200725	0.171576	0.19602	0.20283	0.197632	0.194441
1720	0.198948	0.172366	0.196777	0.201416	0.199541	0.190855
1721	0.195724	0.172958	0.19681	0.202469	0.199442	0.190658
1722	0.199837	0.172234	0.022676	0.205627	0.196481	0.192303
1723	0.199837	0.176182	0.031065	0.207009	0.197665	0.191776
1724	0.197929	0.177959	0.033927	0.206318	0.198948	0.191645
1725	0.199343	0.180689	0.036625	0.208917	0.198981	0.191382
1726	0.199245	0.17638	0.043928	0.206943	0.199409	0.191776
1727	0.196547	0.180426	0.052778	0.203653	0.197369	0.19125
1728	0.197698	0.175393	0.056924	0.204015	0.199409	0.191842
1729	0.196251	0.180788	0.063076	0.202929	0.197764	0.191612
1730	0.196645	0.177729	0.069359	0.204443	0.197435	0.190296
1731	0.19454	0.17786	0.075018	0.203028	0.195823	0.19148
1732	0.194408	0.177794	0.080183	0.204278	0.198258	0.189046
1733	0.197303	0.17967	0.084789	0.201646	0.198883	0.192665
1734	0.195527	0.179275	0.090809	0.198718	0.200725	0.192402
1735	0.19704	0.179703	0.097488	0.202633	0.200396	0.192895
1736	0.194968	0.177663	0.100515	0.203817	0.199738	0.192665
1737	0.197731	0.179801	0.106634	0.20283	0.2001	0.19352
1738	0.197303	0.178354	0.110384	0.201515	0.202732	0.19227
1739	0.194672	0.178847	0.113806	0.202173	0.199146	0.195395
1740	0.196547	0.184802	0.118116	0.203587	0.198784	0.19352
1741	0.197205	0.18421	0.121109	0.206153	0.196613	0.191678
1742	0.195362	0.182762	0.122458	0.202534	0.192138	0.19227
1743	0.191908	0.182269	0.126242	0.20362	0.199047	0.19
1744	0.197665	0.184769	0.130124	0.204344	0.19931	0.191974
1745	0.195823	0.181051	0.132821	0.201153	0.198652	0.192533
1746	0.196711	0.183848	0.135618	0.198488	0.196053	0.192829
1747	0.195362	0.183289	0.138842	0.199376	0.198027	0.191711
1748	0.196613	0.184473	0.139697	0.196678	0.199935	0.194704
1749	0.194672	0.182005	0.141112	0.195494	0.20056	0.191711
1750	0.198126	0.18365	0.144336	0.194902	0.198159	0.192895
1751	0.195823	0.18319	0.145159	0.196777	0.200528	0.192467
1752	0.193981	0.183058	0.147955	0.19533	0.19987	0.193125
1753	0.198258	0.184901	0.152396	0.19704	0.200001	0.195264
1754	0.195889	0.183585	0.150291	0.195297	0.198027	0.190855
1755	0.197106	0.185591	0.151146	0.196744	0.199343	0.194935
1756	0.197238	0.185624	0.160161	0.197106	0.197863	0.19375
1757	0.198126	0.18671	0.159206	0.201679	0.198488	0.196678
1758	0.198225	0.186842	0.164536	0.197007	0.196942	0.195033
1759	0.199245	0.186217	0.1622	0.192994	0.200659	0.195922
1760	0.198027	0.186973	0.163187	0.194014	0.200593	0.193421
1761	0.196448	0.187401	0.166872	0.19477	0.197698	0.193685
1762	0.19658	0.189506	0.165194	0.197764	0.197863	0.192402
1763	0.19704	0.191382	0.167102	0.192796	0.199935	0.194211
1764	0.194046	0.185361	0.170326	0.195362	0.199639	0.188487
1765	0.194836	0.187368	0.17128	0.188717	0.197567	0.192698
1766	0.196053	0.188322	0.171905	0.190987	0.200659	0.195428
1767	0.195626	0.188454	0.174175	0.19204	0.199113	0.190855
1768	0.191151	0.186381	0.177202	0.193027	0.199475	0.194474
1769	0.196251	0.189474	0.17786	0.191184	0.19885	0.190625
1770	0.194079	0.191579	0.174373	0.192698	0.199014	0.198027
1771	0.192303	0.191118	0.178058	0.18977	0.199705	0.191908
1772	0.19556	0.192763	0.176149	0.189506	0.199968	0.194375
1773	0.196547	0.192994	0.180525	0.186743	0.198652	0.194803
1774	0.196316	0.19023	0.180032	0.183058	0.198685	0.194606
1775	0.197139	0.187302	0.173452	0.182598	0.194606	0.193981
1776	0.200034	0.189375	0.165424	0.181841	0.196415	0.195724
1777	0.19102	0.191217	0.165457	0.180722	0.199475	0.194902
1778	0.19556	0.192171	0.16753	0.181841	0.198356	0.19579
1779	0.196218	0.192402	0.001949	0.183453	0.197632	0.196382
1780	0.198323	0.196711	0.007674	0.181216	0.196613	0.195691
1781	0.193323	0.193487	0.014813	0.183157	0.200396	0.195527
1782	0.194474	0.19579	0.025044	0.181282	0.198356	0.194672
1783	0.196415	0.193257	0.029979	0.179308	0.199705	0.194145
1784	0.196777	0.195823	0.032743	0.181084	0.196678	0.192533
1785	0.19602	0.192369	0.034421	0.181315	0.201482	0.19602
1786	0.196843	0.198981	0.044257	0.181249	0.199541	0.195066
1787	0.199672	0.19658	0.049324	0.184275	0.197994	0.197402
1788	0.19454	0.191744	0.05393	0.179801	0.199935	0.19102
1789	0.197632	0.196251	0.057252	0.18523	0.198422	0.190493
1790	0.198488	0.195165	0.063141	0.180295	0.19829	0.191875
1791	0.197501	0.197797	0.065905	0.181874	0.198488	0.193454
1792	0.199804	0.198093	0.073505	0.181841	0.203719	0.194869
1793	0.202567	0.196613	0.075347	0.185855	0.201087	0.197172
1794	0.198948	0.198619	0.07969	0.183058	0.200791	0.195626
1795	0.201186	0.197106	0.08344	0.184012	0.199606	0.197007
1796	0.199376	0.197468	0.08525	0.183683	0.198521	0.195823
1797	0.200264	0.199376	0.090415	0.180229	0.20033	0.196448
1798	0.200396	0.195757	0.09104	0.182137	0.201317	0.197435
1799	0.199639	0.198258	0.100054	0.180295	0.199409	0.193553
1800	0.197863	0.197534	0.1016	0.183058	0.200659	0.196777
1801	0.19829	0.196086	0.106733	0.183124	0.197271	0.195988
1802	0.197731	0.198323	0.10841	0.183782	0.199179	0.197106
1803	0.199409	0.197106	0.115582	0.182828	0.203094	0.186019
1804	0.200758	0.197567	0.122689	0.1875	0.197961	0.194573
1805	0.200264	0.197764	0.118214	0.182696	0.19987	0.194836
1806	0.202304	0.200297	0.122853	0.185065	0.199343	0.195461
1807	0.199212	0.195856	0.124761	0.182334	0.199672	0.195527
1808	0.20158	0.196613	0.126538	0.180393	0.198587	0.197369
1809	0.20214	0.197961	0.126439	0.183946	0.200001	0.194639
1810	0.200659	0.197402	0.134861	0.183519	0.19783	0.195494
1811	0.198685	0.197073	0.132756	0.185427	0.197632	0.198422
1812	0.200791	0.198916	0.136901	0.184407	0.198225	0.19829
1813	0.199245	0.196777	0.138546	0.185624	0.198356	0.196613
1814	0.202699	0.197797	0.142395	0.182828	0.20033	0.197303
1815	0.199738	0.197007	0.131867	0.186874	0.200495	0.195889
1816	0.201317	0.197534	0.04179	0.182927	0.200199	0.197994
1817	0.20668	0.206647	0.045902	0.182663	0.201054	0.197863
1818	0.201712	0.195297	0.000107	0.186447	0.201317	0.197468
1819	0.202304	0.198619	0.007378	0.189112	0.200824	0.19681
1820	0.198652	0.197764	0.015898	0.183815	0.198916	0.187861
1821	0.200166	0.197731	0.022676	0.186578	0.19829	0.196349
1822	0.200396	0.19908	0.029617	0.18296	0.197501	0.193619
1823	0.200889	0.196678	0.040375	0.183223	0.199179	0.196284
1824	0.202304	0.2001	0.041198	0.185328	0.197369	0.193224
1825	0.201416	0.200955	0.049324	0.184637	0.198751	0.197238
1826	0.199771	0.195757	0.054884	0.186644	0.19579	0.195428
1827	0.201449	0.198126	0.058963	0.186118	0.197303	0.200166
1828	0.198817	0.189309	0.065444	0.18115	0.196974	0.196316
1829	0.201449	0.197863	0.069491	0.179735	0.196744	0.197665
1830	0.199508	0.198422	0.073801	0.183091	0.198521	0.19829
1831	0.200692	0.20033	0.077716	0.182137	0.198883	0.197369
1832	0.198685	0.200626	0.083407	0.179406	0.201218	0.197303
1833	0.200922	0.19987	0.085315	0.179768	0.200001	0.199902
1834	0.200166	0.201909	0.091994	0.183617	0.202041	0.195527
1835	0.202205	0.20362	0.09558	0.18296	0.19783	0.195165
1836	0.203225	0.201087	0.096172	0.183815	0.202403	0.193487
1837	0.196481	0.198192	0.100548	0.182005	0.20112	0.192895
1838	0.204607	0.199212	0.102423	0.181545	0.199212	0.197205
1839	0.203653	0.196974	0.107391	0.180821	0.199508	0.192796
1840	0.204278	0.198488	0.111602	0.181216	0.201054	0.198652
1841	0.202469	0.197567	0.113312	0.182302	0.201054	0.196152
1842	0.206055	0.204344	0.116076	0.182104	0.199837	0.198587
1843	0.201745	0.198356	0.118609	0.184999	0.199837	0.199047
1844	0.199113	0.201284	0.122524	0.182367	0.197896	0.199672
1845	0.199277	0.201186	0.125353	0.18421	0.199804	0.198587
1846	0.203028	0.201087	0.130321	0.18296	0.202107	0.199705
1847	0.200528	0.201449	0.130354	0.185986	0.202469	0.200297
1848	0.201251	0.201975	0.133973	0.18092	0.199738	0.200659
1849	0.203324	0.204607	0.136539	0.180525	0.200462	0.197994
1850	0.203357	0.201745	0.138612	0.179538	0.19908	0.198619
1851	0.202304	0.200495	0.140355	0.181841	0.202337	0.196645
1852	0.203028	0.201153	0.143876	0.181084	0.198784	0.196547
1853	0.202502	0.198916	0.141869	0.181216	0.199804	0.197007
1854	0.202304	0.200725	0.148251	0.178419	0.200264	0.195099
1855	0.203456	0.20112	0.127656	0.18092	0.200199	0.199277
1856	0.200593	0.200725	0.129466	0.179933	0.197764	0.195001
1857	0.202107	0.200199	0.13167	0.179801	0.19931	0.197468
1858	0.20135	0.198883	0.134434	0.178485	0.202765	0.199277
1859	0.201317	0.201054	0.136572	0.180459	0.198027	0.199343
1860	0.203752	0.199508	0.139796	0.178946	0.19931	0.196744
1861	0.201811	0.200692	0.141638	0.179637	0.197896	0.198356
1862	0.203883	0.200725	0.142823	0.1799	0.200791	0.198422
1863	0.202403	0.20135	0.145915	0.177696	0.198488	0.199606
1864	0.204114	0.196415	0.147889	0.180163	0.197994	0.198587
1865	0.20158	0.197632	0.149896	0.178387	0.199935	0.19885
1866	0.201909	0.193191	0.152002	0.180657	0.199376	0.195955
1867	0.204081	0.198389	0.154041	0.176084	0.199508	0.196777
1868	0.206219	0.196514	0.152133	0.180097	0.200462	0.197632
1869	0.204212	0.196744	0.156476	0.178617	0.200955	0.200429
1870	0.20612	0.198225	0.156081	0.178255	0.203357	0.199968
1871	0.2077	0.197896	0.156311	0.179012	0.200758	0.192303
1872	0.208292	0.198356	0.158943	0.178222	0.200429	0.198488
1873	0.203357	0.199935	0.159206	0.176478	0.204212	0.195856
1874	0.205002	0.19556	0.163681	0.178058	0.200791	0.197271
1875	0.20441	0.199606	0.165523	0.178617	0.198883	0.195395
1876	0.199738	0.19704	0.16549	0.173879	0.197402	0.20135
1877	0.200857	0.194869	0.167234	0.179604	0.19783	0.200034
1878	0.206285	0.197172	0.127887	0.179472	0.197534	0.198718
1879	0.201712	0.196119	0.129828	0.179209	0.197271	0.199672
1880	0.204804	0.198159	0.133183	0.17763	0.198784	0.200166
1881	0.205857	0.197073	0.13088	0.181709	0.200067	0.200857
1882	0.206219	0.19931	0.142494	0.173847	0.198455	0.197271
1883	0.207272	0.196678	0.137756	0.179275	0.201613	0.198126
1884	0.205956	0.198093	0.143547	0.177696	0.191513	0.197402
1885	0.206186	0.193652	0.143119	0.177926	0.198192	0.197468
1886	0.196942	0.194145	0.146409	0.17809	0.199343	0.195165
1887	0.205002	0.199277	0.150653	0.178847	0.200001	0.199409
1888	0.207963	0.196284	0.151146	0.176577	0.200824	0.197764
1889	0.208259	0.196876	0.152627	0.17786	0.198883	0.196514
1890	0.206318	0.196645	0.154403	0.175557	0.201087	0.191744
1891	0.206252	0.197731	0.155127	0.176281	0.197632	0.196119
1892	0.207765	0.195428	0.155588	0.181051	0.197929	0.199179
1893	0.203883	0.198554	0.159667	0.173353	0.197139	0.199672
1894	0.203686	0.196711	0.157134	0.181512	0.199935	0.198817
1895	0.210529	0.19681	0.159305	0.177432	0.198126	0.199639
1896	0.2077	0.197731	0.162036	0.17865	0.199343	0.200166
1897	0.208292	0.197172	0.164404	0.177597	0.193685	0.198587
1898	0.207403	0.197994	0.161641	0.183519	0.197303	0.198916
1899	0.20839	0.197632	0.164766	0.177432	0.198652	0.19931
1900	0.208785	0.1976	0.166839	0.179406	0.196514	0.199705
1901	0.208029	0.197665	0.168912	0.178419	0.198455	0.198817
1902	0.206943	0.199541	0.16957	0.17786	0.19987	0.199573
1903	0.208588	0.197665	0.169306	0.168813	0.200462	0.198981
1904	0.206449	0.198619	0.1673	0.17582	0.197929	0.197402
1905	0.209312	0.197994	0.166017	0.180492	0.199902	0.197139
1906	0.208752	0.197764	0.16855	0.175623	0.199508	0.199672
1907	0.206384	0.195231	0.170622	0.17684	0.200429	0.196645
1908	0.210397	0.198554	0.172531	0.179077	0.199212	0.198619
1909	0.205068	0.196316	0.173221	0.175031	0.197698	0.196514
1910	0.20839	0.200462	0.17207	0.179538	0.199804	0.203028
1911	0.207239	0.197534	0.175195	0.181775	0.200593	0.201383
1912	0.209805	0.199541	0.176511	0.179406	0.194178	0.198521
1913	0.208719	0.203028	0.176051	0.182038	0.201975	0.199672
1914	0.209937	0.202403	0.178946	0.179999	0.195132	0.201218
1915	0.209279	0.205397	0.178716	0.178222	0.2001	0.202173
1916	0.210233	0.202107	0.17809	0.181249	0.199606	0.197073
1917	0.209476	0.200067	0.174373	0.180558	0.198488	0.198751
1918	0.210364	0.202238	0.178354	0.176643	0.2026	0.200988
1919	0.208555	0.201942	0.176676	0.178584	0.197369	0.19908
1920	0.211088	0.197764	0.175426	0.179012	0.2001	0.197205
1921	0.209805	0.199935	0.176446	0.181249	0.199179	0.202567
1922	0.212174	0.200725	0.179012	0.182894	0.200692	0.196645
1923	0.210364	0.203324	0.176939	0.182762	0.199245	0.200922
1924	0.206614	0.202436	0.180459	0.181709	0.200133	0.196053
1925	0.213029	0.203357	0.180328	0.181611	0.201975	0.200955
1926	0.206877	0.202534	0.182433	0.181413	0.20112	0.197139
1927	0.210463	0.202173	0.181676	0.179374	0.198323	0.199475
1928	0.20895	0.203488	0.180953	0.18319	0.20135	0.199014
1929	0.207732	0.20487	0.179472	0.181413	0.198488	0.198422
1930	0.209114	0.205068	0.140257	0.182828	0.19829	0.198817
1931	0.213194	0.205199	0.144566	0.181117	0.195856	0.201186
1932	0.209509	0.20543	0.140191	0.183091	0.198225	0.200922
1933	0.207831	0.203883	0.148185	0.187105	0.198981	0.198751
1934	0.207502	0.205035	0.149468	0.18523	0.198192	0.199376
1935	0.21145	0.20487	0.150422	0.184243	0.198323	0.198751
1936	0.210397	0.211286	0.152857	0.187269	0.199573	0.202962
1937	0.20793	0.208752	0.150916	0.186315	0.201613	0.198422
1938	0.214444	0.206449	0.151376	0.182861	0.198652	0.198027
1939	0.208358	0.207206	0.155259	0.185164	0.204114	0.197632
1940	0.208061	0.206713	0.156377	0.182269	0.200692	0.197896
1941	0.207634	0.206153	0.156838	0.184868	0.198652	0.195922
1942	0.210957	0.207206	0.159239	0.184604	0.19477	0.204936
1943	0.206449	0.206285	0.160095	0.186381	0.199705	0.201745
1944	0.209114	0.209673	0.163549	0.185657	0.19806	0.20158
1945	0.211187	0.203423	0.160753	0.188223	0.199672	0.200824
1946	0.210068	0.207634	0.16322	0.185559	0.198126	0.20283
1947	0.208094	0.208029	0.16526	0.185756	0.201515	0.194244
1948	0.20816	0.211088	0.16503	0.191283	0.197567	0.197764
1949	0.209443	0.209608	0.165885	0.192566	0.200166	0.199837
1950	0.210299	0.212437	0.167036	0.185131	0.199343	0.198389
1951	0.208588	0.208785	0.167596	0.18875	0.199771	0.199804
1952	0.208127	0.208851	0.170886	0.186282	0.199606	0.197501
1953	0.208127	0.210331	0.169537	0.188487	0.198817	0.201251
1954	0.205561	0.208555	0.175228	0.189408	0.198817	0.196514
1955	0.208489	0.212075	0.173485	0.189737	0.19931	0.200462
1956	0.205166	0.208259	0.17286	0.189737	0.199146	0.198718
1957	0.206449	0.209739	0.172465	0.189145	0.198554	0.200363
1958	0.204245	0.211055	0.172728	0.191349	0.201613	0.197106
1959	0.205726	0.211055	0.17786	0.192171	0.198554	0.198159
1960	0.20566	0.209081	0.172234	0.193685	0.19987	0.199475
1961	0.205397	0.212338	0.174735	0.191513	0.199212	0.199409
1962	0.20487	0.209673	0.174932	0.191678	0.200034	0.200988
1963	0.204443	0.20941	0.17638	0.193323	0.197929	0.199277
1964	0.206877	0.208226	0.177235	0.189112	0.199212	0.199442
1965	0.204936	0.20691	0.179341	0.185098	0.197961	0.199146
1966	0.201317	0.213687	0.17638	0.098475	0.196876	0.201547
1967	0.203127	0.210957	0.177268	0.100548	0.197994	0.200363
1968	0.203817	0.212569	0.175426	0.105713	0.198258	0.201482
1969	0.198126	0.210463	0.178781	0.109496	0.197896	0.198948
1970	0.19885	0.210134	0.171511	0.10999	0.200659	0.199146
1971	0.19533	0.207732	0.17809	0.11907	0.196152	0.199705
1972	0.199343	0.213292	0.175064	0.122064	0.197731	0.20033
1973	0.192533	0.209838	0.182631	0.125584	0.198652	0.197567
1974	0.19352	0.210595	0.178847	0.128643	0.198948	0.198488
1975	0.190724	0.210529	0.181249	0.12963	0.203719	0.197238
1976	0.189342	0.205298	0.182137	0.13019	0.200528	0.197534
1977	0.185789	0.205528	0.178814	0.13644	0.199113	0.198389
1978	0.188717	0.207732	0.184341	0.135651	0.19829	0.20033
1979	0.19023	0.206351	0.182565	0.142165	0.197665	0.198981
1980	0.190164	0.207535	0.183881	0.141573	0.196382	0.198784
1981	0.187598	0.204015	0.183749	0.146738	0.196876	0.19908
1982	0.195033	0.20816	0.183289	0.147034	0.197172	0.19908
1983	0.192961	0.202567	0.183091	0.149074	0.199113	0.19987
1984	0.194737	0.207601	0.186546	0.150751	0.198652	0.194869
1985	0.194079	0.207634	0.182894	0.151705	0.199606	0.198751
1986	0.193586	0.205199	0.183157	0.155785	0.199376	0.201778
1987	0.195066	0.208489	0.185624	0.154897	0.198192	0.197106
1988	0.193454	0.205726	0.184637	0.157759	0.200199	0.198554
1989	0.193454	0.209312	0.187829	0.156969	0.199212	0.197534
1990	0.195033	0.203159	0.187039	0.157627	0.197567	0.19602
1991	0.193553	0.207239	0.186578	0.161082	0.198455	0.198784
1992	0.188618	0.205923	0.186611	0.163747	0.196711	0.199245
1993	0.199968	0.203883	0.188158	0.161378	0.20214	0.193783
1994	0.192434	0.203324	0.183552	0.165128	0.200857	0.19431
1995	0.194441	0.046001	0.18444	0.163582	0.200988	0.196514
1996	0.192961	0.052186	0.186019	0.167333	0.198883	0.19829
1997	0.193257	0.059194	0.185526	0.164668	0.197797	0.197929
1998	0.195297	0.065082	0.187598	0.165095	0.201449	0.198784
1999	0.194606	0.069096	0.186677	0.173156	0.198817	0.199047
2000	0.194737	0.076367	0.18648	0.170425	0.198225	0.200462
2001	0.194145	0.07413	0.190691	0.170326	0.200659	0.200922
2002	0.19556	0.083374	0.190691	0.171215	0.199212	0.201909
2003	0.193553	0.08752	0.190131	0.171544	0.20112	0.19783
2004	0.198422	0.091961	0.182532	0.170622	0.199376	0.200955
2005	0.196415	0.09433	0.18365	0.173945	0.200363	0.198422
2006	0.196843	0.100383	0.185065	0.173781	0.200692	0.199705
2007	0.195395	0.100975	0.18592	0.172991	0.202567	0.198619
2008	0.198521	0.105811	0.186743	0.174077	0.199541	0.199902
2009	0.193915	0.109595	0.186315	0.174241	0.200889	0.197665
2010	0.194836	0.112885	0.186315	0.17786	0.199475	0.19885
2011	0.19375	0.11374	0.186776	0.176347	0.20112	0.19987
2012	0.194869	0.117523	0.18875	0.173221	0.199902	0.198554
2013	0.194408	0.121175	0.186151	0.175162	0.201021	0.197632
2014	0.19352	0.122919	0.188848	0.175031	0.196876	0.19579
2015	0.199442	0.120616	0.190197	0.175853	0.199343	0.197863
2016	0.198422	0.121208	0.189539	0.174965	0.198192	0.197369
2017	0.197863	0.129663	0.189046	0.176676	0.202798	0.200199
2018	0.197501	0.126867	0.190263	0.177696	0.199179	0.199442
2019	0.198619	0.130453	0.19	0.178551	0.199639	0.201317
2020	0.196415	0.133216	0.19556	0.177564	0.201317	0.195527
2021	0.198784	0.138941	0.193783	0.177663	0.198587	0.199935
2022	0.198225	0.140059	0.193915	0.181611	0.199343	0.200396
2023	0.199508	0.139763	0.193783	0.180821	0.19987	0.200495
2024	0.198192	0.144237	0.192138	0.182696	0.194869	0.199409
2025	0.202304	0.146771	0.191875	0.179045	0.201646	0.200758
2026	0.197632	0.148547	0.195198	0.18342	0.204278	0.1976
2027	0.200791	0.148514	0.192632	0.177465	0.201515	0.196876
2028	0.194869	0.150784	0.192566	0.179999	0.19987	0.198751
2029	0.199541	0.15062	0.193454	0.180591	0.196645	0.197567
2030	0.19806	0.152166	0.192928	0.180196	0.198652	0.197501
2031	0.194869	0.151804	0.191118	0.177367	0.194014	0.1976
2032	0.197501	0.15493	0.193158	0.180393	0.196678	0.200396
2033	0.199475	0.155686	0.195033	0.179637	0.199113	0.198521
2034	0.196053	0.15868	0.195988	0.180492	0.197205	0.201811
2035	0.19931	0.160226	0.199935	0.181018	0.19658	0.197797
2036	0.205101	0.160095	0.197238	0.185657	0.198225	0.198323
2037	0.201284	0.162628	0.199639	0.180821	0.20056	0.195494
2038	0.204837	0.167333	0.196448	0.181512	0.199738	0.196909
2039	0.198652	0.16424	0.196711	0.181249	0.190987	0.195428
2040	0.201778	0.164931	0.198027	0.181742	0.195231	0.203719
2041	0.198422	0.165359	0.195461	0.182696	0.198554	0.198619
2042	0.198751	0.16776	0.196613	0.180295	0.197303	0.196218
2043	0.199014	0.165457	0.193816	0.183519	0.20056	0.197764
2044	0.200199	0.170787	0.197896	0.182269	0.19829	0.198883
2045	0.199179	0.166214	0.197336	0.182236	0.200396	0.2001
2046	0.196613	0.169668	0.197501	0.179637	0.198258	0.19783
2047	0.198916	0.173254	0.194968	0.177893	0.200264	0.201811
2048	0.197534	0.170392	0.19908	0.17536	0.199705	0.198554
2049	0.198356	0.171445	0.197271	0.1774	0.197369	0.197863
2050	0.200889	0.172004	0.20112	0.180624	0.197172	0.198455
2051	0.201712	0.171511	0.199277	0.181874	0.196316	0.200955
2052	0.199475	0.173616	0.198258	0.182631	0.198093	0.199376
2053	0.199804	0.173781	0.199573	0.183979	0.197534	0.200297
2054	0.197567	0.175459	0.201547	0.186019	0.199508	0.200528
2055	0.202041	0.177334	0.20158	0.156015	0.198619	0.201909
2056	0.198751	0.175985	0.198225	0.158483	0.199902	0.201646
2057	0.200199	0.180163	0.199705	0.157627	0.197961	0.198521
2058	0.200001	0.177729	0.199771	0.160654	0.201745	0.199902
2059	0.196185	0.178913	0.200593	0.158187	0.199541	0.196744
2060	0.197665	0.183157	0.200429	0.160983	0.200264	0.199705
2061	0.198751	0.181018	0.202238	0.159601	0.199343	0.197007
2062	0.197764	0.177268	0.198784	0.160128	0.199212	0.199705
2063	0.198159	0.179077	0.200824	0.158187	0.198488	0.196415
2064	0.19704	0.179275	0.19806	0.163023	0.200166	0.198192
2065	0.196645	0.181183	0.198751	0.158614	0.198981	0.2001
2066	0.197896	0.17684	0.199804	0.163253	0.198718	0.199179
2067	0.198159	0.178847	0.201317	0.165523	0.20385	0.200593
2068	0.198916	0.183979	0.201416	0.166214	0.202436	0.200659
2069	0.197698	0.17967	0.203916	0.17003	0.199771	0.201021
2070	0.198948	0.181611	0.197961	0.166576	0.199804	0.197764
2071	0.198027	0.183946	0.196053	0.169833	0.202896	0.196547
2072	0.198784	0.188355	0.20056	0.170918	0.197468	0.199343
2073	0.199935	0.18569	0.198652	0.171379	0.202008	0.199475
2074	0.198488	0.188519	0.200725	0.173879	0.196678	0.199541
2075	0.199573	0.18569	0.200067	0.173715	0.198751	0.197303
2076	0.192895	0.188684	0.20033	0.168977	0.198488	0.200034
2077	0.193487	0.188289	0.201547	0.173847	0.200791	0.199343
2078	0.194277	0.185394	0.201317	0.174833	0.19783	0.19829
2079	0.192171	0.192204	0.198554	0.173879	0.199212	0.199804
2080	0.192434	0.18773	0.198883	0.177827	0.201646	0.199508
2081	0.19329	0.188914	0.198652	0.176939	0.196185	0.200758
2082	0.19556	0.187072	0.200001	0.175031	0.201284	0.198389
2083	0.19477	0.190526	0.198817	0.175985	0.200001	0.199902
2084	0.19533	0.181545	0.202304	0.179209	0.202633	0.19829
2085	0.195165	0.189177	0.201844	0.181018	0.198784	0.197863
2086	0.197632	0.189737	0.201679	0.182203	0.199146	0.193849
2087	0.198784	0.190658	0.199146	0.179637	0.197336	0.199771
2088	0.196284	0.189342	0.201153	0.183157	0.201646	0.198225
2089	0.19556	0.187269	0.20441	0.183091	0.195231	0.195494
2090	0.195593	0.192566	0.200495	0.184637	0.198422	0.200363
2091	0.194277	0.193553	0.201876	0.184111	0.197468	0.199442
2092	0.195988	0.19329	0.201218	0.188388	0.198652	0.197731
2093	0.198225	0.193882	0.199343	0.183815	0.199343	0.199705
2094	0.195626	0.19579	0.198455	0.184308	0.199738	0.203653
2095	0.196843	0.192073	0.2001	0.184078	0.199902	0.202074
2096	0.197271	0.192204	0.19579	0.185164	0.200528	0.198389
2097	0.198817	0.19023	0.199541	0.18444	0.199804	0.203817
2098	0.197632	0.19102	0.199179	0.187927	0.199409	0.20135
2099	0.196218	0.188322	0.199606	0.184473	0.197271	0.199047
2100	0.199245	0.191349	0.199705	0.18421	0.197698	0.200363
2101	0.195033	0.192007	0.200758	0.185986	0.200429	0.199968
2102	0.197534	0.192698	0.200857	0.184473	0.199277	0.196448
2103	0.196514	0.191349	0.199968	0.189013	0.201844	0.198356
2104	0.198916	0.193027	0.199475	0.190033	0.19931	0.200955
2105	0.201745	0.194343	0.198126	0.187993	0.201251	0.200824
2106	0.198126	0.193717	0.199837	0.190888	0.198751	0.200593
2107	0.196777	0.19306	0.199475	0.191711	0.198883	0.199014
2108	0.201383	0.195362	0.202271	0.189112	0.19533	0.200857
2109	0.197369	0.192829	0.198225	0.191908	0.198323	0.198685
2110	0.198554	0.19602	0.203324	0.188848	0.19885	0.199738
2111	0.196974	0.195099	0.19829	0.190493	0.196185	0.19806
2112	0.198258	0.196909	0.198159	0.187697	0.19885	0.200034
2113	0.199837	0.194441	0.196876	0.192138	0.200988	0.203916
2114	0.196218	0.192862	0.200988	0.189474	0.200857	0.199771
2115	0.198718	0.192632	0.193685	0.191184	0.198883	0.204344
2116	0.194211	0.197139	0.196909	0.189408	0.198126	0.197007
2117	0.19704	0.190592	0.196481	0.193652	0.2001	0.201021
2118	0.19329	0.190724	0.195362	0.19306	0.197073	0.19931
2119	0.19352	0.194803	0.197501	0.191086	0.197731	0.199968
2120	0.192928	0.189901	0.197731	0.192566	0.19931	0.195856
2121	0.193619	0.190066	0.195922	0.194672	0.198981	0.197764
2122	0.18819	0.194014	0.199277	0.194408	0.199639	0.199541
2123	0.186447	0.197534	0.197402	0.195659	0.196218	0.199573
2124	0.172169	0.195461	0.197106	0.196481	0.199771	0.201054
2125	0.146968	0.196349	0.190296	0.194639	0.199343	0.199771
2126	0.12134	0.196481	0.193948	0.196349	0.201712	0.199837
2127	0.115418	0.198981	0.195593	0.194014	0.198258	0.198817
2128	0.113937	0.19306	0.194079	0.196613	0.200626	0.199639
2129	0.112128	0.193027	0.193356	0.19829	0.196251	0.198488
2130	0.11578	0.194737	0.193224	0.195428	0.198027	0.199212
2131	0.116175	0.195461	0.199968	0.198093	0.199409	0.197698
2132	0.121044	0.194211	0.195297	0.197764	0.198554	0.200659
2133	0.121866	0.191809	0.19704	0.194375	0.200593	0.198652
2134	0.124169	0.19477	0.197501	0.198488	0.197435	0.199606
2135	0.126011	0.192763	0.194639	0.195362	0.198422	0.198422
2136	0.127656	0.195461	0.19	0.199672	0.199771	0.198619
2137	0.135388	0.193158	0.194145	0.198159	0.2001	0.195626
2138	0.137756	0.189145	0.194211	0.199113	0.198488	0.198751
2139	0.136835	0.191086	0.191974	0.198389	0.200791	0.196514
2140	0.141474	0.199113	0.193224	0.197929	0.19602	0.197336
2141	0.142033	0.195889	0.190131	0.199573	0.196053	0.198323
2142	0.145817	0.198159	0.175228	0.196547	0.19579	0.197238
2143	0.15039	0.19533	0.155949	0.199902	0.19885	0.201021
2144	0.147494	0.198883	0.151936	0.199771	0.197271	0.203127
2145	0.151344	0.196316	0.151409	0.199376	0.198192	0.198554
2146	0.154107	0.195066	0.155982	0.198455	0.200429	0.199771
2147	0.153285	0.196547	0.155851	0.199968	0.198784	0.201646
2148	0.1572	0.195461	0.157496	0.198159	0.203028	0.197764
2149	0.156509	0.195264	0.157463	0.201547	0.198126	0.201613
2150	0.159009	0.193454	0.161115	0.202863	0.202962	0.198389
2151	0.162069	0.197797	0.163878	0.199573	0.203423	0.199179
2152	0.162167	0.192434	0.16447	0.198948	0.200462	0.198521
2153	0.165556	0.196119	0.165062	0.199179	0.200133	0.201383
2154	0.166181	0.195033	0.16628	0.203192	0.199573	0.201218
2155	0.170359	0.198422	0.169668	0.200495	0.197896	0.200725
2156	0.17059	0.190888	0.169734	0.202238	0.200297	0.199047
2157	0.171149	0.199179	0.174044	0.200133	0.201153	0.199179
2158	0.171609	0.196942	0.170557	0.205726	0.196711	0.201515
2159	0.175557	0.199014	0.174702	0.20033	0.196448	0.197567
2160	0.174998	0.197468	0.16901	0.202403	0.196777	0.20033
2161	0.174175	0.194211	0.169504	0.20158	0.200593	0.197896
2162	0.173123	0.199113	0.172267	0.203686	0.19704	0.197172
2163	0.180426	0.196382	0.174011	0.204475	0.199804	0.198587
2164	0.176149	0.197172	0.176446	0.202173	0.20112	0.198817
2165	0.178946	0.195889	0.176544	0.203456	0.199409	0.199376
2166	0.180163	0.195922	0.178222	0.203554	0.195988	0.200857
2167	0.179308	0.198554	0.17967	0.205397	0.20362	0.199935
2168	0.182762	0.197863	0.17809	0.204607	0.200528	0.198817
2169	0.17911	0.195988	0.179077	0.206252	0.200462	0.200396
2170	0.185822	0.201054	0.18444	0.202107	0.19885	0.196909
2171	0.186447	0.198192	0.180064	0.206153	0.199902	0.194112
2172	0.18569	0.199804	0.184868	0.205298	0.198323	0.202962
2173	0.188158	0.198192	0.180821	0.206811	0.199672	0.198948
2174	0.191151	0.201251	0.185986	0.204311	0.197336	0.19908
2175	0.187138	0.199606	0.182334	0.207798	0.200922	0.202502
2176	0.187993	0.2001	0.18569	0.20691	0.196974	0.197139
2177	0.188026	0.199277	0.18421	0.207371	0.196152	0.202995
2178	0.187105	0.198093	0.185822	0.206351	0.197797	0.201087
2179	0.184933	0.200889	0.186973	0.207864	0.196645	0.199804
2180	0.18796	0.201449	0.188684	0.210068	0.200725	0.199902
2181	0.187763	0.201712	0.184572	0.208588	0.197139	0.199771
2182	0.187138	0.198356	0.182236	0.205528	0.19931	0.197172
2183	0.187401	0.201712	0.18592	0.206778	0.201087	0.200363
2184	0.185953	0.202929	0.186249	0.205561	0.198619	0.196547
2185	0.183453	0.205133	0.187664	0.20816	0.198093	0.198784
2186	0.188618	0.200166	0.188026	0.205528	0.19987	0.194803
2187	0.192599	0.200264	0.192434	0.207798	0.198652	0.195691
2188	0.193619	0.200955	0.191086	0.21043	0.197435	0.197271
2189	0.192895	0.199705	0.193619	0.211187	0.198718	0.196744
2190	0.189506	0.202436	0.193356	0.203949	0.197073	0.199113
2191	0.198225	0.202403	0.192829	0.204607	0.198126	0.199639
2192	0.194836	0.19908	0.190526	0.209246	0.19306	0.199508
2193	0.192731	0.200199	0.194014	0.207338	0.198192	0.199212
2194	0.191908	0.200692	0.1925	0.209476	0.192434	0.200231
2195	0.192073	0.203324	0.192467	0.206219	0.196678	0.196942
2196	0.192204	0.201218	0.192566	0.212305	0.200396	0.198192
2197	0.191316	0.200166	0.195395	0.209279	0.198817	0.198159
2198	0.190789	0.202041	0.194968	0.210364	0.198619	0.199409
2199	0.188552	0.19885	0.195593	0.207963	0.199409	0.196777
2200	0.192599	0.200791	0.19454	0.206186	0.198784	0.201942
2201	0.191842	0.198258	0.195395	0.211845	0.201811	0.198192
2202	0.194869	0.199442	0.196086	0.208654	0.197468	0.200297
2203	0.190526	0.199212	0.194474	0.208456	0.199047	0.19783
2204	0.195395	0.20056	0.193816	0.209246	0.194836	0.198916
2205	0.193487	0.200133	0.19454	0.21043	0.198685	0.200297
2206	0.194507	0.199014	0.194639	0.208489	0.194573	0.197764
2207	0.193849	0.19908	0.193388	0.208588	0.200001	0.200001
2208	0.193948	0.197665	0.195922	0.21122	0.1976	0.197271
2209	0.192928	0.200528	0.194803	0.210364	0.196218	0.201712
2210	0.194803	0.196415	0.198488	0.210002	0.195099	0.199837
2211	0.189737	0.194145	0.195362	0.211187	0.196382	0.200297
2212	0.189967	0.20056	0.195428	0.210693	0.19681	0.19829
2213	0.191678	0.199409	0.192928	0.210595	0.198356	0.20056
2214	0.188355	0.197534	0.192632	0.209081	0.199409	0.197402
2215	0.193783	0.197632	0.190197	0.209871	0.199672	0.20033
2216	0.192961	0.196547	0.189638	0.207305	0.198883	0.197007
2217	0.194145	0.199179	0.189671	0.208884	0.196349	0.199475
2218	0.192237	0.198981	0.187105	0.209312	0.198619	0.199179
2219	0.196909	0.198093	0.186447	0.211746	0.196777	0.196843
2220	0.194737	0.196777	0.185361	0.208259	0.197139	0.197863
2221	0.191447	0.199113	0.186019	0.209081	0.195922	0.198784
2222	0.195395	0.196086	0.183091	0.210233	0.196514	0.200001
2223	0.194836	0.199639	0.18365	0.209377	0.196678	0.200034
2224	0.193356	0.198225	0.182927	0.209279	0.197271	0.201021
2225	0.19306	0.200363	0.182927	0.207305	0.194573	0.199508
2226	0.191875	0.198093	0.172333	0.209838	0.194112	0.200297
2227	0.190724	0.199672	0.177071	0.209476	0.196316	0.198981
2228	0.191974	0.198225	0.1723	0.209838	0.196942	0.2026
2229	0.187829	0.19829	0.169537	0.208292	0.194803	0.196613
2230	0.195593	0.200034	0.168023	0.209673	0.19658	0.199409
2231	0.190855	0.198554	0.164536	0.207798	0.1976	0.198126
2232	0.190197	0.201284	0.168122	0.210331	0.197632	0.200199
2233	0.191645	0.199508	0.164931	0.209509	0.2001	0.198784
2234	0.192533	0.202238	0.162134	0.209213	0.196514	0.19908
2235	0.192566	0.201284	0.161246	0.209279	0.198718	0.200034
2236	0.193158	0.200758	0.162266	0.209312	0.198258	0.19102
2237	0.191875	0.196744	0.160884	0.207206	0.198916	0.19477
2238	0.195231	0.200396	0.164503	0.205166	0.197402	0.196152
2239	0.195395	0.197007	0.163154	0.207765	0.200857	0.196711
2240	0.19306	0.195297	0.164141	0.205528	0.196119	0.198422
2241	0.193685	0.196876	0.164602	0.206153	0.200659	0.198126
2242	0.193356	0.198751	0.166609	0.206482	0.195593	0.199672
2243	0.191546	0.202337	0.168747	0.206318	0.196185	0.200988
2244	0.190921	0.199902	0.171938	0.206581	0.197271	0.199245
2245	0.194244	0.200264	0.167135	0.210463	0.195955	0.200922
2246	0.191184	0.20135	0.172695	0.204903	0.199705	0.190888
2247	0.192796	0.201087	0.176215	0.207963	0.200297	0.200199
2248	0.191118	0.195757	0.17184	0.20566	0.196974	0.200791
2249	0.193388	0.203028	0.176117	0.207403	0.198126	0.200067
2250	0.19454	0.200495	0.176577	0.203423	0.201218	0.19885
2251	0.192961	0.200922	0.177268	0.200429	0.198422	0.198323
2252	0.190888	0.200889	0.179703	0.203587	0.195297	0.199376
2253	0.193191	0.199935	0.180525	0.204475	0.195132	0.199935
2254	0.189342	0.199837	0.180689	0.201811	0.197567	0.199804
2255	0.192369	0.199113	0.183223	0.202436	0.196777	0.197698
2256	0.191151	0.200857	0.180558	0.20487	0.196909	0.200264
2257	0.192336	0.20158	0.183617	0.202732	0.200001	0.196481
2258	0.189276	0.201087	0.182104	0.203719	0.199409	0.200857
2259	0.188848	0.201515	0.181347	0.201646	0.196448	0.201383
2260	0.193553	0.206153	0.180788	0.202896	0.197336	0.199771
2261	0.190691	0.202271	0.184045	0.201153	0.199606	0.199573
2262	0.190855	0.202403	0.186249	0.20237	0.197271	0.199771
2263	0.190131	0.202403	0.187335	0.199837	0.195889	0.201416
2264	0.189506	0.201021	0.190099	0.200955	0.19931	0.197665
2265	0.18875	0.199804	0.187039	0.198685	0.198027	0.198554
2266	0.191842	0.201153	0.187434	0.195823	0.196744	0.200297
2267	0.190263	0.198883	0.018037	0.200725	0.20056	0.198718
2268	0.19148	0.204212	0.025538	0.199902	0.199146	0.198685
2269	0.186282	0.201416	0.030374	0.201054	0.200593	0.194211
2270	0.190921	0.201482	0.037612	0.198521	0.199508	0.198652
2271	0.188684	0.203127	0.042086	0.199738	0.195691	0.199672
2272	0.193619	0.202436	0.049192	0.198027	0.199705	0.197172
2273	0.188783	0.201087	0.050508	0.200659	0.197731	0.199738
2274	0.188289	0.201317	0.055608	0.197238	0.195856	0.19885
2275	0.181512	0.201942	0.059226	0.197731	0.195593	0.197106
2276	0.182071	0.201515	0.060838	0.194244	0.199837	0.199902
2277	0.182631	0.205232	0.068997	0.197501	0.195066	0.200264
2278	0.181907	0.203686	0.066958	0.198126	0.193092	0.200133
2279	0.182466	0.203061	0.027709	0.200264	0.19681	0.198488
2280	0.181117	0.203488	0.034947	0.199376	0.198619	0.201778
2281	0.183354	0.204508	0.008825	0.19885	0.197303	0.200133
2282	0.184539	0.205594	0.020044	0.199179	0.197303	0.199014
2283	0.186184	0.207272	0.028729	0.199146	0.199738	0.19829
2284	0.182795	0.201383	0.033072	0.19987	0.198159	0.197468
2285	0.187171	0.201712	0.040408	0.19931	0.197994	0.199771
2286	0.182762	0.203028	0.040704	0.195823	0.198356	0.195264
2287	0.183321	0.203127	0.042876	0.198027	0.19704	0.195593
2288	0.183848	0.20214	0.050969	0.196645	0.199902	0.195922
2289	0.185953	0.201712	0.057943	0.195922	0.197402	0.19579
2290	0.184012	0.202995	0.059588	0.197172	0.199672	0.198521
2291	0.185789	0.202765	0.064326	0.196218	0.200231	0.202337
2292	0.186249	0.202041	0.067649	0.197369	0.200659	0.198718
2293	0.185098	0.201482	0.071695	0.195198	0.198883	0.199738
2294	0.185888	0.201383	0.076367	0.196909	0.192566	0.200725
2295	0.184966	0.199409	0.082223	0.19908	0.190954	0.198192
2296	0.18796	0.200758	0.085085	0.196185	0.184966	0.202896
2297	0.184703	0.20056	0.089197	0.196382	0.185328	0.203587
2298	0.186677	0.199804	0.09229	0.197205	0.180624	0.203225
2299	0.187171	0.196349	0.0966	0.19908	0.178913	0.200034
2300	0.189342	0.200955	0.10216	0.19579	0.173978	0.199277
2301	0.187467	0.19681	0.102061	0.199672	0.178617	0.197863
2302	0.183946	0.200133	0.105779	0.19533	0.172827	0.199541
2303	0.185888	0.199573	0.107358	0.196218	0.174208	0.19885
2304	0.187467	0.192204	0.109364	0.191744	0.179637	0.197501
2305	0.187039	0.19375	0.113016	0.191941	0.176906	0.199738
2306	0.185888	0.194408	0.115517	0.195395	0.177038	0.197369
2307	0.187302	0.194474	0.117359	0.195626	0.178156	0.19908
2308	0.185131	0.194573	0.120583	0.193685	0.174274	0.196448
2309	0.186874	0.191645	0.126176	0.196448	0.174175	0.200955
2310	0.190493	0.194343	0.129203	0.197172	0.17457	0.202699
2311	0.187335	0.192895	0.127952	0.198488	0.174702	0.200199
2312	0.188487	0.194211	0.129334	0.19533	0.176248	0.199935
2313	0.187171	0.196382	0.1319	0.197698	0.173518	0.199047
2314	0.187467	0.19329	0.136704	0.194803	0.178025	0.198685
2315	0.189112	0.195461	0.136868	0.194968	0.175623	0.200034
2316	0.187203	0.189309	0.136769	0.195362	0.178222	0.198751
2317	0.189934	0.189934	0.141342	0.194046	0.17865	0.19829
2318	0.190592	0.189375	0.140586	0.193685	0.180064	0.198258
2319	0.187203	0.191612	0.142494	0.193619	0.183091	0.198159
2320	0.186546	0.184539	0.144797	0.197435	0.182663	0.199245
2321	0.189309	0.189638	0.148218	0.197007	0.182861	0.199146
2322	0.186776	0.186249	0.146705	0.196415	0.18694	0.198916
2323	0.187829	0.190329	0.151048	0.19783	0.186513	0.198948
2324	0.185855	0.189474	0.149534	0.198521	0.182861	0.200725
2325	0.187105	0.187598	0.153153	0.196415	0.182433	0.197435
2326	0.189276	0.187894	0.152627	0.200067	0.185361	0.197303
2327	0.186118	0.185986	0.154831	0.19829	0.186513	0.197468
2328	0.187203	0.187368	0.156904	0.197665	0.183585	0.200001
2329	0.179867	0.186184	0.158154	0.19908	0.184835	0.198685
2330	0.189079	0.187335	0.156706	0.197238	0.183321	0.200528
2331	0.188026	0.18421	0.15947	0.200199	0.186348	0.198685
2332	0.188618	0.186842	0.162957	0.198587	0.187927	0.199475
2333	0.188059	0.18569	0.162299	0.201778	0.189441	0.200396
2334	0.18977	0.18467	0.163747	0.197501	0.184341	0.19829
2335	0.189145	0.182565	0.16095	0.202995	0.190888	0.198685
2336	0.184802	0.183223	0.164503	0.197238	0.19	0.199113
2337	0.18523	0.182499	0.162069	0.199606	0.190789	0.199672
2338	0.178288	0.181479	0.166049	0.197731	0.188487	0.197369
2339	0.182038	0.176709	0.160029	0.199804	0.190131	0.197238
2340	0.182499	0.179045	0.16549	0.197238	0.19125	0.195066
2341	0.180393	0.17763	0.165062	0.199409	0.19125	0.197698
2342	0.18342	0.174504	0.165655	0.198225	0.19375	0.197271
2343	0.18546	0.174537	0.166017	0.199837	0.192665	0.198488
2344	0.183848	0.170359	0.167464	0.200363	0.192467	0.200725
2345	0.186085	0.167333	0.170096	0.199245	0.18921	0.200528
2346	0.187368	0.155785	0.167826	0.192402	0.193882	0.200231
2347	0.1875	0.147034	0.170261	0.199212	0.189803	0.202107
2348	0.185888	0.126209	0.169833	0.200067	0.194211	0.193421
2349	0.187171	0.115747	0.171017	0.200133	0.189967	0.199935
2350	0.186644	0.095744	0.170359	0.199541	0.190066	0.198323
2351	0.188256	0.07584	0.174406	0.200495	0.19329	0.196843
2352	0.184012	0.063701	0.170853	0.201975	0.193553	0.197929
2353	0.185789	0.060773	0.171215	0.201153	0.193882	0.199606
2354	0.184637	0.063207	0.17332	0.20385	0.199179	0.198784
2355	0.188355	0.066037	0.174274	0.20339	0.195362	0.198323
2356	0.185624	0.06903	0.173287	0.200791	0.194211	0.199113
2357	0.187138	0.073406	0.174833	0.197994	0.196711	0.198455
2358	0.185295	0.074788	0.171149	0.199014	0.195395	0.196481
2359	0.18444	0.075248	0.17355	0.200396	0.191645	0.196514
2360	0.190789	0.08117	0.172827	0.199245	0.194704	0.199146
2361	0.189145	0.080677	0.179637	0.20158	0.191809	0.197468
2362	0.189276	0.085184	0.176413	0.201547	0.192829	0.19987
2363	0.190658	0.087783	0.178189	0.203159	0.193454	0.197567
2364	0.189803	0.089658	0.178748	0.201416	0.190592	0.199573
2365	0.188684	0.09206	0.178551	0.198948	0.192698	0.198619
2366	0.191678	0.099034	0.179341	0.200626	0.191908	0.201449
2367	0.190592	0.099034	0.177893	0.198554	0.194211	0.196909
2368	0.190789	0.101567	0.179439	0.199475	0.194178	0.201054
2369	0.190724	0.104792	0.179176	0.198981	0.194902	0.200034
2370	0.191645	0.110713	0.179637	0.199935	0.196053	0.196415
2371	0.186907	0.113049	0.178189	0.202304	0.197534	0.196711
2372	0.190592	0.11578	0.178814	0.201876	0.196185	0.196645
2373	0.189671	0.119629	0.179768	0.201218	0.194968	0.197994
2374	0.191349	0.12157	0.18319	0.203653	0.196382	0.195033
2375	0.190987	0.124037	0.179604	0.204475	0.195691	0.199935
2376	0.189737	0.124597	0.18217	0.199672	0.198323	0.198554
2377	0.190099	0.129564	0.181578	0.2026	0.193717	0.200133
2378	0.190131	0.13167	0.1824	0.19931	0.194803	0.197073
2379	0.191053	0.133743	0.178748	0.203324	0.196316	0.20056
2380	0.18875	0.13598	0.184111	0.202633	0.192467	0.197205
2381	0.192994	0.138349	0.182499	0.201383	0.190395	0.19829
2382	0.193882	0.143974	0.183716	0.200429	0.195988	0.1976
2383	0.193619	0.144632	0.182236	0.200133	0.197369	0.19885
2384	0.19454	0.141342	0.173221	0.201449	0.194869	0.198784
2385	0.182795	0.146178	0.170293	0.201778	0.195494	0.19806
2386	0.179341	0.145619	0.070971	0.201844	0.196218	0.201087
2387	0.179604	0.150521	0.081861	0.200889	0.196349	0.199179
2388	0.180163	0.149962	0.085348	0.20214	0.194935	0.198554
2389	0.175853	0.152462	0.090941	0.201844	0.196613	0.195527
2390	0.17967	0.154568	0.092619	0.200988	0.197435	0.200659
2391	0.180953	0.155291	0.097356	0.203554	0.196053	0.193915
2392	0.178058	0.153877	0.09887	0.201547	0.194375	0.197731
2393	0.18592	0.158483	0.101238	0.198356	0.198488	0.197896
2394	0.184473	0.158384	0.106831	0.200791	0.196481	0.198455
2395	0.185986	0.162365	0.11045	0.199212	0.196119	0.19704
2396	0.186315	0.160654	0.116701	0.199606	0.195395	0.198948
2397	0.184111	0.16345	0.118971	0.200067	0.196152	0.199179
2398	0.188092	0.164503	0.123708	0.199409	0.193948	0.194244
2399	0.186118	0.164404	0.125419	0.197106	0.19579	0.19908
2400	0.189539	0.168221	0.130716	0.200758	0.193586	0.197534
2401	0.185295	0.166017	0.131078	0.200001	0.197238	0.192763
2402	0.183223	0.168583	0.137723	0.20056	0.196284	0.193816
2403	0.187664	0.168747	0.133249	0.199738	0.196942	0.197797
2404	0.187105	0.17105	0.13825	0.196349	0.202469	0.198751
2405	0.188487	0.171083	0.141277	0.196876	0.197863	0.2001
2406	0.187894	0.169438	0.142362	0.2001	0.196251	0.196711
2407	0.190855	0.173781	0.148284	0.198916	0.195856	0.199179
2408	0.184177	0.176906	0.151804	0.195823	0.196909	0.193421
2409	0.185953	0.176149	0.150686	0.200528	0.194704	0.199508
2410	0.18796	0.174669	0.152199	0.196843	0.197534	0.196876
2411	0.187269	0.178485	0.153548	0.196876	0.1976	0.196942
2412	0.18648	0.175195	0.157233	0.195198	0.199968	0.196974
2413	0.188914	0.17865	0.162924	0.195264	0.197863	0.194737
2414	0.188158	0.175195	0.158845	0.19533	0.196876	0.196744
2415	0.191875	0.177597	0.160095	0.191711	0.195198	0.198225
2416	0.18977	0.17332	0.161147	0.192665	0.197994	0.198619
2417	0.192007	0.175064	0.164404	0.193981	0.194343	0.197961
2418	0.189967	0.174044	0.162661	0.195527	0.195922	0.200495
2419	0.189276	0.178058	0.169767	0.195297	0.196777	0.193783
2420	0.188816	0.178419	0.167563	0.197172	0.196481	0.197106
2421	0.188289	0.182203	0.169997	0.195856	0.197106	0.193816
2422	0.189079	0.184736	0.168813	0.196876	0.196119	0.200791
2423	0.190131	0.181479	0.170655	0.195856	0.199705	0.197271
2424	0.189079	0.180196	0.162628	0.195132	0.199343	0.196251
2425	0.189506	0.181216	0.171511	0.18977	0.197929	0.195395
2426	0.19148	0.178584	0.171774	0.197007	0.196185	0.197139
2427	0.1875	0.164668	0.173649	0.194211	0.198323	0.195165
2428	0.192961	0.143777	0.171247	0.191678	0.192928	0.197336
2429	0.188881	0.13848	0.174899	0.193981	0.194244	0.196152
2430	0.187993	0.140224	0.177827	0.190493	0.196448	0.194573
2431	0.185559	0.141967	0.174702	0.19375	0.197172	0.197271
2432	0.191711	0.148383	0.180821	0.19477	0.194803	0.199014
2433	0.188454	0.150061	0.178584	0.192204	0.198356	0.198916
2434	0.189112	0.147593	0.182762	0.192138	0.19829	0.196942
2435	0.189342	0.151705	0.183289	0.195461	0.195757	0.197073
2436	0.192829	0.152857	0.183552	0.192698	0.199245	0.194343
2437	0.191349	0.154765	0.18217	0.194046	0.196415	0.197665
2438	0.195659	0.155226	0.184868	0.192434	0.198817	0.19931
2439	0.196152	0.157956	0.184966	0.19375	0.196119	0.195362
2440	0.19579	0.158187	0.185328	0.193158	0.199277	0.196316
2441	0.190131	0.161049	0.179867	0.192237	0.196711	0.198126
2442	0.192073	0.160621	0.182104	0.192237	0.196349	0.197336
2443	0.192566	0.167629	0.184111	0.191842	0.194014	0.197896
2444	0.190724	0.164766	0.18467	0.192105	0.196942	0.196284
2445	0.192303	0.167629	0.18648	0.191908	0.195955	0.197468
2446	0.190493	0.166115	0.186282	0.191842	0.198751	0.199277
2447	0.194014	0.172169	0.188158	0.189441	0.197764	0.196218
2448	0.194803	0.172136	0.187434	0.191184	0.197336	0.196086
2449	0.19046	0.167793	0.187138	0.190526	0.197007	0.197336
2450	0.193717	0.169668	0.18671	0.191546	0.197468	0.199738
2451	0.196152	0.17082	0.193257	0.191184	0.196218	0.196316
2452	0.188618	0.17355	0.187927	0.191447	0.196185	0.199245
2453	0.196316	0.17638	0.193092	0.192303	0.197073	0.198587
2454	0.195494	0.17457	0.192402	0.194112	0.198258	0.200396
2455	0.193619	0.174899	0.190296	0.188388	0.194079	0.197271
2456	0.194573	0.177597	0.192369	0.187829	0.195955	0.198159
2457	0.195132	0.176775	0.188355	0.191908	0.197336	0.201613
2458	0.192566	0.181611	0.194375	0.189441	0.198488	0.197534
2459	0.192796	0.171873	0.191941	0.189079	0.198192	0.193981
2460	0.195889	0.181973	0.192105	0.190987	0.193652	0.199146
2461	0.190592	0.179735	0.189835	0.188848	0.199738	0.190592
2462	0.196251	0.182005	0.190493	0.186447	0.198126	0.196382
2463	0.190263	0.180953	0.193981	0.187039	0.198126	0.196974
2464	0.193027	0.182302	0.192796	0.188355	0.19704	0.196382
2465	0.194639	0.179801	0.195231	0.188552	0.197961	0.197929
2466	0.193882	0.177498	0.194573	0.187269	0.198916	0.198027
2467	0.193356	0.183091	0.19454	0.191086	0.199935	0.198948
2468	0.195626	0.182762	0.194902	0.191283	0.198225	0.197106
2469	0.194573	0.18546	0.196744	0.192007	0.199475	0.195264
2470	0.198159	0.186052	0.195593	0.189835	0.197172	0.193586
2471	0.198488	0.185493	0.194211	0.191875	0.201646	0.197567
2472	0.195264	0.187368	0.196942	0.190888	0.196251	0.197369
2473	0.198554	0.187401	0.198521	0.19023	0.197961	0.197106
2474	0.19375	0.18694	0.194968	0.187335	0.196086	0.196119
2475	0.194046	0.191217	0.192698	0.191809	0.193882	0.197764
2476	0.192303	0.18796	0.197303	0.190888	0.195757	0.19579
2477	0.194606	0.19023	0.193454	0.186151	0.198619	0.196843
2478	0.192961	0.191546	0.194606	0.190296	0.198356	0.193323
2479	0.192763	0.192961	0.19806	0.190625	0.195724	0.199179
2480	0.194606	0.190658	0.196251	0.185493	0.200264	0.196777
2481	0.195659	0.191053	0.195494	0.185559	0.197961	0.196711
2482	0.194441	0.190197	0.19806	0.186249	0.2001	0.199245
2483	0.195494	0.194474	0.196645	0.186249	0.196185	0.195691
2484	0.191053	0.192402	0.199014	0.185986	0.198488	0.196251
2485	0.194737	0.192665	0.200593	0.184966	0.196678	0.196218
2486	0.197567	0.196382	0.195856	0.184144	0.197007	0.193849
2487	0.19579	0.193454	0.19931	0.179637	0.197534	0.193619
2488	0.197106	0.192731	0.197698	0.184341	0.198554	0.198883
2489	0.19375	0.196678	0.198981	0.183025	0.197567	0.19602
2490	0.202896	0.194408	0.19908	0.184966	0.196974	0.197369
2491	0.200034	0.195066	0.197139	0.183617	0.203225	0.194211
2492	0.197501	0.198258	0.196744	0.182466	0.20056	0.196448
2493	0.198521	0.199475	0.196547	0.18194	0.19125	0.194902
2494	0.197929	0.199047	0.195593	0.181347	0.195724	0.196284
2495	0.195659	0.195099	0.193717	0.182203	0.200133	0.195856
2496	0.197896	0.194145	0.19579	0.181907	0.195757	0.196974
2497	0.194803	0.195955	0.193092	0.186315	0.198093	0.199146
2498	0.195099	0.195626	0.196218	0.181644	0.200067	0.197665
2499	0.195988	0.195099	0.196843	0.185723	0.198389	0.198784
