Ladekurvenmessung

Zeit: 2018_05_04 09.02.40

Info: FVA3, v = 0.749, T = 23, F = 20, h = 374.2

Ladewiderstand[Ohm]: 1012700

Störkapazität[pF]: 0.000000

Entladezeit[ms]: 200

Abtastrate[Hz]: 250000

Anzahl der Messwerte: 2500.000000

Verzögerung[ms]: 3

Ladespannung[V]: 0.200000


	Kurve_1	Kurve_2	Kurve_3
0	-0.005278	-0.000512	-0.00232
1	-0.001827	0.003268	0.000639
2	0.000474	-0.001498	-0.001169
3	0.000639	0.000474	0.002611
4	-0.000676	-0.001005	0.000639
5	0.002282	0.000803	-0.001005
6	0.000639	0.000146	-0.000512
7	0.001625	-0.001827	-0.000347
8	0.00787	-0.002648	-0.000512
9	-0.005114	-0.002648	-0.003142
10	-0.00232	0.000967	0.000146
11	-0.000676	-0.001334	-0.004456
12	0.000967	0.00146	-0.001827
13	-0.000183	-0.000841	-0.00232
14	0.001625	-0.000183	-0.000183
15	-0.001169	-0.000183	-0.001005
16	-0.000512	-1.9e-05	0.00146
17	0.001789	-0.000512	-0.001991
18	-1.9e-05	0.004255	-0.000512
19	0.006062	0.002447	-0.000676
20	-0.000676	0.000967	-0.002155
21	0.00146	-0.002155	-0.001169
22	0.000146	0.000803	0.000639
23	-0.000676	-0.001498	0.000803
24	0.000474	-0.000841	-0.001662
25	0.001296	-0.001005	0.001625
26	-0.00232	-0.001005	-0.000841
27	0.003597	0.000474	-0.00232
28	0.000146	-0.001334	-0.003635
29	0.001789	0.001625	-0.001662
30	0.001954	0.002611	-0.001005
31	-0.003635	0.000639	-0.000347
32	-0.002648	-0.001498	-0.00232
33	-0.004949	0.00031	-1.9e-05
34	0.00031	-0.000841	-0.001662
35	-0.002648	0.001296	-0.003799
36	-0.000676	-0.003963	-0.001827
37	-0.002813	-0.003142	0.000639
38	-0.000347	-0.000676	-0.001005
39	-0.000183	-0.001334	-0.005771
40	0.00146	-0.000676	-0.003142
41	0.002118	0.000639	-0.002155
42	-0.000841	-0.000512	-0.000183
43	-0.001169	-0.001662	-0.002155
44	0.000803	-0.000676	0.000639
45	-0.001334	0.000146	-0.002155
46	-0.000512	0.00146	0.000639
47	-0.003306	-0.001169	0.000639
48	-0.002648	0.001296	0.003268
49	0.000639	0.001132	-0.001498
50	-0.002484	-0.001005	-0.008565
51	-0.00347	-0.001334	-0.002977
52	-0.002155	0.001132	-0.001334
53	-0.001169	-0.000512	-0.001334
54	-0.001991	-0.001662	-0.000183
55	-0.000676	0.000967	0.000639
56	-0.003306	0.00031	-0.001827
57	0.000803	-0.001827	-0.002484
58	-0.000841	0.000146	-0.00232
59	-0.00232	-0.001991	-0.001005
60	-0.000347	0.000639	-0.001827
61	0.002118	-0.000676	-0.010702
62	0.003268	-0.001334	-0.003799
63	0.000803	0.000967	-1.9e-05
64	-0.001005	-0.000512	-0.001334
65	-0.000676	-0.000183	-0.000676
66	-0.004128	-0.001827	-0.001169
67	-0.002813	-0.00347	0.000803
68	-0.00232	-0.002977	-0.001827
69	-0.003799	-0.003799	-0.000347
70	-0.001005	-0.001662	-0.000676
71	0.000146	-0.001334	0.00031
72	-0.001498	-0.000183	-0.002155
73	-0.001662	-0.001334	-0.000841
74	0.000474	-0.000512	-0.000512
75	-0.001005	-0.000676	-1.9e-05
76	-0.000512	-0.002484	-0.000183
77	0.000967	0.00031	-0.003306
78	-0.000841	0.000803	-0.000347
79	-0.001169	-0.001498	-0.001991
80	-0.003142	-0.001169	0.001132
81	-0.003306	-0.002813	0.000967
82	-0.00347	-0.004128	-0.000841
83	-0.001498	-0.003306	0.002118
84	-0.002484	-0.002977	-0.00232
85	-0.00347	-0.000183	-0.002648
86	-0.001662	-0.000183	-0.001991
87	-0.001005	-0.000676	-0.000183
88	-0.004128	0.00031	-0.003306
89	0.001132	0.00031	-0.000841
90	-0.002155	-0.001827	-0.002648
91	-0.002977	-0.000183	-0.002484
92	-0.002155	-0.002155	-0.000841
93	0.000967	-1.9e-05	-1.9e-05
94	-0.000512	-0.001005	0.003433
95	-1.9e-05	-0.000512	0.00031
96	0.001789	-0.000512	0.002118
97	-0.002484	0.004583	-1.9e-05
98	-0.003635	-0.00232	0.000639
99	-0.004949	0.001296	-0.001005
100	0.000146	0.000639	0.000803
101	-0.001991	-0.000183	-0.002813
102	-0.003306	0.000474	-0.000183
103	-0.005607	0.000474	0.000146
104	0.000146	-0.001334	-0.001498
105	-0.001827	0.000146	0.003597
106	-0.001827	0.000474	-1.9e-05
107	-1.9e-05	-0.000841	-0.004949
108	-0.000841	0.002611	-0.001334
109	-0.001991	0.001625	-0.00347
110	0.002282	0.000803	-0.001827
111	0.00146	-0.000676	0.000146
112	-0.000676	0.000146	-0.002813
113	-0.000183	-0.001334	-0.001334
114	-0.003306	-0.000841	0.000803
115	-0.000676	-0.003306	0.001296
116	-0.002648	-0.002648	0.00146
117	-0.001005	-0.002484	-0.001498
118	-0.001991	-0.003635	-0.000347
119	-0.001169	0.000803	-0.000183
120	-0.003635	-0.001005	-0.001827
121	-0.000841	-0.000676	0.000967
122	-0.002648	0.00146	-0.002155
123	-0.002155	0.000803	0.00031
124	-0.001334	-1.9e-05	-0.001991
125	-0.000676	-0.001169	-0.001169
126	-0.001498	-0.001169	-0.001169
127	0.000639	0.000639	-0.000347
128	-0.001662	-0.002155	-0.001005
129	-0.000676	0.000474	-0.000347
130	-0.001991	-0.001334	-1.9e-05
131	-0.003799	-0.001662	-0.000347
132	0.000803	-0.00232	0.000639
133	-0.001662	-0.002155	0.001625
134	-0.002484	-0.003799	0.002775
135	-0.001662	-0.001991	0.000474
136	-0.002484	-0.002155	0.00146
137	-0.001169	-0.002155	-1.9e-05
138	-0.001005	-0.001827	-0.001334
139	-0.002977	-0.002648	-0.003635
140	-0.001169	0.001789	-0.001827
141	-0.004621	0.000146	-0.003635
142	-0.001334	0.001954	-0.001334
143	-0.000676	-0.000347	-0.000841
144	-0.001498	0.002282	-1.9e-05
145	-0.002813	-0.000512	-0.000183
146	-0.005936	-0.003306	0.002775
147	-0.001827	-0.003306	0.000474
148	-0.005443	0.005898	0.001954
149	-0.004456	-0.003142	-0.001169
150	-0.001662	-0.001827	-0.001334
151	-0.001662	0.00031	-0.000183
152	-0.000347	-0.000676	-0.001169
153	-0.001005	0.000967	-0.000183
154	-0.002484	-0.000183	-0.00347
155	-0.001169	0.000967	-0.00347
156	-0.002484	-0.000183	-0.004785
157	-0.001334	0.000146	-0.002977
158	-0.001827	-0.000347	-0.003635
159	-0.000841	0.002611	-0.004128
160	-0.000841	-0.000841	0.00409
161	-0.001498	-0.000183	0.001954
162	-0.000676	0.000639	-0.001005
163	-0.004292	0.000967	0.000803
164	-0.002155	-0.002484	0.002775
165	-0.003635	-0.001827	0.000803
166	-0.001827	-0.000676	0.000967
167	-0.001991	-0.000841	-0.001334
168	-0.001498	-0.001498	0.002447
169	-0.002155	0.000474	-0.001662
170	-0.003306	-0.001498	-0.000841
171	-0.001169	-0.000512	-0.000512
172	-0.001662	-0.003963	-0.001169
173	-0.003142	0.000803	-0.003306
174	-1.9e-05	0.000803	-0.004621
175	-0.001169	-0.001498	-0.003306
176	-0.002484	0.00031	-0.002155
177	-0.000676	0.001296	-0.002155
178	-0.003142	-0.000841	-0.001827
179	-0.00232	-0.000347	-0.000183
180	-0.000183	-0.001005	0.000639
181	-1.9e-05	-1.9e-05	-0.000841
182	-0.000347	-0.004785	0.000474
183	0.000146	-0.004128	0.001789
184	-0.003963	-0.001169	0.001132
185	-0.002484	0.000803	0.000474
186	-0.000347	-0.004456	0.000146
187	0.000146	-0.002155	-0.000347
188	-0.00232	0.00146	-0.001334
189	-0.001498	-1.9e-05	-0.003142
190	-0.001169	0.000146	-0.001991
191	0.000474	0.000474	-0.000841
192	-0.000676	-0.000183	-0.001498
193	-0.001991	0.000474	0.000639
194	-0.00232	-0.002484	-0.001169
195	-0.001169	0.002611	-0.002648
196	-0.004949	0.001789	-0.001169
197	-0.002484	-0.001498	-0.002155
198	-0.00347	-0.002977	0.000967
199	-0.005771	-0.002813	-0.003142
200	-0.0061	-0.002484	0.00031
201	-0.002648	-0.003963	-0.001334
202	0.000146	-0.000183	-0.000183
203	-0.002648	-0.001169	-0.000512
204	0.000146	0.001625	-0.001005
205	0.000639	-0.002648	-0.004292
206	-0.001005	0.000474	-0.002977
207	-0.003635	0.000146	-0.003799
208	-0.001498	0.000146	-0.002484
209	-0.001334	-0.000347	-0.003799
210	-0.002648	0.000967	-0.002155
211	-0.001169	-0.002648	-1.9e-05
212	-0.003306	-0.000841	0.000639
213	-0.004785	0.000146	0.002282
214	-0.001991	-0.001334	-0.000347
215	-0.001991	0.000146	0.001954
216	-0.001991	-0.001334	0.00031
217	0.003104	0.002118	0.000639
218	-0.001169	-0.001662	-0.00232
219	-0.001991	-0.002155	0.001132
220	-0.001827	-0.000841	0.000146
221	-0.001827	0.00409	0.002282
222	-0.00232	-0.000183	-0.000347
223	0.00146	0.000967	-0.001991
224	0.000967	-0.001169	-0.001498
225	-0.000512	-1.9e-05	-0.000841
226	-0.000841	-0.002648	0.000967
227	-0.002648	-0.000347	-0.000512
228	0.002611	0.000474	0.000639
229	-0.004456	-0.001005	0.00031
230	-0.002155	-0.000183	0.001132
231	-0.001169	-0.000841	-0.00347
232	-0.002648	-0.000841	-0.000183
233	-0.00232	-0.003142	-0.002155
234	0.00294	-0.001991	0.00146
235	0.000803	-0.001334	-0.000841
236	0.000967	-0.001827	-0.000183
237	0.001132	-0.002155	-0.000183
238	0.001132	-0.001334	-1.9e-05
239	0.001954	-0.001005	-0.000676
240	-0.001991	0.002775	-0.000676
241	-0.000676	-0.002813	-0.000841
242	-0.000347	-1.9e-05	-0.001827
243	-0.000512	0.000146	0.001954
244	-0.001827	-0.002484	-0.002648
245	0.001954	-0.001827	-0.001827
246	-0.001169	-0.000676	-0.001991
247	-0.001169	0.000146	-1.9e-05
248	-0.00232	0.00031	0.000146
249	-0.002977	-0.001169	-0.00347
250	0.002775	-0.000512	-0.001334
251	-0.004128	-0.000183	-0.001498
252	-0.002648	-0.000183	-0.000841
253	0.000146	0.000639	-0.000841
254	0.00031	-0.001005	0.003597
255	0.001132	-0.000183	-0.000347
256	0.003926	-0.001827	-0.000676
257	0.002611	0.000146	-0.001827
258	0.001132	0.000474	-0.000676
259	-0.000183	-0.00232	-0.002484
260	0.000146	-0.001662	-0.001662
261	-0.001169	-0.001169	-0.00232
262	0.005569	0.000146	-0.004292
263	-0.004785	0.000146	-0.001662
264	0.000474	0.000146	-1.9e-05
265	0.002118	0.000639	-0.001005
266	0.000474	0.001625	0.001132
267	0.005898	-0.003963	-0.000676
268	0.005241	-0.001169	-0.000841
269	0.002282	0.000146	-0.000512
270	0.00146	0.00146	0.00031
271	0.004912	-0.002484	-0.002813
272	-0.000512	0.00031	-0.00232
273	0.001954	0.000474	0.000146
274	-0.002155	-0.001005	0.000146
275	0.000803	-0.000183	0.00031
276	-0.001169	-0.001005	0.002282
277	-1.9e-05	-0.000512	0.001625
278	0.000146	-0.001991	0.003268
279	0.001132	0.001132	0.000146
280	-0.000676	-0.002484	-0.000183
281	0.000474	-0.002155	-0.002155
282	0.000967	-0.003306	-0.005443
283	0.003268	0.000967	-0.002813
284	0.002775	-0.001991	-0.001498
285	0.003761	-0.001005	-0.001991
286	0.001954	-0.001991	-0.000347
287	0.002611	0.002282	0.001625
288	0.002447	-0.001169	0.001789
289	0.000146	-0.000512	0.000639
290	0.003926	-0.001991	0.000803
291	0.001296	-0.002155	-0.001334
292	0.002118	-0.000183	0.001132
293	0.000967	-0.001005	-0.001498
294	-1.9e-05	0.000639	-0.001827
295	0.000967	0.003104	0.000803
296	-0.003635	-0.001005	0.001132
297	-0.001827	-0.000512	-0.002648
298	-0.000183	0.002118	0.001954
299	-0.000676	0.002447	-0.001169
300	0.00031	0.001296	-0.001169
301	0.00409	-1.9e-05	-0.000512
302	0.001789	0.001296	-0.001334
303	0.002611	0.001132	0.001789
304	0.002282	0.000474	-0.004128
305	0.00146	-0.001334	-0.000512
306	-0.002813	-0.001005	-0.001334
307	-0.000183	-0.001005	-0.001498
308	-0.002155	-0.001991	-0.001334
309	-0.000512	-0.001498	0.00146
310	0.001132	0.000146	-0.000347
311	-0.002648	-0.000347	0.000474
312	-0.000183	-0.002155	0.003104
313	-0.000841	-1.9e-05	-0.001498
314	0.00031	0.000474	-1.9e-05
315	0.001296	-0.003963	-0.000512
316	0.00031	-0.005443	-0.002484
317	0.00409	0.002775	-0.001662
318	-0.001827	-0.002484	-0.000676
319	-0.000512	-0.001827	-0.001827
320	0.001132	0.000474	0.002282
321	-1.9e-05	-0.006922	0.002447
322	-0.002648	-0.002813	0.000803
323	0.000146	-0.003306	0.00031
324	0.000474	-0.002484	0.002447
325	-0.001334	-0.003799	0.003104
326	-0.001005	-0.002813	0.003926
327	-0.000347	-0.002648	-0.001498
328	-0.003963	-1.9e-05	0.000474
329	-0.001991	-0.002484	0.00294
330	-0.001005	-0.002813	-0.000183
331	-0.000512	-0.003635	0.00031
332	-0.001169	-0.002484	-0.000183
333	-0.00347	-0.002813	-0.001169
334	-0.001662	-0.002648	-0.000841
335	0.000639	-0.000183	-0.003306
336	-0.00232	-0.003306	0.00031
337	-0.001169	-0.001005	0.000967
338	-0.002155	-0.001334	-0.001498
339	-0.002155	-0.001498	-0.001498
340	-0.003799	0.000474	-0.000183
341	0.001789	-0.002155	0.00031
342	-0.001334	-0.004128	0.000146
343	-0.000676	0.000146	0.003104
344	-0.003142	-0.002813	0.002775
345	0.001954	0.000639	-0.001498
346	-0.001169	-0.001169	-0.000841
347	-0.001005	-0.000183	0.000639
348	-0.001169	0.000474	-0.001334
349	-0.000512	-0.003142	-0.002155
350	-0.003142	0.002775	-0.001169
351	-0.005114	0.001954	-0.001498
352	-0.00347	-0.000347	-0.001169
353	-0.003963	0.000639	-0.001498
354	-0.002977	-0.001662	-0.000676
355	-0.004456	-0.002484	-0.001169
356	0.00031	-0.001662	0.000146
357	-0.001334	-0.001498	-0.004128
358	0.000146	-0.001498	-0.000676
359	-0.000512	-0.00347	-0.003142
360	0.002447	0.00146	0.000803
361	-0.001662	-0.003306	-0.003799
362	-0.001991	-0.000676	0.001296
363	-0.001991	-0.002648	0.000803
364	-0.001991	-0.000676	0.003597
365	0.001789	-0.003963	0.001132
366	-0.001498	-0.003963	0.000803
367	0.005569	-0.001662	-0.000347
368	-0.000183	-0.000676	-0.001005
369	-0.000347	-0.002977	-1.9e-05
370	-0.001991	-0.004292	-0.003963
371	-0.001334	0.000803	0.00031
372	-0.003306	0.001296	-0.001662
373	-0.001334	-0.001169	-0.001334
374	-0.001498	-0.000841	-0.001169
375	-0.001498	0.002118	0.001954
376	-0.002977	-0.003142	0.003597
377	-0.000676	-0.00347	-0.001169
378	0.000474	-0.004292	0.000803
379	-0.001827	-0.001005	-0.001827
380	-0.000183	-0.002813	0.003104
381	-0.003963	-0.002813	-0.000841
382	0.000803	-0.001334	-0.001334
383	-0.002648	-0.000676	-0.001498
384	-0.001005	-0.001827	-0.000841
385	-0.001005	-0.003306	-0.002484
386	-0.002648	-0.001498	-0.001169
387	-0.003306	-0.00347	0.000967
388	-0.004949	-0.002977	0.000146
389	-0.000841	-0.005443	-0.001334
390	-0.003799	-0.001991	-0.001662
391	-0.001662	-0.004128	-0.000841
392	-1.9e-05	-0.001827	-0.001662
393	0.000146	-0.004456	-0.005607
394	0.000639	-0.002155	-0.002813
395	-0.00232	-0.004621	-0.002155
396	-0.002813	-0.00347	-0.000841
397	0.001296	-0.001827	-1.9e-05
398	-0.002813	-0.005936	-0.000347
399	-0.001498	-0.004621	0.00031
400	-1.9e-05	-0.001662	-0.002155
401	-0.000512	-0.003142	0.000639
402	-0.00347	-0.004621	-1.9e-05
403	-0.001005	-0.00347	-0.001334
404	-0.005443	-0.005278	-0.004785
405	0.000967	-0.005771	-0.001991
406	0.001132	-0.003635	-0.00232
407	0.000474	-0.003306	-0.003963
408	0.000474	-0.002484	-0.001991
409	0.00031	-0.002813	-0.001169
410	-0.001169	-0.003635	-0.000676
411	0.00146	-0.005278	-0.000512
412	0.00031	-0.006922	-0.001005
413	-0.000183	-0.004785	-0.00232
414	0.00146	-0.00725	-0.001334
415	0.005734	-0.008401	-0.001334
416	0.005241	-0.005771	0.000146
417	0.005734	-0.005114	-0.00232
418	0.003433	-0.005278	-0.001005
419	0.002611	-0.00347	0.000639
420	0.004255	-0.005443	0.00146
421	0.000474	-0.0061	-0.001334
422	0.003926	-0.001005	-0.001662
423	0.003104	-0.006264	-0.001334
424	0.002775	-0.004128	0.000803
425	0.004912	-0.003142	-0.003142
426	0.009678	-0.003963	-0.001498
427	0.005405	-0.00347	-0.004621
428	0.003761	-0.001827	-0.000841
429	0.004912	-0.005278	-0.002155
430	0.00146	-0.004292	-0.000676
431	0.002447	-0.00232	0.005241
432	0.00031	-0.001498	-0.000841
433	0.003104	-0.003799	0.00146
434	0.002775	-0.004128	-0.000841
435	0.002775	0.00031	0.001789
436	-0.001662	-0.00347	-0.001827
437	-0.000183	-0.000841	-0.001498
438	-0.000676	-0.000183	-0.000512
439	-0.001498	0.000803	-0.000676
440	0.001132	-0.001169	-0.002648
441	-0.000512	0.001625	-0.005771
442	0.00146	0.000146	-0.001827
443	-0.003142	0.003104	-0.001334
444	0.003104	-0.000512	0.000474
445	0.00031	0.000146	-0.000841
446	0.002611	-0.001169	0.00146
447	0.000474	0.00146	-0.001169
448	-1.9e-05	-0.005771	0.000474
449	-0.001334	-0.005936	0.000146
450	-0.001169	-0.000841	-0.000512
451	-0.001827	-0.003142	-1.9e-05
452	-0.00232	0.001789	-0.00232
453	0.000803	-0.001498	-0.001498
454	-0.004128	-0.002813	-0.002648
455	-0.001827	-0.000347	-0.004456
456	-0.004128	0.000639	-0.001334
457	0.000474	0.000474	-0.001334
458	-0.001991	0.000639	-0.004292
459	0.000803	-0.00232	-0.005114
460	-0.001169	0.000967	-0.003306
461	0.000474	0.000967	-1.9e-05
462	-0.001005	-0.000676	-0.00232
463	0.001132	0.000474	-0.000841
464	-0.000841	-0.003306	-0.000183
465	0.001625	-1.9e-05	0.00031
466	-0.000347	-0.000183	-1.9e-05
467	0.001296	0.001296	0.004583
468	0.00031	0.000639	0.005076
469	-0.000676	0.001296	0.001954
470	0.001954	-0.000841	0.000803
471	-0.000183	-0.001005	-0.000512
472	0.000146	-0.002484	0.000146
473	-0.000183	-0.003142	-0.001991
474	0.001625	-0.000347	-0.004456
475	-0.002977	0.000639	-0.000183
476	-0.000183	-0.002155	-0.001005
477	-0.002484	0.000146	-0.001498
478	0.000639	0.000474	-0.001169
479	-0.001169	-0.001334	-0.001662
480	-1.9e-05	0.00031	-0.001005
481	0.000474	-0.002813	-0.001005
482	-0.000676	-0.004621	0.000146
483	-1.9e-05	-0.00232	-0.001991
484	-0.001334	-0.003635	-1.9e-05
485	-0.000512	-0.00347	-0.001169
486	-0.001662	-0.000183	0.000639
487	-0.001827	0.000146	-0.00232
488	-0.001005	-0.002155	-0.001827
489	0.00031	-0.002648	-0.006264
490	-0.002155	-0.000347	-0.00347
491	0.000474	-0.002155	-0.004785
492	0.001296	-0.000841	-0.00347
493	-0.001827	0.000967	-0.001498
494	-0.001498	-0.000183	-0.003963
495	-1.9e-05	0.000474	-0.000183
496	-0.00232	0.000146	-0.002155
497	-0.001662	-1.9e-05	-0.001334
498	-0.005443	-0.005278	0.000146
499	-0.000512	-0.005443	-0.002648
500	-0.001005	-0.005278	0.00031
501	-0.001498	-0.002813	0.00031
502	0.001296	-0.005771	-0.001169
503	0.000967	-0.000676	0.000967
504	-1.9e-05	-0.002648	-0.000347
505	-0.002977	-0.001827	-0.002813
506	0.002611	-0.005114	-0.000347
507	-0.001662	0.000474	-0.004949
508	-0.000841	-0.000512	-0.002155
509	-0.000841	-0.002155	-0.002977
510	0.000474	0.000803	-0.001991
511	-0.001991	-0.003306	-0.00347
512	-0.000512	-0.001334	-0.000841
513	-0.001991	-0.001169	-0.002484
514	0.00031	-0.001169	-0.001827
515	-0.001662	-0.001662	-0.001827
516	-0.000841	0.001789	0.000639
517	-0.001991	-0.001827	-0.002155
518	-0.001169	-0.000183	-0.003635
519	0.000474	-0.002977	-0.000676
520	-0.001827	-0.002484	0.000803
521	0.001625	-0.003799	-0.001991
522	-0.001005	-0.003963	-0.001991
523	0.000474	-0.002484	-0.001169
524	-0.001991	0.000967	-0.003142
525	-0.001334	0.001132	-0.001498
526	-0.002648	-0.001662	-0.001827
527	-0.001827	-0.001005	-0.000512
528	-1.9e-05	-0.001662	-0.000347
529	-0.000841	0.001296	-0.001662
530	-0.001498	-0.003799	-0.001169
531	-0.003306	-0.00347	-0.001662
532	0.000639	-0.005278	-0.001498
533	0.00031	-0.001662	0.00031
534	-0.001005	-0.003799	-0.000841
535	-0.001662	-0.005936	-0.001169
536	0.00031	0.000146	-0.000676
537	-0.002648	-0.001169	-0.003306
538	0.000967	-0.003142	0.000803
539	-0.001005	-0.003306	-0.003306
540	0.001296	0.000474	-0.001991
541	-0.000676	-0.004785	-0.00232
542	-0.000676	-0.003963	-0.000183
543	-0.000676	-0.001827	-0.000841
544	-0.000512	-0.000512	-0.002813
545	0.000474	-0.003142	-0.001991
546	-0.004621	-0.001498	-0.001169
547	-0.002813	-0.002484	-0.003306
548	-0.007415	0.001296	-0.000512
549	0.000474	-0.003635	-1.9e-05
550	-0.002155	-0.003142	-0.001169
551	-0.00232	-0.003142	-0.001498
552	-0.000347	-0.002648	0.000803
553	0.000474	-0.00347	-0.000841
554	-0.000676	-0.001827	-0.003142
555	0.002118	-0.001991	-0.001498
556	0.002611	-0.002484	-0.002977
557	0.004748	-0.001662	-0.001005
558	0.001789	-0.001662	-0.004128
559	-0.000183	-0.000183	-0.001005
560	-0.000183	0.000639	-0.001334
561	-0.001005	-0.001498	-0.000841
562	-0.002484	-0.00232	-0.00232
563	-0.001662	-0.000183	0.001296
564	-0.002977	-0.00347	0.001132
565	0.001132	0.000474	-0.001991
566	-0.001005	-0.001334	-0.001991
567	-0.001498	0.000474	-0.000347
568	0.000803	0.000474	0.000967
569	-0.002813	-0.001827	-0.003963
570	0.000639	-0.001991	-0.001498
571	-0.001827	-0.001334	-0.001662
572	0.001789	0.000967	-0.001005
573	-0.000347	-1.9e-05	-0.00232
574	-0.001334	0.00031	0.00146
575	0.00294	-0.003635	-0.000512
576	0.003761	-0.002155	-1.9e-05
577	0.003104	-0.002648	-0.001005
578	-0.000512	-0.003306	0.00146
579	-0.002813	-0.004128	-0.002977
580	-0.001827	-0.001662	-0.001334
581	-0.002155	-0.001991	-0.000183
582	-0.003635	-0.002813	-0.002648
583	-0.000841	-0.004128	-0.003635
584	-0.00232	-0.002977	-0.001005
585	-0.001334	-0.003142	0.00031
586	-0.001662	-0.003635	-0.001005
587	0.000146	-0.001169	-0.000676
588	-0.001498	-0.001169	0.001954
589	0.001954	-0.002484	-0.001498
590	-0.000841	-0.001334	-0.000676
591	0.000639	0.001625	0.000639
592	-0.000512	-0.002648	-0.001169
593	-0.001334	0.000639	0.001789
594	-0.00347	-0.004621	0.000146
595	-0.00232	-0.004456	-0.000512
596	-0.002977	-0.00232	-0.001005
597	-0.003306	-0.003142	-0.000183
598	-0.00232	0.00031	-0.000347
599	-0.003635	-0.001827	-0.00232
600	-0.001334	-0.001662	0.001296
601	-0.004292	-0.005771	-0.003963
602	-0.001334	-0.001334	-0.001169
603	-0.002484	-0.001662	-0.004292
604	-0.004128	-0.002155	-0.002977
605	-0.002977	-0.001334	-0.002813
606	-0.006264	-0.002977	-0.002648
607	0.001789	-0.002155	-0.005278
608	-0.000841	-0.001498	0.000639
609	-0.000347	-0.002977	-0.00347
610	-1.9e-05	0.000474	-0.001169
611	-0.001991	-0.003635	0.000803
612	-0.002648	-0.005114	-0.004949
613	-0.001662	-0.002484	0.000146
614	-0.004292	-0.001991	-0.000841
615	0.000639	-0.000183	0.000146
616	-0.004456	0.002118	-0.001005
617	-0.00232	-0.002155	-0.001827
618	-0.002155	-0.002977	-1.9e-05
619	-0.002155	0.00031	0.002282
620	-0.001005	-0.001005	-0.001334
621	-0.001991	-0.001498	-0.002813
622	-0.002648	-0.002813	0.001954
623	0.000146	-0.002648	-0.001662
624	0.000803	-0.004456	-0.001827
625	-0.000347	-0.005936	-1.9e-05
626	0.000474	-0.003306	-0.000841
627	-0.004621	-0.000183	-0.000841
628	-0.004949	-0.006922	0.00031
629	-0.001991	-0.001498	-0.001169
630	-0.002484	-0.001991	-0.000512
631	-0.001991	-0.001991	-0.001169
632	-0.00232	-0.001662	-0.001169
633	-0.003306	-0.001005	-0.001334
634	-0.001169	-0.004128	-0.003799
635	-0.00347	-0.001169	-0.001827
636	-0.004128	-0.003799	-0.002977
637	-0.00232	-0.001334	-0.001662
638	-0.000183	-0.000676	-0.003963
639	-0.001662	-0.003799	-0.000512
640	-1.9e-05	-0.001991	-0.002977
641	-0.002484	0.001296	-0.003142
642	-0.00232	-0.001005	-0.000512
643	-0.000841	-0.003142	-0.000512
644	-0.001991	-0.000676	-0.001005
645	-0.003963	-0.005114	-0.001498
646	-0.002648	-0.001334	-0.004456
647	-0.003963	-0.001334	-0.001169
648	-0.003635	-0.000183	-0.001991
649	-0.005443	-0.002155	-0.00232
650	-0.005443	-0.001991	-0.005443
651	-0.002648	-0.005443	-0.000676
652	-0.0061	-0.001005	-0.003635
653	-0.001991	0.000639	-0.001991
654	-0.001991	-0.002484	-0.003635
655	-0.002813	0.000474	-0.004292
656	-0.000676	-0.003635	-0.003799
657	-0.004292	0.000639	-0.001827
658	-0.003142	-0.002484	-0.003963
659	-0.002484	-0.000512	-0.001498
660	-0.001827	0.001132	-0.001991
661	-0.004456	-0.001005	-0.001169
662	-0.002648	-0.003963	-0.000841
663	0.00146	-0.001662	0.000474
664	-0.003963	-0.002977	-0.001005
665	-0.001334	0.000474	-0.004621
666	-0.000512	0.001625	-0.002484
667	-0.001991	-0.001991	-0.002484
668	-0.002155	0.000474	-0.004785
669	-0.001005	0.000639	-0.005443
670	-0.002813	-0.000347	-0.000512
671	-0.001991	-0.001827	-0.005443
672	-0.001662	0.000146	-0.001991
673	0.000474	-0.000676	-0.000512
674	-0.004949	-0.004292	-0.001827
675	-0.00347	0.001954	-0.001498
676	-0.002648	0.001954	0.000474
677	-0.003142	-0.000347	-0.00232
678	-0.000347	0.00031	-0.001005
679	0.002447	0.001954	-0.003799
680	-0.001334	0.000146	-0.000347
681	0.000474	0.000803	-0.001334
682	-0.002484	0.00031	-0.002813
683	-0.001005	0.00031	-0.001827
684	-0.003799	-0.001005	-0.002813
685	-0.002155	0.005734	-0.001827
686	-0.002977	0.00409	-0.005278
687	-0.001662	0.005569	-0.00232
688	-0.000347	0.005076	-0.005443
689	-0.001991	0.00409	-0.004292
690	-0.000676	0.005898	-0.006429
691	-0.002977	0.009678	-0.001169
692	-0.001498	0.009514	-0.001498
693	-0.001498	0.009843	-0.001169
694	0.000146	0.008035	-0.00232
695	-0.000841	0.009843	-0.002977
696	-0.001334	0.008692	-1.9e-05
697	-0.003963	-0.001662	-0.003142
698	-0.001827	0.000639	-0.000183
699	-0.001169	-0.003799	-0.003142
700	-0.002155	-0.000347	-0.001991
701	-0.004128	0.000474	-0.002155
702	-0.003963	0.002447	-0.001827
703	-0.002813	0.001296	-0.003306
704	-0.002648	0.003761	-0.002648
705	-0.000183	0.001132	-0.004785
706	-0.004621	0.00031	-0.004128
707	-0.001827	-0.00347	-0.003306
708	-0.004949	0.003268	-0.005443
709	-0.002484	-0.000512	-0.001662
710	-0.001991	-0.000183	-0.00347
711	-0.001169	0.000146	0.000803
712	-0.001827	0.002282	-0.001005
713	0.000967	0.00146	-0.000841
714	-0.001498	-0.001005	-0.001498
715	-0.000183	0.001132	0.001789
716	-0.000347	-0.001169	-0.002648
717	-0.000347	0.001625	-0.000512
718	-0.00232	-0.002155	-0.003142
719	-0.000347	0.000639	0.001625
720	-0.001169	0.00146	-0.005771
721	-0.001498	0.00409	-0.001334
722	-0.001498	-0.000676	-0.003635
723	-0.006264	0.004419	-0.002813
724	-0.000347	0.001954	0.00031
725	-0.005771	0.010336	-0.00232
726	-0.000676	0.008528	-0.001169
727	-0.003306	0.003926	-0.003142
728	0.000146	-0.000512	-0.002648
729	-0.005114	0.001132	-0.001498
730	-0.001498	-0.001991	0.001132
731	-0.001498	-1.9e-05	-0.002977
732	-0.000676	0.006391	-0.000183
733	-0.001827	0.00787	-0.002648
734	-0.000512	0.009185	-0.001005
735	-0.001827	0.007706	-0.002155
736	-0.003635	0.011486	0.000967
737	0.00031	0.012144	0.001296
738	-0.00232	0.004912	-0.001334
739	-0.002977	0.003268	-0.004128
740	-0.003799	0.003104	0.00146
741	-0.000347	0.003268	0.000967
742	-0.003306	0.006884	-0.0061
743	-0.000676	0.009678	-0.000512
744	-0.000841	0.010171	-0.001827
745	0.000639	0.013459	-0.00232
746	-0.002977	0.012637	-0.00232
747	-0.003142	0.013294	-0.001662
748	-0.003799	0.00935	-0.00232
749	-0.000347	0.008035	-0.001005
750	-1.9e-05	0.006556	0.000803
751	0.001132	0.014773	0.005241
752	0.012308	0.021183	0.010664
753	0.019211	0.030223	0.016088
754	0.027429	0.034496	0.028251
755	0.035647	0.042714	0.032524
756	0.041399	0.049453	0.037126
757	0.046494	0.056191	0.043043
758	0.052575	0.062273	0.054055
759	0.05537	0.065724	0.058164
760	0.065231	0.072791	0.06556
761	0.069504	0.076572	0.069669
762	0.075914	0.085118	0.0769
763	0.081502	0.084625	0.080845
764	0.087419	0.093172	0.084625
765	0.092021	0.093993	0.090542
766	0.095966	0.101225	0.095144
767	0.102047	0.104512	0.099253
768	0.103197	0.108293	0.104841
769	0.111744	0.106156	0.109607
770	0.109607	0.103526	0.112237
771	0.114538	0.111415	0.115195
772	0.117496	0.113388	0.118483
773	0.11914	0.120291	0.122098
774	0.123742	0.121605	0.123906
775	0.126372	0.125879	0.126372
776	0.129001	0.125879	0.129823
777	0.135904	0.132782	0.133768
778	0.137548	0.13196	0.133439
779	0.140342	0.136726	0.137712
780	0.141657	0.138534	0.140835
781	0.143301	0.135247	0.143301
782	0.147409	0.139849	0.144287
783	0.147409	0.144615	0.150204
784	0.151683	0.145273	0.146259
785	0.151683	0.14856	0.153162
786	0.153326	0.149382	0.158257
787	0.155299	0.154641	0.154806
788	0.158093	0.15875	0.156778
789	0.159736	0.15875	0.15497
790	0.159572	0.160229	0.158586
791	0.159736	0.160229	0.159736
792	0.163845	0.155299	0.160722
793	0.164174	0.163845	0.16401
794	0.168447	0.165982	0.167132
795	0.167132	0.164338	0.167132
796	0.169105	0.168118	0.16894
797	0.169598	0.170584	0.168612
798	0.169926	0.170913	0.172885
799	0.171241	0.015431	0.170748
800	0.174035	0.010829	0.173378
801	0.174035	0.017567	0.174528
802	0.172556	0.025621	0.174528
803	0.176994	0.012965	0.175843
804	0.176829	0.006227	0.173871
805	0.179952	0.015431	0.179295
806	0.180938	0.014445	0.177487
807	0.182253	0.025785	0.177322
808	0.182253	0.031538	0.180281
809	0.180281	0.039591	0.181103
810	0.182582	0.046823	0.180116
811	0.182417	0.05274	0.182089
812	0.182746	0.059643	0.182417
813	0.182911	0.065231	0.184718
814	0.185047	0.060465	0.184883
815	0.184554	0.070819	0.182582
816	0.185212	0.07575	0.186855
817	0.184225	0.082982	0.186526
818	0.187841	0.088898	0.186033
819	0.186198	0.091692	0.187513
820	0.18932	0.096623	0.191621
821	0.187513	0.105005	0.188663
822	0.190964	0.104512	0.189156
823	0.188499	0.109443	0.189649
824	0.189485	0.113552	0.190471
825	0.191128	0.108293	0.187677
826	0.192279	0.120291	0.188827
827	0.189814	0.117168	0.188827
828	0.191786	0.124399	0.191621
829	0.188006	0.127029	0.187841
830	0.192608	0.13311	0.191786
831	0.190471	0.135411	0.191786
832	0.193265	0.138699	0.188499
833	0.193922	0.138205	0.194251
834	0.190142	0.143136	0.190142
835	0.191457	0.142314	0.193922
836	0.189978	0.136726	0.190471
837	0.193265	0.145108	0.189156
838	0.196388	0.151354	0.190964
839	0.191457	0.153655	0.194251
840	0.19458	0.154312	0.193265
841	0.194416	0.154641	0.193922
842	0.194416	0.155463	0.196552
843	0.193758	0.162695	0.192936
844	0.195895	0.160229	0.191621
845	0.192772	0.162859	0.193758
846	0.194087	0.162695	0.193758
847	0.193265	0.159243	0.192279
848	0.196388	0.164667	0.196717
849	0.193265	0.166639	0.193265
850	0.19458	0.170091	0.193101
851	0.190635	0.170584	0.194744
852	0.192115	0.170419	0.197703
853	0.194744	0.174035	0.195895
854	0.194087	0.172556	0.191786
855	0.196223	0.175021	0.193429
856	0.194416	0.174693	0.195402
857	0.198196	0.173707	0.191786
858	0.198853	0.172885	0.193922
859	0.196552	0.175186	0.194251
860	0.19836	0.178802	0.194251
861	0.196552	0.179623	0.194251
862	0.196388	0.182746	0.193594
863	0.196881	0.180116	0.194909
864	0.19458	0.183568	0.198524
865	0.19836	0.18439	0.197045
866	0.19721	0.179952	0.19573
867	0.195073	0.18061	0.197538
868	0.196717	0.182582	0.195895
869	0.196223	0.18176	0.193429
870	0.196388	0.180938	0.194416
871	0.19836	0.185212	0.198031
872	0.194909	0.184225	0.196717
873	0.199018	0.187184	0.198031
874	0.20362	0.186198	0.196388
875	0.198196	0.012308	0.197867
876	0.198524	0.018554	0.197374
877	0.199675	0.026607	0.195566
878	0.198524	0.031209	0.196881
879	0.196059	0.041564	0.195073
880	0.195895	0.050439	0.196717
881	0.192443	0.05389	0.194909
882	0.195895	0.058985	0.198031
883	0.191128	0.065395	0.195237
884	0.195895	0.07049	0.198196
885	0.19836	0.070819	0.193594
886	0.194744	0.07838	0.196388
887	0.19836	0.082817	0.195402
888	0.19836	0.089885	0.197045
889	0.194416	0.093336	0.19721
890	0.200497	0.09991	0.196881
891	0.198031	0.105005	0.197045
892	0.197867	0.103855	0.194251
893	0.197374	0.107142	0.195566
894	0.199018	0.113552	0.194909
895	0.195073	0.118154	0.201647
896	0.193429	0.121277	0.196717
897	0.196552	0.124071	0.199511
898	0.19573	0.129001	0.196223
899	0.199182	0.134097	0.197045
900	0.195073	0.134097	0.195895
901	0.195566	0.136562	0.197538
902	0.197045	0.142807	0.195895
903	0.196881	0.140671	0.196059
904	0.198196	0.140342	0.196717
905	0.197538	0.146259	0.195402
906	0.199675	0.144122	0.196388
907	0.199511	0.147738	0.196717
908	0.20099	0.149875	0.197538
909	0.198689	0.144944	0.194251
910	0.20214	0.144944	0.196881
911	0.19836	0.146588	0.199182
912	0.199346	0.153162	0.197045
913	0.197374	0.156449	0.194251
914	0.197045	0.151683	0.194909
915	0.196388	0.156613	0.19836
916	0.197703	0.155134	0.197045
917	0.197538	0.15875	0.196223
918	0.197374	0.158093	0.200661
919	0.195895	0.160558	0.195895
920	0.19836	0.16516	0.192772
921	0.200661	0.163188	0.196552
922	0.198853	0.165489	0.196552
923	0.200661	0.166968	0.19721
924	0.200168	0.17272	0.198031
925	0.199346	0.168118	0.197045
926	0.198853	0.171077	0.197867
927	0.199511	0.170091	0.199018
928	0.199511	0.17272	0.197374
929	0.199018	0.175021	0.199675
930	0.197703	0.173378	0.200332
931	0.196881	0.1742	0.197867
932	0.201976	0.177815	0.198689
933	0.19836	0.176994	0.197045
934	0.195566	0.173871	0.195402
935	0.196881	0.182582	0.198689
936	0.196717	0.17535	0.193265
937	0.196059	0.175679	0.198196
938	0.197867	0.178802	0.197538
939	0.198689	0.137548	0.196388
940	0.197867	0.13574	0.198689
941	0.199018	0.120948	0.199182
942	0.198689	0.120455	0.19721
943	0.200004	0.007213	0.197538
944	0.195073	0.003761	0.201319
945	0.19458	0.011158	0.19721
946	0.196717	0.022169	0.202469
947	0.19458	0.023156	0.197374
948	0.192115	0.036304	0.198853
949	0.192772	0.039263	0.19836
950	0.194909	0.047809	0.196881
951	0.194416	0.053726	0.198196
952	0.183075	0.060793	0.19836
953	0.147081	0.066546	0.194744
954	0.148067	0.071148	0.194087
955	0.150861	0.065231	0.195402
956	0.150697	0.074435	0.194087
957	0.153655	0.078708	0.196223
958	0.157271	0.080516	0.196717
959	0.161215	0.08594	0.199675
960	0.158421	0.091692	0.197867
961	0.164667	0.095473	0.201154
962	0.163845	0.101225	0.199018
963	0.16253	0.10254	0.203126
964	0.167461	0.107142	0.197045
965	0.168612	0.111251	0.19836
966	0.16779	0.111087	0.19721
967	0.169926	0.11914	0.199018
968	0.169598	0.123249	0.196223
969	0.170913	0.125221	0.195402
970	0.173378	0.127687	0.195237
971	0.17157	0.112401	0.195402
972	0.176994	0.113059	0.196388
973	0.176665	0.118976	0.196223
974	0.176336	0.123742	0.20214
975	0.178144	0.125714	0.196059
976	0.181924	0.12818	0.197538
977	0.177651	0.128344	0.198524
978	0.181596	0.129823	0.199839
979	0.180445	0.133603	0.196717
980	0.182746	0.138534	0.198689
981	0.181596	0.133603	0.199018
982	0.183239	0.140506	0.200168
983	0.180938	0.142643	0.199018
984	0.180938	0.144451	0.199182
985	0.184061	0.146752	0.199346
986	0.182417	0.149053	0.198524
987	0.18554	0.151354	0.19836
988	0.184061	0.157271	0.196552
989	0.185705	0.155463	0.198031
990	0.186033	0.1576	0.196223
991	0.187019	0.161051	0.196388
992	0.188006	0.156449	0.19721
993	0.186362	0.16253	0.201319
994	0.187841	0.160887	0.196552
995	0.1908	0.157928	0.198031
996	0.186855	0.000639	0.200004
997	0.188499	-0.000183	0.198689
998	0.187513	-0.000347	0.196717
999	0.184883	-0.000183	0.199346
1000	0.185869	-0.000512	0.198689
1001	0.170748	0.000146	0.197374
1002	0.164996	-0.000183	0.19721
1003	0.168776	-1.9e-05	0.195402
1004	0.170419	0.000803	0.19458
1005	0.171406	0.003597	0.197867
1006	0.17157	0.007542	0.19721
1007	0.171077	0.003597	0.195402
1008	-0.000183	0.00935	0.199018
1009	0.001625	0.009678	0.19721
1010	0.011651	0.022169	0.19836
1011	0.017074	0.025621	0.197374
1012	0.025785	0.035647	0.201319
1013	0.03351	0.038934	0.198689
1014	0.039756	0.045672	0.200661
1015	0.047152	0.051425	0.199511
1016	0.053233	0.058985	0.200168
1017	0.0603	0.061286	0.197374
1018	0.064738	0.070162	0.198031
1019	0.071805	0.074106	0.196881
1020	0.074599	0.080352	0.194744
1021	0.080516	0.085776	0.194744
1022	0.082488	0.091035	0.196388
1023	0.095801	0.096788	0.196552
1024	0.093829	0.09876	0.196388
1025	0.099582	0.107471	0.200004
1026	0.10254	0.103691	0.195073
1027	0.107964	0.111087	0.199018
1028	0.112566	0.114209	0.19836
1029	0.114867	0.116839	0.199346
1030	0.118318	0.122427	0.200004
1031	0.119797	0.121934	0.199839
1032	0.121605	0.123085	0.198689
1033	0.124235	0.129823	0.199182
1034	0.129495	0.137055	0.200497
1035	0.13196	0.132453	0.197045
1036	0.135576	0.135904	0.202798
1037	0.137548	0.133603	0.198853
1038	0.141821	0.015431	0.19836
1039	0.141493	0.023649	0.198689
1040	0.146259	0.030716	0.199675
1041	0.146259	0.038605	0.19458
1042	0.146588	0.04633	0.197045
1043	0.150861	0.051261	0.194251
1044	0.151518	0.058657	0.193922
1045	0.155792	0.066875	0.188827
1046	0.159079	0.069011	0.189649
1047	0.162695	0.074271	0.185705
1048	0.159408	0.082982	0.183568
1049	0.160229	0.084461	0.176501
1050	0.162859	0.08972	0.173378
1051	0.164996	0.091035	0.172063
1052	0.163845	0.097281	0.166804
1053	0.166639	0.10139	0.169762
1054	0.16779	0.105005	0.167461
1055	0.169433	0.109607	0.170748
1056	0.165982	0.113059	0.169105
1057	0.173214	0.115853	0.168776
1058	0.1742	0.00031	0.170419
1059	0.174364	0.009843	0.171734
1060	0.174364	0.016581	0.1742
1061	0.176172	0.02595	0.171077
1062	0.178144	0.033346	0.173707
1063	0.17798	0.041564	0.176994
1064	0.177322	0.045179	0.177651
1065	0.178473	0.050603	0.176829
1066	0.178144	0.058985	0.179788
1067	0.178966	0.059643	0.17913
1068	0.183075	0.06556	0.18176
1069	0.181431	0.074106	0.180281
1070	0.185212	0.077558	0.181267
1071	0.185212	0.082488	0.18061
1072	0.184718	0.09235	0.182746
1073	0.187513	0.0935	0.182253
1074	0.186855	0.10139	0.184554
1075	0.182746	0.103526	0.183732
1076	0.188006	0.104841	0.185869
1077	0.185705	0.109772	0.186033
1078	0.186691	0.115689	0.186362
1079	0.188006	0.115524	0.184554
1080	0.188006	0.12177	0.187841
1081	0.188006	0.123906	0.187677
1082	0.188006	0.12933	0.191786
1083	0.1908	0.127687	0.188499
1084	0.191293	0.126207	0.188827
1085	0.192279	0.135083	0.190471
1086	0.18817	0.138863	0.194087
1087	0.192443	0.141164	0.192443
1088	0.190635	0.142314	0.190471
1089	0.191621	0.146752	0.192772
1090	0.190471	0.145273	0.190635
1091	0.192608	0.149217	0.191293
1092	0.190635	0.150861	0.190635
1093	0.191457	0.155134	0.192936
1094	0.192279	0.154148	0.191786
1095	0.189485	0.158257	0.189485
1096	0.188827	0.157928	0.19458
1097	0.192279	0.161709	0.190471
1098	0.193758	0.164996	0.19458
1099	0.189814	0.163516	0.193429
1100	0.19458	0.164996	0.193758
1101	0.190471	0.164503	0.192772
1102	0.19458	0.164667	0.195073
1103	0.191786	0.164996	0.192772
1104	0.194416	0.167132	0.192772
1105	0.196059	0.16894	0.192608
1106	0.193265	0.169762	0.193922
1107	0.189978	0.173871	0.192443
1108	0.194744	0.17535	0.192936
1109	0.195237	0.173542	0.193429
1110	0.194744	0.177158	0.194744
1111	0.194416	0.178144	0.192443
1112	0.193101	0.179952	0.194087
1113	0.198524	0.177815	0.195895
1114	0.194251	0.178966	0.19458
1115	0.195237	0.179295	0.190142
1116	0.195895	0.17913	0.19573
1117	0.197045	0.18061	0.19573
1118	0.188006	0.18176	0.195566
1119	0.192279	0.18176	0.197703
1120	0.19195	0.18061	0.192608
1121	0.193101	0.187513	0.197703
1122	0.192772	0.189978	0.195237
1123	0.193101	0.183239	0.19721
1124	0.01428	0.182582	0.197703
1125	0.021841	0.188499	0.197538
1126	0.031538	0.185376	0.197374
1127	0.036304	0.18554	0.194909
1128	0.046001	0.186198	0.196388
1129	0.04255	0.189485	0.194909
1130	0.056191	0.191786	0.196552
1131	0.059643	0.190142	0.195402
1132	0.049946	0.190635	0.19721
1133	0.013952	0.186855	0.195237
1134	0.023977	0.186526	0.19721
1135	0.031373	0.188992	0.196717
1136	0.036797	0.188499	0.198031
1137	0.044193	0.186855	0.197867
1138	0.050603	0.190142	0.193101
1139	0.056191	0.189156	0.195895
1140	0.061286	0.023649	0.197045
1141	0.067368	0.015595	0.197703
1142	0.07197	0.022498	0.196223
1143	0.078544	0.029894	0.196881
1144	0.082982	0.037783	0.197703
1145	0.085611	0.046659	0.197374
1146	0.085283	0.031373	0.202305
1147	0.09613	0.000639	0.197703
1148	0.099253	0.009678	0.196388
1149	0.102869	0.019375	0.191293
1150	0.107964	0.022663	0.194744
1151	0.115689	0.034825	0.196223
1152	0.116017	0.039756	0.193922
1153	0.120784	0.048138	0.195402
1154	0.122098	0.051754	0.197703
1155	0.1267	0.059972	0.196388
1156	0.134261	0.0603	0.197374
1157	0.132124	0.070983	0.198853
1158	0.137055	0.075092	0.199182
1159	0.137219	0.079859	0.199511
1160	0.140506	0.086269	0.193594
1161	0.140671	0.08857	0.196223
1162	0.149217	0.09876	0.198196
1163	0.143465	0.100239	0.198196
1164	0.146752	0.104512	0.198196
1165	0.14856	0.107471	0.195402
1166	0.150861	0.112073	0.19836
1167	0.153984	0.113223	0.196059
1168	0.154806	0.120455	0.197867
1169	0.159079	0.120948	0.195073
1170	0.159736	0.124399	0.195402
1171	0.161873	0.126207	0.19573
1172	0.161051	0.132124	0.196881
1173	0.165653	0.136726	0.198031
1174	0.163188	0.139685	0.200497
1175	0.167132	0.137877	0.199511
1176	0.167625	0.141164	0.197538
1177	0.16894	0.14478	0.197703
1178	0.169433	0.144451	0.196552
1179	0.170748	0.151683	0.198689
1180	0.168447	0.150368	0.198524
1181	0.16779	0.148724	0.197703
1182	0.171734	0.151518	0.194909
1183	0.171406	0.156613	0.197703
1184	0.176008	0.158421	0.195237
1185	0.170748	0.160065	0.195895
1186	0.171734	0.160722	0.19458
1187	0.174857	0.162859	0.198196
1188	0.177322	0.165489	0.198853
1189	0.179295	0.16516	0.196552
1190	0.182582	0.165653	0.198031
1191	0.062766	0.167297	0.197867
1192	0.031209	0.163681	0.199018
1193	0.02069	0.166968	0.201483
1194	-0.000512	0.167132	0.196881
1195	0.008692	0.172392	0.19721
1196	0.013459	0.173871	0.193429
1197	0.020362	0.174364	0.195566
1198	0.0271	0.175843	0.193922
1199	0.034332	0.179952	0.195402
1200	0.046166	0.17798	0.197045
1201	0.050439	0.180281	0.195073
1202	0.053562	0.179623	0.194416
1203	0.064574	0.180445	0.194744
1204	0.068025	0.181431	0.201319
1205	0.076243	0.180281	0.194909
1206	0.079037	0.184554	0.197374
1207	0.086104	0.181431	0.196552
1208	0.088077	0.183075	0.196388
1209	0.092843	0.182746	0.199182
1210	0.099253	0.185047	0.198031
1211	0.103362	0.182253	0.199346
1212	0.104019	0.186198	0.198524
1213	0.010007	0.187348	0.200497
1214	0.012144	0.185212	0.198524
1215	0.021019	0.187677	0.201483
1216	0.028744	0.18439	0.196059
1217	0.035154	0.189156	0.197703
1218	0.039591	0.18817	0.196717
1219	0.046987	0.190142	0.197703
1220	0.056191	0.188334	0.198853
1221	0.050932	0.1908	0.19836
1222	0.054219	0.187184	0.196717
1223	0.058328	0.18439	0.199018
1224	0.062273	0.18817	0.197538
1225	0.073942	0.1908	0.197045
1226	0.081009	0.189978	0.203126
1227	0.082817	0.188663	0.196552
1228	0.091857	0.192608	0.199346
1229	0.091692	0.1908	0.199182
1230	0.094815	0.195402	0.200661
1231	0.101225	0.189649	0.199839
1232	0.096459	0.191457	0.199018
1233	0.100075	0.190964	0.198196
1234	0.104019	0.1908	0.199182
1235	0.101883	0.18932	0.196388
1236	0.103362	0.194744	0.195402
1237	0.110922	0.191786	0.196881
1238	-0.000512	0.194909	0.195402
1239	0.003104	0.195237	0.19721
1240	0.000146	0.194416	0.196059
1241	0.000474	0.194744	0.197538
1242	0.004912	0.197374	0.197374
1243	0.010007	0.199182	0.200661
1244	0.016417	0.194909	0.197374
1245	0.02595	0.195566	0.201154
1246	0.031045	0.193429	0.194416
1247	0.03729	0.196223	0.199511
1248	0.007049	0.193429	0.199675
1249	0.010171	0.194251	0.19836
1250	0.025457	0.194909	0.197703
1251	0.02973	0.195895	0.197867
1252	0.035482	0.194909	0.198031
1253	0.041564	0.197374	0.194251
1254	0.051918	0.198853	0.196717
1255	0.057177	0.19573	0.199182
1256	0.064245	0.19721	0.197538
1257	0.066053	0.195073	0.19458
1258	0.074271	0.200661	0.193594
1259	0.079366	0.193594	0.197867
1260	0.086104	0.196717	0.197867
1261	0.090213	0.195566	0.197867
1262	0.091528	0.197703	0.200168
1263	0.102376	0.195073	0.198031
1264	0.102704	0.196717	0.199675
1265	0.106813	0.199018	0.200497
1266	0.108621	0.193101	0.198196
1267	0.11536	0.194416	0.199839
1268	0.018225	0.19721	0.198853
1269	0.016581	0.196059	0.200825
1270	0.022991	0.197045	0.199511
1271	0.030223	0.198689	0.198689
1272	0.035811	0.198524	0.198196
1273	0.044358	0.203126	0.200332
1274	0.048302	0.196059	0.19573
1275	0.05011	0.197703	0.197703
1276	0.054548	0.197374	0.199675
1277	0.042714	0.19721	0.199675
1278	0.050439	0.196717	0.200497
1279	0.057342	0.197703	0.197538
1280	0.060465	0.193594	0.199346
1281	0.067696	0.194909	0.203455
1282	0.074435	0.193594	0.197374
1283	0.077229	0.196552	0.19721
1284	0.081338	0.195073	0.199839
1285	0.086269	0.199675	0.199346
1286	0.091528	0.198031	0.197703
1287	0.097938	0.197867	0.197703
1288	0.103197	0.199346	0.196717
1289	0.105663	0.197538	0.195237
1290	0.110265	0.199346	0.198196
1291	0.112237	0.200332	0.19721
1292	0.115524	0.198689	0.199346
1293	0.122263	0.194087	0.196388
1294	0.125879	0.19721	0.197045
1295	0.126865	0.198031	0.198524
1296	0.126043	0.197703	0.199018
1297	0.134097	0.196223	0.199018
1298	0.131796	0.197703	0.20099
1299	0.135576	0.195895	0.201483
1300	0.139356	0.197538	0.199675
1301	0.143958	0.19721	0.200497
1302	0.144615	0.19836	0.199018
1303	0.147738	0.199018	0.197867
1304	0.147245	0.196388	0.197703
1305	0.155956	0.200825	0.197703
1306	0.151354	0.200004	0.194087
1307	0.158093	0.199675	0.196552
1308	0.158914	0.198031	0.192115
1309	0.156778	0.200825	0.197703
1310	0.161215	0.200168	0.198853
1311	0.159572	0.197703	0.198524
1312	0.166146	0.200497	0.199511
1313	0.165489	0.197045	0.199018
1314	0.166804	0.197374	0.199346
1315	0.16779	0.197703	0.19836
1316	0.170913	0.195237	0.200661
1317	0.16779	0.198196	0.199182
1318	0.17535	0.197867	0.201647
1319	0.171734	0.195566	0.197867
1320	0.172556	0.199018	0.200168
1321	0.172885	0.196881	0.19836
1322	0.1742	0.197538	0.198689
1323	0.176172	0.200168	0.196881
1324	0.178309	0.201812	0.199182
1325	0.178637	0.199182	0.197374
1326	0.179623	0.200332	0.197374
1327	0.180774	0.198853	0.19721
1328	0.179623	0.200004	0.19836
1329	0.180281	0.198853	0.199511
1330	0.180938	0.196717	0.198524
1331	0.182417	0.196552	0.20214
1332	0.180938	0.195566	0.199018
1333	0.186033	0.196388	0.202633
1334	0.183568	0.195073	0.197374
1335	0.186855	0.195566	0.199839
1336	0.186198	0.196717	0.20214
1337	0.187841	0.198524	0.199346
1338	0.189978	0.198524	0.196552
1339	0.186691	0.197538	0.197538
1340	0.186362	0.200332	0.195402
1341	0.186855	0.198196	0.197703
1342	0.18554	0.194909	0.197867
1343	0.18817	0.199018	0.200168
1344	0.191128	0.19836	0.197703
1345	0.190635	0.202469	0.197703
1346	0.189649	0.198031	0.199839
1347	0.190142	0.198853	0.197374
1348	0.191786	0.197374	0.200168
1349	0.187677	0.19458	0.201812
1350	0.189485	0.199511	0.201319
1351	0.189814	0.196223	0.19573
1352	0.1908	0.198689	0.198031
1353	0.189814	0.196388	0.199511
1354	0.191128	0.197703	0.198853
1355	0.194087	0.197538	0.197374
1356	0.19458	0.197045	0.198853
1357	0.192936	0.19721	0.198853
1358	0.193265	0.199839	0.198689
1359	0.193594	0.196223	0.19836
1360	0.192772	0.200332	0.198853
1361	0.191621	0.197374	0.197867
1362	0.192772	0.198689	0.197045
1363	0.191457	0.199675	0.198853
1364	0.191621	0.196881	0.199675
1365	0.193922	0.197538	0.200332
1366	0.193101	0.197045	0.199182
1367	0.19721	0.194087	0.199018
1368	0.194087	0.196388	0.193594
1369	0.195402	0.200825	0.197374
1370	0.194087	0.196059	0.196552
1371	0.192772	0.202469	0.198524
1372	0.194744	0.195566	0.198524
1373	0.193758	0.197045	0.197538
1374	0.192936	0.20099	0.198196
1375	0.196717	0.199018	0.199675
1376	0.195566	0.197045	0.198524
1377	0.193594	0.199839	0.197538
1378	0.197867	0.199182	0.200332
1379	0.192443	0.198689	0.197867
1380	0.192772	0.199511	0.200661
1381	0.193101	0.196552	0.195237
1382	0.194087	0.198853	0.196881
1383	0.192443	0.197538	0.200661
1384	0.192279	0.197703	0.199346
1385	0.193922	0.197703	0.198196
1386	0.193101	0.19836	0.20099
1387	0.19573	0.194416	0.200004
1388	0.19458	0.197538	0.201319
1389	0.193101	0.194744	0.200661
1390	0.192279	0.196059	0.197538
1391	0.193594	0.196388	0.201154
1392	0.192443	0.197374	0.196717
1393	0.195895	0.199346	0.198031
1394	0.191786	0.199018	0.196059
1395	0.191621	0.197374	0.19836
1396	0.191457	0.198196	0.196388
1397	0.193429	0.20099	0.200332
1398	0.192772	0.196881	0.199182
1399	0.194251	0.199346	0.199511
1400	0.196059	0.197538	0.196388
1401	0.195073	0.199511	0.195073
1402	0.193594	0.197538	0.196717
1403	0.196223	0.19836	0.197538
1404	0.19836	0.198689	0.19721
1405	0.194087	0.198689	0.197045
1406	0.193101	0.197374	0.199346
1407	0.195073	0.199182	0.197867
1408	0.19721	0.199839	0.20099
1409	0.194909	0.198689	0.203126
1410	0.193758	0.195073	0.197703
1411	0.19573	0.200168	0.197045
1412	0.19836	0.201483	0.199675
1413	0.195237	0.199511	0.19721
1414	0.195073	0.199675	0.19836
1415	0.197374	0.199182	0.19458
1416	0.197538	0.199511	0.199839
1417	0.195566	0.196388	0.196717
1418	0.197867	0.196881	0.194416
1419	0.196717	0.196552	0.200168
1420	0.199018	0.197703	0.199675
1421	0.198853	0.195402	0.199018
1422	0.197374	0.19836	0.198853
1423	0.197538	0.197538	0.200497
1424	0.19836	0.192443	0.199018
1425	0.19573	0.19573	0.198689
1426	0.194087	0.197538	0.196388
1427	0.194909	0.198031	0.198689
1428	0.196059	0.197045	0.19721
1429	0.196223	0.19721	0.199018
1430	0.197867	0.202305	0.199018
1431	0.196388	0.198031	0.200661
1432	0.19573	0.195566	0.196717
1433	0.198031	0.198031	0.201319
1434	0.198196	0.19721	0.19836
1435	0.198524	0.198524	0.198524
1436	0.197703	0.19458	0.195402
1437	0.197703	0.198031	0.195566
1438	0.198196	0.198031	0.196717
1439	0.195895	0.197867	0.198196
1440	0.194909	0.198196	0.198853
1441	0.197867	0.202798	0.197867
1442	0.198524	0.198196	0.202305
1443	0.197538	0.198196	0.193758
1444	0.199346	0.199346	0.200332
1445	0.197867	0.197045	0.198689
1446	0.198689	0.200661	0.199018
1447	0.19458	0.199346	0.196388
1448	0.195566	0.199511	0.198689
1449	0.194909	0.199675	0.193429
1450	0.195566	0.200332	0.196223
1451	0.197703	0.19721	0.195073
1452	0.194744	0.201976	0.196717
1453	0.196881	0.19836	0.19836
1454	0.198031	0.196717	0.196223
1455	0.203126	0.196717	0.194744
1456	0.20099	0.200661	0.197045
1457	0.200825	0.195895	0.197045
1458	0.198853	0.195402	0.197045
1459	0.201483	0.198524	0.20099
1460	0.19836	0.195073	0.198524
1461	0.198524	0.199675	0.199511
1462	0.196059	0.197538	0.197045
1463	0.19836	0.200168	0.199675
1464	0.196717	0.19573	0.199018
1465	0.198031	0.198689	0.200661
1466	0.201647	0.19458	0.19721
1467	0.199675	0.200004	0.199839
1468	0.200168	0.199675	0.199018
1469	0.196552	0.19836	0.198031
1470	0.203291	0.199675	0.200497
1471	0.194909	0.199182	0.199018
1472	0.199675	0.197703	0.197045
1473	0.198853	0.198524	0.200825
1474	0.199182	0.200004	0.200004
1475	0.201483	0.195402	0.198524
1476	0.20214	0.196059	0.200825
1477	0.197867	0.196059	0.198031
1478	0.199511	0.198853	0.200168
1479	0.198196	0.196881	0.199511
1480	0.198524	0.193758	0.196059
1481	0.199182	0.195073	0.195895
1482	0.196223	0.198524	0.199346
1483	0.19836	0.196059	0.199675
1484	0.196059	0.197374	0.194909
1485	0.198853	0.202305	0.198031
1486	0.197374	0.197867	0.199346
1487	0.19573	0.197703	0.197045
1488	0.199839	0.199018	0.194909
1489	0.199675	0.197045	0.197045
1490	0.201154	0.202469	0.199018
1491	0.197045	0.195895	0.196881
1492	0.199675	0.196881	0.19721
1493	0.197867	0.198689	0.200004
1494	0.198853	0.195073	0.198524
1495	0.197703	0.200661	0.19836
1496	0.196552	0.196388	0.198853
1497	0.19573	0.194909	0.198031
1498	0.196552	0.194744	0.199018
1499	0.196552	0.199018	0.195073
1500	0.201812	0.196881	0.199182
1501	0.200332	0.198689	0.196223
1502	0.201647	0.199018	0.199018
1503	0.199346	0.198853	0.195566
1504	0.200004	0.199182	0.195402
1505	0.198524	0.197867	0.194416
1506	0.199346	0.197703	0.194744
1507	0.198689	0.19836	0.191457
1508	0.200825	0.197045	0.200004
1509	0.196717	0.19836	0.19836
1510	0.20099	0.197374	0.199839
1511	0.200332	0.19458	0.199839
1512	0.200332	0.200497	0.200332
1513	0.199182	0.193101	0.197703
1514	0.197867	0.197045	0.196717
1515	0.198853	0.196388	0.197374
1516	0.19836	0.198524	0.198689
1517	0.199018	0.195073	0.197538
1518	0.197703	0.200332	0.194087
1519	0.199511	0.197374	0.19721
1520	0.195237	0.199182	0.19721
1521	0.200004	0.199675	0.19573
1522	0.200168	0.194416	0.19573
1523	0.197867	0.199839	0.199511
1524	0.199675	0.197703	0.19573
1525	0.197703	0.201154	0.198853
1526	0.197703	0.19721	0.198524
1527	0.200004	0.198853	0.200004
1528	0.199511	0.197538	0.198524
1529	0.198853	0.199346	0.198196
1530	0.207071	0.193101	0.199346
1531	0.197703	0.194909	0.197703
1532	0.20099	0.196059	0.199346
1533	0.199511	0.197045	0.199018
1534	0.200332	0.196881	0.196717
1535	0.196881	0.196388	0.194251
1536	0.19836	0.199182	0.197867
1537	0.197867	0.197867	0.195073
1538	0.196881	0.200004	0.20214
1539	0.198031	0.199182	0.193265
1540	0.198031	0.19721	0.196223
1541	0.199182	0.194909	0.201319
1542	0.199182	0.196059	0.19836
1543	0.201319	0.201154	0.198031
1544	0.198031	0.197045	0.199018
1545	0.203126	0.197045	0.196717
1546	0.196223	0.199675	0.198031
1547	0.19836	0.196059	0.199839
1548	0.197703	0.200332	0.194744
1549	0.196223	0.19721	0.196717
1550	0.199018	0.199018	0.197045
1551	0.196552	0.199018	0.195073
1552	0.200004	0.198196	0.202305
1553	0.199182	0.198689	0.201976
1554	0.199511	0.197374	0.196552
1555	0.200004	0.198853	0.196717
1556	0.199346	0.19721	0.19721
1557	0.198853	0.199018	0.196388
1558	0.199675	0.196717	0.198031
1559	0.19721	0.198689	0.198689
1560	0.199675	0.19836	0.196388
1561	0.199346	0.198689	0.20099
1562	0.200004	0.197045	0.197867
1563	0.198689	0.198196	0.203948
1564	0.199182	0.197374	0.201319
1565	0.200332	0.198689	0.199511
1566	0.200661	0.195073	0.200825
1567	0.199511	0.196881	0.197045
1568	0.19836	0.196059	0.199839
1569	0.198524	0.195895	0.197703
1570	0.199675	0.199675	0.199511
1571	0.198524	0.196717	0.197703
1572	0.198196	0.199675	0.199346
1573	0.198524	0.195237	0.196717
1574	0.197374	0.20099	0.19836
1575	0.198689	0.200004	0.19836
1576	0.199839	0.200168	0.199018
1577	0.200004	0.199346	0.197703
1578	0.201647	0.199839	0.200497
1579	0.197867	0.195237	0.198524
1580	0.201976	0.199675	0.19573
1581	0.196388	0.195895	0.199839
1582	0.194909	0.195566	0.196717
1583	0.201154	0.197538	0.199675
1584	0.198031	0.195073	0.195895
1585	0.201976	0.197538	0.198031
1586	0.194251	0.194416	0.199511
1587	0.199839	0.198524	0.198196
1588	0.198689	0.197867	0.197374
1589	0.198689	0.197867	0.198853
1590	0.20099	0.195073	0.196223
1591	0.199675	0.19836	0.19836
1592	0.199182	0.198524	0.194251
1593	0.198031	0.198524	0.193265
1594	0.199018	0.199018	0.19573
1595	0.199346	0.19836	0.196223
1596	0.200004	0.197374	0.197703
1597	0.198196	0.200661	0.199511
1598	0.201483	0.198853	0.199839
1599	0.204934	0.195073	0.196717
1600	0.201812	0.199182	0.201647
1601	0.199839	0.198689	0.199018
1602	0.200661	0.19721	0.196223
1603	0.197045	0.197045	0.196881
1604	0.196388	0.198689	0.196881
1605	0.197703	0.197538	0.193758
1606	0.197703	0.198524	0.19721
1607	0.19836	0.198524	0.198853
1608	0.197374	0.199839	0.198853
1609	0.201154	0.199018	0.197867
1610	0.199018	0.199018	0.195566
1611	0.199346	0.198524	0.200004
1612	0.200004	0.199346	0.195895
1613	0.202962	0.199018	0.19721
1614	0.199675	0.197374	0.198196
1615	0.201647	0.198031	0.20099
1616	0.198853	0.200661	0.199346
1617	0.200004	0.198853	0.19836
1618	0.199839	0.196223	0.200497
1619	0.198196	0.198689	0.200497
1620	0.20214	0.19836	0.198196
1621	0.199018	0.195073	0.197867
1622	0.199018	0.196881	0.198689
1623	0.199346	0.199182	0.197374
1624	0.200004	0.197045	0.197867
1625	0.197374	0.202798	0.19721
1626	0.199675	0.201976	0.198689
1627	0.197374	0.199839	0.195895
1628	0.201483	0.197538	0.198853
1629	0.200004	0.198689	0.197538
1630	0.201647	0.198853	0.199182
1631	0.200825	0.197867	0.198031
1632	0.202633	0.199018	0.199675
1633	0.20099	0.19721	0.198853
1634	0.199839	0.195566	0.200497
1635	0.200332	0.196059	0.197045
1636	0.197045	0.198031	0.199182
1637	0.199018	0.196388	0.200004
1638	0.201976	0.194909	0.197538
1639	0.197867	0.192115	0.196552
1640	0.201319	0.195566	0.196717
1641	0.196388	0.19836	0.196223
1642	0.198689	0.199675	0.197538
1643	0.200825	0.199182	0.202633
1644	0.197374	0.199182	0.196223
1645	0.197045	0.200497	0.19836
1646	0.199182	0.200004	0.196388
1647	0.200497	0.200825	0.198524
1648	0.197045	0.195566	0.196881
1649	0.19573	0.196388	0.199182
1650	0.197703	0.196552	0.19721
1651	0.194744	0.19836	0.200497
1652	0.194416	0.195895	0.197045
1653	0.197703	0.19836	0.198524
1654	0.199839	0.196881	0.198031
1655	0.200004	0.197703	0.195895
1656	0.200825	0.198689	0.195073
1657	0.197538	0.196388	0.19721
1658	0.200004	0.200661	0.197045
1659	0.197374	0.200332	0.19836
1660	0.198196	0.197538	0.199018
1661	0.196388	0.19836	0.196059
1662	0.196881	0.200497	0.19721
1663	0.19836	0.198689	0.196881
1664	0.198853	0.199182	0.196388
1665	0.199018	0.195237	0.196552
1666	0.199018	0.197538	0.195566
1667	0.198196	0.197703	0.19836
1668	0.196881	0.199839	0.199675
1669	0.199839	0.19721	0.198196
1670	0.198196	0.199182	0.198689
1671	0.198031	0.196223	0.200004
1672	0.197703	0.196223	0.196388
1673	0.198031	0.198524	0.200004
1674	0.196059	0.196552	0.197703
1675	0.19836	0.199839	0.199675
1676	0.197374	0.200004	0.197703
1677	0.199182	0.198031	0.198853
1678	0.196388	0.200661	0.196717
1679	0.193922	0.199839	0.200168
1680	0.194251	0.196059	0.199182
1681	0.194087	0.199018	0.19721
1682	0.195402	0.19458	0.198524
1683	0.198031	0.19836	0.198524
1684	0.196388	0.19458	0.200004
1685	0.195895	0.19836	0.19836
1686	0.19836	0.196388	0.200661
1687	0.196717	0.199018	0.198031
1688	0.199675	0.198524	0.201483
1689	0.196552	0.19458	0.199346
1690	0.197538	0.196388	0.198689
1691	0.197867	0.19836	0.198853
1692	0.199018	0.200497	0.200332
1693	0.194416	0.194909	0.194251
1694	0.194744	0.198196	0.200332
1695	0.199346	0.199675	0.199018
1696	0.195402	0.200661	0.198196
1697	0.195895	0.197703	0.197703
1698	0.199182	0.201483	0.198031
1699	0.193429	0.19836	0.199182
1700	0.195073	0.201812	0.197374
1701	0.199346	0.198524	0.200661
1702	0.199018	0.199018	0.194087
1703	0.20099	0.19836	0.19721
1704	0.197867	0.191457	0.197703
1705	0.199182	0.195566	0.196717
1706	0.199018	0.197867	0.197867
1707	0.195402	0.197045	0.198689
1708	0.197703	0.195073	0.199346
1709	0.198031	0.200004	0.200825
1710	0.19573	0.199511	0.200332
1711	0.196059	0.197703	0.197045
1712	0.197045	0.199511	0.201483
1713	0.195895	0.200332	0.198689
1714	0.19721	0.194909	0.203291
1715	0.195073	0.191293	0.198524
1716	0.19836	0.196388	0.197867
1717	0.19573	0.198524	0.198853
1718	0.195566	0.199839	0.200661
1719	0.198524	0.197538	0.199839
1720	0.200168	0.197703	0.198689
1721	0.196388	0.199511	0.200004
1722	0.198853	0.196881	0.198031
1723	0.199182	0.199018	0.198853
1724	0.197045	0.199346	0.198853
1725	0.197703	0.200497	0.199182
1726	0.198031	0.190964	0.199675
1727	0.19836	0.196388	0.197867
1728	0.199839	0.200825	0.199675
1729	0.197703	0.19836	0.198689
1730	0.198853	0.197703	0.199675
1731	0.196059	0.197374	0.197538
1732	0.195895	0.199018	0.199675
1733	0.197045	0.195073	0.198196
1734	0.19721	0.19836	0.197374
1735	0.196059	0.199182	0.19836
1736	0.19458	0.200332	0.198031
1737	0.198196	0.190142	0.19836
1738	0.198031	0.196881	0.196552
1739	0.199182	0.194087	0.20099
1740	0.197374	0.197703	0.198031
1741	0.199511	0.198853	0.198689
1742	0.198524	0.197703	0.199018
1743	0.198524	0.19836	0.198524
1744	0.197538	0.197538	0.196388
1745	0.200661	0.200168	0.198524
1746	0.19721	0.199182	0.196552
1747	0.192936	0.20099	0.197045
1748	0.199346	0.190635	0.19721
1749	0.006884	0.201647	0.197703
1750	0.002118	0.203126	0.195402
1751	0.000803	0.201154	0.19721
1752	0.009021	0.198689	0.197867
1753	0.011651	0.199839	0.196223
1754	0.024306	0.199675	0.196552
1755	0.028908	0.197703	0.196388
1756	0.043207	0.200004	0.200332
1757	0.045179	0.199018	0.196552
1758	0.051096	0.198524	0.201483
1759	0.056191	0.192608	0.197867
1760	0.060958	0.199018	0.198196
1761	0.061779	0.198031	0.199675
1762	0.040906	0.197867	0.200497
1763	0.025785	0.199839	0.196552
1764	0.012965	0.200168	0.199182
1765	0.005076	0.201154	0.195402
1766	-0.001827	0.197703	0.193922
1767	0.002447	0.19836	0.195402
1768	-0.000841	0.201154	0.198196
1769	0.00031	0.200661	0.197867
1770	0.000803	0.196552	0.196552
1771	0.000146	0.199018	0.197867
1772	-1.9e-05	0.200661	0.199346
1773	0.000639	0.200332	0.201319
1774	-0.000512	0.197867	0.19721
1775	-1.9e-05	0.202798	0.20099
1776	-0.000512	0.200332	0.200497
1777	-0.003799	0.19721	0.199182
1778	0.008692	0.199511	0.19836
1779	0.01313	0.199346	0.197703
1780	0.022169	0.199675	0.199018
1781	0.028415	0.19573	0.19836
1782	0.04255	0.197045	0.19836
1783	0.042385	0.199346	0.198689
1784	0.050439	0.19721	0.199346
1785	0.055205	0.197703	0.196059
1786	0.061615	0.200497	0.198689
1787	0.068189	0.199018	0.196552
1788	0.074599	0.19836	0.196223
1789	0.081174	0.196388	0.196059
1790	0.084132	0.200332	0.199839
1791	0.088241	0.197703	0.201483
1792	0.093993	0.201319	0.199839
1793	0.099582	0.195895	0.201319
1794	0.100403	0.199839	0.204277
1795	0.107471	0.199182	0.20099
1796	0.1101	0.198853	0.198196
1797	0.111908	0.19836	0.199839
1798	0.115524	0.200661	0.198524
1799	0.118976	0.200168	0.19836
1800	0.123906	0.199839	0.195566
1801	0.11651	0.199018	0.19836
1802	-0.00232	0.198853	0.194416
1803	0.005734	0.203948	0.19721
1804	0.012472	0.197703	0.196059
1805	0.02332	0.200825	0.197374
1806	0.026278	0.199675	0.198853
1807	-0.000347	0.20099	0.198689
1808	-0.000841	0.201319	0.199018
1809	-0.000347	0.201319	0.198689
1810	-0.000676	0.196717	0.198524
1811	-0.000676	0.200825	0.198689
1812	0.000146	0.198031	0.196223
1813	-0.000512	0.201154	0.196717
1814	-0.000183	0.205263	0.200332
1815	-0.000183	0.200168	0.195895
1816	-1.9e-05	0.200004	0.202798
1817	-0.000347	0.200004	0.198031
1818	-0.000347	0.200661	0.200004
1819	-0.000512	0.199018	0.199346
1820	-0.000676	0.201154	0.199675
1821	-0.000676	0.198853	0.195566
1822	-0.000512	0.201483	0.19836
1823	-0.000347	0.201812	0.198689
1824	-0.000183	0.203291	0.198524
1825	-1.9e-05	0.207235	0.199182
1826	0.000146	0.199182	0.198853
1827	0.000146	0.199346	0.201319
1828	-0.000183	0.200332	0.199018
1829	-0.000347	0.198524	0.198196
1830	-0.000676	0.201483	0.197867
1831	-0.000676	0.195895	0.202798
1832	-0.000841	0.195073	0.198031
1833	-0.000676	0.202469	0.199018
1834	-0.000512	0.198853	0.197374
1835	0.000146	0.199018	0.199182
1836	-0.000347	0.205099	0.196388
1837	-1.9e-05	0.200168	0.197374
1838	0.000146	0.199675	0.198031
1839	-0.000347	0.201976	0.194909
1840	-0.000676	0.197867	0.195237
1841	-0.000347	0.200168	0.19721
1842	-0.000841	0.199182	0.201976
1843	-0.000676	0.199018	0.198853
1844	-0.000512	0.198689	0.199839
1845	-0.000183	0.202469	0.201647
1846	-1.9e-05	0.200497	0.200332
1847	-0.000183	0.203784	0.199511
1848	0.000639	0.199182	0.200332
1849	-0.001005	0.198196	0.199839
1850	0.000474	0.19836	0.199675
1851	-0.000512	0.198031	0.197045
1852	-1.9e-05	0.199346	0.19721
1853	-0.000347	0.196552	0.199839
1854	-0.001005	0.200661	0.196717
1855	-0.000841	0.200661	0.195237
1856	0.000639	0.202469	0.196717
1857	0.000146	0.200825	0.201812
1858	0.000474	0.204277	0.197538
1859	0.000639	0.200661	0.200497
1860	-0.000183	0.199511	0.199346
1861	0.004419	0.199675	0.198853
1862	0.008692	0.197538	0.201483
1863	0.017239	0.198524	0.204113
1864	0.023977	0.197374	0.200004
1865	0.032853	0.19836	0.200168
1866	0.042714	0.198689	0.202305
1867	0.043043	0.200168	0.195402
1868	0.051096	0.197374	0.199018
1869	0.05915	0.201812	0.198031
1870	0.064902	0.19721	0.196223
1871	0.065395	0.197538	0.19836
1872	0.075092	0.199018	0.197703
1873	0.079859	0.200825	0.198524
1874	0.084789	0.199839	0.199018
1875	0.089391	0.198524	0.199511
1876	0.092679	0.198689	0.198853
1877	0.097938	0.196388	0.197538
1878	0.102376	0.199182	0.199511
1879	0.104348	0.197867	0.197374
1880	0.112073	0.200661	0.199018
1881	0.10632	0.196223	0.197703
1882	0.117003	0.195566	0.202305
1883	0.120291	0.194909	0.195895
1884	0.124399	0.197374	0.199511
1885	0.124564	0.194909	0.199182
1886	0.12818	0.194087	0.201319
1887	0.133439	0.197703	0.195566
1888	0.13196	0.200332	0.197867
1889	0.132124	0.200004	0.199018
1890	0.133603	0.201483	0.194251
1891	0.137712	0.197867	0.195895
1892	0.13837	0.196059	0.195895
1893	0.142807	0.198031	0.197867
1894	0.144451	0.196059	0.195402
1895	0.144451	0.198031	0.197374
1896	0.146095	0.19721	0.199346
1897	0.150039	0.19836	0.199839
1898	0.148396	0.19836	0.198031
1899	0.148231	0.19836	0.200825
1900	0.012801	0.196552	0.199182
1901	0.020526	0.200168	0.199182
1902	0.02973	0.19721	0.197045
1903	0.036469	0.198524	0.196717
1904	0.04255	0.198689	0.199182
1905	0.050439	0.198689	0.195895
1906	0.057177	0.19836	0.197703
1907	0.057671	0.197867	0.198689
1908	0.057506	0.199182	0.202305
1909	0.04255	0.202469	0.197538
1910	0.018225	0.199018	0.201319
1911	0.003433	0.19836	0.200332
1912	0.003104	0.196059	0.201976
1913	0.003433	0.197538	0.197374
1914	0.00294	0.195566	0.202469
1915	0.003104	0.196552	0.199675
1916	0.001954	0.197374	0.197374
1917	0.002282	0.196223	0.200332
1918	0.000474	0.19836	0.201154
1919	-0.000183	0.197538	0.201812
1920	-0.000841	0.198524	0.196717
1921	0.002447	0.197045	0.201647
1922	-0.001498	0.198853	0.195402
1923	-1.9e-05	0.197703	0.199182
1924	0.00146	0.196059	0.199018
1925	0.005076	0.196059	0.199182
1926	-1.9e-05	0.198196	0.197538
1927	-0.000512	0.198689	0.199511
1928	0.000146	0.198524	0.199346
1929	0.000639	0.196059	0.200332
1930	-0.001498	0.196388	0.199182
1931	0.002118	0.199839	0.200168
1932	-0.001498	0.197703	0.20099
1933	0.00031	0.199839	0.199018
1934	0.001625	0.196388	0.19836
1935	0.000639	0.200825	0.198689
1936	-0.000512	0.196717	0.200332
1937	0.000146	0.198031	0.198031
1938	-0.000347	0.197867	0.199511
1939	-0.000841	0.197538	0.198196
1940	-0.000512	0.199839	0.198853
1941	-0.001169	0.204934	0.201647
1942	-0.000512	0.20099	0.199675
1943	-0.000841	0.199675	0.201154
1944	-0.000183	0.200825	0.196059
1945	-0.000183	0.200332	0.192115
1946	-1.9e-05	0.200004	0.197867
1947	-0.000347	0.198031	0.196881
1948	-1.9e-05	0.200497	0.199018
1949	-0.000183	0.197374	0.197703
1950	-0.000183	0.198524	0.196881
1951	-0.000676	0.197703	0.197374
1952	-0.000676	0.202798	0.199675
1953	-0.000676	0.204113	0.19836
1954	-0.000676	0.197703	0.196059
1955	-0.000512	0.198031	0.199839
1956	0.000146	0.19836	0.200168
1957	-0.000183	0.199182	0.199346
1958	-0.000512	0.199346	0.19836
1959	-1.9e-05	0.198853	0.199346
1960	-0.000512	0.199182	0.20099
1961	-0.000183	0.203948	0.201812
1962	-0.000676	0.197867	0.19836
1963	0.000474	0.201812	0.199675
1964	-0.001005	0.198853	0.198689
1965	-0.000183	0.198853	0.197867
1966	0.000474	0.199675	0.20099
1967	0.000146	0.199018	0.200497
1968	0.000474	0.199511	0.202469
1969	-1.9e-05	0.19721	0.19836
1970	0.000146	0.196881	0.201976
1971	-0.000183	0.197374	0.199018
1972	-0.000347	0.199018	0.200004
1973	-0.000347	0.197045	0.199182
1974	-1.9e-05	0.201647	0.201812
1975	-0.000512	0.200332	0.19836
1976	-0.000347	0.199839	0.197867
1977	-0.000841	0.199675	0.195073
1978	0.000639	0.200497	0.199182
1979	0.000474	0.199675	0.197867
1980	0.00031	0.197045	0.198031
1981	0.003433	0.196717	0.199511
1982	0.009021	0.200168	0.198853
1983	0.016581	0.19836	0.200168
1984	0.025128	0.198524	0.197867
1985	0.038276	0.197374	0.200825
1986	0.037126	0.199839	0.198689
1987	0.049781	0.198031	0.199839
1988	0.056027	0.199018	0.195566
1989	0.061122	0.19836	0.199018
1990	0.065888	0.199182	0.197538
1991	0.071148	0.195566	0.198853
1992	0.077393	0.200004	0.200332
1993	0.081174	0.199675	0.199511
1994	0.087255	0.198689	0.201647
1995	0.08972	0.200825	0.198524
1996	0.097609	0.201647	0.19721
1997	0.09498	0.202305	0.197374
1998	0.10895	0.199839	0.198031
1999	0.107471	0.200497	0.195895
2000	0.111908	0.199839	0.199511
2001	0.113388	0.198196	0.199018
2002	0.118811	0.197703	0.19458
2003	0.121934	0.201976	0.199511
2004	0.12555	0.196388	0.19836
2005	0.129659	0.197538	0.196717
2006	0.129495	0.198524	0.200661
2007	0.134918	0.197703	0.20099
2008	0.137384	0.202469	0.200004
2009	0.141164	0.199346	0.199018
2010	0.140835	0.201647	0.199511
2011	0.145602	0.203291	0.201647
2012	0.147409	0.201812	0.196552
2013	0.149875	0.198031	0.195566
2014	0.149053	0.200004	0.197867
2015	0.154477	0.200004	0.199182
2016	0.153984	0.198853	0.198853
2017	0.1576	0.20214	0.199511
2018	0.160065	0.199018	0.200004
2019	0.162202	0.198524	0.195566
2020	0.161709	0.199182	0.197703
2021	0.164338	0.198196	0.199839
2022	0.164996	0.199675	0.198524
2023	0.168612	0.202305	0.201154
2024	0.166804	0.198853	0.196388
2025	0.168118	0.200168	0.20099
2026	0.170748	0.197703	0.200661
2027	0.17272	0.198689	0.197703
2028	0.17535	0.198853	0.199018
2029	0.1742	0.199839	0.20099
2030	0.176829	0.200332	0.19721
2031	0.176172	0.197538	0.196223
2032	0.182089	0.197374	0.201154
2033	0.177487	0.199511	0.196388
2034	0.176336	0.199675	0.199018
2035	0.182582	0.194909	0.195566
2036	0.180938	0.198031	0.198853
2037	0.183568	0.196223	0.200004
2038	0.184225	0.200661	0.200825
2039	0.182911	0.19836	0.199182
2040	0.187348	0.199182	0.200497
2041	0.189485	0.196388	0.198689
2042	0.187841	0.197867	0.19836
2043	0.188006	0.197374	0.199839
2044	0.186691	0.19836	0.201647
2045	0.192279	0.200825	0.197867
2046	0.18932	0.19836	0.197045
2047	0.187019	0.200004	0.198689
2048	0.188499	0.200004	0.198689
2049	0.192115	0.199839	0.198689
2050	0.191293	0.200332	0.197374
2051	0.188663	0.202469	0.197867
2052	0.190471	0.200004	0.191621
2053	0.191128	0.202633	0.19721
2054	0.191786	0.196059	0.196552
2055	0.195895	0.197045	0.197703
2056	0.192115	0.200004	0.197374
2057	0.196881	0.199346	0.199839
2058	0.19836	0.198524	0.200497
2059	0.193101	0.200332	0.198853
2060	0.197867	0.200497	0.200332
2061	0.197374	0.201154	0.200332
2062	0.197045	0.198196	0.197703
2063	0.196059	0.201154	0.197374
2064	0.195566	0.20362	0.198196
2065	0.194909	0.199018	0.197867
2066	0.195237	0.199675	0.200332
2067	0.195402	0.201154	0.196881
2068	0.194909	0.200497	0.194744
2069	0.195402	0.199839	0.19721
2070	0.196388	0.201976	0.19836
2071	0.198853	0.199675	0.199182
2072	0.196223	0.202962	0.198689
2073	0.199182	0.200004	0.199511
2074	0.199182	0.199346	0.199182
2075	0.198689	0.197867	0.198196
2076	0.196388	0.199675	0.199346
2077	0.198853	0.200661	0.199675
2078	0.195895	0.199675	0.19836
2079	0.200332	0.197045	0.199675
2080	0.199018	0.196388	0.199839
2081	0.196223	0.200497	0.198524
2082	0.199346	0.197703	0.199346
2083	0.197538	0.199018	0.198853
2084	0.195566	0.197867	0.196552
2085	0.196717	0.202962	0.198196
2086	0.197045	0.200825	0.198853
2087	0.195073	0.202469	0.196717
2088	0.197867	0.200497	0.198196
2089	0.197867	0.202305	0.199346
2090	0.198031	0.200497	0.197374
2091	0.198524	0.203455	0.200168
2092	0.19836	0.198031	0.19836
2093	0.198524	0.200332	0.199675
2094	0.198524	0.199675	0.201976
2095	0.198196	0.198524	0.197374
2096	0.19573	0.202305	0.200004
2097	0.194416	0.200168	0.197867
2098	0.198689	0.200825	0.199511
2099	0.198853	0.199346	0.198031
2100	0.196552	0.199839	0.198689
2101	0.197374	0.199839	0.193429
2102	0.193265	0.201319	0.198031
2103	0.19573	0.199182	0.19836
2104	0.196059	0.199346	0.198031
2105	0.199346	0.198196	0.197538
2106	0.197538	0.200004	0.194909
2107	0.19836	0.20099	0.197703
2108	0.198524	0.198689	0.197374
2109	0.196881	0.198853	0.196717
2110	0.194416	0.201812	0.198689
2111	0.193594	0.200168	0.200497
2112	0.193101	0.199018	0.193594
2113	0.192772	0.200332	0.200825
2114	0.19195	0.197703	0.197867
2115	0.192279	0.204934	0.201154
2116	0.1908	0.197538	0.19836
2117	0.1908	0.198196	0.198853
2118	0.193429	0.200168	0.199018
2119	0.18932	0.203455	0.20099
2120	0.192443	0.204934	0.201319
2121	0.191457	0.201319	0.198853
2122	0.193758	0.199839	0.200168
2123	0.195402	0.201976	0.197045
2124	0.19573	0.200004	0.199182
2125	0.19458	0.202633	0.198524
2126	0.19573	0.201647	0.199018
2127	0.194087	0.198524	0.198689
2128	0.19721	0.200661	0.199346
2129	0.194744	0.199182	0.19836
2130	0.193101	0.201812	0.199511
2131	0.194416	0.198853	0.199675
2132	0.196223	0.199839	0.199675
2133	0.195073	0.198031	0.199018
2134	0.190142	0.200004	0.196552
2135	0.194416	0.197538	0.200332
2136	0.195237	0.199675	0.196717
2137	0.194909	0.199675	0.196059
2138	0.193594	0.204113	0.195895
2139	0.197374	0.200661	0.197045
2140	0.194744	0.203291	0.195895
2141	0.195073	0.204277	0.197045
2142	0.196059	0.20099	0.19836
2143	0.197703	0.204113	0.198524
2144	0.194416	0.201812	0.200004
2145	0.193758	0.201976	0.199675
2146	0.196223	0.200497	0.200004
2147	0.196881	0.200661	0.200661
2148	0.193922	0.199346	0.198031
2149	0.195566	0.202798	0.195402
2150	0.196388	0.198524	0.199018
2151	0.195566	0.200825	0.198031
2152	0.196388	0.201154	0.195402
2153	0.199018	0.203291	0.195402
2154	0.19721	0.200497	0.197867
2155	0.196552	0.201812	0.197703
2156	0.200004	0.203126	0.197703
2157	0.196717	0.206414	0.19721
2158	0.196552	0.206249	0.20099
2159	0.194087	0.202305	0.197867
2160	0.198031	0.201812	0.193429
2161	0.198031	0.200332	0.198524
2162	0.198196	0.201319	0.196881
2163	0.197045	0.200661	0.197703
2164	0.19836	0.199839	0.200497
2165	0.199346	0.198689	0.20099
2166	0.197374	0.200004	0.199675
2167	0.20099	0.196881	0.196717
2168	0.198689	0.199346	0.198524
2169	0.200332	0.200168	0.196388
2170	0.199182	0.200661	0.198853
2171	0.198853	0.201319	0.190471
2172	0.196552	0.201812	0.197374
2173	0.198853	0.203455	0.196552
2174	0.197045	0.203126	0.195073
2175	0.199839	0.201647	0.200004
2176	0.198524	0.203126	0.197374
2177	0.198524	0.20214	0.198196
2178	0.199839	0.199675	0.197538
2179	0.200661	0.198031	0.200332
2180	0.19836	0.193922	0.198853
2181	0.200332	0.198524	0.203455
2182	0.198853	0.195566	0.188992
2183	0.197703	0.196881	0.200497
2184	0.198689	0.195402	0.199675
2185	0.197538	0.196223	0.199346
2186	0.199511	0.19721	0.199839
2187	0.199182	0.003926	0.19721
2188	0.199346	0.014445	0.198853
2189	0.197538	0.020855	0.196552
2190	0.200168	0.029401	0.198524
2191	0.199675	0.03729	0.197703
2192	0.199839	0.041399	0.198853
2193	0.198524	0.046823	0.188499
2194	0.19836	0.054219	0.199511
2195	0.200332	0.061122	0.200004
2196	0.197374	0.067696	0.198031
2197	0.196881	0.072463	0.200825
2198	0.197045	0.077393	0.198853
2199	0.196881	0.081995	0.198524
2200	0.195073	0.087912	0.196717
2201	0.198524	0.090213	0.199182
2202	0.198196	0.096788	0.195895
2203	0.202305	0.098431	0.198689
2204	0.200332	0.057671	0.190635
2205	0.199839	0.062273	0.195237
2206	0.195402	0.068682	0.197374
2207	0.198196	0.070983	0.198853
2208	0.199346	0.075257	0.197867
2209	0.19573	0.084461	0.198524
2210	0.200661	0.089227	0.196388
2211	0.200168	0.094487	0.198689
2212	0.200004	0.081338	0.196388
2213	0.201647	0.091528	0.197538
2214	0.201154	0.093829	0.199018
2215	0.19721	0.098102	0.198524
2216	0.201812	0.100403	0.196059
2217	0.194251	0.104019	0.197703
2218	0.199675	0.109607	0.199346
2219	0.199346	0.111251	0.198031
2220	0.201647	0.117496	0.19721
2221	0.197538	0.121605	0.193265
2222	0.199182	0.124399	0.197867
2223	0.199018	0.127029	0.199675
2224	0.198853	0.130152	0.199018
2225	0.197867	0.131631	0.196059
2226	0.197867	0.13574	0.203948
2227	0.011322	0.136562	0.196059
2228	0.009843	0.143794	0.196717
2229	0.02332	0.13837	0.198689
2230	0.034332	0.145273	0.198031
2231	0.039263	0.145766	0.200004
2232	0.043371	0.148231	0.198524
2233	0.051754	0.153655	0.197867
2234	0.057999	0.147903	0.199182
2235	0.065231	0.150039	0.199839
2236	0.069504	0.154312	0.199839
2237	0.078215	0.158586	0.206907
2238	0.083968	0.155956	0.198196
2239	0.078708	0.163352	0.198689
2240	0.091035	0.162366	0.198853
2241	0.095308	0.164338	0.199675
2242	0.099746	0.163681	0.197538
2243	0.104019	0.169598	0.198853
2244	0.107635	0.168118	0.19836
2245	0.109936	0.169926	0.200168
2246	0.117003	0.171899	0.198689
2247	0.118647	0.171899	0.19721
2248	0.121277	0.173214	0.204934
2249	0.122756	0.172392	0.195237
2250	0.122098	0.174857	0.197045
2251	0.127851	0.17535	0.197045
2252	0.132946	0.176172	0.199182
2253	0.136726	0.176665	0.197045
2254	0.141328	0.178637	0.19836
2255	0.142479	0.176501	0.196881
2256	0.146259	0.180281	0.199839
2257	0.148396	0.179459	0.201154
2258	0.149382	0.180281	0.200497
2259	0.150368	0.180774	0.200825
2260	0.155956	0.181596	0.199346
2261	0.153655	0.182911	0.200825
2262	0.154477	0.185705	0.197538
2263	0.159736	0.183897	0.199182
2264	0.159736	0.184718	0.198031
2265	0.162202	0.186855	0.198689
2266	0.162695	0.184718	0.197703
2267	0.165982	0.190635	0.199346
2268	0.167132	0.187184	0.198524
2269	0.169433	0.184718	0.200004
2270	0.172063	0.186855	0.197045
2271	0.176172	0.18554	0.202962
2272	0.171077	0.186526	0.20099
2273	0.169598	0.188992	0.20099
2274	0.174693	0.187348	0.200332
2275	0.173542	0.188827	0.199839
2276	0.176172	0.18817	0.200332
2277	0.175679	0.189485	0.196223
2278	0.177651	0.188663	0.197703
2279	0.177158	0.187184	0.200661
2280	0.180774	0.189649	0.200825
2281	0.177651	0.191293	0.197867
2282	0.178473	0.190142	0.197538
2283	0.185705	0.191786	0.195237
2284	0.181924	0.193265	0.196881
2285	0.183732	0.192115	0.196717
2286	0.183897	0.194416	0.199346
2287	0.183732	0.192936	0.199839
2288	0.18439	0.193594	0.200168
2289	0.188334	0.190471	0.198524
2290	0.186526	0.194416	0.200825
2291	0.189485	0.192772	0.200332
2292	0.183568	0.19195	0.199675
2293	0.180445	0.193922	0.197703
2294	0.183075	0.19458	0.200004
2295	0.180281	0.195237	0.197374
2296	0.178966	0.195895	0.197867
2297	0.181596	0.195073	0.197867
2298	0.183732	0.193922	0.197374
2299	0.183568	0.193758	0.198689
2300	0.183075	0.193758	0.196059
2301	0.185376	0.196223	0.19836
2302	0.185212	0.194909	0.197374
2303	0.186198	0.196388	0.199346
2304	0.186855	0.194416	0.194744
2305	0.189649	0.197867	0.200168
2306	0.186855	0.195402	0.200168
2307	0.182417	0.196388	0.200497
2308	0.186691	0.196388	0.20099
2309	0.183897	0.196223	0.200004
2310	0.18932	0.196552	0.201812
2311	0.188992	0.196223	0.20099
2312	0.187513	0.197538	0.199346
2313	0.186362	0.198524	0.200004
2314	0.188992	0.195237	0.201812
2315	0.187677	0.195237	0.195566
2316	0.189649	0.198524	0.199018
2317	0.187513	0.192115	0.19721
2318	0.189156	0.195073	0.198524
2319	0.190307	0.197374	0.199182
2320	0.193265	0.199346	0.200332
2321	0.193101	0.196881	0.201483
2322	0.190964	0.19721	0.201154
2323	0.194909	0.197867	0.201647
2324	0.190964	0.197703	0.200168
2325	0.193101	0.195895	0.202962
2326	0.192608	0.196223	0.197045
2327	0.195402	0.197867	0.200497
2328	0.189156	0.196552	0.199675
2329	0.194251	0.196388	0.199511
2330	0.190964	0.196059	0.197867
2331	0.193101	0.200332	0.201976
2332	0.196223	0.19458	0.198031
2333	0.192936	0.198031	0.197045
2334	0.196552	0.195895	0.19573
2335	0.194087	0.199346	0.19458
2336	0.195237	0.198196	0.202305
2337	0.193758	0.19721	0.19721
2338	0.196059	0.199018	0.19836
2339	0.191293	0.198853	0.200661
2340	0.19458	0.197045	0.198689
2341	0.193265	0.198689	0.198689
2342	0.195073	0.20099	0.202633
2343	0.195073	0.197538	0.199018
2344	0.196059	0.198689	0.201812
2345	0.197374	0.199346	0.198853
2346	0.193758	0.200004	0.199346
2347	0.192115	0.199182	0.197703
2348	0.192936	0.201154	0.196388
2349	0.197374	0.203455	0.19573
2350	0.194909	0.202305	0.197538
2351	0.196717	0.198196	0.195895
2352	0.194087	0.201976	0.19458
2353	0.195895	0.199839	0.199346
2354	0.195566	0.199346	0.198524
2355	0.197045	0.199675	0.199182
2356	0.19721	0.199675	0.199511
2357	0.197867	0.199182	0.201976
2358	0.196552	0.199018	0.199675
2359	0.198031	0.197374	0.200168
2360	0.197374	0.200004	0.198689
2361	0.195566	0.200004	0.202633
2362	0.197867	0.19836	0.201154
2363	0.194909	0.200661	0.200661
2364	0.19573	0.197374	0.200332
2365	0.196552	0.19721	0.20099
2366	0.19573	0.200497	0.197867
2367	0.19721	0.20214	0.199675
2368	0.197703	0.200332	0.199018
2369	0.194251	0.202962	0.199182
2370	0.199511	0.197703	0.197538
2371	0.19836	0.200825	0.19836
2372	0.197045	0.200168	0.200332
2373	0.197045	0.199839	0.193429
2374	0.197538	0.198853	0.19836
2375	0.198196	0.198853	0.199839
2376	0.199675	0.197703	0.201154
2377	0.198853	0.198524	0.197538
2378	0.200004	0.198853	0.201812
2379	0.197867	0.197045	0.197374
2380	0.197045	0.199346	0.200332
2381	0.199346	0.198853	0.199511
2382	0.19836	0.197867	0.200497
2383	0.195237	0.196223	0.200661
2384	0.19458	0.201647	0.198524
2385	0.198196	0.200004	0.198689
2386	0.196552	0.198853	0.20099
2387	0.197867	0.197538	0.200168
2388	0.197045	0.198689	0.200497
2389	0.200332	0.201647	0.201647
2390	0.195895	0.199346	0.19721
2391	0.200661	0.20099	0.197703
2392	0.200332	0.199182	0.200332
2393	0.200825	0.200825	0.202305
2394	0.194744	0.200004	0.193265
2395	0.197703	0.202633	0.198196
2396	0.19836	0.19836	0.19836
2397	0.194251	0.195402	0.201647
2398	0.19721	0.198031	0.198853
2399	0.195237	0.19836	0.197538
2400	0.194251	0.199511	0.198524
2401	0.19573	0.200497	0.199182
2402	0.200168	0.199839	0.194744
2403	0.199346	0.201154	0.19836
2404	0.197703	0.201319	0.20099
2405	0.196717	0.19721	0.199018
2406	0.200661	0.201483	0.200661
2407	0.198031	0.20099	0.19836
2408	0.199675	0.20099	0.201976
2409	0.199346	0.199182	0.200004
2410	0.200168	0.202305	0.197538
2411	0.20099	0.200004	0.202798
2412	0.198196	0.200661	0.20214
2413	0.196717	0.198689	0.20099
2414	0.199018	0.199182	0.200825
2415	0.200332	0.200168	0.201812
2416	0.197538	0.202305	0.198524
2417	0.199018	0.199346	0.200004
2418	0.197538	0.199346	0.199675
2419	0.196388	0.19721	0.201976
2420	0.199182	0.200661	0.200661
2421	0.19836	0.201976	0.201319
2422	0.197703	0.200004	0.198524
2423	0.199839	0.201647	0.197045
2424	0.199018	0.200004	0.201976
2425	0.201154	0.201812	0.199018
2426	0.199346	0.200332	0.198689
2427	0.198853	0.201483	0.199346
2428	0.200825	0.200661	0.200661
2429	0.199182	0.200661	0.201319
2430	0.199675	0.196059	0.202962
2431	0.197045	0.199182	0.201319
2432	0.19836	0.19836	0.201319
2433	0.200332	0.19721	0.200661
2434	0.198689	0.195402	0.200497
2435	0.199346	0.200332	0.202305
2436	0.199182	0.199839	0.201154
2437	0.197867	0.199675	0.198031
2438	0.201483	0.20362	0.200004
2439	0.200004	0.197867	0.199182
2440	0.199839	0.203126	0.201483
2441	0.197374	0.20099	0.199182
2442	0.201483	0.20099	0.202962
2443	0.201483	0.200825	0.197703
2444	0.202962	0.200332	0.199675
2445	0.199511	0.200661	0.200497
2446	0.200332	0.202798	0.202962
2447	0.199018	0.199675	0.198524
2448	0.201154	0.202798	0.198689
2449	0.20214	0.197867	0.201976
2450	0.202633	0.198031	0.197867
2451	0.198524	0.199675	0.201483
2452	0.196223	0.196552	0.197703
2453	0.202305	0.200004	0.201319
2454	0.200168	0.201976	0.196223
2455	0.20099	0.199182	0.201154
2456	0.200661	0.199675	0.199839
2457	0.20099	0.20099	0.199182
2458	0.201812	0.199018	0.200168
2459	0.201976	0.201154	0.197045
2460	0.202798	0.201647	0.200661
2461	0.200332	0.202469	0.197045
2462	0.199346	0.199346	0.196059
2463	0.201647	0.198524	0.201319
2464	0.204441	0.199346	0.204441
2465	0.201319	0.199182	0.198524
2466	0.202305	0.193101	0.200332
2467	0.202962	0.197867	0.200497
2468	0.20099	0.19836	0.202305
2469	0.198853	0.196552	0.199182
2470	0.202469	0.203784	0.200004
2471	0.198689	0.19836	0.199511
2472	0.199839	0.200825	0.20099
2473	0.199675	0.200004	0.196717
2474	0.201812	0.202305	0.204113
2475	0.201647	0.199675	0.202962
2476	0.199346	0.199511	0.201154
2477	0.201976	0.197867	0.200661
2478	0.200661	0.200497	0.201154
2479	0.200004	0.200004	0.200661
2480	0.200825	0.199182	0.19836
2481	0.204441	0.198196	0.200004
2482	0.201154	0.198031	0.200168
2483	0.201483	0.19836	0.20099
2484	0.199511	0.201483	0.198524
2485	0.202305	0.201319	0.20214
2486	0.199346	0.199018	0.201812
2487	0.199346	0.20099	0.201154
2488	0.20099	0.200168	0.200661
2489	0.200332	0.196717	0.200497
2490	0.200825	0.201647	0.199675
2491	0.198689	0.201976	0.199675
2492	0.20099	0.201154	0.199182
2493	0.199675	0.203126	0.199839
2494	0.200168	0.199346	0.200661
2495	0.196552	0.201647	0.200661
2496	0.201154	0.199839	0.20214
2497	0.196717	0.200332	0.203455
2498	0.199346	0.200661	0.20214
2499	0.196717	0.202798	0.196881
