Ladekurvenmessung

Zeit: 2018_05_04 09.55.27

Info: FVA3, v = 0.248, T = 23, F = 20, h = 198.9

Ladewiderstand[Ohm]: 1012700

Störkapazität[pF]: 0.000000

Entladezeit[ms]: 200

Abtastrate[Hz]: 250000

Anzahl der Messwerte: 2500.000000

Verzögerung[ms]: 3

Ladespannung[V]: 0.200000


	Kurve_1	Kurve_2	Kurve_3	Kurve_4	Kurve_5
0	0.000967	-0.001498	-0.000512	-0.000676	-1.9e-05
1	0.000967	0.000474	0.005405	0.000146	0.001132
2	-1.9e-05	0.000639	-0.001169	-0.002155	0.001132
3	0.000967	0.000474	0.007542	-0.001662	-0.000347
4	-1.9e-05	-0.001169	-0.000676	0.000474	-0.000347
5	0.000967	-0.001662	-0.000676	-0.000183	-0.001005
6	-0.001169	-0.001827	-0.001005	0.000967	-0.002977
7	0.001296	-0.003306	0.000474	-0.001498	-0.001334
8	-0.00232	-0.000841	-0.001827	0.001132	-0.001827
9	-0.000512	-0.002484	0.001132	-0.002977	-0.000676
10	0.000639	-0.001334	-0.001005	-0.001662	0.00031
11	-0.005114	-0.001827	-0.001334	-0.000347	-0.001827
12	0.00031	0.000146	-0.000841	0.000146	0.006062
13	0.000967	-0.002648	-0.002977	-0.000676	0.000967
14	0.002118	0.001132	0.001296	0.001296	0.002447
15	0.000803	0.002118	-0.00347	0.000474	0.002447
16	0.001625	0.000639	-0.000841	0.001296	-0.000347
17	-0.001498	-0.001991	-0.001334	0.000639	0.001625
18	0.00031	-0.001991	0.004419	-0.000183	-0.000347
19	0.00031	0.001132	0.000474	0.000146	0.000803
20	-0.000183	-0.001169	0.000146	-0.001334	-0.003635
21	-0.002484	-0.000183	-0.001827	0.000639	0.000639
22	0.000474	-0.001498	-0.000347	-0.000841	-0.002484
23	-0.002155	-0.000512	-1.9e-05	-0.000841	-0.001827
24	-0.002813	-0.001662	-0.001005	0.00146	-0.000347
25	-0.001662	0.000639	-0.000183	0.001132	-0.000841
26	-0.001334	-0.003306	-0.001662	-0.001334	0.003597
27	-0.000183	-0.000347	-0.001169	0.000967	0.002775
28	-0.001827	-0.001498	-0.001169	-0.001498	-0.000347
29	0.003268	-0.001827	-1.9e-05	-0.000183	0.000639
30	0.006062	-0.004292	-0.00347	0.00146	0.000146
31	0.005076	0.002611	-0.000512	0.00409	-0.000676
32	-1.9e-05	-0.000841	-0.001827	0.001954	0.000803
33	0.000639	0.000803	-0.001334	0.00294	-0.000512
34	-0.003799	0.000146	-0.002648	0.002282	-0.001334
35	-0.003635	-0.001498	0.000474	-0.001498	-1.9e-05
36	0.00031	0.002118	-0.005607	0.002118	0.00031
37	-0.002813	-0.001334	-0.003306	-0.000676	-0.000512
38	-0.008072	0.001296	-0.001498	-0.002484	0.001625
39	-0.001827	-0.001005	0.000803	-0.001991	0.000803
40	-0.001334	0.001132	0.001296	0.000639	-0.00347
41	-0.001991	-0.003799	-0.000841	-0.003306	-0.002155
42	-0.001827	-0.001169	-0.000512	0.00031	-0.001991
43	-0.000676	-0.002155	-0.002155	-0.002484	-0.000676
44	-0.001991	-0.004292	-0.001662	-0.000512	-0.002977
45	-0.001827	-0.00347	-0.002813	-0.000676	-0.000512
46	-0.001334	-0.003142	-0.002648	0.00031	-0.000183
47	0.000967	-0.000183	-0.004292	-0.000347	0.004419
48	0.002447	0.00294	0.00031	0.000474	-0.003306
49	0.00031	0.002447	-0.002155	-0.000347	0.00146
50	0.003761	-0.003799	-0.00232	-0.001662	-0.000841
51	-0.000676	0.000474	-0.000512	0.001296	-0.000676
52	0.00031	-0.002977	-0.00232	-0.001498	-0.000512
53	0.000474	0.00031	-0.002813	-0.00232	-0.000841
54	-1.9e-05	-0.002648	0.000803	-0.001991	-0.001005
55	0.001132	-0.001169	-0.000512	-0.001005	-0.001827
56	-0.002155	-0.002155	0.001132	-0.002813	-0.002813
57	-0.004949	-0.002155	-0.000512	-0.000512	0.002611
58	-0.002484	-0.002484	-0.002155	0.000803	-0.001827
59	-0.000841	-0.001005	-0.000512	0.001132	-0.002977
60	-0.001498	-0.000347	-0.001334	-0.001005	-1.9e-05
61	-0.002484	-0.001827	-0.001498	-0.001662	-0.003306
62	0.000639	-0.002977	-0.002648	-0.003799	-0.00232
63	-0.000841	-0.00232	-0.002648	-0.000676	-0.001827
64	-1.9e-05	-0.000512	-0.004456	-0.001827	0.000639
65	0.000474	-0.000841	-1.9e-05	-0.000512	-0.003306
66	0.00031	-0.000841	-0.001827	-0.00232	-0.004621
67	-0.000676	-0.001334	-0.0061	-0.001662	0.001789
68	-0.001498	-0.002813	-0.005443	0.000146	-0.00232
69	-1.9e-05	-0.0061	-0.002813	-0.001334	-0.000676
70	0.00146	-0.000512	-0.004292	0.000474	0.001789
71	-0.003142	-0.004621	-0.001498	0.000967	-0.000347
72	-0.00232	-0.008072	-0.000512	-1.9e-05	0.000474
73	-0.001498	-0.001334	-0.000841	0.00146	-0.001334
74	-0.002155	-0.002155	0.000474	0.003268	-0.002648
75	-0.002813	-0.001991	0.00031	-0.004128	0.000146
76	0.000967	0.00031	0.00294	0.000967	-0.002648
77	-0.002813	-0.005278	-0.002155	-0.001827	-1.9e-05
78	0.000803	-1.9e-05	-0.001498	-0.003799	-0.001827
79	-0.005114	-0.001827	-0.001334	-0.001334	0.00031
80	-0.005607	-0.004128	-0.002648	0.002447	-0.002813
81	0.000803	0.000474	-0.004128	0.003268	-0.000512
82	-0.000512	-0.001498	-0.000347	-0.002155	-0.007579
83	-0.001169	-0.003142	-0.001662	-0.001827	-0.003963
84	0.001625	-1.9e-05	-0.001662	-1.9e-05	-0.004621
85	-0.001827	0.001132	-0.001169	-0.001169	-0.004621
86	-0.002484	-0.001827	-0.001827	-0.001498	-0.002813
87	-0.000183	0.000639	-0.002484	0.000146	-0.004128
88	-0.003306	-0.001498	-0.001498	0.002447	-0.001662
89	-0.005278	-0.00347	-0.000183	0.000146	-0.004785
90	-0.002977	-0.001991	0.00294	-0.002155	-0.003963
91	-0.003799	0.003926	0.004583	0.000474	-0.00725
92	-0.002155	-0.006429	-0.000841	-0.001991	-0.003306
93	-0.000512	-0.005278	-0.000676	-0.001991	-0.006757
94	-0.004292	-0.001498	0.000474	-0.001334	-0.003142
95	0.000474	-0.001991	-0.002648	-0.003306	-0.005278
96	-0.001498	-0.001662	-0.001334	-0.000512	-0.005771
97	-0.002977	0.002447	0.000803	-0.00347	-0.005114
98	-0.001005	0.002447	-0.002813	0.000146	-0.006429
99	0.000474	-0.005607	-0.001662	-0.001334	-0.006593
100	-0.005607	-0.001169	-0.002648	-0.000676	-0.000512
101	0.00146	-0.002155	-0.001662	0.00031	-0.002813
102	-0.001991	-0.001169	0.00031	0.004419	-0.001827
103	0.001296	-0.002648	-0.001662	-0.000841	0.000146
104	-0.001169	-0.00347	-0.001991	0.000967	-0.001827
105	-1.9e-05	-0.002813	0.001296	-0.001334	-0.001169
106	-0.001005	-0.002155	0.000639	0.000639	-0.002813
107	-0.003142	-0.000512	-0.00347	0.000146	-0.002648
108	-0.000676	-0.001498	0.000639	-0.001005	-0.00347
109	-0.000183	-0.001169	-0.001005	0.002282	-0.001662
110	-1.9e-05	-0.003635	-0.004456	0.00031	-0.005771
111	-0.004785	-0.000676	-0.004785	-0.001005	-0.004292
112	-0.000183	-0.002155	-0.001662	-0.001991	-0.007415
113	-0.002484	-0.001334	0.000146	0.001625	-0.001498
114	-0.001169	-0.00347	-0.001334	-0.007415	-0.000676
115	-0.000676	-0.000183	-0.002484	-0.000512	-0.001334
116	-0.001169	-0.001498	0.001789	-0.003142	-0.00347
117	-0.000676	-0.001169	-0.003306	-0.000347	-0.001827
118	0.00031	-0.000347	-0.00232	-0.003142	0.000474
119	-0.002648	-0.000512	0.000967	-0.001334	0.001625
120	0.000967	-0.001991	-0.003963	0.000639	-1.9e-05
121	0.00031	0.001954	-0.002813	0.001296	-0.002484
122	-0.004128	-0.004456	-0.004128	-1.9e-05	-1.9e-05
123	-0.000183	-0.004292	0.000146	-0.000347	0.000967
124	-0.003306	-0.001498	-0.004621	0.000967	-0.000676
125	-0.000183	-0.005114	-0.004456	-0.002648	-0.001005
126	-0.002155	-0.002484	-0.00232	-0.001334	0.002775
127	-0.001334	-0.000841	0.001954	-0.001662	-0.002155
128	-0.003142	-0.00232	-0.000676	-0.001827	-0.002648
129	0.001132	-0.001991	-1.9e-05	0.000639	-0.003963
130	-0.001827	-0.001005	0.00031	-0.003142	-0.002155
131	-0.006922	-0.002155	-0.001498	-0.002484	-0.00232
132	-0.003963	-0.001662	-0.001662	-0.003799	-0.003963
133	-0.004128	-0.000183	-0.001169	-0.003799	0.002775
134	-0.001169	-0.002484	-0.001169	-0.001827	-0.001169
135	-0.001991	-0.000512	-0.000841	-0.003306	0.00031
136	-0.002648	-0.003799	-0.002155	-1.9e-05	-0.001169
137	-0.003635	-0.000512	-0.00232	-0.000512	0.003268
138	0.000639	-0.002648	0.000803	0.000803	-0.002155
139	-0.000512	-0.005936	-0.000347	-0.000183	0.002447
140	-0.000512	-0.003799	-0.000841	-0.000347	-0.004128
141	-0.001498	0.001954	-0.007908	-0.000676	-0.002648
142	-0.000183	-0.001827	0.00031	-0.000347	-0.002813
143	0.00031	0.00146	-0.000183	0.003433	-0.002977
144	-0.001827	0.001625	-0.001334	0.000146	0.001132
145	-0.001827	-0.001334	-0.001991	-0.002648	-0.001498
146	-0.002977	-0.001169	-0.001827	-0.001334	-0.002648
147	-0.000841	-0.000183	0.002118	-0.001991	-0.002648
148	-0.002155	-0.003306	-0.001498	-0.004292	-0.000347
149	-0.001005	-0.001498	0.001132	-0.001169	-0.002648
150	0.002775	-0.004456	-0.001005	-0.002977	0.002118
151	-0.001334	-0.002813	-0.001334	-0.004785	-0.001662
152	-0.003635	-0.003635	-0.000841	-0.000841	0.001296
153	0.001789	-0.001005	-0.001662	0.000967	-0.000347
154	-0.003306	-0.001827	-0.003142	0.001132	0.001132
155	0.000639	-0.000841	-0.000676	0.001132	-0.000347
156	-0.002813	-1.9e-05	-0.002813	0.000803	0.002447
157	-0.001498	-0.001827	0.00031	0.000967	-1.9e-05
158	0.000639	0.000639	-0.001334	0.000146	-0.001827
159	-0.002155	0.000146	0.000967	-0.003306	-0.001662
160	-0.000676	0.000803	0.001296	0.001954	-0.002977
161	-0.001334	-0.002977	0.004748	-0.000512	-0.002648
162	-0.003306	-0.000183	-0.001005	-0.002484	-0.003306
163	-0.000676	-0.001991	-0.001991	-0.001334	-0.004456
164	-0.001169	-0.000676	0.003104	-0.003963	0.000474
165	-0.001005	-0.003635	-0.002484	-0.004621	0.00146
166	-0.002155	-0.002155	-0.000841	-0.001827	0.000803
167	-0.003635	-0.007086	-0.000841	-0.004785	0.004255
168	-0.001498	-0.005114	-0.001991	-0.002813	-0.001827
169	-0.003306	-0.003142	-0.004128	-0.002648	-0.001169
170	-0.001334	-0.004456	-0.001991	-0.001169	-0.001662
171	-0.002484	-0.003142	-0.002977	0.000146	0.000639
172	0.00031	0.000639	-0.00232	0.000146	-0.001991
173	-0.001169	0.001296	-0.005278	0.001625	0.001625
174	-0.001169	-0.001334	-0.002484	-0.003963	0.000146
175	-0.000183	0.000639	-0.00232	-0.000347	0.001132
176	0.001625	-0.002155	-0.001498	-0.000183	0.001625
177	-0.001005	0.00146	-0.000676	-0.000347	-0.000676
178	-0.001334	-0.000676	0.000967	-0.001991	0.003433
179	-0.003799	0.000146	0.001132	-0.000841	-0.001498
180	-0.000676	-0.000512	-0.001005	-0.002813	-0.001827
181	0.001954	-0.000183	0.00146	-0.001662	-0.001498
182	-0.001498	-0.002977	-0.000512	-0.003799	-0.000676
183	-0.001498	-0.00232	0.000803	0.002611	-0.002813
184	-0.003306	-0.000841	-0.000676	-0.000841	0.000146
185	-0.001991	-0.003635	-1.9e-05	-0.002648	-0.001827
186	-0.004456	-0.000841	-0.001169	0.000639	-0.000512
187	-0.006593	-0.003963	-0.000512	-0.000183	-0.000512
188	-0.004949	-0.001662	-0.003142	-1.9e-05	0.002118
189	0.000639	0.005734	0.00031	0.001296	0.002447
190	-0.002813	-0.001498	-0.001005	-1.9e-05	0.004419
191	0.001296	0.002611	-0.001827	-0.001169	-0.002484
192	-0.001827	0.001789	-0.002155	0.000803	-0.000676
193	0.000803	-0.001991	-0.00232	0.000803	-0.001827
194	0.000639	-0.001005	-0.000676	-0.000512	-0.005443
195	-1.9e-05	-0.005278	-0.001169	-0.001498	-1.9e-05
196	-0.000512	0.001132	0.000639	0.000967	-0.003142
197	-0.000512	0.000474	-0.000183	0.000967	0.000474
198	-0.000183	-0.003142	-0.002484	-0.002813	-0.000347
199	0.00031	-0.000347	-0.001169	-0.00347	0.003104
200	-0.002648	0.000967	0.003268	-0.001005	0.00146
201	-0.000347	-0.001005	-0.003799	-0.003799	0.003926
202	0.001789	-0.001334	-0.001334	-0.004785	-0.001005
203	-0.004785	0.000967	-0.001334	-0.001827	0.000146
204	-0.004456	-0.004949	-0.002155	-0.002648	-0.000183
205	-0.001169	-0.00347	0.000146	-0.000841	-0.000347
206	0.00031	-0.003635	-0.002648	-0.001334	-0.002155
207	-0.001169	-0.001498	-0.003142	-0.000841	-1.9e-05
208	0.001132	-0.002813	-0.002813	-0.00232	-0.00232
209	0.000146	0.00031	-0.001005	-0.001005	-0.002977
210	0.000146	-0.000347	-0.004456	-0.002484	-0.000676
211	0.000967	0.001296	-0.002813	-0.000841	-0.001169
212	-0.004621	-0.001662	-0.003142	-0.002813	0.001954
213	-0.000841	0.000474	0.001954	-0.001005	-0.003142
214	0.000803	0.002447	-0.000183	-0.003142	0.001625
215	-0.001498	-0.003142	0.000967	-0.003635	-0.001498
216	-0.004292	-0.001662	-0.001498	-0.002813	-0.000676
217	-0.001005	-0.002977	-0.002813	-0.000676	-0.000676
218	-0.00347	-0.0061	0.000474	-0.003306	0.003104
219	-0.005278	-0.005114	-0.000841	0.001296	-0.003635
220	-0.001169	-0.002813	-0.003799	-0.001169	-0.002977
221	-0.003306	-0.001827	-0.002484	0.000146	0.000146
222	-0.002484	0.00146	-0.005936	-0.001005	-1.9e-05
223	-1.9e-05	0.003433	-0.001498	-0.000841	0.000146
224	-0.002155	0.001132	-0.00347	-0.005114	0.00294
225	0.000474	0.005241	-0.002484	-0.001169	0.005076
226	-0.001498	0.001132	0.000967	-0.001991	-0.001005
227	-0.000347	0.000639	-0.001991	-0.001498	0.003104
228	-0.001498	0.000803	-0.000841	0.001296	0.00031
229	-0.000347	-1.9e-05	0.001296	-0.004128	-0.000183
230	-0.000841	0.000967	-0.001498	0.000639	-0.001827
231	-0.003306	0.000474	-0.000841	-0.000512	0.000639
232	-0.000183	-1.9e-05	0.000803	0.002447	0.000803
233	-0.004621	-0.000676	-0.001827	0.001296	0.00146
234	-0.003142	-0.000512	0.000967	0.00146	-0.001169
235	-0.003799	-0.000841	-0.000841	-0.001991	-0.001169
236	-0.002484	0.003433	0.000146	0.000474	-0.000676
237	-0.0061	-0.000183	-0.000841	-0.000347	-0.001662
238	-0.003799	0.00031	-0.001005	-0.001662	0.001296
239	-0.001334	0.000639	-0.002155	0.000639	0.003104
240	-1.9e-05	-0.000183	-0.005443	-0.001005	0.000639
241	-0.001662	0.000803	-0.000347	0.00146	-0.002813
242	0.001954	0.00031	-1.9e-05	-0.00232	-0.001991
243	-0.00347	-0.000347	-0.000512	0.000639	-0.000841
244	-0.001169	0.000474	-0.00232	-0.001498	-0.000347
245	0.003104	-0.000512	-0.000183	0.000146	-0.002813
246	-0.002813	-0.000183	-0.001991	-0.002155	0.001296
247	0.000474	0.003433	-0.001169	-1.9e-05	0.000803
248	-0.003306	0.000146	-0.001662	0.000474	-0.000512
249	-0.005607	0.000146	0.001625	-0.000512	0.000639
250	-0.003799	0.000639	-0.001827	0.00409	0.002611
251	-0.002648	-0.000183	0.00146	-0.001827	-0.0061
252	-0.007908	0.000474	-0.000347	0.002447	-0.002977
253	-0.003142	0.000146	-0.003306	-0.002484	-0.00347
254	-0.004128	-0.000347	-0.001991	-0.001334	-0.002484
255	-0.001334	-0.000183	-0.001498	-0.001498	-0.000347
256	-0.00232	-0.000183	-0.004292	0.000639	-0.008401
257	-0.001005	-0.000183	-0.000347	-0.003799	-0.000841
258	0.00031	0.002118	-0.003142	-0.002484	-0.004949
259	-0.000512	-0.000183	-0.004292	-0.002977	-0.00232
260	0.000474	0.000146	-0.002484	0.000146	-0.00232
261	-0.000183	0.000146	-0.002648	-0.003142	-0.001334
262	0.000474	0.00031	0.000803	-0.002813	-0.001827
263	-0.004128	0.000146	-0.003799	0.000967	-0.004292
264	-0.000512	0.00031	-0.003306	-0.001827	-0.001662
265	-0.001827	0.000146	-0.001334	-0.001991	0.00031
266	-0.001334	-0.000347	-0.001827	-0.000841	-0.001005
267	-0.004949	-0.000512	-0.001827	-1.9e-05	0.001132
268	-0.000676	-0.000512	-0.001334	-0.001827	-0.000183
269	-0.003306	0.000474	-0.002155	-1.9e-05	-0.001991
270	-0.000512	-0.000183	-0.00232	-0.001827	-0.002648
271	-0.002484	0.00031	-0.00347	-1.9e-05	-0.002977
272	-0.002648	-1.9e-05	-0.001991	-0.00232	-0.00232
273	-1.9e-05	0.000474	-0.002155	-0.000512	-0.001169
274	-0.002155	0.000146	-0.002813	-0.004456	0.002282
275	0.003104	0.000474	0.00031	-0.005771	-0.000841
276	-0.001991	-0.000183	-0.002813	-0.001005	-0.000512
277	0.000474	-0.000183	0.00031	-0.001827	0.000803
278	-0.003306	-0.000676	-0.002977	-1.9e-05	0.000474
279	-0.000841	-0.000347	-1.9e-05	0.00031	0.000639
280	-0.001991	-0.000347	-0.001662	0.00146	0.001789
281	-0.005278	-0.000183	-0.000347	0.000474	-0.001827
282	-0.006757	0.000146	0.002447	0.001296	0.000474
283	-0.000676	0.00031	0.00031	-0.002813	0.000146
284	-0.004292	0.000146	-0.000676	0.000639	-0.000512
285	-0.003306	0.000474	-0.000347	-0.001662	-0.000183
286	-0.003142	0.00031	-0.001498	-1.9e-05	-1.9e-05
287	-0.002813	-0.000183	-0.000347	-0.002648	0.001789
288	-0.001498	-0.000183	0.000474	0.000474	-0.008401
289	-0.001169	-0.000347	0.001296	-1.9e-05	0.002118
290	-0.001169	-0.000676	-0.001005	-0.003142	0.001789
291	-0.003142	-0.000676	-0.002155	-0.001334	0.003761
292	0.000967	-0.000183	0.000474	-0.001991	-0.000841
293	-0.001827	0.000146	0.001954	-0.00232	-0.000512
294	0.000967	0.000146	0.001789	-0.001334	-0.000347
295	0.000474	0.000474	-0.000841	-0.004128	0.00031
296	-0.000347	0.000146	0.00031	0.002447	-0.001005
297	0.002118	0.00031	-0.002977	-0.001334	0.002611
298	-0.001498	0.000146	-0.001991	-0.001005	0.001789
299	0.000146	-0.000183	-0.000183	0.000967	0.001625
300	0.000146	-0.000512	-0.00232	0.003268	0.000803
301	0.000474	-0.000347	-0.001334	-0.001005	-0.003142
302	-1.9e-05	-0.000512	0.00031	0.000803	-0.000512
303	0.000967	-0.000183	-0.001334	0.001789	-0.001498
304	0.001625	-1.9e-05	0.000967	-0.000512	-0.002155
305	0.000474	0.000146	0.000146	-0.000183	-1.9e-05
306	-1.9e-05	0.000146	-0.000676	-0.003142	0.00031
307	-0.001334	0.000474	-0.001498	0.00294	-0.00232
308	-1.9e-05	0.000146	0.00146	-0.005443	-0.005278
309	-0.001169	-0.000347	-0.001827	-0.003963	-0.002155
310	-0.001991	-0.000347	0.001625	-0.000347	0.000803
311	-0.001991	-0.000512	-0.001498	-0.000512	-0.00232
312	-0.002484	-0.000512	-0.003306	-0.003635	-0.004128
313	0.000474	-0.000512	-0.004456	-0.001827	-0.001334
314	-0.003306	-0.000183	0.001296	0.000474	0.00031
315	0.001132	0.00031	0.000474	-0.001498	-0.001005
316	0.00031	0.000146	0.00031	0.001625	0.000639
317	-0.000512	0.00031	-0.000841	-0.001169	0.001132
318	-0.000347	0.000474	-0.000676	0.003268	0.000146
319	0.006062	0.00031	-0.002155	0.000967	0.001954
320	-0.00232	0.000146	0.000803	0.000967	-0.001005
321	-0.001662	-0.000347	-0.006264	-1.9e-05	-0.001169
322	-0.001498	-0.000347	-0.001662	-0.000512	-0.000183
323	-0.001498	-0.000676	-0.001827	-0.001005	-0.000183
324	-0.003142	-0.000512	0.001625	0.002447	-0.000183
325	-0.002484	-0.000347	-0.000841	-0.003799	-0.001334
326	0.00294	0.000146	0.001296	-0.002155	-0.001991
327	-0.000347	0.000146	-0.000512	-0.001662	-0.001991
328	0.001132	0.00031	-0.001991	-0.002648	-0.002155
329	-0.000183	0.000474	-0.001827	0.001954	0.000803
330	0.003268	0.000639	-0.001169	-0.001827	-0.000676
331	0.00146	-1.9e-05	-0.001005	-0.000512	0.001625
332	0.000967	-0.000512	-0.001991	-0.000676	0.001789
333	-0.001334	-0.000512	-0.002484	0.001132	0.000803
334	-1.9e-05	-0.000841	-0.002813	-0.003306	0.000639
335	-0.003306	-0.000512	-0.000347	-0.004292	0.00146
336	-0.004621	-0.000183	-0.000841	-0.003142	-0.000183
337	0.000639	-1.9e-05	0.000474	0.00031	-0.001005
338	-0.001498	0.00031	-0.000183	-0.003799	-0.000512
339	-0.003635	0.000474	0.001954	-0.002977	-0.002155
340	-0.001169	0.000474	-0.000841	-0.001662	-0.00347
341	0.004748	0.00031	0.000639	-0.001498	-1.9e-05
342	-0.003963	-0.000183	-0.002648	-0.000676	0.00031
343	0.00031	-0.000347	-0.00347	-0.004128	-0.001334
344	-0.002813	-0.000347	-1.9e-05	0.001625	0.003761
345	-0.001005	-0.000347	-0.001662	-0.005443	-0.00232
346	-0.001827	-0.000676	-0.001169	-0.000841	-0.000841
347	-0.002648	-0.000183	-0.000512	-0.003635	0.001296
348	0.004419	0.000146	-0.001827	-0.001334	0.001132
349	0.003597	0.000146	-0.002484	0.000146	0.001789
350	0.003268	0.000474	-0.001005	0.000474	0.001625
351	0.00146	0.000474	-0.00347	0.001296	-0.000512
352	0.001625	0.000146	-0.001662	0.003268	-0.004128
353	-0.002813	-1.9e-05	-0.003142	0.00031	0.003268
354	-0.00232	-0.000347	-0.001005	-0.000347	0.000146
355	-0.000676	-0.000347	-0.001498	-0.000347	0.000967
356	0.000639	-0.000347	-0.000183	-0.001991	-0.000183
357	-0.002813	-0.000512	-0.001498	-0.003635	0.000474
358	-0.000347	-1.9e-05	0.000803	0.00031	-0.005114
359	-0.00232	-1.9e-05	0.004255	-0.000676	-0.002813
360	-0.000512	0.000146	0.003104	-0.002813	-0.000347
361	-0.003306	0.000474	-1.9e-05	-0.000841	0.001132
362	-0.001827	0.00031	-0.000512	-0.004456	0.001296
363	-0.004621	0.00031	0.002118	-0.000347	-0.006593
364	-0.001334	0.000146	0.002282	-0.000183	0.00409
365	0.000967	-0.000183	0.000146	-0.002648	0.003433
366	-0.000183	-0.000183	0.001132	0.001625	-0.000183
367	0.001132	-0.000512	-0.004128	-0.000841	0.002118
368	0.00146	-0.000512	-0.002813	0.000803	-0.001991
369	0.001132	-0.000183	0.000639	0.001132	-0.004785
370	-0.000512	-1.9e-05	-0.001498	-0.001005	0.002611
371	0.001296	0.000146	-0.002484	0.000474	-0.002155
372	-0.002484	0.000474	-0.002813	-0.001662	0.001296
373	0.002282	0.00031	-0.001662	0.000639	-0.001827
374	-0.008894	0.00031	-0.004621	0.00294	-0.002155
375	-0.001169	0.000146	0.002447	0.001789	-0.001169
376	-0.004621	-0.000347	-0.005443	0.000639	0.001132
377	-0.000183	-0.000347	0.001954	0.000474	-0.001498
378	-0.000841	-0.000512	0.000803	-0.001169	-0.000676
379	-0.001334	-0.000512	-0.001498	-0.002977	0.001132
380	-0.000347	-1.9e-05	0.00031	0.000474	-0.001991
381	0.000146	-1.9e-05	-0.001169	-0.001827	0.000474
382	0.002447	0.00031	-0.001169	-0.000183	0.000474
383	0.001296	0.00031	-0.001827	-0.00232	0.000146
384	-0.000183	0.000146	-0.004292	0.002447	-0.000512
385	-0.004785	0.00031	-0.001662	-0.003963	0.00031
386	-0.001169	-1.9e-05	-0.001169	0.001789	-0.000347
387	-0.002977	-0.000347	-0.001169	0.00031	0.002447
388	0.00294	-0.000347	-1.9e-05	0.002118	-0.001498
389	-0.000676	-0.000512	-0.003306	-1.9e-05	0.000639
390	0.000639	-0.000512	-0.000183	-0.000512	-0.001005
391	-0.000512	-0.000183	-0.000183	-0.000676	-0.004456
392	-0.000183	-1.9e-05	-1.9e-05	-0.001991	-0.001991
393	-0.001169	0.00031	-0.000676	-1.9e-05	-0.002484
394	-0.001498	0.000146	0.001789	-0.000183	-0.001662
395	-0.002648	0.00031	-0.001005	-0.000512	-0.002648
396	-0.004785	0.00031	-0.001334	-0.002155	-0.001334
397	-1.9e-05	-0.000183	-0.002484	-0.000841	-0.003963
398	0.001132	-0.000347	-0.001991	-0.006593	0.003268
399	-0.000512	-0.000347	-0.001169	-0.000347	-0.000512
400	0.000474	-0.000183	-0.004128	-0.003306	-0.001169
401	0.000474	-0.000512	-1.9e-05	-0.001334	-0.000841
402	0.000474	-0.000183	-0.00232	-0.00232	0.001789
403	-0.000841	-1.9e-05	-0.000512	0.000474	0.001625
404	0.002447	0.000146	-0.002977	-0.000841	0.003104
405	-1.9e-05	0.00031	-0.000183	-0.002484	0.000639
406	-0.000512	0.000474	-0.00232	0.00146	0.000146
407	-0.002484	0.00031	-0.001662	0.001132	-0.001498
408	-0.001662	-1.9e-05	-0.000676	0.002611	-0.002155
409	-1.9e-05	-0.000347	-0.001005	0.000803	-0.001827
410	-0.000841	-0.000512	-0.004128	0.002611	0.00146
411	-1.9e-05	-0.000347	-0.003306	-0.001991	0.002118
412	-0.000512	-0.000512	0.001625	-0.001169	0.001789
413	0.000146	-0.000347	-0.006264	-0.002977	-0.000347
414	-0.000512	0.000146	-0.003799	-0.00232	-0.000347
415	-0.000183	0.00031	-0.001005	-0.002155	0.00146
416	-0.000183	-1.9e-05	0.002611	-0.005443	-0.001334
417	-0.000183	0.00031	-0.0061	-0.001827	-0.002484
418	-0.001827	0.00031	-0.001498	-0.001005	-0.000183
419	-0.000347	-1.9e-05	-0.003635	-0.000512	0.003433
420	0.000146	-0.000347	-0.003142	-0.001169	-0.001334
421	0.000146	-0.000347	-0.005114	0.003597	-0.002484
422	0.000803	-0.000512	-0.003635	-0.004292	0.001954
423	0.00031	-0.000512	-0.000183	-0.000841	0.001625
424	-0.000183	-0.000183	-0.000512	-1.9e-05	0.000639
425	-0.000512	-1.9e-05	0.000146	0.003761	0.000474
426	-0.000676	0.00031	0.000474	0.000803	0.000639
427	-0.001169	0.00031	0.006556	-0.001662	-0.000183
428	-0.000347	0.00031	-0.002813	0.001296	-1.9e-05
429	-0.001334	0.000639	0.001789	0.001296	-0.000183
430	-0.000347	-0.000183	-0.003142	-0.001827	0.001789
431	0.000474	-0.000183	0.000803	0.000474	-1.9e-05
432	0.000639	-0.000183	0.000803	-0.001334	-0.000512
433	0.00031	-0.000512	-0.001827	-0.000841	-0.004621
434	0.000474	-0.000347	-0.001498	-0.002648	0.000474
435	0.00031	-0.000347	0.000146	-0.002648	-0.003635
436	-0.000183	-1.9e-05	-0.001991	0.002282	0.000803
437	-1.9e-05	0.000146	0.001789	0.001296	-0.000676
438	-0.000676	0.000146	0.008692	0.001132	0.000474
439	-0.000676	0.000474	0.000146	0.001789	-0.000183
440	-1.9e-05	0.00031	-0.001334	0.000639	0.003926
441	-1.9e-05	0.000146	0.001132	-0.000183	0.001296
442	0.00031	-0.000183	0.001625	0.000967	-0.000676
443	0.000146	-0.000347	0.00294	0.00146	0.001132
444	-1.9e-05	-0.000347	-0.001827	0.001132	-0.00347
445	0.000474	-0.000512	-0.000183	0.00031	-0.001334
446	-0.001169	-0.000183	0.001132	0.00146	-0.001662
447	-0.001334	0.000146	-0.002484	-0.001005	0.000146
448	-0.000841	0.000146	0.002775	-0.002813	-0.002813
449	-0.001005	0.000146	0.006884	-0.001991	-0.000347
450	-1.9e-05	0.00031	-0.001498	-0.003963	-0.002648
451	-0.000512	0.000146	-0.001169	-0.000183	0.00031
452	-0.000676	-1.9e-05	-0.001498	-0.00232	-0.002648
453	0.00031	-0.000183	-0.002648	-0.000347	0.003268
454	0.00294	-0.000512	-0.000512	-0.002155	0.004583
455	0.000146	-0.000676	-0.003142	-0.004292	0.002282
456	0.000474	-0.000347	-0.001169	0.00294	0.000146
457	0.00031	-0.000512	-1.9e-05	-0.000347	-0.002977
458	-1.9e-05	0.000146	-0.002977	-0.002648	-0.001169
459	-0.000512	0.000146	-0.001169	-0.002155	-0.002648
460	-0.000183	-1.9e-05	-0.001991	-0.004456	0.000639
461	-0.000841	0.00031	-0.002484	-0.000512	-0.002813
462	-0.000512	0.00031	-0.002648	-0.002155	-0.000347
463	-0.000183	0.000146	0.000639	-0.000841	0.00031
464	0.00031	-0.000183	-0.001498	-0.002648	-0.000676
465	0.000146	-0.000512	0.004912	-0.000347	-0.002813
466	0.000146	-0.000347	-0.001498	-0.004128	0.001132
467	0.000474	-0.000512	-0.001005	-0.002484	-0.001169
468	0.000146	-0.000183	0.000639	-0.000347	-0.002977
469	-1.9e-05	0.000146	-0.001005	0.000146	-0.002155
470	-0.000347	0.000146	-0.002484	-0.000841	0.00294
471	-0.000183	0.00031	-0.004949	-0.002155	0.000803
472	-0.000841	0.00031	-0.003635	0.001625	0.003268
473	-0.000183	0.00031	-0.00347	-0.000512	0.000639
474	0.000146	-1.9e-05	0.002447	-0.001498	0.000639
475	0.000146	-0.000183	-0.003963	-0.00347	0.001625
476	0.000474	-0.000512	-0.000347	0.006062	-0.002648
477	-0.000183	-0.000676	0.002775	-0.002155	0.006556
478	-1.9e-05	-0.000183	0.001789	-0.000347	-0.001169
479	0.000474	-0.000347	-0.001827	0.002775	0.000639
480	-0.000512	-1.9e-05	0.00031	-0.001827	-0.004949
481	-0.000183	0.000146	-0.000183	-0.000347	-0.001169
482	-0.000347	0.000146	-0.006429	-0.00347	-0.001991
483	-0.000512	0.000474	-0.001498	-1.9e-05	-0.001827
484	-0.000347	0.00031	0.000639	-0.001498	-0.001991
485	-0.000183	0.000146	-0.001005	-0.000512	0.000803
486	0.000146	-0.000512	-0.002813	0.00146	-1.9e-05
487	0.00031	-0.000347	-0.003306	0.008199	-1.9e-05
488	0.00031	-0.000347	-0.001169	-0.003306	0.000967
489	0.000146	-0.000512	-0.000183	-0.000841	0.00146
490	0.00031	-0.000347	-0.002155	-0.000347	-0.001005
491	-0.000183	-1.9e-05	0.003926	0.001132	0.001789
492	-0.000183	0.000146	-0.000841	-0.002648	0.004912
493	-0.000512	0.000146	-0.009223	-0.001334	0.00031
494	-0.000676	0.00031	-0.003963	0.000639	0.001132
495	-0.000676	0.000474	-0.001334	0.00031	-0.000512
496	-0.000512	0.000146	-0.001498	0.004748	0.000146
497	-1.9e-05	-0.000183	0.001132	0.001296	-0.000347
498	0.00031	-0.000512	-0.001334	0.003926	-0.000676
499	0.000146	-0.000347	0.000474	-0.001005	-0.002484
500	0.000474	-0.000512	0.001625	-0.001169	0.001296
501	0.00031	-0.000512	-1.9e-05	-0.001334	-0.002977
502	-1.9e-05	0.000146	-0.000183	-0.001662	-0.001169
503	-0.000183	0.00031	-0.002155	-0.003306	-0.000676
504	-0.000512	0.000146	-0.008401	0.000474	0.001296
505	-0.000512	0.00031	-0.004621	0.001132	-0.002155
506	-0.000512	0.000639	-0.000676	-0.001169	-0.001169
507	-0.000183	0.00031	-0.000512	-0.001498	0.001132
508	0.000146	-0.000183	-0.001662	-0.000841	-0.004456
509	-1.9e-05	-0.000183	-0.005607	-0.00232	-0.001827
510	0.00031	-0.000347	0.000146	-0.003306	-0.000676
511	0.000474	-0.000512	-0.000841	-0.003306	-0.000512
512	0.000146	-0.000347	-0.001334	-0.002155	-0.00725
513	-1.9e-05	-1.9e-05	-0.000676	0.00031	-0.001662
514	-0.000347	0.000146	0.000639	-0.002155	0.001132
515	-0.000512	-1.9e-05	-0.008072	-0.001991	-0.001005
516	-0.000347	0.00031	-0.004128	-0.000183	-0.000676
517	-0.000841	0.000474	-0.003635	-0.000347	-0.001334
518	-0.000183	0.000146	-0.002648	-0.000841	-0.000347
519	-0.000183	-0.000183	-0.000347	0.000146	-0.002155
520	-1.9e-05	-0.000183	-0.00347	-0.002813	-0.001991
521	0.00031	-0.000347	-0.001334	-0.001169	-0.001662
522	0.000474	-0.000676	-0.00232	-0.001827	0.002447
523	0.00031	-0.000183	0.000474	-0.000347	-0.005114
524	0.000146	-1.9e-05	-0.001334	-0.001662	-0.000676
525	-0.000347	0.000146	-0.000676	0.000803	-0.000183
526	-0.000347	0.000474	-0.006757	-0.003963	0.001789
527	-0.000512	0.00031	-0.002484	0.00146	-0.000183
528	-0.000347	0.000474	-0.004785	-0.000841	0.001132
529	-0.000347	-1.9e-05	-0.001498	0.000639	0.001132
530	-0.000183	-0.000183	-0.000347	-1.9e-05	-1.9e-05
531	0.00031	-0.000183	-0.002977	-0.006593	0.001789
532	-1.9e-05	-0.000512	0.003597	-0.001169	0.000474
533	0.000474	-0.000676	-1.9e-05	-0.002484	-0.000512
534	0.000474	-0.000183	0.001625	0.000803	-0.004456
535	-1.9e-05	0.000146	-0.000512	-0.001991	-1.9e-05
536	-0.000347	0.00031	0.00146	0.000803	-0.00232
537	-0.000512	0.000146	-0.004621	-0.002155	0.001789
538	-0.000347	0.00031	-0.001662	-0.001827	-0.002813
539	-0.000347	0.000474	-0.001827	-0.00347	-0.000183
540	-0.000183	0.000146	-0.001827	-0.002648	-0.000347
541	0.000146	-1.9e-05	-0.002155	-0.001991	-0.003306
542	0.000146	-0.000347	-0.00232	-0.011688	-0.003306
543	0.00031	-0.000512	0.000474	-0.002484	0.00146
544	0.00031	-0.000183	0.003597	-0.001169	-0.002648
545	0.00031	-0.000183	-0.002648	-0.000676	-0.001991
546	0.000146	0.000146	-0.000841	-0.001169	-0.000183
547	-0.000512	0.000146	-0.000841	0.000474	0.000803
548	-0.000347	0.00031	-0.000841	-0.000676	-1.9e-05
549	-0.000512	0.00031	-0.000183	0.001625	-0.000676
550	-0.000512	0.000474	-0.00347	-0.001662	-0.001498
551	-0.000512	0.000146	-0.000183	0.000474	0.000639
552	-1.9e-05	-0.000183	-0.001005	-0.000512	0.000146
553	-0.000183	-0.000183	-0.000841	-0.010209	-1.9e-05
554	-1.9e-05	-0.000512	0.001296	-0.003306	0.000803
555	0.00031	-0.000347	0.002611	0.001132	-0.00347
556	0.00031	-0.000347	-0.002484	-0.000676	-0.002813
557	0.000146	-1.9e-05	-1.9e-05	-0.002484	-0.000676
558	-1.9e-05	0.000146	-0.002155	-0.000183	-0.004785
559	-0.000512	0.000474	-0.003635	-0.001169	-0.003142
560	-0.000512	0.000474	-0.003963	-0.001827	0.00031
561	-0.000676	0.00031	-0.001662	0.001954	-0.005443
562	-0.000347	0.000146	-0.001169	-0.001662	-0.000841
563	0.000146	-0.000183	-0.002155	-1.9e-05	-0.000676
564	-1.9e-05	-0.000183	0.00146	-0.007908	0.000474
565	0.00031	-0.000512	-0.002648	-0.004949	0.002447
566	0.00031	-0.000512	-0.00232	0.003761	0.001789
567	0.00031	-0.000183	-0.003635	0.000474	0.000474
568	-0.000183	0.00031	-0.002977	-0.000183	-0.000512
569	-0.000183	-1.9e-05	-0.003635	-0.000183	0.000639
570	-0.000347	0.000474	-0.001005	0.00031	-0.002155
571	-0.000676	0.00031	-0.004128	-0.000347	0.002611
572	-0.000676	0.000474	-0.002155	-0.000183	0.000967
573	-0.000347	0.000146	-0.002484	-0.000347	0.004912
574	-0.000183	-0.000347	0.00031	0.002447	0.001132
575	0.000146	-0.000347	-0.001498	-0.001498	0.001625
576	0.000474	-0.000347	-0.000512	-0.000183	-0.000347
577	0.00031	-0.000347	0.000146	0.001296	0.004748
578	0.00031	-0.000183	-0.001334	0.000146	-0.000512
579	-0.000183	-1.9e-05	-0.001662	-0.000183	0.001132
580	-0.000183	0.000146	-0.001991	-0.001005	-0.000183
581	-0.000347	0.00031	-0.000676	0.004583	-0.000512
582	-0.000512	0.00031	-0.002484	-0.003142	0.003104
583	-0.000512	0.000146	-0.000676	0.002611	-0.002648
584	-0.000183	0.000146	-0.0061	-0.000183	0.004255
585	-1.9e-05	-1.9e-05	0.001625	0.001625	0.000474
586	0.000474	-0.000183	0.001954	-0.001827	0.000967
587	0.00031	-0.000512	0.003926	-0.001827	-0.002648
588	0.00031	-0.000347	-1.9e-05	-0.001662	0.00672
589	0.000146	-0.000183	0.00146	-0.005607	-0.004949
590	-1.9e-05	-1.9e-05	-0.000347	-0.001498	0.001132
591	-0.000183	0.000146	0.000146	-0.001662	-0.001662
592	-0.000347	0.00031	-0.002813	-0.001498	0.000474
593	-0.000347	0.00031	-0.000347	-0.003142	-0.002484
594	-0.000512	0.00031	0.001132	-0.005771	-0.003142
595	-0.000347	0.000146	-0.000512	-0.002977	0.001132
596	0.000146	-0.000183	-0.000841	-0.000676	-0.000347
597	0.000146	-0.000347	-0.001334	-0.002484	0.000474
598	0.00031	-0.000347	0.000146	0.001296	0.00146
599	0.000474	-0.000347	-0.000512	-0.001334	0.006391
600	0.000146	-0.000183	-0.000512	0.000803	-0.001169
601	-1.9e-05	-1.9e-05	-0.00232	-1.9e-05	0.001625
602	-0.000183	0.000146	-0.001169	0.000474	-0.000183
603	-0.000676	0.000146	-0.001662	0.001954	0.000803
604	-0.000676	0.00031	-1.9e-05	0.000639	0.001132
605	-0.000512	0.000474	-0.005443	-0.001169	-0.000676
606	-0.000183	-1.9e-05	0.000967	-1.9e-05	-0.001991
607	-1.9e-05	0.000146	-0.002155	0.000474	-0.002813
608	0.000146	-0.000347	-0.000183	-0.000183	0.00031
609	0.000474	-0.000512	0.003926	-0.00232	0.000146
610	0.000146	-0.000183	0.000803	-0.006429	-0.001827
611	0.000146	-0.000347	0.003104	0.000474	-0.002813
612	-1.9e-05	-1.9e-05	-1.9e-05	-0.002155	-1.9e-05
613	-0.000347	0.00031	0.000639	-0.003963	-0.000512
614	-0.000347	0.000146	-0.002648	-0.002484	0.001296
615	-0.000512	0.00031	-0.002484	0.001296	-0.001991
616	-0.000512	0.000474	0.000146	0.000474	0.002282
617	-0.000347	0.00031	0.002775	0.005241	0.002118
618	-1.9e-05	-0.000183	-0.002648	-0.001334	0.002118
619	0.000146	-0.000512	-0.000676	0.000803	-0.001662
620	0.000146	-0.000512	-0.001498	0.001132	0.001296
621	0.00031	-0.000347	0.000474	-0.000183	-0.006429
622	0.00031	-0.000512	-0.003306	-1.9e-05	0.000146
623	0.000474	-0.000183	-0.002813	0.000474	-0.001334
624	-0.000183	-1.9e-05	-1.9e-05	-0.000512	-0.001169
625	-0.000347	0.000146	-0.000841	-0.001498	-0.00232
626	-0.000512	-0.000183	-0.000183	0.002118	-0.000183
627	-0.000512	0.000474	-0.001498	-0.001169	-0.001827
628	-0.000183	0.00031	-0.000183	0.000146	-0.000676
629	0.00031	-0.000347	-0.001498	-0.001827	0.002282
630	0.00031	-0.000183	-0.000512	-0.000676	0.000803
631	0.000146	-0.000347	0.00031	-0.001498	0.00146
632	0.000474	-0.000347	0.000803	-0.000676	-0.009551
633	0.000639	-0.000512	-0.002484	-0.001005	0.001296
634	0.000146	0.000639	-0.001334	0.000967	-0.000347
635	-0.000512	0.000146	-0.004785	0.000967	0.004583
636	-0.000347	0.000639	-0.001991	0.002447	0.000474
637	-0.000841	0.00031	-0.002813	-0.000676	0.005734
638	-0.000512	0.00031	0.000146	0.000803	-0.002155
639	-0.000676	-1.9e-05	0.000474	-1.9e-05	0.002447
640	0.00031	-0.000347	-0.004292	0.00031	0.000803
641	-0.000676	0.000639	-0.000347	0.000639	-0.001005
642	0.000474	-0.001827	0.00146	-0.004949	-0.001991
643	-0.000347	0.000146	0.001954	-0.001827	-0.009716
644	-0.000183	-0.001991	0.001789	-0.008072	-0.001334
645	-0.000841	-1.9e-05	0.001789	-0.000676	-0.002484
646	0.001789	0.000474	-0.000347	-0.004785	0.000474
647	0.000967	0.001132	-1.9e-05	-0.001827	0.002775
648	-0.000676	0.006884	-0.001334	-0.001005	0.000803
649	-0.000841	0.003597	0.000474	-0.000841	0.005241
650	-0.000841	0.000639	-0.002813	-0.002648	0.003268
651	0.001132	0.005898	-0.001005	0.002447	0.003597
652	-0.002484	0.006391	-0.002977	0.000803	0.005076
653	0.00146	0.004419	-0.001169	-0.001005	0.000967
654	-0.002155	0.00935	-0.000676	0.001789	-0.004785
655	0.005405	0.000967	-0.001498	0.001132	-0.000512
656	0.000967	0.004583	0.00031	0.003926	-0.001169
657	-0.002648	0.000803	0.000639	-0.004292	-0.002484
658	-0.003142	0.007213	-0.001005	-0.000676	-0.002813
659	-0.003799	0.000146	0.004255	-0.000841	-0.000676
660	-0.001991	0.004255	0.00294	-0.002484	-0.001991
661	-0.001334	-1.9e-05	-0.002813	-0.002648	-0.001005
662	-0.000347	0.00031	0.001625	0.001789	-0.001169
663	-0.003142	0.001954	-0.000676	-0.004456	0.002447
664	-0.000347	-0.001498	0.00294	-0.002648	-0.001334
665	-0.002648	-0.001005	-0.002648	-0.003799	-0.002813
666	0.000474	-0.000512	-0.002155	-0.002977	-0.005771
667	-0.000183	0.002775	0.000474	-0.001827	0.002611
668	-0.00232	0.00031	-0.002155	-0.000347	0.002775
669	-0.000347	0.000474	-0.006593	0.002775	-1.9e-05
670	0.001296	0.000639	-0.00232	0.001296	0.003761
671	-0.002648	0.000474	-0.00347	0.003597	0.002775
672	-0.001169	0.000146	-0.002155	-0.001169	0.001789
673	-0.001498	-0.000183	-0.000841	0.001625	-0.001991
674	-0.000676	-0.000347	0.000146	-0.001169	-0.000347
675	-0.001169	0.000803	0.000803	0.000967	-0.000676
676	-0.000841	-0.000183	-1.9e-05	-0.00725	-0.003306
677	0.000146	-1.9e-05	0.00146	-0.003963	-0.002155
678	-0.003142	-1.9e-05	-0.001662	-0.001827	0.001132
679	-0.000347	0.00031	0.001954	-0.001334	-0.00232
680	-0.001169	0.003268	0.00031	-0.001005	-0.000183
681	-0.001498	0.000639	0.002775	0.000639	-0.002648
682	-0.003963	0.000146	0.000803	-0.000512	0.001789
683	-0.000841	0.000146	-0.001334	-0.001169	-0.000512
684	-0.005443	-0.000183	-0.002648	0.001132	0.000146
685	0.000146	-0.000183	-0.003963	-0.000183	0.000146
686	0.000803	-0.000512	-0.001662	0.001132	0.001296
687	-0.003306	-0.000676	-0.003799	-0.000512	-0.000347
688	0.001296	-0.000183	-0.001827	0.000803	-0.002484
689	-0.000676	-1.9e-05	-0.001498	-0.001498	0.000639
690	0.00146	0.000146	-0.000183	0.003268	-0.001334
691	-0.000347	0.000146	-0.001169	0.004912	-0.001169
692	0.000803	0.00031	0.000146	0.005076	-0.001169
693	0.000639	0.000474	-0.002155	0.000967	-0.000841
694	-0.000512	0.000146	0.005241	-0.001334	-0.000183
695	-0.002484	-0.000512	0.001132	-0.003635	-0.001169
696	-0.002813	-0.000183	0.001625	-0.000841	0.001132
697	-0.001498	0.000967	0.00146	-0.000347	-0.004128
698	0.003433	0.003268	-0.001498	-0.001005	-0.004785
699	-0.001005	0.008528	0.001296	-0.000183	-0.003635
700	-0.001334	-0.00232	-0.001005	-0.002648	-0.002155
701	0.002447	0.003104	-0.003142	0.001954	-0.002484
702	0.001625	-0.000512	-0.002155	0.000803	0.000967
703	-0.00232	0.00146	-0.001827	0.003433	0.002775
704	0.00146	0.00294	-0.002977	0.000803	0.003268
705	0.001954	0.004419	-0.001334	0.00146	-0.002155
706	0.000639	-0.000183	-0.00347	0.000639	0.000803
707	0.002118	-0.000183	-0.001334	-0.001498	-0.001827
708	-0.00347	-0.000512	-0.002155	-0.000676	-0.00347
709	-0.002648	-0.000347	0.001954	0.002611	0.000474
710	-0.001334	-0.000347	0.000146	-0.002484	-0.002813
711	-0.001169	0.00031	0.001954	-0.000841	-0.00347
712	-0.001662	0.004583	0.000967	-0.004456	-0.003142
713	0.00031	0.006062	0.00146	0.001954	-0.004292
714	-0.003306	0.005076	0.001789	0.003104	0.002611
715	0.000146	0.001132	0.000803	-0.003635	-0.001169
716	-0.005771	0.004255	-0.002813	0.001296	0.00294
717	-0.004456	0.002282	-0.001005	0.00146	0.002775
718	0.00031	0.00031	-0.006429	0.002775	-0.003963
719	-0.00232	0.00146	-0.005936	0.001296	0.000639
720	-0.000183	0.00031	-0.002648	0.001132	-0.003635
721	-0.000183	-0.001827	-0.006429	-0.002155	-0.002484
722	-0.001662	0.001625	-0.000841	0.000146	-0.000512
723	0.000639	0.007706	-0.003306	-0.000347	-0.000183
724	0.002118	0.006391	0.003268	0.003104	-0.001334
725	0.000967	0.005734	-0.002813	-1.9e-05	0.001132
726	-0.002484	0.003268	-0.001169	0.000474	-1.9e-05
727	-0.005278	0.000967	-0.001005	0.00146	0.002282
728	-0.000676	-0.000676	-0.003142	-0.001169	0.000146
729	-0.002813	-0.000512	-0.000183	0.001789	0.001132
730	-0.003142	-1.9e-05	0.001296	0.000474	-0.000512
731	-0.002484	-0.000512	-0.000512	0.000146	-0.001498
732	0.003433	-0.000347	0.002447	0.000803	-0.002648
733	-0.003635	0.000146	0.002611	0.005076	0.000146
734	-0.001334	0.000146	0.000474	-0.000183	0.00031
735	-0.000676	0.000474	0.000474	0.003926	-0.000841
736	-0.001991	0.000146	-0.001662	-0.000183	-0.000347
737	-0.001498	0.00031	-0.002977	0.000803	-0.000183
738	0.001132	0.000146	-0.003306	-0.001005	0.00031
739	-0.002155	0.00031	-0.000676	0.001132	0.00146
740	0.001789	0.000474	-0.004128	-0.000841	0.002118
741	-0.00232	-0.000183	-0.000512	0.003104	-0.000841
742	-1.9e-05	-0.000512	-0.004621	-0.001991	0.001132
743	0.001954	-0.000512	0.000639	-0.001169	-0.002648
744	-0.001498	0.002775	0.001789	0.000146	0.000803
745	0.001132	0.002611	-0.000512	-0.001662	-0.00232
746	-0.000841	0.001132	0.000146	-0.000183	-0.001827
747	-0.001334	-0.001169	0.003268	-0.001827	0.001296
748	0.000967	0.000803	0.00031	0.000967	0.006391
749	0.002611	0.000967	-0.001169	-0.000347	0.001789
750	-0.001498	0.002447	-0.000676	-0.001005	0.00146
751	0.00409	0.005076	0.001132	0.004255	0.006391
752	0.010829	0.01313	0.012144	0.010993	0.010664
753	0.017896	0.01691	0.014116	0.014938	0.017074
754	0.026114	0.0271	0.027265	0.022334	0.025457
755	0.033017	0.033839	0.031702	0.032524	0.034332
756	0.039263	0.040906	0.040084	0.038276	0.037619
757	0.048302	0.048631	0.044029	0.043865	0.049288
758	0.045672	0.050932	0.054712	0.050274	0.051261
759	0.050603	0.058164	0.0603	0.057506	0.059643
760	0.060958	0.063752	0.063916	0.063916	0.064245
761	0.06293	0.074764	0.069176	0.069011	0.066546
762	0.069504	0.075585	0.074928	0.069833	0.074764
763	0.075092	0.082982	0.078544	0.081338	0.074271
764	0.069011	0.084296	0.083475	0.083968	0.083968
765	0.072627	0.093336	0.088734	0.089227	0.090213
766	0.07838	0.093993	0.089885	0.0935	0.093665
767	0.081831	0.097774	0.098595	0.098102	0.093665
768	0.087419	0.098431	0.099089	0.101883	0.103197
769	0.087584	0.107635	0.105334	0.106156	0.106156
770	0.094651	0.104019	0.108293	0.10517	0.110922
771	0.104348	0.110429	0.111251	0.113388	0.113881
772	0.105334	0.121112	0.115524	0.114374	0.118483
773	0.108457	0.120126	0.120619	0.11914	0.119304
774	0.110265	0.123906	0.120126	0.124235	0.124071
775	0.116839	0.125714	0.126865	0.125221	0.126536
776	0.115524	0.130645	0.127522	0.129659	0.128673
777	0.119962	0.130809	0.132946	0.133603	0.133932
778	0.124728	0.138205	0.133932	0.135904	0.135247
779	0.1267	0.137877	0.136233	0.135904	0.138041
780	0.130316	0.139192	0.143136	0.142972	0.138863
781	0.135083	0.143301	0.139685	0.143629	0.141
782	0.134918	0.14478	0.142314	0.140178	0.146423
783	0.131302	0.147738	0.146423	0.145766	0.147409
784	0.121112	0.14856	0.155627	0.149546	0.148724
785	0.116346	0.149875	0.151354	0.150204	0.148889
786	0.102704	0.15497	0.151518	0.155134	0.149217
787	0.101225	0.151354	0.15497	0.151518	0.156449
788	0.097281	0.154641	0.157271	0.155134	0.153326
789	0.092021	0.155956	0.158421	0.15612	0.158586
790	0.090542	0.152011	0.159408	0.159079	0.158586
791	0.084625	0.160394	0.160558	0.160394	0.16138
792	0.065395	0.159901	0.161051	0.162695	0.163188
793	0.018061	0.161544	0.165817	0.162859	0.165489
794	0.017239	0.163845	0.167954	0.16516	0.164667
795	0.01313	0.165489	0.166804	0.167954	0.170913
796	0.003104	0.168283	0.166475	0.170255	0.167297
797	0.003268	0.173049	0.169105	0.169598	0.167297
798	0.003597	0.172885	0.166475	0.16894	0.169105
799	0.002775	0.171734	0.171406	0.172885	0.173707
800	0.00146	0.173214	0.171406	0.170091	0.172227
801	-1.9e-05	0.173542	0.173707	0.173378	0.173378
802	0.001132	0.172885	0.174364	0.175843	0.173707
803	0.000639	0.173049	0.17535	0.173542	0.176008
804	-0.000183	0.170419	0.174857	0.170913	0.179459
805	0.006227	0.176008	0.178802	0.177487	0.174693
806	0.008035	0.177158	0.179952	0.175843	0.177322
807	0.015924	0.176336	0.179459	0.180116	0.176008
808	0.01576	0.179623	0.178802	0.178966	0.179459
809	0.026114	0.178802	0.18439	0.178144	0.180116
810	0.033181	0.179459	0.183732	0.17913	0.179952
811	0.041399	0.180774	0.182582	0.183239	0.18061
812	0.045508	0.181596	0.183897	0.182253	0.18176
813	0.049453	0.182253	0.183404	0.180116	0.184883
814	0.056684	0.184883	0.183732	0.184718	0.185705
815	0.061451	0.182417	0.18061	0.186362	0.184061
816	0.067203	0.186526	0.183239	0.189156	0.182746
817	0.070983	0.182911	0.184225	0.185869	0.185705
818	0.076079	0.183404	0.185047	0.188334	0.184554
819	0.080681	0.187184	0.183239	0.185869	0.17798
820	0.085776	0.185705	0.194416	0.185212	0.184225
821	0.089885	0.184061	0.189156	0.187513	0.185705
822	0.095966	0.182746	0.189156	0.187348	0.180774
823	0.099089	0.188499	0.191293	0.188006	0.186033
824	0.10139	0.187019	0.190142	0.187677	0.186198
825	0.104677	0.188663	0.18932	0.189156	0.18932
826	0.108128	0.186855	0.189485	0.19195	0.188499
827	0.112237	0.188006	0.190307	0.1908	0.188827
828	0.115195	0.192608	0.189978	0.189814	0.189649
829	0.121277	0.191786	0.190964	0.195237	0.189485
830	0.123413	0.189978	0.184061	0.188006	0.191621
831	0.12818	0.195237	0.193101	0.190471	0.190964
832	0.129495	0.191293	0.184554	0.193922	0.188499
833	0.133439	0.193101	0.191457	0.19458	0.187348
834	0.132289	0.193758	0.191457	0.190471	0.191457
835	0.134097	0.194416	0.192279	0.192443	0.191786
836	0.137877	0.191457	0.192608	0.194744	0.192936
837	0.141164	0.191128	0.196059	0.191457	0.190635
838	0.137877	0.195073	0.192443	0.190635	0.192608
839	0.142807	0.193429	0.196059	0.194087	0.192115
840	0.13952	0.195237	0.193758	0.193758	0.191128
841	0.136069	0.190142	0.194251	0.192608	0.194744
842	0.13837	0.19721	0.196223	0.194416	0.193101
843	0.141657	0.190964	0.19836	0.192443	0.193594
844	0.134425	0.193758	0.19836	0.194251	0.192443
845	0.124399	0.193429	0.194909	0.194744	0.193922
846	0.115195	0.195237	0.196223	0.19458	0.194744
847	0.10895	0.19458	0.193922	0.195402	0.199346
848	0.093665	0.195402	0.196388	0.196881	0.191293
849	0.082817	0.197867	0.194744	0.195237	0.192608
850	0.079201	0.194416	0.194909	0.199839	0.195402
851	0.00146	0.196552	0.195237	0.198031	0.195073
852	0.002611	0.197045	0.194909	0.193101	0.194744
853	0.007213	0.196059	0.196388	0.198031	0.197538
854	0.013787	0.193429	0.199839	0.195566	0.194087
855	0.017896	0.196388	0.197045	0.194251	0.195566
856	0.020855	0.20099	0.198031	0.196717	0.194251
857	0.015924	0.196717	0.199346	0.19573	0.194416
858	0.014609	0.196388	0.193922	0.19573	0.194251
859	0.0105	0.197045	0.197045	0.196223	0.197374
860	0.009514	0.195895	0.199675	0.194416	0.196223
861	0.003268	0.19721	0.196717	0.196717	0.197374
862	0.003104	0.19721	0.196388	0.192936	0.196223
863	0.006391	0.199182	0.197703	0.196223	0.196552
864	0.005405	0.200168	0.198689	0.196717	0.200497
865	0.008528	0.196059	0.19836	0.197538	0.198853
866	0.005898	0.197045	0.196717	0.195073	0.201976
867	0.003926	0.199182	0.199018	0.198689	0.197703
868	0.000803	0.199511	0.195073	0.19573	0.199182
869	0.003268	0.197538	0.19836	0.196717	0.202798
870	-0.002155	0.194909	0.197703	0.198524	0.201812
871	0.003268	0.195237	0.194251	0.196717	0.198196
872	0.000639	0.199182	0.194416	0.19836	0.200168
873	0.00409	0.198196	0.198196	0.197045	0.197703
874	-0.000512	0.197538	0.197867	0.199182	0.198689
875	0.000967	0.195073	0.19836	0.196059	0.202798
876	0.002282	0.198031	0.200004	0.199839	0.196388
877	0.00409	0.196388	0.197538	0.195895	0.200825
878	0.001789	0.197703	0.198524	0.198524	0.198031
879	0.00146	0.199346	0.198196	0.195237	0.20099
880	0.001296	0.194416	0.198524	0.201154	0.196059
881	-0.001005	0.198524	0.19836	0.201647	0.199018
882	0.000803	0.199511	0.19573	0.194744	0.199346
883	-0.000841	0.197045	0.196717	0.197045	0.199675
884	0.002775	0.202798	0.197867	0.201976	0.199018
885	0.000803	0.200332	0.197045	0.198689	0.200497
886	0.003433	0.202633	0.200332	0.195073	0.201812
887	0.001132	0.199675	0.200332	0.199346	0.199018
888	0.002775	0.196881	0.198689	0.197538	0.200661
889	-0.000183	0.199839	0.201647	0.197538	0.199346
890	0.000639	0.199018	0.197374	0.196059	0.199839
891	0.000639	0.198689	0.200825	0.200332	0.199018
892	-0.000347	0.200332	0.199839	0.195402	0.200497
893	-0.001005	0.200661	0.197703	0.199346	0.19721
894	-0.000183	0.195073	0.198031	0.197867	0.201812
895	0.003597	0.197867	0.20099	0.199511	0.199182
896	0.004419	0.196552	0.19573	0.198196	0.198196
897	0.000474	0.199018	0.198689	0.198031	0.200825
898	0.001789	0.200168	0.199839	0.197374	0.200497
899	-0.000347	0.199675	0.199018	0.200004	0.201647
900	0.000146	0.201976	0.198853	0.196388	0.203455
901	0.000967	0.198031	0.197538	0.192115	0.201319
902	0.000967	0.200497	0.19836	0.20362	0.203784
903	0.001132	0.197703	0.197538	0.195566	0.199675
904	0.000803	0.200168	0.199839	0.197374	0.200661
905	0.001296	0.199018	0.199182	0.198031	0.200497
906	-0.002648	0.200332	0.200168	0.199839	0.199511
907	0.003597	0.200332	0.199675	0.197867	0.200825
908	0.002611	0.196388	0.198031	0.199346	0.200497
909	-0.000676	0.197374	0.196388	0.198196	0.196881
910	0.001954	0.200661	0.200661	0.198031	0.196881
911	-0.001334	0.19836	0.198031	0.19836	0.200661
912	0.002447	0.199346	0.200332	0.19573	0.195566
913	0.00031	0.199839	0.197867	0.197045	0.196717
914	0.00146	0.199018	0.199018	0.198196	0.199675
915	0.000967	0.203455	0.197703	0.200497	0.204113
916	0.00294	0.199511	0.197045	0.199182	0.19721
917	0.001132	0.199346	0.198196	0.198524	0.202962
918	0.001954	0.197867	0.19836	0.197538	0.199346
919	-0.001005	0.197045	0.195073	0.203948	0.200825
920	0.001132	0.196552	0.196552	0.197374	0.201483
921	0.000474	0.199675	0.197538	0.202798	0.197045
922	0.001132	0.197867	0.193101	0.201812	0.199346
923	0.00031	0.198853	0.201483	0.198853	0.200661
924	-0.000183	0.200168	0.196059	0.200497	0.199182
925	-0.000347	0.199018	0.200168	0.200825	0.198853
926	0.001789	0.200825	0.199018	0.200168	0.201812
927	0.00031	0.199511	0.201483	0.200661	0.199018
928	0.00031	0.20099	0.197867	0.201647	0.200497
929	0.000803	0.199018	0.202305	0.198031	0.195073
930	-0.001827	0.200825	0.203126	0.195237	0.202305
931	0.001296	0.19836	0.201154	0.198853	0.198031
932	0.001296	0.202469	0.199346	0.198689	0.200332
933	-1.9e-05	0.19721	0.200661	0.194909	0.199675
934	-0.001169	0.199018	0.199346	0.197045	0.201154
935	0.002282	0.19836	0.197374	0.198196	0.199675
936	0.00031	0.200004	0.201154	0.200332	0.202633
937	0.000639	0.201154	0.198031	0.198853	0.203948
938	0.000803	0.200661	0.200661	0.201812	0.19836
939	0.001296	0.197703	0.199511	0.200168	0.202962
940	0.000803	0.201154	0.199182	0.197867	0.199182
941	0.000639	0.201319	0.200168	0.201812	0.200661
942	0.00031	0.199182	0.200661	0.200332	0.198524
943	0.000967	0.20099	0.194251	0.197538	0.195073
944	0.000474	0.198853	0.201812	0.199675	0.199839
945	-0.000512	0.199839	0.202305	0.195566	0.199839
946	0.00031	0.198689	0.198853	0.199182	0.197703
947	0.000146	0.199018	0.199839	0.199675	0.197538
948	0.000474	0.199018	0.200168	0.196881	0.203455
949	0.000146	0.201483	0.200168	0.19836	0.201647
950	0.00031	0.196223	0.19573	0.197045	0.202798
951	0.000146	0.198196	0.195073	0.200497	0.203291
952	0.001132	0.194909	0.201154	0.198524	0.204277
953	0.000803	0.202962	0.201483	0.198524	0.201647
954	0.001625	0.196717	0.197374	0.201812	0.201647
955	-0.000183	0.199675	0.201319	0.200825	0.199675
956	-0.000347	0.197867	0.199346	0.199675	0.201647
957	0.001132	0.188006	0.198524	0.199346	0.200332
958	-0.001498	0.104348	0.199511	0.199511	0.200661
959	-1.9e-05	0.098595	0.197538	0.200004	0.198689
960	-0.000183	0.066381	0.196223	0.197867	0.19721
961	-0.000183	0.06556	0.199182	0.197867	0.197703
962	0.000639	0.039263	0.200168	0.19721	0.199839
963	0.00294	0.021512	0.199675	0.198524	0.197045
964	-1.9e-05	0.025457	0.203291	0.200497	0.196388
965	0.001132	0.017896	0.199346	0.197703	0.196223
966	0.00031	0.03236	0.196388	0.200661	0.198031
967	-0.000841	0.034168	0.201154	0.199675	0.199839
968	-0.000347	0.042385	0.19836	0.201812	0.200168
969	-0.000183	0.050439	0.197867	0.197374	0.201647
970	-1.9e-05	0.058328	0.19721	0.199839	0.19836
971	0.00031	0.063259	0.195237	0.201976	0.199675
972	-1.9e-05	0.067532	0.197538	0.20099	0.201483
973	0.000803	0.073284	0.199346	0.199839	0.202962
974	0.000474	0.080516	0.199675	0.201319	0.201483
975	0.00031	0.084954	0.201812	0.200332	0.201976
976	0.000803	0.086433	0.200825	0.201154	0.199675
977	-0.000676	0.094815	0.199511	0.20099	0.199675
978	0.000639	0.095144	0.203784	0.203948	0.197538
979	-0.000347	0.102211	0.201319	0.20099	0.19836
980	-0.000183	0.106156	0.20477	0.198689	0.201812
981	0.000639	0.110922	0.204441	0.199346	0.199018
982	0.000474	0.109607	0.202633	0.200825	0.201812
983	0.001296	0.115853	0.200332	0.202469	0.200497
984	0.000474	0.118647	0.199675	0.197538	0.203455
985	0.000639	0.122263	0.200825	0.199018	0.199182
986	0.000639	0.125057	0.199675	0.201483	0.201154
987	0.000967	0.127194	0.201483	0.199839	0.201647
988	-1.9e-05	0.13459	0.197867	0.198689	0.202633
989	-0.000183	0.133439	0.200825	0.200332	0.200332
990	0.000474	0.137219	0.196223	0.198524	0.201976
991	-0.000347	0.140671	0.199018	0.196717	0.198689
992	-0.000512	0.144122	0.197703	0.195237	0.200497
993	0.000146	0.143301	0.199018	0.192608	0.197045
994	0.000146	0.143136	0.202305	0.191293	0.200497
995	0.00031	0.150039	0.200661	0.175679	0.196223
996	-1.9e-05	0.153655	0.203455	0.152011	0.200004
997	0.000639	0.155299	0.201483	0.045015	0.19836
998	0.00031	0.151025	0.201812	0.018718	0.196059
999	0.00031	0.155627	0.200332	0.004583	0.19836
1000	-0.000183	0.155956	0.200497	0.003433	0.203126
1001	-0.000512	0.158257	0.197867	-1.9e-05	0.201976
1002	-0.000512	0.159243	0.202305	0.00031	0.199346
1003	0.000967	0.163516	0.199346	0.002447	0.203948
1004	0.00031	0.163681	0.199182	-0.001334	0.202633
1005	0.000639	0.165817	0.198031	-1.9e-05	0.201154
1006	0.000639	0.167954	0.199675	0.000967	0.202469
1007	0.000474	0.16894	0.195402	-0.000347	0.201647
1008	0.000639	0.167625	0.196881	0.000639	0.196552
1009	-1.9e-05	0.173707	0.205756	0.000474	0.199675
1010	-0.000183	0.170091	0.20099	0.000146	0.198196
1011	-0.000676	0.174693	0.200332	-0.000183	0.195566
1012	-0.000183	0.174857	0.198853	-0.000512	0.198524
1013	-0.000841	0.176994	0.200004	-0.000347	0.198689
1014	-1.9e-05	0.176172	0.197867	-0.000183	0.199839
1015	0.00031	0.178473	0.198689	-0.000347	0.194909
1016	-0.000347	0.177158	0.198524	-1.9e-05	0.199839
1017	0.000967	0.174857	0.200825	0.000146	0.199346
1018	0.00031	0.176829	0.198853	-0.000347	0.200497
1019	0.000146	0.179788	0.201319	0.00031	0.199182
1020	0.000803	0.176501	0.198689	0.00031	0.201647
1021	-1.9e-05	0.180938	0.201483	0.001296	0.202962
1022	0.000146	0.183897	0.197374	0.000146	0.204441
1023	-0.000512	0.18554	0.203126	0.00031	0.199839
1024	-0.000841	0.187184	0.200332	0.000474	0.200825
1025	0.00031	0.184883	0.199675	-0.000347	0.20099
1026	0.000146	0.188663	0.202962	-0.000347	0.200168
1027	0.000474	0.186033	0.199346	0.000146	0.202469
1028	0.000146	0.190635	0.199839	-0.000183	0.201812
1029	-1.9e-05	0.18817	0.203126	0.000639	0.199018
1030	0.000803	0.188006	0.201319	0.00031	0.199346
1031	-1.9e-05	0.187184	0.199511	0.000474	0.202305
1032	-0.000512	0.188334	0.199018	0.000474	0.200497
1033	-0.000512	0.188992	0.199346	0.000803	0.19836
1034	-0.000676	0.189649	0.20214	0.000146	0.199675
1035	-0.000512	0.189814	0.200004	-0.000183	0.200332
1036	0.000146	0.188663	0.201154	-1.9e-05	0.199511
1037	0.000639	0.191293	0.197867	-0.000676	0.201812
1038	0.000803	0.18932	0.198524	0.000474	0.200332
1039	0.000146	0.193429	0.200661	-0.000183	0.200168
1040	0.000639	0.19195	0.199182	0.000474	0.201483
1041	0.000639	0.194087	0.199675	0.000146	0.200332
1042	0.000146	0.19195	0.201812	0.000639	0.199511
1043	-0.000183	0.193265	0.202305	0.000474	0.202798
1044	-0.000183	0.194744	0.200004	0.000146	0.200661
1045	-0.000512	0.197867	0.201154	-1.9e-05	0.199839
1046	-1.9e-05	0.189978	0.201154	-1.9e-05	0.199511
1047	-0.000676	0.193594	0.200497	-0.000183	0.200497
1048	0.00031	0.196388	0.199346	-0.000841	0.198853
1049	-0.000183	0.19458	0.201483	-0.000512	0.197045
1050	0.000474	0.192443	0.199182	-0.000512	0.199182
1051	0.000967	0.195237	0.201976	0.00031	0.201812
1052	0.00031	0.193429	0.199346	0.000146	0.198524
1053	0.00031	0.19458	0.199675	-0.000183	0.199346
1054	-0.000183	0.195073	0.200004	0.000474	0.199839
1055	-1.9e-05	0.193429	0.200004	0.000146	0.200332
1056	-0.000512	0.195402	0.198853	0.000474	0.199182
1057	-1.9e-05	0.193758	0.198853	-0.000183	0.200004
1058	-0.000183	0.19573	0.196881	-0.000676	0.197703
1059	0.00031	0.197045	0.200497	-1.9e-05	0.197867
1060	-1.9e-05	0.197867	0.201812	-0.000512	0.199182
1061	0.000474	0.197867	0.199346	0.00031	0.201154
1062	0.000474	0.196059	0.203948	0.000146	0.200497
1063	0.00031	0.199511	0.202962	0.000146	0.199018
1064	-0.000183	0.19721	0.196388	0.00031	0.195566
1065	-0.000512	0.198196	0.19573	0.00031	0.200332
1066	-0.000676	0.19836	0.202798	0.000474	0.200825
1067	-0.000347	0.201647	0.198196	-1.9e-05	0.201647
1068	-0.000676	0.193594	0.198853	-1.9e-05	0.198196
1069	-1.9e-05	0.196552	0.198031	-0.000676	0.202962
1070	0.000146	0.19836	0.199511	-0.000183	0.200332
1071	0.00031	0.196388	0.200004	-0.000676	0.199018
1072	0.001132	0.194416	0.200168	0.000474	0.200661
1073	0.000146	0.198689	0.203948	0.000146	0.198196
1074	0.00031	0.191293	0.205592	0.000474	0.198853
1075	-0.000183	0.196223	0.200497	0.00031	0.200825
1076	-1.9e-05	0.199675	0.201647	0.000639	0.200825
1077	-0.000183	0.197703	0.203455	0.00031	0.202633
1078	-0.000183	0.198524	0.191128	-0.000347	0.201812
1079	-0.000841	0.200168	0.20099	-0.000512	0.199675
1080	-1.9e-05	0.197538	0.198196	-0.000183	0.202962
1081	-1.9e-05	0.199675	0.197538	-0.000512	0.200497
1082	0.000474	0.199675	0.199511	-0.000676	0.202798
1083	0.00031	0.198196	0.199346	0.000146	0.198524
1084	0.00031	0.200332	0.19836	0.000146	0.202633
1085	0.00031	0.198853	0.203126	0.000639	0.197538
1086	-0.000183	0.199182	0.199346	0.00031	0.201812
1087	-0.000347	0.197703	0.200004	0.000474	0.200825
1088	-0.000347	0.197538	0.201976	0.000146	0.197867
1089	-0.000347	0.197867	0.197703	-0.000183	0.200168
1090	-0.001005	0.199018	0.201812	-1.9e-05	0.19721
1091	-1.9e-05	0.198524	0.19836	-0.000347	0.201483
1092	0.000146	0.199182	0.199839	-0.000347	0.200168
1093	0.000474	0.198031	0.196388	-0.000347	0.201154
1094	0.00031	0.195566	0.198853	0.00031	0.201812
1095	0.000474	0.19836	0.198031	-1.9e-05	0.20099
1096	0.000803	0.199675	0.201647	0.00031	0.201154
1097	-0.000183	0.195402	0.201154	0.000146	0.200661
1098	-0.000183	0.195895	0.199839	0.000474	0.200497
1099	-0.000347	0.199675	0.200332	0.000146	0.200825
1100	-0.000347	0.197374	0.19836	-1.9e-05	0.19836
1101	-0.000512	0.197867	0.19836	-0.000347	0.198524
1102	-0.000183	0.197703	0.199511	-0.000347	0.199182
1103	-1.9e-05	0.20099	0.198853	-0.000347	0.199182
1104	0.000146	0.198853	0.200168	-0.000183	0.199675
1105	0.000146	0.198853	0.200332	0.000146	0.197703
1106	0.00031	0.197867	0.200332	-1.9e-05	0.198031
1107	0.00031	0.198031	0.201647	0.000474	0.199511
1108	0.000146	0.199346	0.199675	0.00031	0.19836
1109	-0.000183	0.197538	0.201647	0.00031	0.198031
1110	-0.000183	0.198853	0.196552	0.000146	0.20099
1111	-0.000512	0.200661	0.195237	-1.9e-05	0.199839
1112	-0.000512	0.200168	0.19836	-0.000512	0.197867
1113	-0.000347	0.197538	0.199018	0.00031	0.198689
1114	0.000146	0.198031	0.198689	-0.000841	0.200004
1115	0.000474	0.196717	0.199346	0.000146	0.201647
1116	0.000146	0.202305	0.197703	-1.9e-05	0.203291
1117	0.000146	0.194416	0.199511	0.000146	0.200168
1118	0.00031	0.196552	0.199675	0.000474	0.201976
1119	-1.9e-05	0.197703	0.200332	0.00031	0.200825
1120	-0.000347	0.200825	0.200332	0.00031	0.198689
1121	-0.000347	0.195237	0.199346	-1.9e-05	0.198853
1122	-0.000183	0.196881	0.201976	-0.000183	0.19573
1123	-0.000347	0.199182	0.198689	-0.000347	0.19836
1124	-0.000183	0.200004	0.204934	-0.000347	0.201483
1125	0.000146	0.196881	0.199346	-0.000183	0.203455
1126	0.00031	0.199018	0.200497	0.000146	0.200497
1127	0.00031	0.198689	0.200661	-1.9e-05	0.202305
1128	0.000474	0.200004	0.200332	-1.9e-05	0.199675
1129	0.00031	0.200825	0.198853	0.000146	0.201812
1130	-1.9e-05	0.200661	0.199675	0.000639	0.200661
1131	-0.000183	0.198031	0.198689	0.000474	0.201976
1132	-0.000347	0.201154	0.199511	0.00031	0.200332
1133	-0.000512	0.200825	0.196223	-0.000183	0.201483
1134	-0.000347	0.199839	0.199511	-0.000347	0.20099
1135	-0.000183	0.200825	0.201319	-0.000512	0.201319
1136	-1.9e-05	0.201154	0.199018	-0.000512	0.199511
1137	0.000146	0.20214	0.200004	-0.000183	0.199346
1138	0.000146	0.199839	0.200332	-1.9e-05	0.198689
1139	0.00031	0.199675	0.203126	0.000146	0.195073
1140	0.00031	0.200168	0.198031	0.000474	0.202633
1141	-1.9e-05	0.200497	0.201483	0.00031	0.195073
1142	-1.9e-05	0.199346	0.203784	0.000474	0.197538
1143	-0.000183	0.199346	0.204934	0.00031	0.197703
1144	-0.000512	0.200168	0.199839	-0.000183	0.199511
1145	-0.000183	0.197538	0.200332	-1.9e-05	0.199018
1146	-0.000347	0.204606	0.199346	-0.000347	0.20099
1147	0.000474	0.204113	0.199511	-0.000841	0.200661
1148	0.000146	0.200004	0.200497	-0.000183	0.20214
1149	0.00031	0.199675	0.199018	-1.9e-05	0.197538
1150	0.00031	0.20099	0.199675	0.000474	0.201976
1151	0.000146	0.199182	0.19836	0.000146	0.199018
1152	0.000146	0.200168	0.201319	0.000474	0.200004
1153	-1.9e-05	0.200004	0.199346	0.000474	0.197538
1154	-0.000183	0.200004	0.20214	0.00031	0.198524
1155	-1.9e-05	0.199182	0.198689	-1.9e-05	0.200168
1156	-0.000841	0.200004	0.201154	-0.000183	0.199182
1157	-0.000183	0.198853	0.199675	-0.000512	0.20099
1158	-1.9e-05	0.200332	0.20214	-0.000512	0.197867
1159	0.000146	0.197374	0.200497	-0.000841	0.200661
1160	0.000474	0.200661	0.202305	0.000146	0.197703
1161	0.000474	0.201483	0.205592	-1.9e-05	0.200497
1162	0.000639	0.195566	0.201319	0.000474	0.199018
1163	0.000146	0.197703	0.199839	0.000146	0.199675
1164	-1.9e-05	0.194251	0.20099	0.000146	0.195237
1165	-0.000347	0.19836	0.199839	0.00031	0.200661
1166	-0.000183	0.197374	0.194744	-0.000183	0.201812
1167	-0.000347	0.196388	0.198031	-1.9e-05	0.203126
1168	-0.000347	0.194087	0.198031	-0.000512	0.198524
1169	0.000146	0.195566	0.199346	-0.000183	0.200661
1170	0.000474	0.19458	0.196388	-0.000841	0.201483
1171	0.000146	0.196059	0.200825	0.000146	0.198031
1172	0.000146	0.196717	0.198689	-1.9e-05	0.20099
1173	0.00031	0.194087	0.203455	0.000146	0.201319
1174	0.000146	0.192608	0.199839	-1.9e-05	0.202305
1175	0.000146	0.189649	0.200825	0.00031	0.200332
1176	-0.000512	0.193101	0.198031	0.00031	0.201976
1177	-0.000183	0.192443	0.202469	-1.9e-05	0.199839
1178	-0.000512	0.189485	0.201154	-0.000183	0.200497
1179	-0.000183	0.18817	0.198524	-1.9e-05	0.201154
1180	0.00031	0.188499	0.202305	-0.000183	0.201647
1181	0.000474	0.189814	0.19721	-0.000347	0.200661
1182	0.00031	0.184883	0.19836	0.000146	0.202798
1183	0.000803	0.185705	0.20477	0.00031	0.20214
1184	-1.9e-05	0.187184	0.200661	0.000474	0.199675
1185	0.000639	0.185376	0.201319	-1.9e-05	0.201483
1186	-1.9e-05	0.185376	0.204441	0.00031	0.199511
1187	0.000146	0.183897	0.19721	0.000639	0.201483
1188	-0.001005	0.183568	0.198524	-0.000183	0.199182
1189	-1.9e-05	0.183239	0.196881	-0.000347	0.200497
1190	-0.000183	0.181596	0.198196	-1.9e-05	0.203291
1191	-0.000183	0.18061	0.200497	-0.000676	0.199346
1192	0.00031	0.176829	0.200661	-0.000512	0.198853
1193	0.000146	0.179459	0.199675	-0.000183	0.200332
1194	0.00031	0.178966	0.202305	0.000146	0.200004
1195	0.000146	0.177487	0.202633	0.000146	0.197374
1196	-0.000183	0.176665	0.201319	0.000146	0.198689
1197	-1.9e-05	0.179952	0.200332	0.000474	0.200825
1198	-0.000183	0.178637	0.196881	0.000639	0.20099
1199	-0.000347	0.177322	0.198524	-0.000183	0.200661
1200	-0.000183	0.174528	0.199511	-1.9e-05	0.197374
1201	-0.000512	0.176336	0.199675	-0.000512	0.199018
1202	0.000474	0.173871	0.198031	-0.000347	0.200168
1203	-1.9e-05	0.175186	0.200825	-0.000183	0.198853
1204	-1.9e-05	0.174364	0.198853	-1.9e-05	0.200497
1205	0.000474	0.172885	0.199839	0.000474	0.200825
1206	0.000639	0.173542	0.199839	-0.000183	0.201154
1207	-0.000512	0.171077	0.200661	0.000474	0.200168
1208	-1.9e-05	0.171899	0.201154	0.000146	0.198689
1209	-0.000183	0.171077	0.201154	0.000474	0.19721
1210	-0.000512	0.172227	0.199675	-0.000183	0.200168
1211	-0.000512	0.170913	0.200661	-0.000347	0.19836
1212	-0.000183	0.170913	0.200497	-0.000347	0.19836
1213	-0.000183	0.167461	0.196717	-0.000347	0.199511
1214	0.00031	0.178144	0.197703	-1.9e-05	0.197538
1215	0.00031	0.167297	0.192115	-1.9e-05	0.199346
1216	0.000474	0.171406	0.19573	0.000146	0.199018
1217	0.00031	0.16401	0.198524	0.00031	0.199839
1218	0.000146	0.169926	0.195073	0.000474	0.200497
1219	-0.000183	0.168612	0.19836	-1.9e-05	0.200825
1220	-0.000347	0.16779	0.201647	0.00031	0.199675
1221	-0.000183	0.170091	0.19836	-0.000183	0.201647
1222	-0.000347	0.166639	0.198853	-0.000183	0.199346
1223	-0.000183	0.170091	0.198853	-0.000676	0.202962
1224	0.000146	0.168118	0.199346	-0.000183	0.206578
1225	0.00031	0.170419	0.200497	-0.000347	0.200332
1226	0.00031	0.167132	0.198853	0.00031	0.199018
1227	0.000639	0.169598	0.202305	-1.9e-05	0.203126
1228	0.000146	0.168776	0.201812	0.000146	0.198196
1229	-1.9e-05	0.167297	0.200332	0.00031	0.199182
1230	-0.000183	0.165489	0.199182	0.00031	0.201483
1231	-0.000512	0.167625	0.204606	0.00031	0.198524
1232	-0.000183	0.164996	0.200004	-0.000183	0.200825
1233	-0.000512	0.166968	0.201647	-0.000183	0.198196
1234	-0.000183	0.168447	0.200168	-0.000676	0.199839
1235	0.000146	0.164831	0.199675	-0.000183	0.199675
1236	0.000474	0.169598	0.195237	-0.000183	0.203291
1237	0.00031	0.166639	0.204441	0.000146	0.201319
1238	0.000146	0.164996	0.197703	0.000146	0.202633
1239	0.000146	0.166804	0.201319	0.00031	0.200332
1240	-0.000183	0.172556	0.199346	0.00031	0.204934
1241	-0.000347	0.164667	0.200661	0.000474	0.201483
1242	-0.000183	0.165982	0.202798	0.00031	0.202798
1243	-0.000512	0.162695	0.198524	-1.9e-05	0.199839
1244	-0.000347	0.166804	0.200168	-0.000347	0.199018
1245	-0.000183	0.164503	0.198196	-0.000347	0.199182
1246	0.00031	0.167297	0.202305	-0.000512	0.19836
1247	0.00031	0.163516	0.199675	-0.000512	0.200825
1248	0.000146	0.168447	0.199511	0.000474	0.197538
1249	0.00031	0.166639	0.199511	0.000146	0.199675
1250	0.000639	0.164831	0.199018	0.000474	0.195237
1251	0.000146	0.159901	0.199018	0.000639	0.201319
1252	-0.000183	0.164667	0.200332	0.000639	0.199346
1253	-0.000347	0.166475	0.199839	-1.9e-05	0.200661
1254	-0.000183	0.163845	0.198689	0.000146	0.199511
1255	-0.000347	0.16516	0.197045	-0.000183	0.202633
1256	-0.000347	0.163845	0.199018	0.000146	0.201483
1257	-1.9e-05	0.165817	0.198853	-0.000183	0.201976
1258	0.000146	0.165324	0.198689	-0.001005	0.199839
1259	0.000474	0.166804	0.200825	-1.9e-05	0.197703
1260	0.00031	0.165489	0.200168	0.000146	0.202633
1261	0.00031	0.166639	0.198689	0.000146	0.195073
1262	0.000146	0.16516	0.199182	0.000639	0.198196
1263	-0.000512	0.166311	0.200497	0.000474	0.199839
1264	-0.000347	0.166146	0.199018	0.000146	0.198196
1265	-0.000347	0.164831	0.198853	-1.9e-05	0.191786
1266	-0.000512	0.163845	0.199182	-0.000512	0.198031
1267	-0.000183	0.162859	0.204441	-0.000183	0.198196
1268	-1.9e-05	0.158586	0.199839	-0.000347	0.200004
1269	0.000474	0.161051	0.199182	-0.001169	0.200661
1270	0.00031	0.165653	0.199182	-1.9e-05	0.200661
1271	0.00031	0.161873	0.198689	0.000474	0.199839
1272	0.000639	0.162202	0.199675	0.00031	0.201483
1273	0.000146	0.162202	0.19836	0.00031	0.200497
1274	-0.000183	0.162366	0.200661	0.000474	0.201319
1275	-0.000183	0.16401	0.200497	0.00031	0.198196
1276	-0.000512	0.164831	0.199675	-0.000347	0.196717
1277	-0.000676	0.164338	0.198853	-0.000183	0.199675
1278	-0.000183	0.166475	0.199839	-0.000347	0.197045
1279	0.000146	0.16516	0.199346	-0.000347	0.200825
1280	0.00031	0.163516	0.20099	-0.000512	0.194909
1281	0.00031	0.16516	0.195895	-0.000183	0.199675
1282	0.00031	0.162859	0.202962	-1.9e-05	0.201154
1283	0.000474	0.164667	0.202633	0.00031	0.196717
1284	0.000146	0.163516	0.202633	-1.9e-05	0.197703
1285	-0.000347	0.16401	0.199346	0.000474	0.199346
1286	-0.000347	0.161709	0.199675	0.000639	0.198031
1287	-0.000347	0.161709	0.201319	-0.000183	0.20099
1288	-0.000347	0.161215	0.197374	-0.000183	0.197374
1289	-0.000347	0.162695	0.201154	-0.000347	0.200661
1290	-1.9e-05	0.161051	0.199182	-0.000347	0.202798
1291	0.000146	0.168283	0.202305	-0.000347	0.199839
1292	0.000474	0.164831	0.195895	-1.9e-05	0.20099
1293	0.00031	0.166146	0.203948	0.000146	0.199346
1294	0.00031	0.164503	0.196552	0.000146	0.200661
1295	-1.9e-05	0.163681	0.201812	0.00031	0.196717
1296	-0.000183	0.166146	0.201976	0.00031	0.198853
1297	-0.000347	0.162859	0.200004	0.00031	0.197703
1298	-0.000183	0.16516	0.197867	0.000146	0.19573
1299	-0.000512	0.161544	0.201319	-0.000183	0.195237
1300	-0.000183	0.162695	0.200825	-0.000347	0.199839
1301	0.000146	0.162859	0.199182	-0.000347	0.197867
1302	0.000474	0.163023	0.201483	-0.000183	0.198689
1303	0.000474	0.160887	0.196059	0.000146	0.200004
1304	0.000474	0.163516	0.201154	0.00031	0.199839
1305	0.000474	0.160229	0.198524	0.00031	0.200168
1306	0.000146	0.161873	0.200497	0.00031	0.199346
1307	-0.000347	0.16138	0.200497	0.000474	0.201483
1308	-0.000347	0.162202	0.200332	0.000639	0.20099
1309	-0.000183	0.162366	0.196717	-0.000347	0.19721
1310	-0.000512	0.162037	0.200168	-1.9e-05	0.19836
1311	-0.000183	0.163681	0.197374	-0.000347	0.199675
1312	-1.9e-05	0.163188	0.199839	-0.000347	0.197045
1313	0.000146	0.167625	0.198196	0.000146	0.199511
1314	0.00031	0.160558	0.197374	-0.000183	0.194744
1315	0.00031	0.162366	0.200497	-0.000183	0.196881
1316	0.000474	0.161709	0.200168	0.004583	0.196552
1317	0.000146	0.160065	0.197703	0.016088	0.200332
1318	-0.000183	0.158093	0.195895	0.021512	0.197045
1319	-0.000512	0.161051	0.201154	0.0271	0.199018
1320	-0.000347	0.164174	0.197538	0.034661	0.201812
1321	-0.000347	0.16253	0.201154	0.044851	0.198196
1322	0.006227	0.160722	0.199675	0.049617	0.201976
1323	0.012308	0.15875	0.200332	0.055041	0.200332
1324	0.021348	0.161215	0.200004	0.061944	0.201154
1325	0.033017	0.162695	0.19836	0.07049	0.196717
1326	0.039756	0.163188	0.199675	0.074435	0.197538
1327	0.043371	0.160558	0.201319	0.078873	0.19836
1328	0.048631	0.161215	0.199182	0.083639	0.198689
1329	0.058657	0.163845	0.200497	0.089063	0.198196
1330	0.059972	0.161709	0.199511	0.087912	0.199346
1331	0.069011	0.162037	0.199018	0.099582	0.199346
1332	0.070983	0.162202	0.200004	0.099746	0.198196
1333	0.077065	0.16138	0.20099	0.101061	0.200661
1334	0.079694	0.163681	0.201319	0.103362	0.197867
1335	0.087912	0.159572	0.204113	0.10895	0.199018
1336	0.08594	0.161215	0.199675	0.114867	0.198853
1337	0.090542	0.159901	0.19836	0.116675	0.20099
1338	0.096623	0.160722	0.199675	0.122098	0.192443
1339	0.09876	0.158914	0.198689	0.123413	0.199675
1340	0.107306	0.157764	0.202305	0.126043	0.196388
1341	0.109607	0.159243	0.201319	0.129166	0.198196
1342	0.114538	0.159408	0.199839	0.133439	0.198853
1343	0.118318	0.160558	0.196059	0.138041	0.198689
1344	0.123742	0.162202	0.199018	0.140342	0.194909
1345	0.125386	0.16253	0.200661	0.140835	0.198853
1346	0.12933	0.160229	0.199182	0.144451	0.194909
1347	0.129988	0.159079	0.198524	0.145602	0.199346
1348	0.134754	0.156449	0.199839	0.144287	0.196552
1349	0.135247	0.15875	0.202469	0.145437	0.195402
1350	0.138863	0.156778	0.199346	0.152669	0.197045
1351	0.139192	0.025785	0.200825	0.153819	0.198196
1352	0.144122	0.030387	0.204441	0.153984	0.196223
1353	0.145766	0.036633	0.197538	0.156613	0.197538
1354	0.146095	0.044686	0.20099	0.158914	0.197703
1355	0.15119	0.046987	0.202469	0.159901	0.196388
1356	0.15234	0.055863	0.198031	0.159736	0.198689
1357	0.155134	0.059643	0.200168	0.16516	0.19721
1358	0.153819	0.06556	0.197538	0.162037	0.197538
1359	0.155627	0.070819	0.203126	0.162859	0.19721
1360	0.160394	0.07575	0.199675	0.165489	0.194416
1361	0.158093	0.078708	0.200004	0.169598	0.194416
1362	0.162695	0.084296	0.199346	0.16894	0.195566
1363	0.166146	0.08857	0.20477	0.171899	0.193265
1364	0.163023	0.089391	0.200332	0.175843	0.19836
1365	0.168612	0.089885	0.197374	0.171406	0.198853
1366	0.170748	0.097116	0.199675	0.174528	0.195402
1367	0.166639	0.097774	0.199182	0.176336	0.196881
1368	0.166968	0.100403	0.199839	0.17913	0.197703
1369	0.168283	0.100568	0.198031	0.181431	0.195895
1370	0.169433	0.107964	0.203455	0.178637	0.196388
1371	0.171241	0.10517	0.199675	0.181267	0.195237
1372	0.172885	0.105663	0.199182	0.178802	0.19458
1373	0.1742	0.10895	0.19721	0.179459	0.19573
1374	0.178966	0.109279	0.207893	0.179623	0.196717
1375	0.178473	0.113223	0.199182	0.182253	0.193265
1376	0.179295	0.113552	0.199346	0.184718	0.193265
1377	0.181924	0.118318	0.199675	0.184554	0.200168
1378	0.183404	0.116839	0.199346	0.185212	0.195566
1379	0.179295	0.118976	0.199511	0.189649	0.199182
1380	0.182253	0.121441	0.19721	0.186033	0.197045
1381	0.185376	0.121441	0.201483	0.188499	0.197538
1382	0.181924	0.121441	0.198031	0.186526	0.195895
1383	0.182746	0.126865	0.202469	0.187348	0.195895
1384	0.182089	0.123578	0.199839	0.185376	0.195237
1385	0.180774	0.128015	0.20477	0.18817	0.194744
1386	0.182582	0.126865	0.196552	0.187841	0.196388
1387	0.183404	0.126043	0.20099	0.192279	0.196059
1388	0.177487	0.128673	0.20099	0.189649	0.194087
1389	0.182253	0.12933	0.203948	0.192608	0.193265
1390	0.185212	0.12933	0.203455	0.193265	0.196223
1391	0.187677	0.130152	0.19836	0.188992	0.194416
1392	0.186362	0.132289	0.202305	0.190635	0.196223
1393	0.189156	0.131138	0.200168	0.189978	0.192608
1394	0.186526	0.135411	0.202469	0.193265	0.192279
1395	0.193429	0.136562	0.201154	0.191621	0.194251
1396	0.188992	0.138041	0.196388	0.191293	0.194909
1397	0.193101	0.137877	0.200661	0.193594	0.193922
1398	0.190635	0.136398	0.197374	0.192608	0.19721
1399	0.191457	0.138041	0.195566	0.192443	0.200004
1400	0.189485	0.142972	0.202962	0.192279	0.197374
1401	0.188992	0.141	0.198689	0.200497	0.195895
1402	0.187019	0.146423	0.198524	0.193594	0.197538
1403	0.190142	0.144451	0.200825	0.192443	0.194087
1404	0.189978	0.144122	0.202305	0.196059	0.193758
1405	0.189156	0.148067	0.199346	0.193594	0.195566
1406	0.194251	0.147245	0.202633	0.198031	0.192279
1407	0.194416	0.150532	0.194416	0.192608	0.194416
1408	0.197045	0.150697	0.199182	0.192772	0.189649
1409	0.193101	0.152011	0.20099	0.19458	0.190471
1410	0.19458	0.152833	0.195237	0.192279	0.191786
1411	0.193101	0.159901	0.20214	0.197045	0.194087
1412	0.194416	0.160558	0.201483	0.200004	0.193594
1413	0.000803	0.157764	0.19721	0.194251	0.197374
1414	0.003597	0.1576	0.201154	0.193758	0.19721
1415	0.012144	0.160887	0.19836	0.196223	0.19836
1416	0.012965	0.162202	0.197538	0.196717	0.197374
1417	0.01428	0.163516	0.196717	0.198196	0.193101
1418	0.01954	0.165653	0.185869	0.19573	0.199675
1419	0.026771	0.166475	0.197538	0.199018	0.194416
1420	0.035318	0.167461	0.194909	0.197703	0.191786
1421	0.041399	0.165489	0.194909	0.197045	0.196059
1422	0.046001	0.170748	0.130481	0.19721	0.195402
1423	0.057671	0.172227	0.094158	0.19836	0.191786
1424	0.062273	0.173707	0.063916	0.193101	0.195237
1425	0.066875	0.173378	0.040084	0.198196	0.192608
1426	0.07049	0.177322	0.026936	0.195073	0.193429
1427	0.07575	0.177158	0.016417	0.196717	0.197045
1428	0.078051	0.17913	0.013952	0.20099	0.192772
1429	0.084132	0.177651	0.00031	0.194087	0.195237
1430	0.091199	0.177651	0.003268	0.199675	0.196059
1431	0.092186	0.178966	0.001296	0.197867	0.192936
1432	0.099582	0.182253	0.005569	0.199346	0.194744
1433	0.102869	0.184718	0.005569	0.197867	0.196717
1434	0.105663	0.182417	0.004255	0.20362	0.193429
1435	0.107964	0.182911	-0.000841	0.197703	0.193758
1436	0.113552	0.183404	0.002447	0.200497	0.196717
1437	0.118318	0.186033	0.004583	0.20099	0.197703
1438	0.11914	0.186526	-0.000347	0.200825	0.193265
1439	0.12177	0.189156	0.000639	0.199346	0.194251
1440	0.127851	0.185047	-0.003306	0.196717	0.191457
1441	0.129659	0.189814	0.002611	0.199839	0.192115
1442	0.133932	0.186526	0.004912	0.197045	0.188992
1443	0.135247	0.188499	0.004912	0.199839	0.191128
1444	0.135576	0.187019	0.006227	0.195895	0.193429
1445	0.141493	0.187513	0.003433	0.194416	0.191457
1446	0.142314	0.187841	0.006062	0.19573	0.191786
1447	0.145273	0.187841	0.006556	0.200661	0.196717
1448	0.14593	0.18554	0.002282	0.197538	0.192608
1449	0.14856	0.190635	0.003104	0.19573	0.194251
1450	0.151354	0.1908	-0.000841	0.197703	0.194744
1451	0.157271	0.189978	-0.00347	0.19836	0.187019
1452	0.15497	0.189649	-0.000841	0.199346	0.192115
1453	0.158257	0.193594	0.000639	0.201483	0.191786
1454	0.158257	0.192279	-0.000347	0.201647	0.193594
1455	0.159901	0.190471	0.00294	0.20099	0.192772
1456	0.160229	0.192772	0.001789	0.190471	0.192443
1457	0.164996	0.191786	0.001132	0.197374	0.185376
1458	0.165489	0.194416	0.000639	0.196881	0.192443
1459	0.16779	0.197703	0.000474	0.195566	0.189156
1460	0.164667	0.193594	0.000146	0.202305	0.186855
1461	0.169762	0.19195	-0.000512	0.194909	0.189649
1462	0.169926	0.193758	-0.001334	0.198031	0.187348
1463	0.171241	0.188006	-0.001498	0.201976	0.1908
1464	0.17272	0.190964	0.000474	0.200825	0.187677
1465	0.172392	0.192608	-1.9e-05	0.200332	0.193101
1466	0.172556	0.192772	0.000146	0.200825	0.194744
1467	0.173214	0.191457	-0.000512	0.18932	0.19195
1468	0.17798	0.194251	-0.001827	0.201154	0.190307
1469	0.177158	0.196717	-1.9e-05	0.201319	0.197703
1470	0.179459	0.193101	0.00031	0.20362	0.187513
1471	0.179295	0.196059	-0.000512	0.204277	0.189156
1472	0.181596	0.192608	-0.001334	0.201812	0.18817
1473	0.184061	0.197867	-1.9e-05	0.201319	0.186691
1474	0.178144	0.19721	0.000146	0.200332	0.185705
1475	0.183732	0.200004	0.000639	0.202633	0.189978
1476	0.182746	0.200168	0.000803	0.200168	0.187677
1477	0.179952	0.19721	0.000803	0.200168	0.189978
1478	0.183404	0.195237	0.000146	0.188827	0.185212
1479	0.185376	0.197045	0.001132	0.195073	0.187513
1480	0.184225	0.19573	-0.000183	0.19836	0.195566
1481	0.186691	0.19721	0.00031	0.198196	0.18554
1482	0.185047	0.197374	-0.000841	0.202798	0.189978
1483	0.186198	0.197538	-0.000512	0.201154	0.186033
1484	0.187677	0.198853	-0.000841	0.203784	0.190471
1485	0.188006	0.196552	0.001789	0.206742	0.18817
1486	0.185212	0.198853	0.000146	0.202633	0.190142
1487	0.18817	0.196223	0.000803	0.203948	0.192279
1488	0.189156	0.198196	0.000146	0.202633	0.190471
1489	0.190635	0.197867	0.001789	0.194744	0.191621
1490	0.191786	0.20099	0.000803	0.198689	0.190142
1491	0.1908	0.199839	0.00031	0.200332	0.192936
1492	0.187677	0.200168	0.000803	0.200168	0.188663
1493	0.194744	0.199018	-1.9e-05	0.198853	0.188992
1494	0.190964	0.200004	-1.9e-05	0.200332	0.188499
1495	0.193101	0.195402	-0.000347	0.199346	0.1908
1496	0.192936	0.197867	-1.9e-05	0.201976	0.18932
1497	0.191621	0.196223	-0.000183	0.199511	0.191293
1498	0.193429	0.192936	0.000639	0.203784	0.193101
1499	0.188992	0.196388	-0.000841	0.199511	0.188334
1500	0.195073	0.19458	0.000803	0.19458	0.190964
1501	0.195073	0.200332	0.000474	0.201647	0.191293
1502	0.196223	0.19836	-0.000183	0.200004	0.188499
1503	0.194087	0.19836	-0.000347	0.200661	0.192279
1504	0.198524	0.197867	-0.000676	0.20362	0.190142
1505	0.196717	0.200332	-0.001662	0.203291	0.191786
1506	0.194909	0.02332	0.000146	0.197703	0.191128
1507	0.192772	0.001625	-0.000183	0.203126	0.192115
1508	0.193922	0.000146	0.000639	0.196717	0.181596
1509	0.193101	0.001625	0.000474	0.199839	0.192443
1510	0.194416	0.00672	0.000146	0.200661	0.194087
1511	0.195402	0.011651	0.001789	0.203784	0.187348
1512	0.194087	0.024142	0.000803	0.199018	0.190142
1513	0.194251	0.029401	0.000803	0.200168	0.186033
1514	0.193429	0.030716	0.00031	0.200497	0.188663
1515	0.19573	0.03992	0.000146	0.20214	0.173542
1516	0.19721	0.05274	-0.000841	0.204277	0.177815
1517	0.196717	0.050932	-1.9e-05	0.199511	0.178144
1518	0.196388	0.059643	-0.002155	0.206414	0.177487
1519	0.197045	0.063752	0.00031	0.201647	0.111908
1520	0.197374	0.073449	0.000146	0.199182	0.024964
1521	0.197703	0.074435	0.000146	0.204934	0.017239
1522	0.199346	0.083803	0.000474	0.205756	0.006391
1523	0.197703	0.087912	0.00031	0.201483	0.006884
1524	0.192443	0.09498	0.000639	0.203126	-0.004621
1525	0.193922	0.093172	-0.000676	0.200168	-1.9e-05
1526	0.199182	0.10254	-0.001169	0.201647	0.002282
1527	0.197045	0.107306	0.000803	0.201154	0.011322
1528	0.197045	0.106978	-0.000676	0.201319	0.015595
1529	0.198853	0.112894	-0.000512	0.201647	0.020033
1530	0.197045	0.113552	0.001296	0.204441	0.028415
1531	0.198031	0.119797	0.00031	0.200661	0.040906
1532	0.197538	0.121441	0.001296	0.201483	0.041399
1533	0.194251	0.125386	0.001132	0.205099	0.053726
1534	0.194744	0.12933	0.001954	0.202469	0.055698
1535	0.196717	0.133275	-0.000347	0.203455	0.052247
1536	0.197374	0.13196	-0.000183	0.204441	0.066053
1537	0.197374	0.134425	-1.9e-05	0.203291	0.074271
1538	0.202305	0.139192	-0.001334	0.200332	0.077886
1539	0.200168	0.141328	-0.001169	0.20477	0.086104
1540	0.197374	0.143958	-0.003799	0.200332	0.091364
1541	0.200168	0.146752	0.000639	0.202633	0.092021
1542	0.196223	0.150532	0.000803	0.200497	0.099089
1543	0.20099	0.14971	0.000639	0.202305	0.101718
1544	0.19458	0.154641	0.00031	0.20099	0.105992
1545	0.195895	0.154806	0.002118	0.199346	0.108457
1546	0.195073	0.158257	0.000474	0.200168	0.106485
1547	0.199511	0.155134	0.001954	0.200004	0.111087
1548	0.196552	0.155627	-0.000512	0.200497	0.120784
1549	0.199511	0.16138	0.00031	0.204113	0.119633
1550	0.197867	0.16253	-0.000183	0.200825	0.125386
1551	0.195073	0.162366	-0.000512	0.200825	0.128015
1552	0.198853	0.16516	-0.000183	0.203784	0.130974
1553	0.196388	0.166804	0.000803	0.200332	0.135904
1554	0.198853	0.167461	0.00294	0.20214	0.138205
1555	0.198689	0.168118	-0.000676	0.199675	0.141493
1556	0.195895	0.173707	0.003104	0.198031	0.141986
1557	0.194087	0.173214	0.000146	0.198689	0.141
1558	0.199675	0.173871	0.000146	0.199346	0.143958
1559	0.197045	0.174693	-0.001005	0.198524	0.146423
1560	0.198524	0.176172	0.000474	0.198031	0.149382
1561	0.19721	0.178144	-0.000841	0.202469	0.154312
1562	0.196881	0.17913	0.00031	0.201812	0.100568
1563	0.197703	0.178966	0.002775	0.19836	0.003433
1564	0.200497	0.177322	0.000474	0.201319	0.011815
1565	0.197374	0.176829	0.001954	0.200332	0.022334
1566	0.198689	0.177651	0.000803	0.201976	0.022991
1567	0.196552	0.17913	0.002118	0.200825	0.033017
1568	0.197867	0.180281	0.003761	0.197374	0.039591
1569	0.198689	0.182253	0.000803	0.205592	0.038934
1570	0.199346	0.179788	-0.000347	0.199839	0.057342
1571	0.200497	0.184061	-0.000512	0.200497	0.0603
1572	0.197374	0.18817	-0.000676	0.203291	0.066546
1573	0.196717	0.179295	-0.000347	0.202962	0.072627
1574	0.197703	0.184225	-1.9e-05	0.201319	0.079859
1575	0.200825	0.186855	0.001296	0.202469	0.083475
1576	0.196223	0.186526	-0.000676	0.200332	0.087748
1577	0.198853	0.188827	0.000639	0.202305	0.092021
1578	0.197538	0.18932	0.001954	0.202469	0.096623
1579	0.196552	0.18932	0.003433	0.199839	0.09498
1580	0.199346	0.190142	-0.000183	0.199675	0.103197
1581	0.198524	0.189156	0.000967	0.200168	0.105827
1582	0.195895	0.193429	-1.9e-05	0.20362	0.114045
1583	0.200497	0.188663	0.002118	0.202798	0.116182
1584	0.198689	0.191128	0.000146	0.203126	0.113223
1585	0.199346	0.188992	-0.000183	0.20099	0.118483
1586	0.200004	0.193101	0.000967	0.20099	0.122263
1587	0.195402	0.193429	-0.001169	0.199675	0.127358
1588	0.201154	0.190635	0.003268	0.200168	0.130974
1589	0.196059	0.193758	0.00031	0.199675	0.133768
1590	0.197867	0.191621	0.002775	0.19836	0.137712
1591	0.20099	0.192772	0.00031	0.20099	0.140013
1592	0.200332	0.194416	0.00146	0.206085	0.140342
1593	0.199675	0.193758	-0.001005	0.199675	0.146916
1594	0.20214	0.194251	0.000803	0.205756	0.144122
1595	0.198196	0.196059	0.001625	0.204277	0.149546
1596	0.202798	0.193922	-1.9e-05	0.20099	0.150039
1597	0.200661	0.192936	0.001789	0.202633	0.153491
1598	0.202305	0.19458	0.001132	0.202305	0.153162
1599	0.201647	0.196223	0.001132	0.205099	0.158257
1600	0.198853	0.19721	0.001954	0.204606	0.156613
1601	0.201483	0.195402	0.002282	0.202305	0.157928
1602	0.200825	0.195566	-1.9e-05	0.198853	0.160558
1603	0.200168	0.19721	0.000803	0.202305	0.160887
1604	0.197703	0.195566	-0.000676	0.199346	0.166146
1605	0.19836	0.195073	0.00031	0.201154	0.165982
1606	0.200332	0.19721	-1.9e-05	0.201812	0.164996
1607	0.198689	0.194744	0.000474	0.199018	0.166475
1608	0.19836	0.197867	0.000474	0.199018	0.170584
1609	0.198031	0.199346	0.000967	0.20099	0.170913
1610	0.197538	0.195895	-0.00232	0.197374	0.173049
1611	0.199675	0.197374	0.001132	0.200497	0.171734
1612	0.201647	0.198031	0.000474	0.19721	0.1742
1613	0.201319	0.200004	-0.001498	0.199675	0.174364
1614	0.201976	0.198689	0.00031	0.202469	0.176501
1615	0.200497	0.195237	-0.000183	0.199839	0.182253
1616	0.200497	0.198853	-0.000676	0.205099	0.179295
1617	0.200332	0.196717	0.002447	0.202962	0.179623
1618	0.200004	0.198031	0.002282	0.201154	0.178144
1619	0.201483	0.197045	0.001789	0.198689	0.18439
1620	0.199018	0.197538	0.002447	0.197374	0.179952
1621	0.198196	0.198524	-1.9e-05	0.200825	0.178802
1622	0.197703	0.194416	0.003433	0.200004	0.184718
1623	0.196552	0.193758	0.000474	0.197538	0.185047
1624	0.198524	0.194087	0.000639	0.200825	0.182582
1625	0.200332	0.201647	-0.001005	0.200497	0.182582
1626	0.199675	0.198196	-0.000347	0.200661	0.186033
1627	0.199182	0.198031	-0.000183	0.20362	0.185869
1628	0.203455	0.199346	-0.000347	0.200004	0.188827
1629	0.200825	0.200332	0.001789	0.201647	0.186855
1630	0.202305	0.197538	0.00031	0.204441	0.192772
1631	0.207071	0.202962	0.00146	0.202305	0.191457
1632	0.201483	0.199182	0.002282	0.199839	0.189485
1633	0.202633	0.201154	-0.000183	0.200661	0.191293
1634	0.20099	0.201483	-0.001005	0.198031	0.188663
1635	0.200004	0.200497	0.001296	0.201154	0.187677
1636	0.196881	0.204441	-0.000676	0.198689	0.189649
1637	0.201647	0.202469	0.000474	0.199018	0.190964
1638	0.198031	0.199182	0.001296	0.199018	0.188334
1639	0.200497	0.198031	0.000967	0.201812	0.192115
1640	0.197703	0.200332	0.004748	0.200004	0.193594
1641	0.199839	0.199675	0.000474	0.200497	0.192936
1642	0.200004	0.19836	-0.003635	0.201647	0.194744
1643	0.199839	0.198031	-1.9e-05	0.200497	0.192608
1644	0.19836	0.203126	0.002447	0.20214	0.194251
1645	0.206907	0.19836	0.000146	0.197703	0.193922
1646	0.203291	0.204113	-0.000512	0.202962	0.193101
1647	0.203784	0.19721	-0.000183	0.203126	0.198689
1648	0.197703	0.20214	0.000967	0.203126	0.196059
1649	0.206249	0.199675	-0.000347	0.201319	0.194909
1650	0.204277	0.200168	0.001625	0.203948	0.194744
1651	0.200825	0.202962	0.000803	0.202469	0.196059
1652	0.201319	0.200332	0.001296	0.201647	0.195402
1653	0.201812	0.19836	-0.001334	0.200332	0.19721
1654	0.201319	0.198031	0.004748	0.201154	0.194416
1655	0.19836	0.199675	0.000967	0.201319	0.19836
1656	0.20214	0.199182	0.002775	0.199839	0.194087
1657	0.195402	0.200004	0.002447	0.200004	0.192443
1658	0.193922	0.197374	0.001954	0.199839	0.193101
1659	0.20099	0.200661	-0.001005	0.201319	0.196552
1660	0.20099	0.196059	0.002282	0.199182	0.193922
1661	0.203784	0.199182	0.006227	0.198689	0.19721
1662	0.200497	0.197538	0.002611	0.20099	0.19836
1663	0.202469	0.204934	0.002447	0.200332	0.199675
1664	0.202633	0.199346	0.001132	0.201812	0.198196
1665	0.203291	0.201154	0.002611	0.201319	0.197374
1666	0.200825	0.200497	-0.001498	0.202469	0.196388
1667	0.201647	0.198524	0.001296	0.200825	0.198524
1668	0.198524	0.200661	0.000474	0.200661	0.19836
1669	0.201812	0.200661	0.000146	0.201812	0.194744
1670	0.200004	0.198524	0.000639	0.19836	0.201319
1671	0.201154	0.195402	0.001625	0.202962	0.197867
1672	0.195402	0.200168	0.002118	0.198031	0.198689
1673	0.197045	0.20099	0.001132	0.198689	0.19721
1674	0.200168	0.20099	0.00031	0.201483	0.201319
1675	0.202962	0.201812	0.001296	0.197703	0.197045
1676	0.200332	0.201483	0.001296	0.201647	0.199675
1677	0.201976	0.200661	0.000803	0.201319	0.199839
1678	0.200168	0.200497	0.000474	0.200825	0.200168
1679	0.200825	0.199346	-0.000676	0.201483	0.199182
1680	0.202469	0.200825	0.000803	0.203291	0.199839
1681	0.203948	0.204606	-0.000512	0.200661	0.19836
1682	0.20099	0.198689	0.000474	0.200168	0.197867
1683	0.197703	0.199675	0.00031	0.198853	0.200332
1684	0.20099	0.200661	-0.001334	0.202469	0.200825
1685	0.198689	0.199839	0.000639	0.202305	0.200497
1686	0.201483	0.200004	0.001296	0.19836	0.201976
1687	0.19836	0.202633	0.000474	0.201647	0.200332
1688	0.200497	0.199346	0.001625	0.20362	0.198031
1689	0.197374	0.198196	0.000474	0.197703	0.199675
1690	0.199839	0.202469	0.000146	0.199346	0.198524
1691	0.199346	0.200168	0.000639	0.200661	0.198031
1692	0.196881	0.20099	-0.003142	0.198853	0.199018
1693	0.201647	0.199346	-1.9e-05	0.200825	0.200332
1694	0.19836	0.199018	0.001789	0.19836	0.196881
1695	0.201319	0.200004	-1.9e-05	0.200825	0.202469
1696	0.199182	0.199675	0.00031	0.200497	0.200661
1697	0.201154	0.201647	0.001132	0.201812	0.19836
1698	0.19721	0.201319	0.000803	0.200168	0.197045
1699	0.202305	0.20362	0.000146	0.201154	0.197538
1700	0.199675	0.198524	0.000146	0.193922	0.200497
1701	0.199675	0.202962	0.000803	0.201319	0.200332
1702	0.200825	0.202962	-1.9e-05	0.199018	0.201154
1703	0.198853	0.198196	-0.000676	0.198196	0.199675
1704	0.201483	0.200497	0.000474	0.205263	0.202305
1705	0.199182	0.199182	0.000967	0.196388	0.199511
1706	0.201483	0.201483	0.001132	0.198196	0.199839
1707	0.201976	0.200332	0.000967	0.199182	0.200004
1708	0.200497	0.199839	0.000639	0.198524	0.19573
1709	0.201483	0.198689	-0.000183	0.19721	0.198196
1710	0.200497	0.199675	0.000803	0.201647	0.197867
1711	0.198853	0.197374	0.000639	0.198853	0.200004
1712	0.201154	0.20099	0.000967	0.200497	0.198031
1713	0.200497	0.202798	-0.000512	0.201319	0.198689
1714	0.200497	0.204113	-1.9e-05	0.205921	0.199182
1715	0.202633	0.200661	-0.001498	0.201647	0.201483
1716	0.201154	0.198031	-1.9e-05	0.201483	0.199675
1717	0.201976	0.197538	-0.000676	0.204277	0.204441
1718	0.202633	0.198689	-1.9e-05	0.204113	0.201483
1719	0.201154	0.199346	0.000967	0.202962	0.202305
1720	0.200004	0.196717	0.000967	0.200004	0.202469
1721	0.199839	0.203784	0.000803	0.204277	0.204441
1722	0.198524	0.199675	0.002447	0.199346	0.204113
1723	0.196223	0.197703	-0.000183	0.201647	0.203126
1724	0.202305	0.200661	-0.000347	0.19836	0.197867
1725	0.200332	0.203948	0.000803	0.201154	0.198853
1726	0.201319	0.200497	-0.001169	0.197538	0.200497
1727	0.201647	0.198853	0.002118	0.199839	0.20099
1728	0.199346	0.199346	-1.9e-05	0.201812	0.202798
1729	0.20214	0.197538	0.001296	0.201647	0.200332
1730	0.201154	0.200168	0.000146	0.197867	0.20362
1731	0.054548	0.197703	0.001296	0.201812	0.198689
1732	0.032688	0.202633	0.001132	0.206249	0.203291
1733	0.040084	0.199346	-0.000347	0.202962	0.200825
1734	0.04896	0.199675	-0.000676	0.20099	0.203784
1735	0.056027	0.195566	-0.000183	0.203126	0.202305
1736	0.054712	0.200825	0.000146	0.201483	0.199839
1737	0.056684	0.194416	0.000639	0.199839	0.20099
1738	0.025128	0.201319	0.000474	0.200332	0.201483
1739	0.029566	0.200497	0.000803	0.201154	0.202962
1740	0.03992	0.199511	0.001296	0.201319	0.201154
1741	0.046987	0.201319	0.000146	0.200004	0.204113
1742	0.051754	0.199018	0.001954	0.20214	0.203455
1743	0.054876	0.201483	0.003761	0.201976	0.204113
1744	0.061944	0.201976	0.003104	0.198689	0.202962
1745	0.066546	0.196552	0.000474	0.199018	0.201319
1746	0.0769	0.202469	0.002611	0.199018	0.198031
1747	0.080023	0.201812	0.001296	0.200661	0.20099
1748	0.08331	0.199675	0.000639	0.200004	0.200004
1749	0.087419	0.201319	0.001296	0.201647	0.198853
1750	0.095473	0.19836	0.000803	0.201976	0.20214
1751	0.095966	0.199675	-0.001169	0.198853	0.201976
1752	0.103197	0.197374	0.001296	0.197703	0.202305
1753	0.103855	0.200661	0.001789	0.202962	0.203455
1754	0.109114	0.201812	-0.000347	0.202305	0.204113
1755	0.11273	0.197374	0.002118	0.200661	0.201483
1756	0.117003	0.200497	-0.000676	0.200825	0.201976
1757	0.119797	0.199346	0.001954	0.195402	0.200661
1758	0.118318	0.20099	0.001296	0.198853	0.19836
1759	0.126536	0.200168	0.001954	0.198853	0.198031
1760	0.12555	0.198853	0.002611	0.198031	0.199511
1761	0.130645	0.200004	0.005734	0.199182	0.197045
1762	0.13459	0.200497	0.008528	0.193594	0.200661
1763	0.138534	0.199346	0.018554	0.19836	0.199182
1764	0.137877	0.20214	0.022827	0.201647	0.201812
1765	0.141	0.20099	0.028744	0.19721	0.201647
1766	0.142807	0.202469	0.035811	0.199839	0.201154
1767	0.145437	0.19458	0.044851	0.199839	0.202798
1768	0.147409	0.198689	0.050439	0.197867	0.202962
1769	0.149875	0.199675	0.05389	0.196717	0.200332
1770	0.151025	0.19573	0.061122	0.199018	0.203784
1771	0.155956	0.19836	0.066053	0.194909	0.202798
1772	0.155299	0.202633	0.073613	0.191293	0.205921
1773	0.154148	0.200168	0.074764	0.186855	0.204277
1774	0.163845	0.200168	0.084132	0.189814	0.202305
1775	0.160722	0.200497	0.087255	0.185705	0.199675
1776	0.163681	0.198196	0.092679	0.188499	0.198853
1777	0.164338	0.20099	0.095144	0.187184	0.202798
1778	0.166311	0.197867	0.103855	0.184718	0.199839
1779	0.164831	0.199346	0.107306	0.185869	0.201647
1780	0.168612	0.202798	0.109936	0.190471	0.199182
1781	0.169269	0.198853	0.113716	0.188334	0.200168
1782	0.170748	0.197374	0.115195	0.186691	0.200661
1783	0.176172	0.199018	0.117003	0.189649	0.201319
1784	0.17157	0.199675	0.118154	0.189814	0.201812
1785	0.175021	0.196717	0.125057	0.19195	0.203291
1786	0.175021	0.196881	0.1267	0.190635	0.202305
1787	0.178637	0.200168	0.131138	0.193594	0.201483
1788	0.173871	0.199675	0.130809	0.190471	0.202798
1789	0.17798	0.20099	0.137877	0.19458	0.201812
1790	0.178144	0.200004	0.136398	0.193429	0.203455
1791	0.180116	0.20477	0.140342	0.197374	0.201319
1792	0.182089	0.200661	0.14478	0.193429	0.200004
1793	0.182746	0.19721	0.150697	0.192115	0.202633
1794	0.182253	0.20214	0.15234	0.192772	0.203126
1795	0.182417	0.200168	0.150697	0.193429	0.197703
1796	0.182582	0.20099	0.153819	0.194087	0.201976
1797	0.182582	0.197045	0.153819	0.193758	0.199675
1798	0.18554	0.197867	0.156778	0.194251	0.201976
1799	0.184718	0.198689	0.156449	0.192772	0.20099
1800	0.185869	0.198853	0.160887	0.197045	0.201319
1801	0.184225	0.199018	0.160229	0.197538	0.20099
1802	0.184883	0.201976	0.164338	0.19721	0.202633
1803	0.188006	0.198524	0.165653	0.197045	0.203291
1804	0.190142	0.198196	0.165817	0.196717	0.20099
1805	0.188663	0.200332	0.165489	0.196717	0.204606
1806	0.189156	0.200332	0.168447	0.198031	0.196881
1807	0.18817	0.200497	0.16779	0.19573	0.201647
1808	0.191293	0.199018	0.171077	0.194909	0.199018
1809	0.185869	0.201647	0.174857	0.198689	0.200004
1810	0.188663	0.19573	0.173049	0.193594	0.199511
1811	0.18932	0.206249	0.173542	0.194416	0.201976
1812	0.191786	0.199675	0.179459	0.193758	0.20099
1813	0.188663	0.201812	0.17157	0.19836	0.201319
1814	0.191457	0.19573	0.17535	0.196388	0.198689
1815	0.191621	0.198196	0.178966	0.198196	0.200497
1816	0.1908	0.197538	0.173049	0.195237	0.201154
1817	0.190964	0.196552	0.180938	0.192115	0.199346
1818	0.192936	0.197703	0.179623	0.194087	0.20214
1819	0.192279	0.195566	0.182582	0.196717	0.201647
1820	0.192772	0.197045	0.181267	0.195566	0.203948
1821	0.192279	0.196388	0.180116	0.197374	0.201483
1822	0.193429	0.201319	0.182417	0.19836	0.203455
1823	0.192279	0.199511	0.182746	0.199346	0.194744
1824	0.192115	0.205756	0.183404	0.198689	0.198853
1825	0.199675	0.198031	0.185212	0.201319	0.198689
1826	0.194744	0.198196	0.187677	0.200661	0.199018
1827	0.196552	0.196881	0.184225	0.203291	0.201319
1828	0.196059	0.20099	0.186526	0.203291	0.200497
1829	0.19573	0.200168	0.187184	0.199346	0.200497
1830	0.193922	0.199018	0.188499	0.199839	0.20099
1831	0.195402	0.200825	0.187841	0.200497	0.200004
1832	0.19195	0.200332	0.188334	0.198031	0.200661
1833	0.196059	0.201154	0.188663	0.19573	0.203455
1834	0.172556	0.199018	0.187019	0.201154	0.199018
1835	0.170748	0.199839	0.186855	0.197703	0.202469
1836	0.176994	0.199018	0.192443	0.19721	0.200004
1837	0.174693	0.197867	0.189814	0.198031	0.200168
1838	0.176336	0.196388	0.192115	0.200661	0.200004
1839	0.17798	0.197703	0.1908	0.199018	0.202633
1840	0.179295	0.186362	0.190471	0.200661	0.196881
1841	0.176172	0.182253	0.192279	0.200168	0.200168
1842	0.181103	0.171406	0.191621	0.199346	0.201647
1843	0.184554	0.160722	0.194087	0.201154	0.207235
1844	0.182417	0.149217	0.196059	0.198853	0.203126
1845	0.18176	0.149217	0.193594	0.199675	0.201647
1846	0.181431	0.143958	0.190964	0.198524	0.199346
1847	0.184554	0.141986	0.193758	0.200825	0.202633
1848	0.183404	0.143136	0.193101	0.19836	0.19836
1849	0.18439	0.125221	0.195237	0.200825	0.200332
1850	0.185376	0.116675	0.193429	0.197867	0.200332
1851	0.187513	0.087912	0.195402	0.200825	0.200825
1852	0.183732	0.061122	0.193922	0.198853	0.204441
1853	0.188992	0.043865	0.196717	0.200332	0.200168
1854	0.187513	0.035811	0.196717	0.200004	0.201647
1855	0.188663	0.033674	0.195402	0.20099	0.202305
1856	0.187513	0.041892	0.195073	0.199675	0.19836
1857	0.185376	0.031538	0.193429	0.197867	0.197538
1858	0.190964	0.031209	0.194416	0.196881	0.203291
1859	0.18932	0.031867	0.196388	0.194909	0.197703
1860	0.193265	0.017567	0.195895	0.201154	0.202962
1861	0.190471	0.012637	0.194251	0.198031	0.198524
1862	0.19195	0.016253	0.199675	0.199346	0.200497
1863	0.192279	0.016088	0.191786	0.198853	0.202798
1864	0.189814	0.018061	0.196059	0.201976	0.201319
1865	0.191457	0.018554	0.193758	0.198031	0.202962
1866	0.191293	0.017896	0.194251	0.201812	0.201319
1867	0.191786	0.013623	0.199675	0.197703	0.201154
1868	0.192936	0.008035	0.19721	0.200497	0.200661
1869	0.192772	0.02332	0.190471	0.199346	0.203784
1870	0.19458	0.022498	0.202798	0.199018	0.20214
1871	0.192443	0.031045	0.193922	0.200168	0.203784
1872	0.193594	0.031209	0.195566	0.201154	0.200168
1873	0.191786	0.035811	0.197703	0.201483	0.203291
1874	0.194087	0.040742	0.197374	0.200332	0.199511
1875	0.197045	0.045508	0.198524	0.201154	0.204113
1876	0.196552	0.047316	0.197045	0.19836	0.200004
1877	0.192443	0.051589	0.199018	0.196388	0.200825
1878	0.196552	0.034003	0.196388	0.199018	0.201976
1879	0.197374	0.014938	0.200332	0.202469	0.201647
1880	0.194909	0.018225	0.19721	0.197045	0.201976
1881	0.196059	0.00672	0.200332	0.20099	0.200497
1882	0.194416	0.00672	0.200168	0.20099	0.201812
1883	0.194909	0.006227	0.199511	0.200168	0.199511
1884	0.190964	0.010664	0.193429	0.201319	0.202633
1885	0.192936	0.00935	0.197867	0.200661	0.201976
1886	0.19195	0.013787	0.197374	0.199511	0.201812
1887	0.194416	0.014116	0.197374	0.199675	0.200004
1888	0.193758	0.018554	0.200497	0.199839	0.20099
1889	0.196552	0.014445	0.198689	0.200332	0.200004
1890	0.197045	0.002775	0.196881	0.199839	0.201812
1891	0.199675	0.008528	0.200497	0.200332	0.201647
1892	0.198524	0.005898	0.200497	0.200004	0.205756
1893	0.200004	0.002447	0.199346	0.197538	0.199675
1894	0.198031	0.003104	0.197374	0.202798	0.198524
1895	0.196717	0.004255	0.192936	0.199346	0.201319
1896	0.195566	0.00672	0.19721	0.201483	0.200825
1897	0.196059	0.012472	0.197374	0.199675	0.201319
1898	0.200661	0.010664	0.19573	0.200497	0.202633
1899	0.198196	0.015595	0.200332	0.201154	0.202469
1900	0.199018	0.00409	0.197867	0.198853	0.200661
1901	0.197703	0.003268	0.199346	0.199346	0.201154
1902	0.199675	-0.001334	0.200168	0.20099	0.200825
1903	0.196552	0.005076	0.199675	0.199346	0.201976
1904	0.199346	0.000803	0.198524	0.199839	0.198853
1905	0.196223	0.002447	0.201647	0.199675	0.198196
1906	0.195895	0.003926	0.201319	0.199018	0.200825
1907	0.194909	0.000967	0.199675	0.207564	0.201483
1908	0.198196	0.002775	0.195566	0.200168	0.200004
1909	0.199346	0.00672	0.199346	0.200332	0.201812
1910	0.199346	0.005076	0.199182	0.199346	0.200825
1911	0.200661	-0.000841	0.199346	0.199182	0.199182
1912	0.198031	-0.001991	0.19836	0.19721	0.200661
1913	0.202633	0.004255	0.197538	0.201483	0.201154
1914	0.197045	0.003597	0.196388	0.200661	0.200825
1915	0.202469	0.00935	0.198853	0.204441	0.201319
1916	0.201154	0.006556	0.198196	0.201319	0.200168
1917	0.199839	0.005734	0.196388	0.200332	0.201319
1918	0.197703	0.004419	0.197703	0.201319	0.204606
1919	0.199018	0.004419	0.200661	0.200497	0.200004
1920	0.19836	0.010336	0.198524	0.204277	0.199018
1921	0.197374	0.01313	0.199675	0.200497	0.199675
1922	0.199346	0.006884	0.19836	0.201483	0.201647
1923	0.19721	0.003597	0.198853	0.196552	0.201154
1924	0.196059	0.007213	0.203291	0.201976	0.202469
1925	0.198196	0.002282	0.197703	0.197045	0.202798
1926	0.199839	0.002775	0.200661	0.201319	0.203455
1927	0.198853	0.007542	0.198853	0.20362	0.201154
1928	0.20099	0.00935	0.20099	0.20099	0.200825
1929	0.19721	0.021348	0.197867	0.20099	0.201647
1930	0.201319	0.013459	0.200332	0.207235	0.200168
1931	0.201976	0.000803	0.199511	0.200825	0.204606
1932	0.197538	0.004255	0.200004	0.202469	0.20214
1933	0.198196	0.008857	0.201647	0.202469	0.201976
1934	0.196223	0.013623	0.201647	0.201647	0.20099
1935	0.197703	0.021183	0.199018	0.201976	0.203126
1936	0.197374	0.025457	0.198031	0.201319	0.199018
1937	0.198524	0.029894	0.200332	0.201319	0.201976
1938	0.197538	0.031373	0.201976	0.199675	0.197374
1939	0.200661	0.034168	0.198524	0.199839	0.200497
1940	0.199675	0.023977	0.198524	0.19836	0.20362
1941	0.199346	0.028251	0.194251	0.201483	0.202962
1942	0.200168	0.008692	0.184061	0.198853	0.202469
1943	0.202962	0.004583	0.183568	0.199182	0.201976
1944	0.200168	0.010993	0.181431	0.196388	0.20099
1945	0.199346	0.000474	0.174035	0.200825	0.203455
1946	0.200168	0.002611	0.16894	0.202305	0.203126
1947	0.201319	0.001789	0.172227	0.202633	0.203126
1948	0.198689	0.007213	0.168447	0.201483	0.204277
1949	0.201812	0.00294	0.16779	0.201319	0.197374
1950	0.200332	0.003433	0.168612	0.203126	0.203291
1951	0.200825	0.010336	0.167132	0.201154	0.200497
1952	0.198689	0.001789	0.172556	0.202633	0.201319
1953	0.201154	0.002611	0.171406	0.199346	0.200004
1954	0.198689	0.002447	0.174364	0.199511	0.198196
1955	0.198853	0.000146	0.17535	0.199675	0.202962
1956	0.201483	0.004255	0.18176	0.194251	0.196388
1957	0.202305	0.000803	0.179952	0.193594	0.198853
1958	0.201647	0.006884	0.180774	0.200332	0.199018
1959	0.19836	0.001625	0.178802	0.197703	0.201154
1960	0.20099	0.001954	0.180938	0.199182	0.198689
1961	0.199018	0.004419	0.182746	0.200661	0.19836
1962	0.199018	0.008199	0.180938	0.201483	0.199675
1963	0.199018	0.017732	0.181267	0.20214	0.20362
1964	0.199346	-0.004292	0.180774	0.203291	0.201319
1965	0.19836	0.001132	0.183732	0.200168	0.20362
1966	0.201483	0.000967	0.181431	0.202633	0.200825
1967	0.200332	0.005405	0.182089	0.202798	0.202798
1968	0.202633	0.002775	0.181103	0.200168	0.202305
1969	0.19836	0.009843	0.189485	0.20362	0.205099
1970	0.201154	0.013459	0.187019	0.199182	0.201812
1971	0.199511	0.020362	0.187348	0.202305	0.19836
1972	0.201647	0.021019	0.188663	0.199182	0.202469
1973	0.160558	0.009021	0.186855	0.198689	0.197867
1974	0.117332	0.008199	0.188334	0.199675	0.203784
1975	0.12292	0.008363	0.190471	0.201647	0.202469
1976	0.123578	0.013623	0.190471	0.201483	0.20099
1977	0.12933	0.004912	0.192443	0.199675	0.201976
1978	0.129823	0.004583	0.194744	0.196388	0.201483
1979	0.133932	0.006227	0.190307	0.201154	0.200004
1980	0.137712	0.006227	0.191128	0.198524	0.203291
1981	0.141657	-0.0061	0.190964	0.200661	0.198689
1982	0.142479	-0.000347	0.191786	0.202469	0.203291
1983	0.145602	0.002118	0.192279	0.201154	0.201812
1984	0.145437	0.001625	0.19721	0.203291	0.202633
1985	0.152176	0.003761	0.190471	0.200825	0.201812
1986	0.153655	0.00787	0.195073	0.201647	0.200004
1987	0.15497	0.00294	0.19458	0.201154	0.201647
1988	0.156613	-0.000347	0.19458	0.201319	0.201154
1989	0.155792	0.004255	0.192772	0.200332	0.202305
1990	0.160722	0.003104	0.193101	0.199675	0.199018
1991	0.16138	0.003268	0.195073	0.19836	0.197538
1992	0.160722	0.001789	0.19721	0.201319	0.197867
1993	0.166475	0.000803	0.196059	0.199511	0.200825
1994	0.166804	0.000967	0.196552	0.199182	0.202633
1995	0.165817	0.003926	0.196881	0.20099	0.201812
1996	0.168447	0.000803	0.19721	0.201483	0.200661
1997	0.167954	0.00294	0.199346	0.201647	0.202798
1998	0.171241	-0.001005	0.195566	0.201647	0.201319
1999	0.172227	0.000803	0.196717	0.201319	0.200825
2000	0.174364	0.00031	0.195237	0.200004	0.20099
2001	0.174693	0.000474	0.196059	0.203126	0.201647
2002	0.175843	-0.000347	0.193758	0.199346	0.201647
2003	0.17913	0.000967	0.194909	0.202962	0.200825
2004	0.17798	0.000967	0.195073	0.199675	0.20362
2005	0.182417	0.000639	0.196059	0.199839	0.198689
2006	0.17913	0.00031	0.200825	0.205921	0.200004
2007	0.180774	0.000803	0.196552	0.196059	0.20099
2008	0.179623	-0.000512	0.197538	0.194087	0.199675
2009	0.182089	-0.000183	0.200332	0.199675	0.198689
2010	0.179952	-0.000512	0.198031	0.195566	0.200332
2011	0.182746	-0.000512	0.197374	0.196717	0.194909
2012	0.183239	-0.000512	0.198524	0.200661	0.203455
2013	0.185376	0.000146	0.196388	0.199675	0.201647
2014	0.183239	0.000146	0.195566	0.202633	0.202798
2015	0.184061	0.000474	0.192936	0.200497	0.201976
2016	0.186855	0.00031	0.197045	0.201812	0.202962
2017	0.184718	0.00031	0.198524	0.202798	0.200825
2018	0.188334	0.00031	0.200661	0.198689	0.201319
2019	0.187348	-1.9e-05	0.197703	0.201319	0.200497
2020	0.188499	-0.000183	0.200004	0.204277	0.202962
2021	0.187184	-0.000512	0.198196	0.201154	0.20099
2022	0.1908	-0.000347	0.199675	0.202633	0.200168
2023	0.189485	-0.000183	0.196059	0.201319	0.199018
2024	0.19573	0.000146	0.198689	0.203455	0.196552
2025	0.191128	0.000146	0.199346	0.20477	0.200332
2026	0.191457	0.000146	0.198196	0.200825	0.199675
2027	0.190635	0.00031	0.199182	0.202305	0.202633
2028	0.194416	0.00031	0.198031	0.204113	0.19721
2029	0.189156	0.000146	0.200332	0.205427	0.198853
2030	0.191786	-0.000347	0.197703	0.199018	0.202798
2031	0.191128	-0.000183	0.20099	0.203455	0.20362
2032	0.19195	-0.000512	0.197867	0.201647	0.200497
2033	0.194251	-0.000676	0.197538	0.200004	0.20099
2034	0.192936	-0.000512	0.19721	0.201812	0.200004
2035	0.192443	-1.9e-05	0.205427	0.200004	0.200661
2036	0.199346	0.00031	0.197374	0.202305	0.200497
2037	0.197703	0.00031	0.199018	0.203455	0.199839
2038	0.193265	0.000639	0.181596	0.200332	0.201976
2039	0.193429	0.00031	0.168118	0.203126	0.197374
2040	0.191293	0.000146	0.156285	0.201812	0.19836
2041	0.197703	-0.000347	0.100239	0.200168	0.197703
2042	0.192443	-0.000512	0.014445	0.199511	0.201647
2043	0.196223	-0.000347	0.005241	0.199839	0.19573
2044	0.194416	-0.000676	0.002611	0.200168	0.197538
2045	0.196552	-0.000841	0.001296	0.200332	0.195895
2046	0.197045	0.00031	0.002118	0.200497	0.199839
2047	0.193758	-0.000512	-0.001169	0.199182	0.198689
2048	0.19836	0.000639	0.000146	0.203291	0.198689
2049	0.194416	-0.000183	0.000639	0.200168	0.200825
2050	0.198196	0.002447	0.00031	0.200332	0.200825
2051	0.196552	0.000967	0.000639	0.20099	0.201319
2052	0.196552	0.002775	0.000146	0.201483	0.200332
2053	0.197374	0.001132	-0.000347	0.20099	0.202962
2054	0.199675	0.002118	-0.000347	0.201812	0.198689
2055	0.197538	0.00146	-0.000347	0.199182	0.120784
2056	0.197374	0.001296	-0.000512	0.200004	0.100403
2057	0.19573	0.003597	-0.000347	0.203948	0.106978
2058	0.198524	0.000803	-1.9e-05	0.19721	0.107635
2059	0.197374	0.005898	0.000474	0.201647	0.111908
2060	0.19836	0.003926	0.000474	0.199346	0.117661
2061	0.196881	0.008857	0.00031	0.199182	0.121934
2062	0.199182	0.007542	0.000474	0.200332	0.122427
2063	0.196223	0.011486	0.00031	0.200168	0.126865
2064	0.198196	0.013623	-0.000347	0.200168	0.130481
2065	0.198524	0.018882	-0.000183	0.201319	0.130974
2066	0.195402	0.022663	-0.000347	0.19836	0.139192
2067	0.198689	0.031538	-0.000347	0.196388	0.139685
2068	0.19721	0.035318	-0.001827	0.20099	0.141493
2069	0.198853	0.03992	0.006884	0.20099	0.141164
2070	0.198689	0.049617	0.011651	0.200825	0.147409
2071	0.199346	0.057835	0.015102	0.203126	0.148067
2072	0.197538	0.064738	0.020855	0.20099	0.151683
2073	0.196881	0.068518	0.027593	0.202633	0.15119
2074	0.196059	0.078708	0.032524	0.20214	0.15119
2075	0.200168	0.073449	0.040084	0.198853	0.155134
2076	0.200497	0.089556	0.048302	0.200497	0.157271
2077	0.197703	0.08972	0.052575	0.199675	0.157107
2078	0.20099	0.093829	0.058821	0.199839	0.160394
2079	0.199511	0.097938	0.064738	0.196223	0.16138
2080	0.198196	0.100075	0.071148	0.204934	0.162202
2081	0.199511	0.104019	0.075257	0.196717	0.164503
2082	0.196223	0.108128	0.081502	0.198689	0.166804
2083	0.195237	0.111908	0.085776	0.197374	0.171734
2084	0.200168	0.116839	0.091199	0.20099	0.170091
2085	0.197045	0.119797	0.090049	0.200168	0.17272
2086	0.201483	0.122263	0.097609	0.202305	0.170748
2087	0.196552	0.128673	0.097609	0.202305	0.176994
2088	0.19458	0.127358	0.095801	0.199675	0.172227
2089	0.195402	0.133439	0.08216	0.203126	0.176665
2090	0.200332	0.131631	-0.001827	0.200497	0.173707
2091	0.199018	0.136891	0.00031	0.202305	0.17913
2092	0.196881	0.14215	-0.001334	0.20099	0.178144
2093	0.199839	0.143465	0.000639	0.202469	0.179623
2094	0.197538	0.148396	0.00031	0.200332	0.180281
2095	0.202469	0.147081	0.000639	0.201812	0.181431
2096	0.199182	0.150532	0.00031	0.200497	0.183897
2097	0.198524	0.149546	-0.000347	0.200825	0.183897
2098	0.198524	0.153819	-0.000183	0.197703	0.183404
2099	0.198853	0.155134	-0.000347	0.20099	0.182253
2100	0.199675	0.157107	-0.000512	0.197538	0.185212
2101	0.202633	0.153819	-0.000183	0.198524	0.183404
2102	0.198524	0.15875	-0.000183	0.200497	0.184718
2103	0.20099	0.160558	0.00031	0.20099	0.186198
2104	0.199182	0.163352	0.000474	0.204277	0.187677
2105	0.202633	0.161051	0.000474	0.200661	0.187677
2106	0.200661	0.165982	0.000474	0.198524	0.188499
2107	0.204113	0.168283	0.000146	0.199511	0.187841
2108	0.200497	0.167625	-0.000183	0.20477	0.191786
2109	0.201812	0.171077	-0.000183	0.198689	0.187019
2110	0.201154	0.172885	-0.000512	0.201976	0.185047
2111	0.200497	0.173542	-0.000347	0.200825	0.187184
2112	0.201154	0.173542	-0.000512	0.202305	0.189485
2113	0.200332	0.174857	-0.000183	0.202469	0.18932
2114	0.201647	0.174693	-1.9e-05	0.200332	0.189156
2115	0.20099	0.177487	0.00031	0.19836	0.194744
2116	0.201319	0.17798	0.000146	0.201812	0.188499
2117	0.195566	0.177487	0.00031	0.201812	0.194909
2118	0.198524	0.178144	0.000474	0.199346	0.196059
2119	0.199018	0.181924	-1.9e-05	0.200168	0.195073
2120	0.198196	0.175679	-0.000512	0.199675	0.190964
2121	0.198031	0.177487	-0.000347	0.202469	0.194744
2122	0.200661	0.182253	-0.000347	0.199346	0.193101
2123	0.201976	0.181103	-0.000347	0.203291	0.193758
2124	0.200661	0.180445	-0.000183	0.200332	0.194744
2125	0.196059	0.182253	0.000146	0.197703	0.193594
2126	0.199346	0.185869	0.000146	0.200825	0.196059
2127	0.199018	0.185869	0.000146	0.203455	0.194087
2128	0.198031	0.184883	0.000474	0.200825	0.194744
2129	0.19836	0.188663	0.00031	0.200661	0.195073
2130	0.197867	0.186362	-1.9e-05	0.202798	0.196552
2131	0.132946	0.18932	-1.9e-05	0.202305	0.193594
2132	0.130152	0.186855	-0.000512	0.200168	0.197045
2133	0.135411	0.187184	0.001789	0.201812	0.194416
2134	0.133932	0.190307	0.0105	0.199675	0.197867
2135	0.138699	0.188499	0.009514	0.201319	0.195402
2136	0.142643	0.189978	0.011322	0.20099	0.195895
2137	0.143465	0.18932	0.00672	0.201154	0.198031
2138	0.141493	0.190142	0.015924	0.201154	0.198689
2139	0.149053	0.187841	0.022334	0.203126	0.198853
2140	0.152833	0.187019	0.030223	0.200661	0.201319
2141	0.153655	0.191128	0.036469	0.199182	0.199839
2142	0.155134	0.191786	0.045015	0.202469	0.200004
2143	0.157271	0.189649	0.046823	0.201154	0.19573
2144	0.161051	0.193594	0.054548	0.200661	0.197703
2145	0.16401	0.193101	0.0603	0.204277	0.200661
2146	0.16516	0.192443	0.061615	0.201154	0.197374
2147	0.163681	0.195566	0.073449	0.202633	0.195895
2148	0.169433	0.193594	0.071805	0.200825	0.196388
2149	0.166475	0.193594	0.078544	0.201319	0.19836
2150	0.168776	0.189814	0.084954	0.202469	0.197045
2151	0.167461	0.197703	0.08972	0.199839	0.199018
2152	0.170748	0.194744	0.096623	0.198853	0.199346
2153	0.169926	0.194087	0.103855	0.197374	0.197867
2154	0.173707	0.194744	0.103197	0.197867	0.199018
2155	0.176829	0.197374	0.105992	0.201154	0.199675
2156	0.174364	0.194087	0.112237	0.198853	0.198524
2157	0.17798	0.194744	0.114867	0.199346	0.199018
2158	0.177651	0.193101	0.114209	0.196552	0.199839
2159	0.179788	0.195237	0.122756	0.20362	0.199182
2160	0.178144	0.197538	0.121441	0.200661	0.198196
2161	0.180445	0.194087	0.12818	0.204113	0.19721
2162	0.181924	0.197703	0.127851	0.200168	0.201319
2163	0.183075	0.196881	0.129988	0.199675	0.200825
2164	0.182582	0.197538	0.139192	0.202962	0.200661
2165	0.184225	0.195073	0.134425	0.200661	0.197374
2166	0.184554	0.199511	0.140013	0.20099	0.198196
2167	0.185212	0.195237	0.141986	0.200004	0.196388
2168	0.184718	0.194416	0.146095	0.201483	0.199346
2169	0.18554	0.194744	0.149053	0.200661	0.199018
2170	0.184554	0.197703	0.152833	0.202305	0.200332
2171	0.184883	0.195073	0.151025	0.197374	0.200825
2172	0.186033	0.193594	0.1576	0.203126	0.200661
2173	0.187348	0.196223	0.154641	0.199675	0.202305
2174	0.189814	0.196388	0.160722	0.197867	0.202798
2175	0.192608	0.19573	0.160229	0.202469	0.198524
2176	0.189978	0.196388	0.159736	0.203455	0.200825
2177	0.188006	0.200168	0.164667	0.200661	0.201647
2178	0.195237	0.196717	0.164831	0.201647	0.200004
2179	0.191457	0.19836	0.164174	0.206907	0.200497
2180	0.192443	0.197703	0.166146	0.201976	0.199839
2181	0.1908	0.199839	0.167954	0.202305	0.202962
2182	0.191457	0.196717	0.168283	0.201483	0.200497
2183	0.190142	0.198689	0.171077	0.201647	0.20099
2184	0.18932	0.196881	0.169926	0.198689	0.200825
2185	0.192279	0.202305	0.172885	0.200004	0.200168
2186	0.191457	0.200332	0.175843	0.200004	0.19836
2187	0.187019	0.197867	0.178309	0.201812	0.199839
2188	0.193101	0.197045	0.175515	0.198524	0.199511
2189	0.194087	0.19836	0.18061	0.202469	0.200332
2190	0.191786	0.199675	0.178309	0.199018	0.206907
2191	0.199346	0.198853	0.178309	0.200332	0.200825
2192	0.194087	0.196881	0.180938	0.19573	0.202469
2193	0.19573	0.199346	0.179952	0.201154	0.202305
2194	0.195566	0.200497	0.182089	0.199182	0.200168
2195	0.196717	0.200168	0.18061	0.200332	0.199839
2196	0.196881	0.200661	0.183404	0.20214	0.201154
2197	0.198031	0.199018	0.185376	0.199839	0.197374
2198	0.195237	0.199675	0.182911	0.202962	0.200825
2199	0.199675	0.200332	0.179788	0.200332	0.200332
2200	0.199839	0.199018	0.188499	0.201154	0.201647
2201	0.200825	0.197703	0.186526	0.20214	0.200825
2202	0.199018	0.199018	0.187513	0.206578	0.199346
2203	0.200004	0.198853	0.188006	0.201154	0.201154
2204	0.194251	0.196059	0.188992	0.199018	0.200332
2205	0.191786	0.19721	0.186198	0.198689	0.200004
2206	0.192443	0.199346	0.187184	0.200004	0.198031
2207	0.191128	0.201812	0.188827	0.196388	0.201812
2208	0.195073	0.198196	0.190307	0.196881	0.198031
2209	0.191786	0.200332	0.191621	0.199839	0.198689
2210	0.194744	0.198196	0.188334	0.198031	0.200825
2211	0.195895	0.199346	0.191128	0.196059	0.201319
2212	0.195402	0.19836	0.187841	0.202305	0.202798
2213	0.195895	0.199675	0.187348	0.201647	0.201647
2214	0.198853	0.196717	0.185869	0.202962	0.200497
2215	0.19458	0.197703	0.193594	0.201812	0.203126
2216	0.196552	0.194909	0.1908	0.200497	0.202305
2217	0.196223	0.199839	0.192608	0.201976	0.199839
2218	0.196223	0.198853	0.191786	0.199182	0.201154
2219	0.198031	0.19573	0.193429	0.202469	0.199182
2220	0.195402	0.19721	0.192772	0.200332	0.198031
2221	0.196552	0.201154	0.197374	0.200825	0.197867
2222	0.19721	0.20099	0.19721	0.198031	0.202305
2223	0.197538	0.198853	0.194087	0.200332	0.200825
2224	0.195566	0.199839	0.194251	0.201976	0.205099
2225	0.199675	0.197538	0.194087	0.203784	0.200825
2226	0.195073	0.199018	0.198689	0.201812	0.203784
2227	0.196388	0.196388	0.19195	0.205099	0.20099
2228	0.200825	0.20099	0.195402	0.204113	0.202962
2229	0.200004	0.197867	0.19836	0.200332	0.202633
2230	0.199018	0.197867	0.19721	0.198689	0.204277
2231	0.198031	0.198689	0.195895	0.196223	0.201154
2232	0.199182	0.198689	0.197045	0.201812	0.20362
2233	0.199182	0.199018	0.200332	0.195073	0.201319
2234	0.199346	0.200497	0.196059	0.204934	0.201647
2235	0.196059	0.199346	0.193429	0.201976	0.202962
2236	0.200497	0.200661	0.19721	0.200661	0.202469
2237	0.195073	0.20099	0.198196	0.201483	0.201154
2238	0.195566	0.19836	0.196223	0.201976	0.200497
2239	0.192772	0.200825	0.197867	0.201154	0.203784
2240	0.023649	0.199675	0.200332	0.198689	0.205263
2241	-0.002813	0.201319	0.198196	0.19836	0.201647
2242	0.008692	0.20214	0.200332	0.198031	0.200332
2243	0.018554	0.202633	0.199346	0.198524	0.201812
2244	0.022334	0.198853	0.204277	0.197045	0.200332
2245	0.03236	0.201976	0.198031	0.201812	0.202962
2246	0.039263	0.197374	0.197538	0.200332	0.201647
2247	0.048302	0.198689	0.199018	0.200004	0.205099
2248	0.050603	0.19836	0.19721	0.196552	0.206907
2249	0.054219	0.197538	0.196881	0.205263	0.205756
2250	0.062108	0.199346	0.194416	0.19836	0.202633
2251	0.067696	0.200825	0.194251	0.202469	0.204277
2252	0.072298	0.198689	0.195895	0.20099	0.202469
2253	0.080187	0.198853	0.196223	0.201154	0.20099
2254	0.083639	0.201483	0.19573	0.202469	0.200168
2255	0.091199	0.19721	0.203291	0.199511	0.199018
2256	0.089885	0.199511	0.197045	0.200825	0.197703
2257	0.099089	0.198524	0.200661	0.200825	0.195895
2258	0.101718	0.199675	0.199839	0.196223	0.201812
2259	0.103855	0.197374	0.198689	0.195073	0.201154
2260	0.107306	0.199346	0.199675	0.19836	0.200168
2261	0.112401	0.198689	0.195895	0.19721	0.199839
2262	0.117003	0.198853	0.20099	0.197538	0.20477
2263	0.120291	0.195237	0.19836	0.199675	0.202469
2264	0.124893	0.199018	0.198196	0.202633	0.204113
2265	0.125879	0.199018	0.197703	0.203291	0.204934
2266	0.130645	0.19721	0.206249	0.200332	0.206414
2267	0.131631	0.198524	0.198524	0.199511	0.205099
2268	0.13574	0.196223	0.197703	0.202798	0.201319
2269	0.134097	0.201976	0.197538	0.203455	0.205592
2270	0.139685	0.198031	0.197538	0.202305	0.203455
2271	0.141986	0.200332	0.200825	0.20362	0.204441
2272	0.144944	0.204113	0.193429	0.200168	0.202469
2273	0.147738	0.200168	0.203126	0.201154	0.204441
2274	0.14856	0.200497	0.198524	0.203291	0.201812
2275	0.148067	0.20362	0.203291	0.202962	0.204113
2276	0.153655	0.201154	0.202469	0.200661	0.200168
2277	0.155792	0.199511	0.19573	0.202798	0.202305
2278	0.155299	0.19721	0.200004	0.199346	0.201812
2279	0.156942	0.199839	0.198031	0.201976	0.201319
2280	0.156778	0.197045	0.197538	0.198031	0.204113
2281	0.159243	0.199018	0.200497	0.204113	0.202469
2282	0.15612	0.197045	0.198689	0.204113	0.202798
2283	0.162695	0.198853	0.199018	0.201154	0.205592
2284	0.164338	0.200661	0.200661	0.205099	0.203126
2285	0.166311	0.199511	0.199346	0.203455	0.201647
2286	0.165489	0.20099	0.198031	0.20099	0.204934
2287	0.171734	0.20099	0.199839	0.201976	0.202305
2288	0.171734	0.199182	0.190964	0.201976	0.205263
2289	0.173378	0.200497	0.195895	0.204113	0.20362
2290	0.172392	0.198689	0.202305	0.198524	0.203784
2291	0.177815	0.120291	0.197867	0.201812	0.200825
2292	0.173871	0.124399	0.20099	0.201483	0.204113
2293	0.175021	0.122427	0.197703	0.197703	0.200825
2294	0.176172	0.129166	0.199018	0.201154	0.201319
2295	0.177815	0.131138	0.199182	0.198853	0.201483
2296	0.178309	0.13574	0.201319	0.203291	0.200497
2297	0.176665	0.136069	0.200332	0.199675	0.203126
2298	0.185376	0.140506	0.200497	0.199839	0.205263
2299	0.180445	0.143465	0.191293	0.199839	0.201154
2300	0.186526	0.141328	0.197538	0.203291	0.201647
2301	0.190471	0.146752	0.199346	0.200497	0.20362
2302	0.188663	0.14856	0.199018	0.200497	0.201647
2303	0.182746	0.15119	0.199018	0.200825	0.20362
2304	0.189156	0.153162	0.199018	0.20099	0.202305
2305	0.185376	0.156778	0.198853	0.198031	0.204934
2306	0.188827	0.1576	0.199182	0.197374	0.200004
2307	0.002447	0.160887	0.201154	0.201812	0.20099
2308	0.003761	0.160065	0.201647	0.199675	0.200332
2309	0.014445	0.164338	0.199182	0.197538	0.201976
2310	0.020855	0.163188	0.188827	0.197867	0.198196
2311	0.026443	0.163516	0.19721	0.202633	0.199839
2312	0.032031	0.165817	0.200332	0.199182	0.202962
2313	0.043536	0.167461	0.197867	0.200825	0.198196
2314	0.047152	0.167461	0.200004	0.199675	0.205099
2315	0.054548	0.168447	0.198689	0.201483	0.202305
2316	0.058985	0.173378	0.197045	0.200332	0.202798
2317	0.065067	0.167625	0.199839	0.199511	0.206742
2318	0.070983	0.170419	0.200661	0.202798	0.204277
2319	0.078544	0.172227	0.201154	0.201154	0.201812
2320	0.083803	0.171734	0.200332	0.202305	0.203948
2321	0.089391	0.170913	0.192608	0.200004	0.202469
2322	0.088898	0.173707	0.198853	0.208222	0.20362
2323	0.095966	0.17913	0.19836	0.201812	0.203948
2324	0.104512	0.18061	0.200497	0.205263	0.206085
2325	0.086597	0.179459	0.198031	0.201319	0.203948
2326	0.079859	0.183568	0.199675	0.205099	0.202469
2327	0.083639	0.182746	0.198689	0.200661	0.203455
2328	0.090049	0.181267	0.203126	0.200004	0.20362
2329	0.100239	0.183897	0.203455	0.199346	0.20214
2330	0.032688	0.184554	0.199018	0.201154	0.202798
2331	0.011158	0.180116	0.199839	0.201319	0.204441
2332	0.018882	0.183404	0.196388	0.201976	0.202633
2333	0.022498	0.185376	0.199511	0.200497	0.204277
2334	0.031538	0.184061	0.200004	0.201483	0.202798
2335	0.046494	0.186526	0.203455	0.160558	0.206414
2336	0.044686	0.183897	0.196552	0.105663	0.20477
2337	0.051589	0.185212	0.201976	0.081338	0.206907
2338	0.058657	0.187348	0.200497	0.011815	0.201812
2339	0.063752	0.184225	0.200825	0.003926	0.207893
2340	0.071312	0.187019	0.202798	0.00294	0.203126
2341	0.074106	0.189978	0.206414	0.000474	0.202962
2342	0.081338	0.187841	0.202469	0.00031	0.20362
2343	0.086597	0.188827	0.199182	-0.000841	0.203126
2344	0.088898	0.190142	0.200497	0.000146	0.201483
2345	0.09498	0.193101	0.20099	-0.000512	0.201812
2346	0.105992	0.190471	0.200332	-0.000512	0.204277
2347	0.098924	0.1908	0.201319	0.000474	0.199839
2348	0.104677	0.189978	0.199511	0.001132	0.201319
2349	0.108293	0.190142	0.20099	-1.9e-05	0.20099
2350	0.115031	0.192772	0.20362	0.000474	0.204277
2351	0.118154	0.188334	0.199675	0.000146	0.201319
2352	0.113223	0.192443	0.202798	0.000146	0.203126
2353	0.123906	0.189978	0.200168	0.000639	0.20214
2354	0.12933	0.191293	0.201319	-0.000841	0.20477
2355	0.130645	0.191128	0.199018	0.000146	0.203455
2356	0.132617	0.192443	0.199511	0.000146	0.201812
2357	0.136726	0.194087	0.197374	-0.000512	0.203126
2358	0.138041	0.193758	0.200004	0.000146	0.201812
2359	0.13952	0.193265	0.199018	0.001132	0.200825
2360	0.142479	0.193594	0.200332	-1.9e-05	0.202962
2361	0.143465	0.194744	0.209043	0.000146	0.201647
2362	0.147409	0.193758	0.206742	-1.9e-05	0.201647
2363	0.146423	0.194744	0.201647	-0.000512	0.20214
2364	0.152833	0.195566	0.204277	0.000803	0.199018
2365	0.151354	0.194251	0.201154	-0.000676	0.204606
2366	0.156285	0.193922	0.197703	0.000146	0.199511
2367	0.154148	0.197867	0.199346	-1.9e-05	0.201647
2368	0.156942	0.191293	0.197374	-0.000183	0.203455
2369	0.15612	0.194251	0.198031	-0.000347	0.205427
2370	0.161873	0.191457	0.199675	0.003268	0.201976
2371	0.162037	0.194416	0.202798	0.000146	0.209043
2372	0.166146	0.190635	0.201812	0.00031	0.20362
2373	0.165817	0.192936	0.200825	0.000639	0.205592
2374	0.165817	0.19573	0.199839	-1.9e-05	0.203126
2375	0.172556	0.196223	0.201319	0.000474	0.204277
2376	0.16894	0.19573	0.199018	-0.000183	0.202798
2377	0.171406	0.196059	0.198689	-0.000676	0.20362
2378	0.168612	0.197867	0.198689	-0.000841	0.20214
2379	0.166475	0.194416	0.199511	0.000146	0.202469
2380	0.172392	0.195895	0.200497	-0.001169	0.205756
2381	0.172063	0.195402	0.200825	0.003597	0.200497
2382	0.171406	0.198196	0.203126	-0.000512	0.205427
2383	0.175515	0.195237	0.200332	0.000146	0.204113
2384	0.1742	0.197374	0.201483	-1.9e-05	0.201483
2385	0.175021	0.193922	0.200004	0.000474	0.202798
2386	0.180116	0.197538	0.204934	0.000474	0.204606
2387	0.178637	0.193758	0.19836	0.000639	0.203948
2388	0.180445	0.194744	0.193265	-0.000183	0.203948
2389	0.182746	0.194087	0.193758	-1.9e-05	0.206578
2390	0.174857	0.196059	0.190307	-1.9e-05	0.207564
2391	0.181924	0.196388	0.193922	-0.000512	0.204277
2392	0.183239	0.196717	0.192115	0.003268	0.205263
2393	0.185705	0.198031	0.193101	-1.9e-05	0.201812
2394	0.186362	0.195073	0.19573	0.000474	0.203126
2395	0.184554	0.197867	0.196223	0.00031	0.203291
2396	0.185869	0.193429	0.193101	0.000474	0.201812
2397	0.185869	0.200004	0.196059	-0.000183	0.200004
2398	0.188334	0.193758	0.193101	0.000967	0.202469
2399	0.187513	0.197538	0.194087	-0.000183	0.203455
2400	0.18932	0.197045	0.184225	0.000146	0.201647
2401	0.177651	0.195237	0.188334	-0.000183	0.20477
2402	0.188663	0.195895	0.186855	-0.000183	0.20362
2403	0.191786	0.136562	0.188992	0.001625	0.203126
2404	0.185047	0.133932	0.185869	-1.9e-05	0.202305
2405	0.191786	0.13459	0.188663	0.00031	0.203291
2406	0.183732	0.141657	0.187841	0.000474	0.200332
2407	0.182746	0.141	0.187841	0.000474	0.20214
2408	0.179623	0.145437	0.187184	0.000639	0.202305
2409	0.180445	0.147245	0.188006	0.000474	0.20099
2410	0.177651	0.148724	0.186691	-1.9e-05	0.204934
2411	0.184061	0.151025	0.182089	-1.9e-05	0.200825
2412	0.170584	0.155956	0.184225	-0.000347	0.207564
2413	0.182417	0.153491	0.182911	-0.000183	0.205099
2414	0.182746	0.159243	0.187677	-0.000676	0.203948
2415	0.183404	0.153984	0.189814	-0.000183	0.201319
2416	0.181596	0.157764	0.190635	0.00031	0.206414
2417	0.181924	0.162859	0.193758	0.000474	0.199018
2418	0.183568	0.162366	0.192115	0.000146	0.202798
2419	0.184225	0.161873	0.192608	0.000146	0.201976
2420	0.18554	0.16401	0.196388	0.000639	0.202305
2421	0.184225	0.16779	0.191621	0.000146	0.203126
2422	0.187348	0.168283	0.193429	-1.9e-05	0.199511
2423	0.18061	0.16779	0.193429	-0.000676	0.2074
2424	0.186526	0.168118	0.194909	-0.000512	0.205427
2425	0.186033	0.172227	0.194087	-0.002155	0.205099
2426	0.190142	0.173871	0.193265	0.00031	0.201319
2427	0.188827	0.174364	0.197045	0.000146	0.208879
2428	0.195402	0.176665	0.193758	0.000639	0.202305
2429	0.190964	0.177815	0.194744	0.000474	0.199346
2430	0.193429	0.176501	0.19195	0.000803	0.20477
2431	0.196223	0.180281	0.195566	-0.000512	0.204113
2432	0.191128	0.178802	0.191786	-0.000183	0.199839
2433	0.191621	0.183075	0.196059	0.000146	0.202962
2434	0.187184	0.181431	0.192443	-0.000676	0.200661
2435	0.186198	0.18176	0.192608	-0.000512	0.200004
2436	0.189156	0.183075	0.192443	-0.00232	0.200661
2437	0.190142	0.182253	0.196717	-1.9e-05	0.201483
2438	0.188992	0.182911	0.190471	0.000146	0.209208
2439	0.192936	0.186526	0.195895	0.000474	0.200168
2440	0.193429	0.18554	0.197374	0.00031	0.207893
2441	0.192936	0.184061	0.192279	0.000639	0.20214
2442	0.193101	0.187513	0.196388	0.000146	0.204113
2443	0.194909	0.18554	0.193594	0.00031	0.202633
2444	0.19458	0.184883	0.192772	-0.000183	0.200004
2445	0.195895	0.182911	0.189814	-0.000347	0.203126
2446	0.190964	0.193101	0.191621	-0.000512	0.203455
2447	0.186526	0.188499	0.193101	-0.00232	0.206907
2448	0.190307	0.192115	0.195566	-0.000183	0.204277
2449	0.128015	0.189978	0.193101	-1.9e-05	0.207235
2450	0.13311	0.191621	0.194251	0.00031	0.202962
2451	0.136233	0.192115	0.195237	-0.000183	0.202962
2452	0.135576	0.190307	0.195237	0.00031	0.201483
2453	0.140013	0.1908	0.196223	0.000146	0.202305
2454	0.144615	0.192443	0.197374	-0.000183	0.198689
2455	0.142643	0.189485	0.19573	-0.000183	0.20214
2456	0.148067	0.190635	0.195566	-0.000183	0.200332
2457	0.146752	0.195895	0.196881	-0.000347	0.201154
2458	0.151025	0.189978	0.195073	-0.001169	0.200825
2459	0.152669	0.192772	0.196223	-0.000347	0.202962
2460	0.155463	0.191786	0.192936	0.000146	0.208057
2461	0.158257	0.19573	0.194416	0.000146	0.201319
2462	0.162037	0.194416	0.197867	0.000474	0.203455
2463	0.164996	0.195895	0.197703	0.000639	0.205427
2464	0.163681	0.195895	0.195237	0.00031	0.203126
2465	0.167297	0.196388	0.198196	-1.9e-05	0.202633
2466	0.131138	0.190964	0.194087	-0.000512	0.202633
2467	0.136562	0.193758	0.195237	-0.000183	0.203126
2468	0.134918	0.193758	0.195895	-0.000676	0.201483
2469	0.139356	0.193594	0.196388	-0.000841	0.201154
2470	0.142314	0.192608	0.200168	-0.000347	0.202633
2471	0.145273	0.192608	0.199675	0.00031	0.202633
2472	0.144287	0.199511	0.196552	-0.000347	0.202305
2473	0.152011	0.197703	0.197703	0.000474	0.202305
2474	0.150039	0.197703	0.198689	0.000146	0.203291
2475	0.150697	0.194087	0.197045	-0.000183	0.199839
2476	0.154312	0.197374	0.201154	0.000146	0.20214
2477	0.155463	0.195237	0.196059	-0.000183	0.200004
2478	0.157107	0.196059	0.19721	-0.000183	0.204441
2479	0.161544	0.196388	0.198853	-0.000183	0.203948
2480	0.158093	0.196552	0.19721	-0.000512	0.201647
2481	0.163188	0.199839	0.19836	-0.000183	0.202469
2482	0.163516	0.198196	0.199182	0.000146	0.201647
2483	0.160722	0.199511	0.195073	-1.9e-05	0.200497
2484	0.16894	0.199346	0.196223	0.000639	0.202798
2485	0.166968	0.201319	0.198196	0.000146	0.203455
2486	0.168118	0.197045	0.196388	0.000474	0.198031
2487	0.169598	0.199018	0.195566	-0.000676	0.205099
2488	0.171899	0.200497	0.180774	-1.9e-05	0.200168
2489	0.170419	0.201976	0.177487	-0.000347	0.204606
2490	0.17272	0.199182	0.176829	-0.000347	0.206085
2491	0.173049	0.197867	0.179952	-0.000512	0.202305
2492	0.173542	0.199675	0.183239	0.000474	0.202469
2493	0.175679	0.195895	0.186033	-0.000183	0.198853
2494	0.176829	0.198689	0.182089	0.00031	0.20099
2495	0.18061	0.201976	0.184554	0.000803	0.202798
2496	0.181924	0.201154	0.182582	0.000474	0.200661
2497	0.179295	0.200168	0.184061	0.000639	0.201976
2498	0.178802	0.199018	0.180774	-1.9e-05	0.202633
2499	0.177815	0.201154	0.181431	-1.9e-05	0.200661
