Ladekurvenmessung

Zeit: 2018_05_04 08.58.59

Info: FVA3, v = 0.272, T = 23, F = 20, h = 212.6

Ladewiderstand[Ohm]: 1012700

Störkapazität[pF]: 0.000000

Entladezeit[ms]: 200

Abtastrate[Hz]: 250000

Anzahl der Messwerte: 2500.000000

Verzögerung[ms]: 3

Ladespannung[V]: 0.200000


	Kurve_1	Kurve_2	Kurve_3	Kurve_4	Kurve_5
0	-0.000512	-0.000512	-0.003142	-0.003963	-0.001005
1	0.001625	-0.000512	-1.9e-05	0.003433	0.003433
2	-0.000183	-0.000183	0.004912	0.000803	0.001954
3	-0.001005	-0.000512	0.000803	0.003597	0.00031
4	0.000474	0.002447	-0.001827	0.001789	0.000474
5	-0.000841	0.000146	-1.9e-05	0.003268	0.005405
6	-0.001169	0.00031	-0.000183	-0.001005	0.000803
7	-0.002813	0.00031	-0.001662	0.000474	0.003597
8	-0.001498	0.000146	-0.001169	0.005405	-0.001662
9	0.00146	-1.9e-05	-0.000347	0.00031	0.003104
10	-0.001498	0.00031	-0.000841	-0.000347	-0.001662
11	-0.001334	-0.000512	-0.003799	-0.001169	0.000803
12	-0.000512	-0.000183	-0.000676	0.003268	-1.9e-05
13	0.00146	-0.000183	-0.000347	0.000474	-0.001991
14	0.000639	-0.000183	-1.9e-05	0.001954	0.001954
15	0.000967	0.00031	0.001789	0.000967	-1.9e-05
16	-0.001662	0.000146	-0.001334	0.002775	0.00031
17	-0.000676	-1.9e-05	0.001132	-0.001005	-0.000841
18	0.001954	0.00031	-0.002977	-0.000183	-1.9e-05
19	-0.001334	-1.9e-05	-0.000183	-0.000676	-0.003963
20	-0.001005	-1.9e-05	-0.000676	0.001625	0.001296
21	-0.001005	-0.000183	-0.001169	0.002775	0.00146
22	-0.001005	-0.000347	-0.000183	-0.000841	0.001625
23	-0.002155	-0.000347	-0.002484	-0.000676	0.001954
24	-1.9e-05	-0.000512	-0.001169	0.002282	-0.000512
25	-0.001991	0.000146	-0.000841	0.003433	-0.000183
26	-0.000183	0.000146	-0.003799	0.001296	-0.000183
27	-0.00232	0.000146	-0.001498	0.003268	-0.001991
28	-1.9e-05	0.00031	-0.002484	0.001296	-0.006264
29	0.000146	0.00031	-0.004949	0.000803	-0.00232
30	-0.003799	-0.000183	-0.001991	0.000146	-0.004456
31	0.001789	-0.000183	-0.004785	0.001296	-0.002155
32	0.001132	-0.000347	-0.001991	-0.003635	-0.002155
33	-0.002648	-0.000347	-0.002155	-0.000183	0.001132
34	-0.002813	-0.000183	-0.002155	0.000803	-0.002155
35	-0.000512	-0.000183	-0.003799	-0.001991	-0.001827
36	-0.001169	0.000146	-1.9e-05	0.002118	-0.000512
37	0.001296	0.000146	-0.001662	0.001132	0.000639
38	-0.002484	-1.9e-05	-0.000676	-0.000183	-0.000676
39	-0.00232	0.00031	0.001296	0.003433	0.001132
40	-0.002813	-1.9e-05	-0.002648	0.002282	-0.000676
41	0.000803	-1.9e-05	-0.004621	0.000967	-0.001169
42	-1.9e-05	-0.000347	-0.001498	0.000639	-0.002484
43	0.001789	-0.000347	-0.001662	-0.001827	-0.003306
44	-0.001498	-0.000183	-0.001498	-1.9e-05	-0.000841
45	-0.001498	-0.000676	-0.003799	-0.000347	-0.003635
46	0.001296	0.00031	-0.003799	0.00146	-0.004292
47	-0.001005	-0.000183	-0.004292	-0.001334	-0.00232
48	0.000146	-0.000347	-0.003963	-0.000183	-0.000676
49	0.000146	0.00146	-0.003635	-0.002977	-0.001827
50	-1.9e-05	-0.000676	-0.002648	-0.000512	0.000967
51	0.000639	0.002118	-0.003142	-0.001827	-0.001827
52	-0.000512	0.001625	-0.00232	-0.002813	-0.001498
53	-0.001005	-0.000183	-0.0061	-0.001169	-0.001334
54	0.002282	-0.000841	-0.00232	-0.005278	0.001132
55	-0.000676	0.000474	-0.001827	-0.001662	-0.000841
56	0.003268	-0.002155	-0.000841	0.000474	0.005405
57	-0.000183	0.001789	-0.002648	-0.003963	0.00031
58	0.001625	-0.002484	-1.9e-05	-0.003142	0.000146
59	-0.00347	0.000146	-0.001827	-0.002155	0.000803
60	0.00031	-0.000183	-0.000512	0.00031	-0.000347
61	-0.001005	0.000146	-0.004785	-1.9e-05	-0.000183
62	-0.001498	0.001296	0.000803	-0.002155	0.000146
63	-0.002484	0.001789	-0.004949	0.001625	-0.000841
64	0.002447	-0.000512	-0.005443	-0.001169	-0.001827
65	0.00146	-0.000841	0.000639	-0.000841	-0.002648
66	-0.000841	0.000803	-0.002484	-0.002155	-0.002484
67	0.003104	-0.000841	-0.002813	-0.001498	0.001789
68	0.001132	0.000146	-0.003142	-0.001334	-0.00347
69	-0.000676	-0.001498	-0.001005	-0.000841	-1.9e-05
70	-0.003142	0.001296	-0.001334	-0.000183	-0.001498
71	-0.000347	0.001296	-0.000512	0.003597	-0.00232
72	-0.002813	0.00146	0.000146	-0.002813	0.001625
73	-0.000347	-0.002977	-0.001827	-0.005278	-0.001169
74	0.001296	0.000803	-0.004785	-0.004785	-0.002648
75	0.001132	-0.001827	-0.003142	-0.003142	-0.002648
76	-0.002813	-0.001169	-0.005443	0.00031	0.000639
77	-0.002648	-0.000183	-0.001005	-0.002155	-0.005114
78	-0.002484	-0.000841	-0.004785	0.00146	0.00031
79	-0.002155	0.000803	-0.00232	-0.002648	-0.000512
80	-0.004621	-0.000841	-0.003142	0.000146	0.000146
81	-0.002977	0.000803	-0.002648	-0.001662	0.00146
82	-0.00347	-0.000512	-0.003799	0.000474	0.000474
83	-0.003635	0.000639	-0.003635	-0.001498	-0.003142
84	-0.001169	0.000803	-0.003142	-0.002648	0.000146
85	0.001296	0.00672	-0.004621	-0.000347	-0.001662
86	-0.001334	-0.001991	-0.002648	-0.002977	-0.001827
87	-0.002813	-1.9e-05	-0.002813	-0.001005	-0.000183
88	-0.000676	0.005898	-0.000347	-0.001662	-0.00232
89	-0.002484	0.001789	0.000639	-0.0061	0.00031
90	-0.002813	-0.001498	-0.00232	-0.004128	-0.002484
91	0.00031	0.001296	-0.003306	-0.001498	0.001132
92	-0.001827	-0.001005	-0.007579	0.000146	-0.001169
93	-0.001334	0.000474	-0.003635	0.000639	0.000639
94	-0.000676	0.001132	0.000146	-0.000841	-0.001169
95	-0.001991	-0.001334	-0.005443	0.00031	-0.001662
96	-0.000347	0.003104	-0.000347	-0.002484	-0.004456
97	-0.001498	-0.001334	-0.004621	-0.000676	-0.000841
98	-0.000347	-0.001169	-0.002155	-0.000841	-0.001498
99	-1.9e-05	0.000474	-0.003799	-0.001827	-0.003142
100	-0.000183	-0.00347	-0.005771	-0.001169	-0.005278
101	-0.001169	-0.000841	-0.001991	-0.000676	-0.003306
102	-0.00232	0.001296	-0.002155	-0.002977	-0.002648
103	0.000803	0.000639	-0.0061	-0.001498	-0.001991
104	-0.003799	0.002775	-0.003142	-0.001498	-0.002155
105	0.001132	0.00409	-0.001827	-0.006757	0.00031
106	-0.000512	0.001789	-0.001334	-0.001498	0.000803
107	0.001625	0.002447	-1.9e-05	-0.003799	-0.000183
108	0.001132	0.001132	-0.002155	-0.000183	-0.001169
109	-0.003306	0.001954	-1.9e-05	-1.9e-05	0.001296
110	0.001625	0.00031	-0.002648	-0.000512	-0.001334
111	-0.001169	-1.9e-05	-0.001991	-0.000676	-0.001334
112	-0.00232	0.000146	-0.002977	-0.001005	-0.000512
113	-0.001005	0.000803	-0.002813	-0.001005	-1.9e-05
114	-0.000183	-0.001334	-0.00232	-0.000676	-0.000512
115	-0.001498	0.000639	-0.001827	0.001625	0.000474
116	0.00294	-0.001169	-0.003635	-0.001827	-0.002155
117	-0.002648	-0.001498	-0.001169	0.00031	-0.000676
118	-0.002813	0.000639	-0.002484	-0.001662	-0.001334
119	-0.000676	0.001789	-0.003306	-0.000512	-0.001334
120	-1.9e-05	-0.005443	-0.000183	-0.002155	-0.000841
121	-0.001827	0.00146	-0.003799	-0.000841	-0.001169
122	0.002447	0.000967	-0.002484	-0.002648	-0.002155
123	-0.000841	-0.002155	-0.002648	0.002118	-0.008072
124	0.000146	0.000967	0.00031	0.003926	0.000639
125	-0.000347	-0.001827	-0.004456	0.000474	-0.000841
126	-0.000512	-1.9e-05	0.002447	0.000474	-0.000676
127	-0.000841	0.004583	-0.001334	0.000146	-0.001169
128	-0.002813	0.004583	-0.002484	-0.000841	0.00031
129	-0.004456	-1.9e-05	-0.000512	-0.001334	0.003761
130	-0.00347	0.002118	-0.003142	-0.001827	-0.002648
131	-0.003963	-0.001991	-0.001662	-0.000512	-0.001169
132	-0.003306	-0.001991	-0.001662	-1.9e-05	-0.001827
133	-0.001498	-0.005278	-0.004456	-0.003963	-0.001169
134	-0.001498	-0.002813	-0.00232	-0.001005	-0.004456
135	0.000803	-0.002155	-0.002155	-0.002977	-0.002155
136	-0.001334	-0.002977	-0.003306	-0.000512	-0.000512
137	-0.000183	-0.002155	-0.000347	-0.000676	-0.001334
138	-1.9e-05	0.00031	-0.002977	-0.000183	-0.000841
139	0.001296	0.00146	-0.002484	-0.003635	-0.001991
140	0.00294	-0.000183	-0.003306	-0.000841	-0.001827
141	0.003761	0.003104	-0.002648	-0.00347	-0.002977
142	0.000967	-0.00232	-0.002155	-0.000347	-0.002977
143	0.001132	0.001296	-0.00347	-0.000183	-0.003963
144	0.00031	0.000639	-0.002648	-0.001498	-0.002155
145	-0.003306	-1.9e-05	-0.001169	-0.000347	-0.003799
146	-0.001498	0.000146	-0.001827	-0.000512	0.001625
147	-0.000512	-1.9e-05	-0.003799	-0.000676	-0.001005
148	-0.001169	0.002447	-0.003635	-0.000841	0.00031
149	-0.00232	0.00031	-0.002484	-0.001334	0.00294
150	0.00031	0.000146	-0.003799	-0.00347	0.00146
151	-0.002155	-0.001662	-0.006922	0.003104	0.000803
152	-0.000841	0.001132	-0.003306	-0.002813	-0.000512
153	-0.002648	-1.9e-05	-0.006429	0.00146	-0.000347
154	-0.003142	0.000146	0.001132	-1.9e-05	-0.001498
155	-0.002648	0.001132	-0.00347	-0.001827	-0.001498
156	-0.002155	-0.000841	-0.000676	-0.002484	-0.005278
157	-0.001662	-0.001498	-0.002977	-0.001334	0.000146
158	-0.000347	0.000967	0.000639	-0.004949	-0.001991
159	0.000803	-0.000676	-0.004128	-0.003799	-0.001005
160	0.000146	-0.000183	-0.002813	-0.005114	-0.001334
161	-0.000347	-0.000676	-0.000347	-0.001827	-1.9e-05
162	-0.000512	0.00146	-0.002813	-0.000841	-0.000183
163	0.00146	-0.001498	-0.004128	-0.001498	-0.001991
164	-0.000676	0.000639	-0.004128	0.001954	0.001789
165	-0.000512	-0.002648	-0.002977	0.003104	0.000967
166	-0.003963	0.002282	-0.006757	0.00146	0.001954
167	-0.003306	-0.00347	-0.002648	-0.003306	-0.001498
168	-0.003963	-0.002977	-0.003799	0.00294	0.001625
169	-0.002484	0.00031	-0.001334	-0.001991	0.001625
170	-0.001005	-0.004128	-0.005278	-0.001334	0.002447
171	-0.001005	0.001296	-0.001498	-0.000841	0.001789
172	-0.000841	-0.000512	-0.005936	-0.001498	0.000146
173	-1.9e-05	0.001789	-0.005936	-0.002484	-0.001005
174	0.001132	-0.000841	-0.001498	-0.001334	0.000803
175	-0.000512	0.000639	0.003433	-0.001169	-0.000676
176	0.000639	-0.001991	-0.003963	-0.000676	-0.000676
177	-0.008565	-0.002813	-0.003963	-0.002155	-0.000347
178	-0.000676	-0.003963	-0.001498	-0.002648	-0.00232
179	-0.005443	-0.002648	-0.00232	-1.9e-05	-0.001991
180	-0.002977	-0.004292	-0.001662	-0.001498	-0.005114
181	-0.003635	-0.001991	-0.002813	-0.001334	0.002447
182	-0.001827	-0.002648	-0.000512	-0.001662	0.002118
183	-0.005936	-0.003306	-0.004785	-0.000512	0.003433
184	-0.000512	-0.003635	-0.002155	-0.002977	-1.9e-05
185	-0.002155	-0.001827	-0.003963	0.004419	-1.9e-05
186	-0.001334	-0.002813	-0.002977	-0.002484	-0.001662
187	-0.001498	-0.003306	-0.001005	0.00031	0.000803
188	-0.007415	-0.007908	-0.005278	-0.001498	-0.000512
189	-0.001991	-0.000512	-0.004621	-0.001827	-0.001498
190	0.002118	-0.000183	-0.002648	-0.002484	-0.00347
191	0.000146	0.00031	-0.000183	0.003268	-0.001005
192	-0.000841	0.002118	-0.002155	-0.00725	-0.00347
193	0.001132	-0.000512	0.00031	-0.001991	-0.001498
194	-0.004621	0.000639	-0.001827	-0.001498	-1.9e-05
195	0.002118	-0.001662	-0.005114	-0.003799	-0.001991
196	0.000146	-0.001498	-0.005278	-0.000347	-0.000676
197	0.000474	-0.002648	-0.002155	-0.001005	0.001296
198	-0.000676	-0.004785	-0.004949	-0.000183	-0.001169
199	-0.002977	-0.013989	-0.004785	-0.003142	-0.000841
200	-0.002648	-0.003963	-0.002484	0.000146	-0.001991
201	-0.000347	-0.004456	-0.000183	-0.000841	-0.000512
202	-0.002155	-0.003306	-0.00232	-0.001005	0.001132
203	-0.001827	0.001132	-0.001991	-0.002484	-0.000512
204	-0.000676	-0.000512	-0.000512	-1.9e-05	0.001296
205	-0.003799	-1.9e-05	-0.001005	-0.001169	0.000639
206	0.00031	0.00031	-0.002648	-0.003799	-0.002484
207	-0.000841	0.000803	-0.00347	-0.000183	-0.005114
208	0.00146	-0.001005	-0.002648	0.000967	-0.001169
209	-0.000347	0.001954	-0.002155	0.002282	-0.002155
210	0.003926	-0.004292	-0.004128	-0.000676	-0.001662
211	-0.002484	0.000146	0.000967	0.00294	-0.002484
212	0.000967	-1.9e-05	-0.000347	0.001625	-0.000841
213	-0.001991	0.000474	-0.002155	0.000803	0.000474
214	0.001625	0.001132	-1.9e-05	-0.004621	-0.001991
215	-0.002155	-0.001991	-0.004292	0.004748	0.00031
216	-0.00232	-0.000183	0.000639	0.002118	0.00146
217	-0.002813	-0.001662	-0.002813	0.002775	0.000474
218	-0.001827	0.000803	-0.001498	0.002775	0.00031
219	-0.001827	-0.001827	-0.001005	0.004255	0.000474
220	-0.00232	0.002282	-0.003142	0.002282	-0.001498
221	0.004583	-0.000676	-0.005278	0.002611	-0.001991
222	-0.002977	-0.002813	-0.002155	0.002282	-0.002648
223	0.001954	-0.001827	-0.004292	0.00409	0.001296
224	-0.002977	0.004583	0.00031	-0.00232	-0.000676
225	-0.000347	0.000639	-0.001169	-0.001991	-0.001498
226	-0.000841	0.002775	-0.002813	0.000474	-0.001498
227	-0.000183	0.002118	-0.001005	-0.000841	0.000146
228	-0.003142	0.003761	-0.004128	0.001132	-0.00232
229	0.001954	0.004583	-0.000841	-0.001169	-1.9e-05
230	-0.004621	0.000639	-0.002977	0.001789	0.002282
231	-0.006429	0.00146	-0.002484	0.000474	0.001789
232	0.000639	0.005569	-0.002813	0.00294	-0.000512
233	-0.002813	-0.000841	-0.002484	0.002447	-0.001498
234	-0.004785	-0.003306	-0.001005	0.002775	0.001954
235	-0.002977	0.001954	-0.002484	-0.008237	-0.001827
236	-0.001662	-0.001498	-0.002813	-0.001991	-0.000183
237	-0.001827	-0.000183	-0.000676	-0.000676	-0.001662
238	-0.000676	-0.004621	-0.003963	-0.000676	-0.003306
239	-0.001827	0.000474	-0.000512	-0.000512	0.002282
240	0.000967	0.003433	-0.003963	-0.002977	-0.003306
241	-0.004292	0.001132	-0.004621	-0.000347	-0.003799
242	-0.003142	-0.001169	-0.001169	-0.000183	-0.004128
243	-0.003306	0.004912	-0.001827	-0.001169	-0.001827
244	0.000474	-0.001334	-1.9e-05	-0.000512	-0.004785
245	0.000146	-0.002648	-0.003799	-1.9e-05	-0.002155
246	0.000803	-1.9e-05	-0.003635	-0.009716	-0.004292
247	-0.001827	0.000146	-0.003799	0.001954	0.000803
248	0.00031	-0.004621	-1.9e-05	-0.002155	0.000474
249	-0.002484	-0.003306	-0.005771	-0.001005	-0.000183
250	0.00031	0.002282	-0.002155	-0.001334	-0.000347
251	-0.000347	-0.001169	-0.003142	-0.000512	0.000639
252	0.000803	-0.000183	-0.001169	-1.9e-05	-0.000183
253	0.001625	-0.001827	-0.002813	-1.9e-05	0.001296
254	-0.000347	0.001954	-0.001827	0.000146	0.002118
255	-0.001827	-0.002648	-0.002484	0.001625	0.001954
256	-0.001662	-0.001498	-0.000347	0.000639	-1.9e-05
257	-0.000841	-0.001662	-0.004621	-0.004949	-0.000347
258	-0.001334	-0.002484	-0.001827	-0.000512	-0.000512
259	-0.001334	-0.001662	-0.000676	-0.000183	-0.000183
260	-0.00347	-0.001498	-0.004785	0.001789	-0.000183
261	0.001296	-0.000183	0.00294	0.001789	0.000146
262	-0.001169	-0.002648	-0.001662	0.002282	-1.9e-05
263	-0.001991	-0.000183	-0.001827	0.00146	0.00031
264	0.00031	-0.000841	-0.003142	0.002282	-1.9e-05
265	-0.002977	0.00146	-0.000183	-0.004128	0.00031
266	-0.001169	-0.003635	-0.001169	-0.000183	-1.9e-05
267	-0.002648	-0.001334	-0.000347	0.000639	-0.000347
268	-0.001991	-0.002155	-0.001005	0.003268	-0.000347
269	-0.001827	-0.000347	-0.001334	-0.000676	-0.000347
270	-0.001498	-0.001827	-0.001991	0.001789	-0.000512
271	-0.00232	-0.001169	-0.002155	0.001296	-0.000183
272	-0.000347	-0.002977	-0.000676	-0.000183	-0.000183
273	-0.001991	-0.001498	-0.002648	0.00294	0.000146
274	-0.000183	-1.9e-05	-0.005771	-1.9e-05	0.000146
275	-0.002155	-0.001991	-0.003306	0.00294	0.00031
276	0.000474	-0.001169	-0.001498	-0.001334	0.000474
277	-0.002484	-0.003306	-0.000676	-0.000841	0.000639
278	-0.000841	0.001625	-0.003963	-0.002484	-0.000347
279	-0.002484	0.000803	-0.00232	0.002611	-0.001005
280	-0.001334	-1.9e-05	-0.002484	-0.004456	-0.002155
281	-0.005607	-0.002484	-0.002813	0.001296	-0.000347
282	-0.004949	0.001954	-0.00347	-0.001498	-0.000841
283	0.002775	-0.000512	-0.003635	-0.00232	-0.001498
284	-0.003635	-0.000676	-0.001827	-0.002813	0.000146
285	-0.000183	-0.001827	-0.005278	0.000803	0.000803
286	-0.001005	-0.001662	0.000474	0.00294	0.000803
287	0.001789	-0.001334	-0.002648	0.001789	0.002611
288	-0.000183	-0.001169	-0.002648	-1.9e-05	0.000639
289	-0.000183	-0.001498	-0.001498	0.00031	0.00146
290	-0.002155	-0.001662	-0.004456	0.00294	0.00146
291	-0.001169	-0.000512	-0.001827	-0.002155	0.000474
292	-0.003799	-0.002484	-0.00232	0.000474	0.00031
293	-0.000512	-0.000183	-0.008072	-0.000512	-0.000183
294	-1.9e-05	-0.000512	-0.005114	0.000474	-0.000676
295	-0.001169	-1.9e-05	-0.001662	0.000146	-0.003799
296	0.000474	-0.003635	-0.005771	-0.001169	-0.001334
297	0.00031	-0.002484	-0.005114	-0.001662	-0.001169
298	0.00146	0.000146	-0.004949	0.001296	0.005076
299	-0.000841	0.002447	-0.003799	-1.9e-05	0.002118
300	-0.000841	-0.0061	-0.007086	-0.001827	0.000474
301	-0.002813	0.000803	-0.003963	0.001789	0.001132
302	-0.000841	0.00031	-0.002155	-0.003142	0.000474
303	0.000639	-0.001827	-0.001005	0.00031	-0.000676
304	-0.001169	-0.000183	0.000474	-0.004621	0.002611
305	-0.000183	-0.00347	-0.00232	-0.000676	0.002611
306	-1.9e-05	0.00294	-0.001498	-0.00232	-0.000512
307	-0.002484	-0.001334	-0.007579	-0.002977	0.000146
308	0.002282	-0.001498	-0.002484	-0.000841	-0.003635
309	-0.002648	-0.001005	-0.002155	0.001789	0.004419
310	-0.001662	-0.001827	-0.003306	-0.000841	-0.000512
311	-0.002813	-0.000841	-0.000676	0.000474	0.000967
312	-0.003142	-0.002648	-0.001005	0.000474	-0.000676
313	-0.001827	-0.001662	-0.002648	0.00031	0.000474
314	-0.004785	0.000803	-1.9e-05	0.001789	-0.000347
315	-0.003142	-0.004456	-0.003635	0.004419	-1.9e-05
316	-0.00232	0.000639	-0.003142	0.001789	-0.000841
317	-0.002155	-0.002484	-0.000841	0.001625	-0.001005
318	-0.001334	-0.000841	-0.001662	0.001132	0.00031
319	0.000967	-0.00232	-0.001662	-0.000512	-0.000512
320	-0.00347	-0.002648	-0.002648	0.00031	0.001954
321	-0.000676	-0.004621	-0.001498	0.000146	0.000146
322	-0.001334	-0.002977	-0.001334	0.001296	0.005898
323	-0.001169	-0.001662	0.000146	-0.000183	0.003761
324	-0.003142	-0.003635	-0.002648	0.000967	0.003761
325	-0.001662	-0.001334	0.000639	-0.001991	0.000967
326	-0.004128	-0.004128	-0.003635	0.000967	0.000639
327	-0.002484	-0.000512	0.001625	-0.000347	-0.001169
328	-0.000183	-0.004456	-0.003635	-0.000183	0.001132
329	-0.002484	-0.002648	-0.001334	-0.000347	-0.001662
330	0.002447	-0.001005	-0.002977	-0.000841	-0.000183
331	-0.001991	-0.000841	-0.002813	-0.001005	-0.004621
332	-0.004621	-0.004456	-0.001827	-0.003306	-0.001991
333	-0.002813	-0.001334	-0.003306	-0.000676	-0.001169
334	-0.001827	-0.00347	-0.001498	0.000639	-0.000512
335	-0.002977	-0.004292	-0.002977	0.000146	-0.002648
336	-0.001334	-0.001169	-0.000512	-0.003306	-0.003306
337	-0.001169	-0.002648	-0.003306	-0.004621	-0.00232
338	0.00031	-0.000841	-1.9e-05	-0.004621	-0.001169
339	0.003597	-0.001005	-0.003142	-0.003142	-0.00347
340	0.000967	-0.001334	-0.001498	-0.005936	-0.003306
341	-0.001991	-0.001005	-0.003799	-0.001334	0.000803
342	0.003104	-0.001005	-0.000347	-0.003799	-0.003142
343	0.00409	-0.003799	0.001296	0.000146	-0.001498
344	-0.000183	0.002775	-0.003963	-0.002155	-0.00347
345	0.001954	-0.00347	-0.002977	-1.9e-05	-0.002648
346	0.001625	0.002282	-0.00347	-0.001827	-0.006593
347	0.000146	0.003597	-0.000347	-0.002813	-0.012346
348	-0.000347	-0.000841	-0.003963	-0.001827	-0.004621
349	0.003104	0.001954	-0.004785	-0.001991	-0.001334
350	0.002118	0.004419	-0.005114	-0.002813	-0.003963
351	-0.002648	0.004419	-0.005607	-0.003963	-0.002813
352	0.00146	0.001954	-0.001662	-0.002484	-0.006429
353	0.005734	0.002775	-0.004456	-0.004292	-0.001498
354	0.001132	0.001132	-0.003799	-0.00347	0.001296
355	0.005076	-0.000183	-0.003635	-0.002155	-0.002155
356	0.002282	-0.001827	-0.002977	-0.001991	-0.000676
357	0.003761	0.00031	-0.000183	-0.004621	-0.003142
358	0.003104	0.000967	-0.002813	-0.004128	-0.010373
359	0.00031	-0.001169	-0.001334	-0.004785	-0.004785
360	0.003597	-0.001991	-0.002648	-0.000183	-0.001005
361	0.002775	0.002611	-0.001662	0.001296	-0.00232
362	0.001789	0.000803	-0.003306	-0.001827	-0.000183
363	-0.000841	-0.00232	-0.001662	0.000146	-0.001334
364	0.00672	0.002775	-0.001827	-0.00232	-1.9e-05
365	0.001789	0.000474	-0.004128	-0.00232	-0.000347
366	0.001954	0.001132	-0.001334	-0.000183	-0.001005
367	0.001789	0.001132	-0.002977	0.00031	-0.001991
368	0.00409	0.000146	-0.00232	-0.003963	-0.002484
369	0.002775	-1.9e-05	-0.001169	-0.001169	-0.00725
370	0.003104	0.001789	-0.002813	-0.002648	-0.003799
371	0.00409	0.00031	-0.002648	0.00031	-0.000676
372	0.003433	-1.9e-05	-0.000512	-0.001498	-0.000347
373	0.003104	-0.000347	-1.9e-05	-0.000512	0.002447
374	0.000474	0.000474	0.002447	-0.00232	-0.001005
375	0.004419	-0.000676	-0.001662	-0.000347	0.001625
376	-0.000841	-0.001827	-0.000512	0.002447	0.001625
377	0.000803	-0.003635	0.000803	0.000803	0.002118
378	0.002118	0.00031	-0.004621	-0.000347	0.001296
379	0.00146	-0.003635	-0.000512	0.002282	0.000639
380	-0.001827	-0.004128	-0.001498	0.001789	0.001625
381	0.007377	-0.00232	-0.002813	0.001625	-0.003306
382	0.000803	-0.002813	-0.004949	0.003268	0.001954
383	0.000474	-0.003799	0.000967	0.003104	0.001132
384	-0.000347	-0.001005	-0.000512	-0.000347	0.001625
385	0.002282	-0.001169	0.00146	-0.001005	0.000474
386	0.001789	-0.000183	-0.000347	0.003761	0.002775
387	0.002282	-0.000676	0.000803	0.000639	0.001132
388	0.002282	-0.000512	0.00146	0.001625	0.00146
389	0.000803	0.001789	0.000474	-0.001005	-0.000676
390	0.00146	0.000639	-0.001005	-0.001005	-0.002648
391	-1.9e-05	0.000146	0.002611	0.000803	0.005076
392	0.002282	0.000146	-0.001334	-0.000347	-0.000512
393	0.00409	0.000803	-1.9e-05	0.000146	-0.002484
394	0.000474	-0.000347	-0.000347	0.00146	0.000146
395	-0.000676	0.001296	-0.003306	0.001296	0.001132
396	0.002282	0.002447	-0.001662	0.001789	0.000967
397	-0.000347	-0.000183	-0.004949	0.002447	0.000639
398	0.000146	-1.9e-05	-0.002977	0.000474	0.00031
399	-0.001498	0.000146	-0.002155	0.002118	0.001132
400	0.000803	0.00031	0.000803	0.000146	-0.000347
401	-0.001498	0.000146	-0.000347	0.000967	-1.9e-05
402	-1.9e-05	0.000474	0.002447	-0.001005	0.00672
403	0.00031	-1.9e-05	-0.000841	-0.000183	-0.000676
404	0.001132	0.000146	-0.000183	-0.00347	-0.002648
405	0.001296	-0.000347	0.001296	-0.001662	0.002775
406	0.003433	-0.000183	-0.001169	-0.003963	0.000146
407	0.001296	-0.000347	0.000474	-0.000183	-0.001005
408	0.000474	-0.000183	0.001296	-0.001334	-0.000676
409	0.00031	-1.9e-05	0.000639	-0.002155	0.001296
410	-0.000347	0.000146	0.000146	-0.002155	-0.002813
411	0.001625	0.000146	-0.000676	0.002611	0.003104
412	-0.001498	0.000474	-0.000841	-0.004128	0.00031
413	0.00294	-0.000347	-0.000676	0.001625	0.000803
414	0.000146	0.000474	-0.001827	0.004583	0.000146
415	0.000967	-1.9e-05	-0.000183	-0.002813	-0.002484
416	-0.000183	-0.000347	-1.9e-05	-0.001169	0.001132
417	-0.000183	-0.000183	-0.003306	-0.002813	-0.001662
418	-1.9e-05	-0.000347	-0.003635	0.000146	-0.000841
419	0.001789	-1.9e-05	-0.001827	-0.000183	-0.001169
420	0.000803	-1.9e-05	-0.003799	0.000146	0.001954
421	0.000967	0.000146	-0.001827	-0.000512	-0.002813
422	0.000146	0.000146	-0.001827	0.001954	0.00146
423	-1.9e-05	0.00031	-0.001334	-0.001827	0.000639
424	0.001296	0.00031	0.000146	-0.000676	0.002118
425	-0.002648	0.00031	-0.002484	0.00031	-0.001498
426	0.003761	-1.9e-05	-1.9e-05	-0.000512	0.001132
427	0.000146	-0.000183	-1.9e-05	0.001132	0.000474
428	0.002447	-0.000347	-0.001169	0.000474	0.00146
429	-0.000183	-0.000512	-0.001662	0.00146	-0.000183
430	-0.000512	-0.000512	0.000146	0.002611	-0.001827
431	-0.004456	0.003761	-0.002813	0.00031	0.003597
432	0.00146	0.00409	-0.001498	-0.000512	-1.9e-05
433	-0.003306	-0.000347	-0.002648	0.000146	0.004912
434	-0.003306	0.002611	-0.000512	-0.001991	-0.001334
435	-0.000183	0.000146	-0.003635	-0.001498	0.003268
436	0.00031	0.001954	-0.002813	-0.000347	-0.002648
437	0.001954	0.000967	-0.002813	0.003268	-0.000347
438	0.000639	0.003268	-0.001169	-0.004785	-0.00232
439	-0.000512	0.004912	-0.002155	-0.000183	0.001296
440	0.001789	0.003104	-0.000841	-0.001169	-0.002484
441	0.000146	0.00294	0.001132	0.00031	-0.003963
442	-0.000347	0.003597	-0.001005	-0.000183	-1.9e-05
443	0.002775	0.003433	-0.001827	-0.000183	0.00146
444	-0.00232	0.002775	0.001132	0.002118	0.000803
445	-0.001662	0.000967	-0.003963	-0.000841	0.000967
446	-0.001005	0.00031	-0.00347	0.002118	0.005898
447	-0.001334	0.000146	-0.002813	-1.9e-05	0.001132
448	0.003597	-1.9e-05	-0.005443	0.001789	0.00146
449	0.002447	-0.000183	-0.005607	-0.002813	0.001789
450	-0.001334	-0.000347	-0.003306	0.001132	0.001789
451	0.000639	-0.000183	-0.000512	0.002282	0.000474
452	-0.001498	-0.000183	-0.000512	0.001625	0.00146
453	-0.002155	0.000146	0.00031	-0.000512	0.001296
454	-0.000183	0.000146	0.00146	-0.001827	0.000146
455	-0.000512	0.000146	-0.001991	0.000803	-0.000676
456	-0.000512	0.00031	-0.000183	-0.001662	-0.002977
457	-0.001169	-1.9e-05	-0.002484	-0.001827	-0.005771
458	0.000639	0.00031	-0.000183	0.000474	-0.001662
459	-1.9e-05	-1.9e-05	-0.001169	0.002118	0.00146
460	0.00146	-0.000347	-0.000512	0.000967	-0.002155
461	0.000803	-0.000347	-0.001169	0.001132	0.001296
462	-0.000183	-0.000512	0.002611	-0.000512	0.000639
463	0.001789	-0.000347	0.000474	0.001625	-0.000183
464	-0.003963	-0.000347	0.00031	-0.000841	0.000803
465	-0.001662	0.000146	0.000639	0.003104	0.003597
466	-0.001169	0.000146	0.000967	0.002611	-1.9e-05
467	-0.000347	0.000146	-0.001991	-0.000183	-0.000512
468	-0.000676	0.000474	-0.004785	-0.001169	0.001625
469	-0.000841	0.000146	-0.001005	0.004419	0.002611
470	0.000146	-0.000183	-0.001005	-0.000347	-0.001498
471	0.000146	-0.000183	-0.002484	0.001625	0.00031
472	-0.001005	-0.000347	-0.000183	0.000474	-0.004292
473	0.00031	-0.000347	-0.000183	0.000639	0.001296
474	0.001132	-0.000183	-0.001169	0.00031	-0.001169
475	0.000639	-1.9e-05	-1.9e-05	-0.000347	-0.000676
476	0.002611	0.00031	-0.002155	0.000967	0.000967
477	0.000967	0.000146	0.000803	-0.000676	0.000639
478	-0.00232	0.000146	-0.002813	0.000146	-0.001991
479	0.00031	0.000146	-0.002648	-0.001334	-0.001827
480	-0.000183	0.000146	-0.001827	-0.000347	-0.000183
481	-0.003635	-0.000347	-0.000841	-0.001498	-0.000676
482	-0.006593	-0.000183	-0.001498	-0.004785	0.00146
483	-0.002813	-0.000512	-0.000676	-0.001169	0.000146
484	0.001132	-0.000183	-0.001169	0.001625	-0.002155
485	-1.9e-05	-0.000512	-0.001334	0.000803	-0.002977
486	-0.000183	0.000146	-0.001498	-0.000183	0.00146
487	-0.001498	0.000146	-0.000512	-0.001991	-0.000183
488	0.00146	0.00031	-0.001991	-0.001005	0.000803
489	0.000146	0.00031	-0.001005	0.000146	0.00031
490	-0.002648	0.000146	-0.002484	0.000146	-0.001991
491	-0.001169	0.000146	-0.003142	-0.000841	-0.001991
492	0.002611	-1.9e-05	0.000967	-0.001005	0.00031
493	0.000146	-0.000183	-0.005278	-0.000841	-0.001827
494	-0.000512	0.000146	-0.001334	-1.9e-05	0.000474
495	-0.000183	-0.000512	-0.002155	0.001132	-0.000183
496	-0.001498	-0.000183	-0.000676	-0.000676	-0.000183
497	-0.000676	0.00031	-0.001827	-1.9e-05	0.002282
498	0.001132	0.000474	0.002611	-1.9e-05	0.000803
499	0.00294	-0.000512	0.001954	-0.000512	0.004419
500	-0.000183	0.000146	-0.005771	-0.000183	-0.000676
501	-1.9e-05	-0.000512	-0.003963	0.002447	0.003104
502	-0.00232	0.00146	-0.001169	0.000803	0.000146
503	-0.001169	0.000146	-0.003635	0.000803	0.001296
504	0.000146	0.000639	-0.002155	-0.001334	0.00031
505	-0.001498	0.000967	-0.001662	-0.000347	0.00031
506	-0.001827	-0.000512	-0.001991	-0.001498	-0.000183
507	0.000967	0.001296	-0.000841	-0.00232	-0.001991
508	-0.001169	-1.9e-05	-0.002977	0.000967	0.00146
509	-0.001005	0.00031	-0.000183	0.002775	-0.001169
510	-0.000347	-0.000183	-0.000841	0.001789	-1.9e-05
511	0.000146	0.00294	-0.003635	0.001625	-1.9e-05
512	-0.001498	-0.001334	-0.003306	0.00031	0.002775
513	-0.003963	0.000803	-0.000347	-0.000347	-0.002813
514	0.00031	0.001132	-0.000512	-0.000183	0.001625
515	-0.001169	0.001132	0.000639	0.000803	0.000146
516	-0.000183	0.000146	0.001296	0.004419	0.001296
517	-0.003306	-0.000512	0.003761	0.002447	0.000474
518	-0.000183	-0.000841	0.002775	0.003268	0.000967
519	-0.001169	-0.000512	-0.002648	0.004748	0.00294
520	-0.001498	-0.00232	-0.004785	0.001132	0.00146
521	-0.002155	-0.000512	-0.000841	0.004583	0.002447
522	-0.001169	-1.9e-05	-0.0061	0.00146	0.001789
523	-0.002813	0.000967	-0.004949	0.001954	-0.000841
524	-0.002484	-0.00232	-0.001005	-0.001827	-0.004128
525	0.001132	-0.001005	-0.000841	0.001296	-0.000183
526	-1.9e-05	0.002447	-0.001827	0.00146	-0.001662
527	0.00031	-0.000347	-0.000676	0.001132	0.000639
528	-0.001498	0.004255	-0.000841	0.000639	-0.002648
529	-0.001005	0.002118	-0.000676	0.001132	-0.000676
530	-0.001169	-0.000347	-0.001005	-0.000347	-0.000676
531	0.001132	0.001296	-0.001334	-0.00347	0.000803
532	-0.000183	-0.002484	-1.9e-05	0.001296	-0.001498
533	0.000146	0.003104	-0.009551	0.001789	0.003268
534	-0.000676	-0.001662	-0.002648	-0.000183	-0.001827
535	-0.000347	-0.004128	-0.002155	0.001132	0.000967
536	-0.000347	0.001625	-0.003306	0.00031	-1.9e-05
537	-0.000841	0.001132	-0.001662	0.000474	0.000474
538	-0.002813	0.001132	-0.00347	0.002447	0.001132
539	-0.000183	0.001296	-0.002648	0.003268	-0.001169
540	-0.003635	0.002611	-0.002484	0.001296	-0.001991
541	-0.001498	0.001789	-0.003306	0.00031	-0.001169
542	-0.001498	-0.000347	-0.003306	-0.000347	-0.001334
543	-0.00232	0.001296	-0.003799	0.00409	-0.003306
544	-0.001169	0.00146	-0.00988	-0.000841	-0.001662
545	-0.002484	-0.000183	-0.004456	-0.001498	-0.003306
546	-0.005607	0.000803	-0.005443	-0.001827	0.000967
547	0.000639	0.004748	-0.007086	-0.001005	-0.004128
548	-0.001498	-0.000512	-0.0061	-0.002484	-0.000183
549	0.000474	0.00146	-0.000512	-0.00347	0.000146
550	0.001132	-0.000183	-0.001827	-0.002977	0.000474
551	-0.000512	0.00146	-0.001169	0.00146	-0.00232
552	-0.00232	-0.004128	-1.9e-05	-0.000841	0.001789
553	-0.000676	-0.005936	-0.000512	-0.003142	-0.001991
554	-0.000676	-0.001005	-0.000347	-0.004128	-0.000347
555	-0.001827	0.000474	-0.005278	-0.004621	-0.001005
556	-0.000676	-0.001662	-0.002155	-0.001169	-0.001334
557	0.001132	-0.003306	-0.002155	-0.001334	0.000146
558	0.00146	0.001954	-0.001827	-0.004456	-0.00232
559	0.00146	-1.9e-05	-0.001991	-0.001662	0.00031
560	-0.000841	0.001132	-0.00232	-0.004128	-0.001991
561	0.00409	0.001625	-0.003799	-0.000841	-0.001827
562	0.000967	0.003268	-0.001169	-0.001662	-0.002648
563	-0.001991	0.000639	-0.001005	-0.000841	0.00146
564	-0.000347	0.001296	-0.001827	-0.001169	-0.001827
565	0.000474	0.000146	-1.9e-05	0.000146	-0.000841
566	-0.001005	0.000967	0.003761	-0.003306	-0.001169
567	-0.001991	0.000967	-0.002648	-1.9e-05	0.00146
568	-0.000841	-0.00347	-0.004785	0.001296	-0.001169
569	0.000146	0.000146	-0.001498	0.000146	0.003597
570	-1.9e-05	0.000803	0.001625	0.002282	0.00146
571	-0.001005	-0.001169	-0.000676	0.00146	0.001789
572	-0.000841	-0.000512	-0.003799	0.00146	0.00294
573	0.001625	0.003926	-0.000512	0.000967	-0.001662
574	-0.002648	-1.9e-05	-0.000512	0.001296	-0.001005
575	-0.001827	0.001954	-0.000512	0.000803	-0.001005
576	-0.001827	-0.001662	-0.002484	0.001296	0.00031
577	-0.004785	-0.001169	0.002775	-0.001827	-0.000841
578	-0.000676	-0.001498	-0.002813	0.001132	0.003926
579	-0.004949	-0.00347	-0.002484	0.00031	-0.000841
580	0.000639	-0.000183	-0.003799	-0.001334	-0.001169
581	-0.001169	-1.9e-05	-0.001827	-0.000183	0.000474
582	-0.003799	-0.000512	-0.000512	0.002118	-0.000347
583	-0.002813	-0.000512	-0.001991	0.000967	0.000967
584	0.001296	-0.000183	0.001132	-0.001169	-0.003142
585	-0.004456	-1.9e-05	-0.000347	0.00146	0.003104
586	-0.002813	0.000146	0.00031	-0.000512	0.002118
587	-0.002648	0.002282	-0.000841	-0.000676	0.002611
588	-0.000347	0.000474	0.00409	-0.002977	0.000474
589	-0.000183	-0.001662	-0.001334	0.001625	0.002282
590	-0.001827	0.002118	0.00031	-0.00347	-0.00232
591	0.000639	0.004255	0.001789	-0.002155	0.000803
592	-0.001498	0.00294	0.000474	-0.002155	-0.001827
593	0.00031	0.00146	-0.001334	-0.00232	-0.002813
594	-0.001991	0.000803	-0.001991	0.000474	-0.002813
595	0.001954	0.006884	-0.001334	-0.003635	-0.004128
596	-0.001498	0.004419	0.001296	-0.000347	-0.003142
597	-0.000183	0.004748	0.00146	0.000146	-0.001991
598	-1.9e-05	0.003597	-0.003142	-0.001005	-0.002155
599	-1.9e-05	0.002775	-0.002813	-0.002155	0.000639
600	-0.000183	0.000803	-0.005443	0.000146	-0.000512
601	0.000639	0.003268	-0.003635	-0.001334	-0.00232
602	-0.000347	0.001132	-0.003306	0.00031	0.001625
603	0.000967	0.005569	-0.002648	-0.001662	-0.003306
604	0.003597	0.004748	-0.003799	-0.004128	0.000146
605	-0.000841	0.004748	-0.002155	-0.002648	-0.000841
606	-0.000183	0.004255	-0.001169	-1.9e-05	0.003268
607	0.002118	0.003597	-0.001005	-0.001334	0.000967
608	0.000146	-0.000676	-0.000347	0.002282	0.001789
609	0.000146	0.003597	-0.00232	-0.003635	0.002282
610	0.000967	0.000803	-0.001662	-0.001662	-0.000347
611	-0.000676	0.002447	-1.9e-05	0.001296	0.001954
612	0.000146	0.001132	-0.001334	-0.003306	-0.000347
613	-0.001827	0.001954	-0.003142	-0.000183	-0.000676
614	-0.000841	0.00294	0.00031	-0.002977	-0.000347
615	-0.002484	0.001132	-0.003306	-0.001334	-0.001169
616	0.002447	0.001954	-0.002813	-0.001662	0.00031
617	0.001296	0.003926	-0.003142	0.000639	0.000146
618	0.000146	0.002447	-0.000183	-0.000183	-0.001169
619	0.000146	0.000146	-0.002484	0.000474	0.000967
620	0.00031	0.003597	-0.002977	-0.000512	0.00031
621	0.00146	-0.000841	-0.003142	0.000146	-0.000512
622	0.002282	0.001132	-1.9e-05	0.000474	0.002118
623	0.00146	-0.000841	-0.0061	-0.001334	0.001296
624	-1.9e-05	0.003926	-0.001498	-0.001498	0.001296
625	-1.9e-05	-0.002155	-0.001005	0.000474	0.000146
626	0.000146	0.00294	-0.001498	-0.001991	0.000639
627	0.000146	-0.001991	-0.001827	0.00146	0.000967
628	-0.001169	0.00146	-0.002155	-0.000512	-0.003306
629	-1.9e-05	-0.001498	-0.001169	0.000146	-0.000183
630	-0.003142	-0.00232	-0.002977	-0.001662	0.000803
631	-0.005443	-0.001827	-0.001334	0.00294	0.001132
632	-0.002813	-0.002813	-0.001005	0.002282	-0.000183
633	-0.001991	0.000967	-0.001827	0.001296	0.000474
634	-0.001334	-0.001827	-0.0061	0.001625	0.001132
635	-0.000676	-1.9e-05	-0.000676	0.000474	0.000967
636	-0.000347	-0.001827	-0.003142	0.001789	0.002775
637	0.000474	0.000146	-0.00347	-0.003142	0.000803
638	0.000146	-0.000347	-0.002484	-0.000512	-0.001334
639	0.001954	0.002118	-1.9e-05	-0.00232	0.00294
640	-0.000512	0.000474	-0.001005	-0.001169	-0.002813
641	-0.000183	0.000967	-0.001334	0.000803	-0.000512
642	0.001132	-0.002155	-0.000183	0.000967	0.002611
643	-0.000676	-0.000841	0.000474	-0.000183	-0.000183
644	0.000474	-1.9e-05	-0.001662	-1.9e-05	0.002775
645	-0.00232	0.002775	-0.005278	0.002282	-0.000347
646	0.000803	0.000474	-0.006922	0.00031	-0.001005
647	-0.00232	0.002447	-0.003799	0.001789	0.001132
648	-0.000841	-1.9e-05	-0.002648	-0.001169	-0.000347
649	-0.001334	0.000803	-0.004621	0.001625	0.001789
650	0.000639	0.001954	-0.004128	0.00294	-0.000512
651	-0.000841	-0.000347	-0.002977	-0.000512	0.003268
652	-0.000183	0.000803	-0.001827	-0.001827	-0.001498
653	0.000967	0.001132	-0.00347	0.001789	0.000967
654	0.000146	0.003268	0.000967	-0.002155	-0.000676
655	0.000639	0.002447	-0.002155	-0.003963	0.003597
656	-0.002813	0.001132	0.001296	-0.003306	-0.00232
657	-0.002813	-0.000347	0.00031	-0.000183	0.00031
658	-0.000183	-0.000347	-0.000676	-0.000512	-0.000347
659	-0.001827	-0.001169	0.000803	0.00031	0.000639
660	-0.000676	-0.000347	-0.002813	0.000474	-0.001334
661	-0.001005	0.001132	0.000146	0.002447	-0.000183
662	-0.001662	-0.002155	-0.000512	0.000146	0.00409
663	-0.001662	-0.001334	-0.000183	0.000639	-1.9e-05
664	-0.003963	-0.002813	-0.000183	0.003761	0.003433
665	-0.001662	-0.000347	-0.001169	-0.001662	-0.001498
666	-0.000183	0.00031	-0.004128	-1.9e-05	0.000967
667	-0.000512	0.000474	-0.000512	-0.002813	-0.000347
668	-0.001169	-0.001991	-0.001334	0.001954	0.00031
669	-0.001169	0.000967	-0.001169	-0.001005	-0.000841
670	0.000146	-0.000841	-0.000841	-0.001827	-0.001498
671	0.00031	0.000803	-0.002813	0.002118	-0.001169
672	0.000146	0.001132	0.001789	-0.001662	-0.001827
673	-0.000183	-1.9e-05	-0.001169	0.000146	-0.00347
674	-1.9e-05	0.001625	0.001132	-0.001498	0.000803
675	-0.000347	-0.001662	-1.9e-05	0.001789	0.000146
676	0.000803	-0.001005	-0.001169	-0.001334	-0.000183
677	0.001789	0.000146	-0.001827	-0.001005	0.00031
678	-0.000512	0.000639	0.00031	-0.002484	-0.000183
679	-0.002813	-1.9e-05	-0.000183	0.00031	0.001625
680	-0.001334	-0.001169	-0.003306	-0.002484	-0.001169
681	-0.004128	-0.00232	-0.002648	0.00146	-1.9e-05
682	-0.003306	0.000146	-0.002484	0.002447	-0.001334
683	-0.001498	-0.002155	-0.002813	0.002447	-0.001005
684	-0.000183	-0.001662	-0.002813	0.00146	0.00031
685	0.000803	-0.000841	-0.003142	-0.000183	-1.9e-05
686	-0.002484	-0.001498	-0.002813	0.001789	-0.001005
687	0.00031	-0.002813	-1.9e-05	-0.001498	-0.000347
688	0.001132	0.001132	-0.00347	-0.002813	-0.004128
689	0.003268	0.00294	-0.001334	-0.002484	-0.002648
690	0.000967	0.001132	-0.001827	0.001789	-0.00347
691	0.001625	0.001132	-0.001662	-0.001169	-0.002648
692	-1.9e-05	-0.000512	-0.001334	-0.001334	-1.9e-05
693	-0.000347	0.001132	-0.000183	0.001132	0.000803
694	-0.00232	-0.001991	0.00031	0.00031	-0.002155
695	-0.001498	0.00146	0.000474	-0.000841	-0.001991
696	-0.001005	0.000639	-0.002648	0.000146	0.00146
697	-0.000841	0.003268	-0.002484	0.001625	0.000146
698	-0.000183	-0.002484	-0.001662	0.000803	0.000639
699	-0.000841	0.003104	-0.002648	-0.001169	-0.002155
700	0.00146	-0.002813	-0.003799	0.000474	0.000639
701	-0.001827	-0.001662	-0.005443	0.000803	0.000639
702	-0.000841	0.00031	-0.00232	-0.002484	-0.000512
703	-0.001827	0.000967	-0.003963	-0.001334	-1.9e-05
704	-0.000676	0.000639	-0.002977	-0.001169	-0.001005
705	-0.00232	-0.000676	-0.002813	-0.00232	-0.00347
706	-0.000183	-0.00232	0.000474	-0.005443	-0.001334
707	0.00031	-0.000512	-0.000347	-0.001169	-0.001827
708	0.000474	-0.000183	-0.00232	-0.000347	-0.001334
709	0.001789	-0.001662	0.000639	-1.9e-05	0.002611
710	0.003268	0.001296	-0.00232	-0.001005	0.000967
711	0.000803	0.000146	-0.001498	0.000474	0.00031
712	-0.001169	0.00146	0.001954	-0.001169	-0.000347
713	-0.000183	-0.000676	-0.001662	0.002447	0.001625
714	-0.001827	-0.000183	-0.000347	0.002282	-1.9e-05
715	-0.000841	-0.001662	-0.002484	0.000146	0.000474
716	-0.002484	-0.001169	0.000803	-0.000512	0.000803
717	-0.001991	-0.002155	0.00031	0.000967	0.000803
718	-0.003142	-0.001827	-0.000347	0.002611	0.000639
719	-0.001662	0.000639	-0.002155	0.002447	0.001789
720	-0.000512	-1.9e-05	-0.002155	-0.001005	-0.002484
721	0.000474	0.002447	0.000803	-0.000183	0.00146
722	0.001296	0.001954	-0.001498	-0.000512	-0.001498
723	0.003597	-0.001498	-0.000183	0.002282	-0.001498
724	-0.001498	0.001132	-0.002813	0.00031	-0.002977
725	-1.9e-05	0.000639	-0.000676	0.000967	-0.002977
726	-1.9e-05	-0.000676	-0.001662	-0.000183	-0.001498
727	-0.001169	-0.001498	0.001789	0.000639	-0.001662
728	-0.001991	-0.000841	-0.001498	-0.000347	-0.000676
729	-0.003635	-0.002813	-0.001005	-1.9e-05	-0.000676
730	-0.000841	-0.002813	-0.000512	0.000967	0.00146
731	-0.002484	-0.004128	-0.001498	-0.00232	-0.000841
732	-0.000841	-0.003635	-0.001827	0.001954	0.00294
733	-0.000676	-1.9e-05	-0.003306	0.000967	-0.001334
734	0.00031	-0.002813	-0.001991	0.000474	0.000474
735	-0.001169	-0.00232	-0.003799	0.002118	-0.000183
736	0.003926	-0.002813	-0.004128	-0.000183	-0.000841
737	-0.004621	0.00031	-0.00347	-0.000183	-0.001662
738	0.000967	0.000803	-0.001827	-0.001827	-0.008072
739	0.000474	0.00031	-0.001334	-0.000183	-0.002977
740	0.000146	0.000639	-0.000347	0.002447	-0.004128
741	0.001954	0.00031	-0.002813	0.00146	-0.005114
742	-0.001005	0.00146	-0.000512	-0.004128	-0.001169
743	0.001789	-0.000512	-0.001827	0.000146	-0.000676
744	0.001789	0.002611	-0.001662	-0.000676	-0.002977
745	0.00146	-0.002977	-0.000512	-0.002648	0.000474
746	-0.001169	0.002447	0.000146	0.001296	-0.000512
747	0.000639	0.00031	-0.004292	0.002282	0.00031
748	-0.008565	-0.000347	-0.004785	0.000146	-0.000512
749	-0.001169	-0.000841	-0.001334	0.00031	0.002447
750	-0.002813	0.000146	-0.003142	0.000474	-0.000347
751	0.005405	0.003761	0.004583	0.005734	0.003597
752	0.011322	0.010336	0.008035	0.011486	0.010993
753	0.018882	0.019375	0.01954	0.01576	0.019375
754	0.024306	0.026443	0.023813	0.026114	0.025785
755	0.034332	0.031209	0.032853	0.031373	0.036304
756	0.041892	0.041564	0.038441	0.03729	0.04255
757	0.047152	0.045837	0.047316	0.045672	0.045837
758	0.054055	0.055041	0.050768	0.052904	0.053069
759	0.053726	0.059478	0.058164	0.057835	0.059643
760	0.062766	0.064409	0.063916	0.06408	0.06408
761	0.068025	0.072298	0.070819	0.072134	0.069504
762	0.076407	0.074764	0.074599	0.074928	0.07575
763	0.078051	0.081338	0.079366	0.081009	0.082324
764	0.085118	0.08594	0.084625	0.086269	0.085447
765	0.088898	0.090213	0.088734	0.090706	0.090871
766	0.095801	0.094158	0.096294	0.094158	0.094815
767	0.095473	0.099253	0.094815	0.101554	0.098924
768	0.102211	0.099746	0.100403	0.105498	0.103855
769	0.105663	0.106485	0.105498	0.111087	0.105992
770	0.10895	0.104184	0.107306	0.11158	0.109607
771	0.111908	0.114209	0.110265	0.115853	0.113059
772	0.115853	0.120291	0.11536	0.118318	0.117496
773	0.120291	0.119962	0.116017	0.122756	0.122756
774	0.122098	0.125386	0.122756	0.123742	0.124399
775	0.127358	0.127194	0.124564	0.12818	0.131138
776	0.132124	0.132124	0.126536	0.131467	0.129823
777	0.133768	0.134261	0.130809	0.133439	0.13459
778	0.133439	0.136726	0.126372	0.132782	0.134754
779	0.135411	0.141164	0.128344	0.141493	0.137548
780	0.139849	0.137219	0.129988	0.141657	0.139849
781	0.147574	0.13459	0.127194	0.141164	0.14478
782	0.143301	0.143794	0.132617	0.146752	0.143136
783	0.146423	0.145602	0.134425	0.149382	0.147245
784	0.147738	0.150039	0.125714	0.14856	0.150368
785	0.149053	0.151518	0.11158	0.150368	0.152176
786	0.15234	0.152505	0.081338	0.156285	0.154148
787	0.152505	0.156285	0.069997	0.153326	0.156449
788	0.155792	0.157271	0.058985	0.156613	0.15497
789	0.159736	0.161215	0.063916	0.160229	0.157764
790	0.161709	0.160558	0.057999	0.160887	0.158093
791	0.159572	0.161544	0.061944	0.164667	0.161544
792	0.170255	0.15875	0.054219	0.160887	0.161709
793	0.163023	0.166311	0.057671	0.163188	0.159736
794	0.166146	0.166968	0.054383	0.166639	0.167297
795	0.169269	0.167461	0.047645	0.165324	0.166804
796	0.170913	0.167132	0.046001	0.167625	0.169105
797	0.169105	0.172227	0.031209	0.169269	0.170255
798	0.174035	0.172885	0.02447	0.169762	0.172063
799	0.173049	0.1742	0.018882	0.173871	0.173049
800	0.17535	0.17535	0.021841	0.173049	0.173707
801	0.174857	0.175679	0.020033	0.17535	0.174035
802	0.177322	0.177487	0.017567	0.175679	0.176008
803	0.180116	0.175843	0.019211	0.177322	0.177322
804	0.176665	0.17798	0.020362	0.175679	0.176501
805	0.177322	0.17535	0.023813	0.180281	0.176008
806	0.177651	0.181924	0.032853	0.179623	0.181103
807	0.17798	0.181431	0.034003	0.178637	0.180116
808	0.179459	0.183732	0.044851	0.178473	0.183404
809	0.177815	0.182582	0.046659	0.18061	0.182089
810	0.183897	0.185705	0.051425	0.18176	0.17913
811	0.184883	0.184554	0.053397	0.182911	0.183732
812	0.183897	0.186691	0.057506	0.185047	0.182417
813	0.18554	0.186198	0.062108	0.184225	0.179459
814	0.187677	0.188827	0.06556	0.186198	0.187841
815	0.185705	0.185869	0.073778	0.185376	0.184883
816	0.186033	0.188663	0.073778	0.18932	0.188334
817	0.187184	0.186198	0.078544	0.186526	0.187348
818	0.187841	0.186198	0.082324	0.186033	0.187348
819	0.188006	0.186198	0.091364	0.18817	0.191293
820	0.187677	0.184554	0.091035	0.187677	0.190471
821	0.189978	0.188827	0.095144	0.190307	0.188006
822	0.188006	0.187677	0.09991	0.190142	0.190307
823	0.18817	0.192772	0.103033	0.190635	0.189978
824	0.191621	0.188006	0.107471	0.192443	0.189978
825	0.188334	0.196223	0.107635	0.192115	0.188006
826	0.191621	0.189978	0.110593	0.188992	0.18932
827	0.189156	0.192279	0.115031	0.192772	0.193594
828	0.190964	0.192115	0.115853	0.186855	0.193922
829	0.191293	0.192608	0.119797	0.190471	0.194087
830	0.192443	0.193758	0.125221	0.192115	0.190635
831	0.194087	0.194909	0.125221	0.194251	0.194087
832	0.192608	0.19573	0.129001	0.186526	0.191128
833	0.190307	0.193594	0.131467	0.193429	0.191786
834	0.194744	0.195402	0.134261	0.190635	0.193429
835	0.196223	0.1908	0.135247	0.193429	0.194087
836	0.193594	0.196388	0.141	0.194416	0.193594
837	0.19195	0.190635	0.142807	0.19573	0.195237
838	0.191293	0.19195	0.146588	0.194909	0.192936
839	0.19195	0.190307	0.147081	0.185212	0.196717
840	0.191293	0.196223	0.149875	0.190471	0.194909
841	0.194087	0.194087	0.149217	0.198524	0.196388
842	0.191293	0.192443	0.153984	0.194744	0.19573
843	0.196223	0.196717	0.153162	0.19195	0.195237
844	0.195237	0.196717	0.155792	0.196388	0.19458
845	0.196552	0.196881	0.156942	0.195566	0.192608
846	0.195402	0.194416	0.159901	0.196881	0.192936
847	0.196881	0.196717	0.160229	0.196388	0.193594
848	0.195566	0.195073	0.159736	0.196717	0.194909
849	0.197045	0.198031	0.162202	0.196059	0.196223
850	0.198196	0.194416	0.166639	0.189156	0.204113
851	0.195895	0.198196	0.166475	0.192936	0.19721
852	0.198524	0.196388	0.168447	0.192608	0.195566
853	0.195237	0.196552	0.169762	0.194416	0.199511
854	0.197374	0.197703	0.172392	0.194416	0.197867
855	0.195237	0.196059	0.172556	0.199018	0.198031
856	0.192608	0.199839	0.173378	0.198031	0.19721
857	0.196223	0.200168	0.175679	0.199346	0.196552
858	0.200825	0.198853	0.170913	0.19836	0.198689
859	0.197867	0.196552	0.177651	0.199839	0.196717
860	0.200168	0.198196	0.176501	0.197374	0.199018
861	0.198524	0.19836	0.175843	0.200004	0.196717
862	0.196388	0.199018	0.180116	0.194909	0.196388
863	0.199839	0.197703	0.176336	0.197867	0.199018
864	0.195402	0.200332	0.184061	0.197045	0.196059
865	0.198031	0.199675	0.17798	0.195566	0.197703
866	0.199511	0.200004	0.179788	0.199346	0.196388
867	0.197867	0.199511	0.180281	0.198853	0.199182
868	0.197867	0.198031	0.181596	0.19721	0.196881
869	0.201154	0.197867	0.183075	0.199018	0.198689
870	0.19721	0.197374	0.185869	0.19836	0.197374
871	0.19836	0.19721	0.183239	0.198524	0.198031
872	0.196223	0.196881	0.186526	0.203784	0.201319
873	0.197374	0.197538	0.188334	0.195895	0.198689
874	0.197538	0.198524	0.185212	0.196388	0.198524
875	0.198031	0.19721	0.182911	0.196059	0.198524
876	0.196059	0.200168	0.185376	0.196881	0.197538
877	0.197538	0.199182	0.185212	0.196717	0.198524
878	0.195402	0.200168	0.18554	0.195402	0.197045
879	0.197045	0.202469	0.18817	0.197374	0.197703
880	0.195895	0.040577	0.18439	0.197374	0.19573
881	0.192772	0.044851	0.187184	0.197045	0.199839
882	0.195073	0.049617	0.186526	0.197703	0.199675
883	0.195073	0.056191	0.18554	0.199018	0.199018
884	0.196881	0.063094	0.187348	0.194744	0.198689
885	0.199018	0.068025	0.189485	0.196717	0.19573
886	0.198524	0.069997	0.188006	0.197045	0.198524
887	0.196388	0.081009	0.189156	0.194416	0.199182
888	0.202633	0.084461	0.18817	0.195402	0.198524
889	0.198689	0.091857	0.189814	0.195895	0.200168
890	0.199675	0.092679	0.188006	0.197045	0.197538
891	0.196552	0.101225	0.184061	0.199182	0.198689
892	0.200168	0.100896	0.18817	0.196881	0.201319
893	0.197703	0.105827	0.187184	0.201319	0.200332
894	0.198524	0.111415	0.188827	0.202305	0.195895
895	0.197374	0.114374	0.18817	0.199346	0.197374
896	0.197867	0.12177	0.187677	0.198031	0.199675
897	0.197538	0.118318	0.185869	0.19573	0.200332
898	0.199182	0.125221	0.187841	0.199511	0.197374
899	0.200168	0.127194	0.185047	0.199511	0.195895
900	0.199511	0.130809	0.185212	0.197045	0.197374
901	0.201647	0.132289	0.18817	0.198689	0.199346
902	0.198853	0.138041	0.191128	0.195402	0.200168
903	0.198196	0.138699	0.188499	0.19573	0.200661
904	0.200004	0.142479	0.1908	0.197703	0.200661
905	0.197045	0.143794	0.189156	0.196059	0.201483
906	0.198196	0.146259	0.18817	0.197703	0.201647
907	0.201319	0.147738	0.192279	0.197538	0.20099
908	0.198196	0.150697	0.188663	0.199839	0.199675
909	0.199018	0.151518	0.189814	0.200497	0.201154
910	0.200661	0.154641	0.189156	0.198196	0.199018
911	0.196388	0.155792	0.190964	0.199346	0.198524
912	0.196388	0.157928	0.189485	0.200825	0.197703
913	0.201154	0.161544	0.189978	0.19836	0.200497
914	0.196223	0.161215	0.190142	0.200497	0.20099
915	0.195566	0.161709	0.190142	0.201154	0.201483
916	0.199675	0.163352	0.188006	0.198689	0.200497
917	0.198031	0.169105	0.18932	0.197538	0.199018
918	0.198689	0.167461	0.192443	0.198031	0.197703
919	0.19836	0.166639	0.190471	0.198524	0.199346
920	0.199675	0.171406	0.193758	0.197703	0.199675
921	0.199346	0.172227	0.192279	0.200825	0.199839
922	0.200497	0.173378	0.192115	0.197703	0.199346
923	0.201319	0.173378	0.190307	0.200661	0.199839
924	0.202469	0.174693	0.191457	0.198853	0.20214
925	0.198196	0.175021	0.19195	0.200004	0.200825
926	0.200661	0.175515	0.194909	0.199018	0.199675
927	0.199018	0.177322	0.190635	0.202469	0.202469
928	0.196717	0.178966	0.198196	0.196059	0.196223
929	0.195895	0.177651	0.195566	0.201483	0.20214
930	0.197045	0.178637	0.193758	0.19721	0.202469
931	0.200661	0.177815	0.192115	0.202633	0.200004
932	0.197538	0.181103	0.194251	0.201319	0.200332
933	0.199839	0.17913	0.193101	0.199511	0.199511
934	0.197703	0.180281	0.194744	0.201976	0.200661
935	0.199018	0.184554	0.193922	0.200004	0.201319
936	0.197374	0.185047	0.196059	0.200497	0.200004
937	0.199346	0.185212	0.197374	0.19836	0.198689
938	0.20099	0.188499	0.195402	0.200661	0.198524
939	0.205263	0.188992	0.196223	0.19721	0.199346
940	0.201154	0.187019	0.196881	0.200004	0.196552
941	0.200825	0.187513	0.196388	0.199675	0.19836
942	0.201319	0.189156	0.192115	0.19836	0.196059
943	0.20099	0.189814	0.195895	0.202469	0.197045
944	0.200497	0.189814	0.196552	0.202798	0.201976
945	0.200168	0.191293	0.193594	0.201154	0.199675
946	0.20214	0.192772	0.196881	0.200332	0.202305
947	0.198196	0.193922	0.196388	0.200497	0.202633
948	0.200332	0.189485	0.193429	0.199839	0.200332
949	0.196388	0.192115	0.196717	0.200004	0.204441
950	0.202469	0.193265	0.19195	0.200332	0.20099
951	0.19836	0.1908	0.198524	0.20099	0.192772
952	0.198524	0.191786	0.197703	0.197045	0.199675
953	0.199346	0.194744	0.196388	0.197538	0.198689
954	0.200168	0.194087	0.199182	0.200004	0.199839
955	0.201319	0.193594	0.196059	0.198524	0.200004
956	0.204277	0.195073	0.196881	0.19721	0.19836
957	0.20362	0.196881	0.194087	0.198689	0.201154
958	0.200661	0.194251	0.200661	0.20099	0.197867
959	0.200497	0.188827	0.19573	0.201154	-1.9e-05
960	0.201483	0.193758	0.19836	0.201647	-0.000512
961	0.19721	0.195073	0.197538	0.200332	0.009843
962	0.201647	0.19573	0.201154	0.199346	0.007377
963	0.199839	0.192443	0.197703	0.200825	0.025292
964	0.200332	0.196388	0.19836	0.200825	0.034003
965	0.201319	0.192772	0.193922	0.199839	0.003597
966	0.198689	0.19573	0.199018	0.200004	0.00031
967	0.199511	0.198524	0.197867	0.200332	0.002611
968	0.199346	0.197538	0.194909	0.20214	0.009185
969	0.199675	0.19721	0.199182	0.200497	0.001789
970	0.200332	0.196388	0.196881	0.20099	-0.000183
971	0.199675	0.197703	0.19836	0.201647	-0.000841
972	0.199839	0.199018	0.197867	0.200497	0.006556
973	0.200497	0.196059	0.199346	0.199182	0.012637
974	0.200332	0.196717	0.198689	0.20099	0.020855
975	0.201483	0.199675	0.198689	0.199839	0.0271
976	0.202305	0.197538	0.199675	0.199018	0.034661
977	0.199511	0.19836	0.197703	0.199018	0.040742
978	0.201812	0.196881	0.200168	0.200825	0.05011
979	0.198524	0.194744	0.202633	0.20214	0.055863
980	0.198689	0.192608	0.196059	0.199346	0.063094
981	0.200497	0.195402	0.19836	0.201483	0.068025
982	0.199346	0.194087	0.198853	0.200825	0.072791
983	0.199839	0.193265	0.197045	0.204277	0.080187
984	0.199018	0.196059	0.20099	0.202633	0.085447
985	0.196717	0.195895	0.19721	0.201483	0.086269
986	0.200332	0.198689	0.19836	0.200661	0.090378
987	0.199675	0.19836	0.196552	0.200004	0.096952
988	0.200661	0.200497	0.198853	0.199346	0.096952
989	0.201154	0.196059	0.198524	0.201154	0.104841
990	0.202798	0.199511	0.200497	0.20099	0.106649
991	0.200168	0.199182	0.198031	0.201812	0.111744
992	0.201154	0.200168	0.200332	0.199346	0.111908
993	0.203126	0.198031	0.197374	0.199675	0.118483
994	0.199018	0.201483	0.199346	0.19836	0.123085
995	0.202305	0.197867	0.197538	0.199018	0.131467
996	0.199018	0.19458	0.196717	0.199346	0.129166
997	0.20099	0.200004	0.200004	0.200332	0.131302
998	0.199839	0.199346	0.195402	0.198196	0.135083
999	0.200661	0.19836	0.195566	0.200004	0.141328
1000	0.198196	0.198853	0.197045	0.203126	0.13952
1001	0.201319	0.200332	0.201812	0.200497	0.142643
1002	0.197867	0.19836	0.201812	0.202962	0.146259
1003	0.198853	0.200332	0.198196	0.199018	0.148231
1004	0.199018	0.198689	0.19721	0.200332	0.14856
1005	0.199511	0.200332	0.199675	0.198853	0.150368
1006	0.203291	0.199018	0.197703	0.202305	0.156285
1007	0.197703	0.20099	0.199018	0.197045	0.151683
1008	0.203948	0.199018	0.198524	0.197538	0.157271
1009	0.200332	0.200168	0.199346	0.200661	0.157271
1010	0.201483	0.20214	0.19836	0.197867	0.158257
1011	0.202962	0.200661	0.200332	0.198689	0.161709
1012	0.204113	0.200661	0.199675	0.202305	0.161051
1013	0.201319	0.199839	0.198524	0.203126	0.167132
1014	0.200332	0.200004	0.200825	0.199675	0.16779
1015	0.197374	0.196223	0.197045	0.201812	0.168612
1016	0.199839	0.196552	0.199182	0.199182	0.169762
1017	0.196881	0.199346	0.196388	0.202633	0.173214
1018	0.19836	0.199346	0.19836	0.200661	0.170091
1019	0.200661	0.200168	0.197045	0.201976	0.173049
1020	0.200497	0.201319	0.197867	0.201647	0.172885
1021	0.200661	0.200004	0.200004	0.201483	0.17535
1022	0.199511	0.201319	0.201483	0.203291	0.174693
1023	0.20214	0.201319	0.19836	0.20099	0.173214
1024	0.199675	0.201812	0.199511	0.200004	0.17798
1025	0.200497	0.200168	0.201483	0.200004	0.177487
1026	0.200332	0.202469	0.201812	0.201647	0.178144
1027	0.201483	0.197703	0.20099	0.198853	0.181267
1028	0.19836	0.200332	0.199182	0.199675	0.178637
1029	0.201319	0.19836	0.199346	0.199182	0.182911
1030	0.198031	0.202633	0.199839	0.201154	0.184554
1031	0.196881	0.198853	0.199511	0.200825	0.185376
1032	0.198853	0.199018	0.199511	0.199018	0.185047
1033	0.197867	0.199511	0.202633	0.198689	0.185869
1034	0.199346	0.199675	0.198196	0.201647	0.185212
1035	0.196717	0.198689	0.196552	0.201319	0.188006
1036	0.200661	0.198524	0.200332	0.201647	0.187513
1037	0.199839	0.200497	0.199018	0.201154	0.186855
1038	0.200168	0.199675	0.196552	0.200332	0.187184
1039	0.198853	0.201976	0.201647	0.201647	0.188006
1040	0.202305	0.199839	0.199839	0.200168	0.187348
1041	0.201154	0.201976	0.200825	0.197867	0.186691
1042	0.20214	0.201812	0.199346	0.199511	0.188663
1043	0.201483	0.203455	0.199182	0.200004	0.183897
1044	0.202305	0.198196	0.199839	0.198524	0.185705
1045	0.200497	0.200497	0.200332	0.201812	0.191457
1046	0.200497	0.202469	0.198196	0.194251	0.192115
1047	0.200497	0.19573	0.199346	0.20362	0.193265
1048	0.199675	0.200332	0.198524	0.200168	0.19458
1049	0.202305	0.199839	0.197045	0.197538	0.192443
1050	0.200825	0.199018	0.201154	0.199675	0.194087
1051	0.199675	0.199839	0.200004	0.200661	0.19573
1052	0.000146	0.20214	0.201154	0.20362	0.197045
1053	-1.9e-05	0.199839	0.19836	0.200004	0.193594
1054	0.001789	0.202469	0.201154	0.198196	0.194416
1055	0.010171	0.200332	0.197045	0.200661	0.196388
1056	0.015266	0.201647	0.202305	0.200825	0.192279
1057	0.000967	0.201319	0.198853	0.200825	0.195566
1058	-0.000512	0.200004	0.199182	0.200332	0.194087
1059	0.004912	0.201647	0.201647	0.200497	0.195566
1060	0.00031	0.201319	0.199182	0.200661	0.194251
1061	0.000967	0.204113	0.199839	0.20099	0.195895
1062	0.00031	0.203126	0.199018	0.200332	0.194744
1063	0.008528	0.202633	0.198689	0.200004	0.19573
1064	0.016088	0.200825	0.200168	0.203291	0.197538
1065	0.026771	0.200825	0.20099	0.203455	0.195895
1066	0.033674	0.197374	0.196881	0.203126	0.196552
1067	0.039756	0.203126	0.199182	0.201976	0.197374
1068	0.050603	0.198689	0.198196	0.20099	0.198689
1069	0.053069	0.20099	0.200004	0.200332	0.197867
1070	0.060793	0.199675	0.197045	0.204441	0.198031
1071	0.064902	0.200332	0.199346	0.201647	0.19721
1072	0.071641	0.201319	0.199018	0.20099	0.199675
1073	0.073778	0.201319	0.198524	0.200332	0.196059
1074	0.082982	0.20214	0.200661	0.199018	0.196717
1075	0.086104	0.200661	0.20099	0.202962	0.196881
1076	0.091199	0.200825	0.19836	0.198853	0.195073
1077	0.094651	0.201812	0.198689	0.202962	0.200004
1078	0.099746	0.205592	0.198524	0.200661	0.197045
1079	0.102704	0.204606	0.202469	0.202798	0.198853
1080	0.108293	0.202798	0.199511	0.200004	0.196059
1081	0.109772	0.200661	0.199839	0.203784	0.202962
1082	0.113388	0.201812	0.19721	0.197703	0.199675
1083	0.11914	0.199675	0.197374	0.202469	0.200004
1084	0.118811	0.199182	0.199675	0.19836	0.199018
1085	0.123085	0.198853	0.198853	0.200661	0.19836
1086	0.127194	0.199839	0.198689	0.200497	0.197045
1087	0.130645	0.199346	0.20099	0.199839	0.200661
1088	0.130974	0.196388	0.20099	0.200661	0.19836
1089	0.137548	0.198853	0.200661	0.199839	0.200168
1090	0.134097	0.199511	0.198031	0.200168	0.200004
1091	0.142314	0.201154	0.200332	0.197374	0.200004
1092	0.142807	0.200661	0.201319	0.199018	0.198524
1093	0.146423	0.199839	0.191621	0.19573	0.197867
1094	0.147903	0.201319	0.199018	0.195402	0.199511
1095	0.148724	0.200497	0.200661	0.194251	0.198524
1096	0.152505	0.20362	0.197538	0.189649	0.199839
1097	0.154148	0.205099	0.201154	0.188663	0.197045
1098	0.1576	0.201812	0.199511	0.188499	0.198524
1099	0.159408	0.203126	0.199346	0.177651	0.199511
1100	0.160887	0.202305	0.201647	0.127358	0.197374
1101	0.161051	0.204113	0.20214	0.087255	0.197045
1102	0.165489	0.199346	0.199511	0.068518	0.20099
1103	0.162859	0.201812	0.200004	0.0603	0.196223
1104	0.169926	0.202469	0.192936	0.054876	0.202469
1105	0.168447	0.20099	0.198031	0.049124	0.198031
1106	0.164503	0.200825	0.199839	0.046987	0.199675
1107	0.168776	0.201976	0.201319	0.042878	0.201483
1108	0.17157	0.200004	0.199346	0.025621	0.198853
1109	0.170913	0.201154	0.199346	0.021676	0.203291
1110	0.173871	0.205756	0.200497	0.018718	0.199182
1111	0.174364	0.201976	0.201647	0.017896	0.200825
1112	0.173049	0.199839	0.202305	0.011979	0.199346
1113	0.178473	0.200497	0.199511	0.007706	0.201319
1114	0.179788	0.204277	0.200497	0.005898	0.200332
1115	0.179623	0.017732	0.201154	0.004583	0.201812
1116	0.180445	0.000474	0.196059	0.004583	0.200332
1117	0.180445	0.001625	0.196223	0.006227	0.200661
1118	0.183075	-0.000183	0.199675	0.006227	0.199511
1119	0.184061	-0.000347	0.19721	0.006884	0.201647
1120	0.182582	-0.000183	0.199675	0.006884	0.200168
1121	0.185047	-0.000347	0.20099	0.007706	0.201319
1122	0.183075	-0.000183	0.201976	0.006556	0.199839
1123	0.186033	-1.9e-05	0.199675	0.005734	0.200661
1124	0.185047	0.000803	0.200004	0.00787	0.202305
1125	0.185869	0.010171	0.199839	0.003597	0.200497
1126	0.186855	0.01691	0.20214	0.005898	0.202305
1127	0.186855	0.026114	0.19458	0.005405	0.200661
1128	0.183075	0.030059	0.199675	0.010171	0.199675
1129	0.186526	0.039756	0.199839	0.006884	0.200825
1130	0.18932	0.043207	0.196881	0.008035	0.199839
1131	0.189156	0.052247	0.197374	0.006556	0.196059
1132	0.189814	0.057671	0.201319	0.008363	0.201647
1133	0.190471	0.064409	0.199675	0.008692	0.198853
1134	0.193265	0.070819	0.197703	0.008035	0.201319
1135	0.191128	0.076079	0.20099	0.003926	0.200332
1136	0.192772	0.081502	0.199839	0.003761	0.200004
1137	0.190964	0.085447	0.206085	0.005076	0.200825
1138	0.192608	0.090049	0.198689	0.005405	0.200661
1139	0.188827	0.094487	0.19721	0.008199	0.20214
1140	0.192608	0.097774	0.198853	0.005405	0.199182
1141	0.192936	0.102704	0.199182	0.010007	0.200168
1142	0.191128	0.105827	0.199511	0.004255	0.199675
1143	0.190635	0.11158	0.19836	0.005405	0.203784
1144	0.195402	0.113881	0.20099	0.00294	0.20099
1145	0.1908	0.11651	0.199675	0.00294	0.202962
1146	0.191786	0.124893	0.199839	0.001625	0.201483
1147	0.194416	0.125714	0.194744	0.005405	0.203455
1148	0.193265	0.12818	0.201647	0.003597	0.198031
1149	0.19573	0.130481	0.198031	0.002447	0.204277
1150	0.191457	0.133439	0.200332	0.001625	0.200004
1151	0.003761	0.135904	0.200004	0.002775	0.201812
1152	0.003268	0.13952	0.200168	0.00409	0.20214
1153	0.010336	0.141986	0.203291	0.001954	0.20477
1154	-0.000347	0.143794	0.198853	0.004583	0.203126
1155	-0.000183	0.147409	0.202798	0.001296	0.201812
1156	0.000146	0.146423	0.200497	0.004583	0.204606
1157	0.00031	0.148396	0.202305	0.00294	0.202798
1158	-1.9e-05	0.14856	0.201154	0.00409	0.200661
1159	0.000474	0.155792	0.202962	0.002118	0.202305
1160	-0.000183	0.155463	0.199675	0.00294	0.203126
1161	-0.001827	0.153984	0.200661	0.006062	0.201647
1162	-0.000183	0.156449	0.198689	0.00294	0.202469
1163	-0.000183	0.162037	0.200332	0.000803	0.200332
1164	0.004748	0.161215	0.199511	0.003761	0.201647
1165	-0.000512	0.165817	0.200497	-0.000676	0.199346
1166	0.000639	0.167132	0.200825	0.004419	0.200497
1167	0.000146	0.167132	0.200332	0.000146	0.200661
1168	0.000803	0.168447	0.198689	0.000639	0.200332
1169	0.003268	0.169926	0.202305	0.001789	0.202469
1170	0.00294	0.17272	0.198853	0.000474	0.200661
1171	0.00031	0.172227	0.200825	0.002282	0.200332
1172	0.000474	0.172227	0.201812	0.000474	0.199346
1173	-0.000183	0.173871	0.198031	0.002118	0.201483
1174	-1.9e-05	0.17535	0.200497	0.000803	0.200004
1175	-0.000183	0.173378	0.201154	0.002775	0.201812
1176	0.00146	0.180938	0.197703	0.000474	0.201483
1177	-0.000512	0.178802	0.20099	0.001789	0.202798
1178	0.003761	0.178473	0.20362	0.000639	0.200168
1179	0.000803	0.177322	0.197703	0.000639	0.202962
1180	0.000146	0.17913	0.198524	0.000803	0.201976
1181	0.000474	0.180774	0.197045	0.00146	0.202962
1182	0.000474	0.183075	0.19836	0.000639	0.198196
1183	0.002611	0.180774	0.194909	0.001789	0.19836
1184	0.012801	0.185869	0.198196	0.003268	0.19836
1185	0.022991	0.185869	0.197867	-0.000347	0.197867
1186	0.029401	0.187184	0.199675	0.001789	0.199839
1187	0.036962	0.188006	0.198853	0.000146	0.19836
1188	0.045508	0.183075	0.202305	0.000967	0.197867
1189	0.047973	0.188992	0.199346	0.000146	0.198196
1190	0.053562	0.188663	0.198853	-0.000183	0.20099
1191	0.059972	0.187841	0.200004	-1.9e-05	0.200497
1192	0.066546	0.189978	0.20099	0.001954	0.200004
1193	0.070819	0.190142	0.198853	0.000639	0.202798
1194	0.076079	0.189814	0.197703	0.001789	0.200497
1195	0.082653	0.193594	0.196552	0.001954	0.200332
1196	0.087748	0.191786	0.19573	0.001954	0.202798
1197	0.091692	0.193101	0.197045	0.000803	0.202798
1198	0.098102	0.193594	0.193429	0.00031	0.202962
1199	0.100896	0.194416	0.197045	0.000803	0.20099
1200	0.104512	0.192608	0.200332	-0.000512	0.200825
1201	0.108786	0.190964	0.198524	0.000803	0.201154
1202	0.109772	0.19458	0.200332	-1.9e-05	0.200661
1203	0.115195	0.192608	0.201647	0.001789	0.198853
1204	0.118318	0.19573	0.198031	-0.000183	0.19721
1205	0.123578	0.192936	0.199018	0.001954	0.201647
1206	0.00031	0.195895	0.200168	0.000146	0.199018
1207	-0.000347	0.194744	0.200004	0.001789	0.200332
1208	-0.000183	0.194251	0.199839	0.00031	0.201976
1209	-0.000347	0.196388	0.198689	0.001296	0.202962
1210	0.000474	0.198689	0.201319	0.000146	0.200661
1211	-0.000512	0.192115	0.200497	0.001132	0.204606
1212	0.008035	0.195895	0.198031	0.000474	0.203291
1213	0.013623	0.19458	0.198524	0.002282	0.20099
1214	0.022005	0.195073	0.201483	0.002775	0.20477
1215	0.026278	0.195566	0.198853	0.000967	0.201154
1216	0.034332	0.194251	0.201812	0.002118	0.199675
1217	0.037948	0.197045	0.201812	0.001625	0.203126
1218	0.043207	0.195402	0.199511	0.001296	0.200497
1219	0.052247	0.195237	0.201812	0.00146	0.203455
1220	0.033346	0.195237	0.199511	0.000474	0.20099
1221	0.04107	0.200497	0.201483	-0.000676	0.200332
1222	0.030223	0.192936	0.200332	0.000474	0.203126
1223	0.03614	0.197703	0.200332	-0.000676	0.201154
1224	0.006391	0.197867	0.201976	-0.000841	0.201812
1225	0.000474	0.199346	0.202962	0.000803	0.198689
1226	0.00031	0.198524	0.198689	0.00146	0.20099
1227	0.000146	0.198196	0.202633	0.000803	0.200004
1228	0.000146	0.196717	0.20214	0.001296	0.201647
1229	-0.000512	0.198689	0.200825	0.001625	0.201976
1230	-0.000347	0.19721	0.199182	0.000146	0.202633
1231	0.00146	0.190307	0.198524	0.002447	0.203455
1232	0.011979	0.196388	0.201319	0.00031	0.201976
1233	0.014773	0.198524	0.199182	0.000639	0.201647
1234	0.000803	0.197045	0.199675	0.000474	0.200825
1235	0.005734	0.196059	0.199511	0.000474	0.200497
1236	0.00787	0.19721	0.201319	0.00146	0.20099
1237	0.002611	0.199346	0.200332	0.00146	0.204277
1238	0.001625	0.19836	0.20214	0.000474	0.195895
1239	0.000639	0.197703	0.201483	0.002447	0.200004
1240	0.000474	0.201647	0.203126	-0.000183	0.198689
1241	0.003104	0.200168	0.198524	-0.001334	0.199675
1242	0.000474	0.201154	0.201976	0.001625	0.198196
1243	0.002118	0.201976	0.198689	0.001296	0.199839
1244	0.003761	0.200825	0.200332	0.001296	0.199346
1245	0.007213	0.202469	0.196552	0.000639	0.201154
1246	0.000146	0.198524	0.198524	0.000639	0.199839
1247	0.00031	0.200332	0.198196	0.001132	0.203948
1248	0.00031	0.200661	0.197867	0.001789	0.200661
1249	0.000146	0.200661	0.196881	0.001296	0.19721
1250	-1.9e-05	0.200004	0.196059	0.001132	0.198524
1251	-1.9e-05	0.201812	0.199182	0.002118	0.19836
1252	-0.000183	0.203784	0.198031	0.001296	0.200825
1253	-0.000183	0.204441	0.199675	-0.000183	0.202305
1254	-0.000183	0.202633	0.199511	0.000474	0.199675
1255	0.000146	0.200497	0.199346	-0.000183	0.202469
1256	-1.9e-05	0.20214	0.199675	0.001132	0.201154
1257	0.000146	0.201812	0.201319	-0.000183	0.199675
1258	0.00031	0.200825	0.201647	0.001954	0.200004
1259	0.00031	0.205592	0.199182	-0.000183	0.201812
1260	0.000146	0.201154	0.197867	0.000967	0.199675
1261	-0.000183	0.203126	0.200661	0.00146	0.200661
1262	-0.000183	0.201976	0.199346	0.00146	0.200332
1263	-0.000347	0.200661	0.198853	0.00146	0.199675
1264	-0.000512	0.200332	0.200168	0.000146	0.198689
1265	-0.000183	0.201154	0.199675	0.001296	0.200497
1266	0.00031	0.200004	0.200004	-0.000183	0.19836
1267	0.000146	0.200497	0.204113	0.00146	0.203126
1268	0.000146	0.200004	0.203291	0.00031	0.199839
1269	0.00031	0.199675	0.200004	0.00294	0.204113
1270	0.00031	0.20214	0.200332	0.000146	0.20099
1271	-1.9e-05	0.203126	0.199346	0.00146	0.200168
1272	-0.000183	0.201319	0.199839	0.00031	0.201154
1273	-1.9e-05	0.197867	0.198689	0.00294	0.20214
1274	-0.000347	0.20099	0.201154	-0.000183	0.201812
1275	-0.000512	0.198689	0.199839	-0.000512	0.200661
1276	-0.000183	0.198853	0.200497	0.001132	0.200661
1277	0.000146	0.202305	0.198196	0.00146	0.201812
1278	0.000146	0.201812	0.202798	0.000146	0.201154
1279	0.000146	0.200332	0.198853	0.001296	0.201319
1280	0.000474	0.20099	0.196881	0.000639	0.200825
1281	0.00031	0.202469	0.20099	0.001625	0.204113
1282	-1.9e-05	0.19836	0.200497	0.001132	0.203948
1283	0.000967	0.200004	0.201319	-1.9e-05	0.20214
1284	0.004583	0.199018	0.198853	0.002118	0.203784
1285	0.001132	0.198524	0.20099	0.001296	0.202633
1286	0.00294	0.195237	0.197867	0.000967	0.203948
1287	0.008857	0.202469	0.204277	-0.000512	0.202305
1288	0.001132	0.200168	0.201154	-0.000512	0.202962
1289	0.000146	0.201812	0.200497	-0.000841	0.199675
1290	0.000146	0.201976	0.200825	-0.000676	0.201483
1291	0.000146	0.202633	0.200497	0.000474	0.201976
1292	0.000146	0.203455	0.200497	-0.000676	0.200004
1293	0.00031	0.204277	0.199675	0.000146	0.199182
1294	0.005405	0.202798	0.200825	0.00031	0.199511
1295	0.01576	0.20099	0.200168	0.000639	0.202305
1296	0.022827	0.203455	0.199346	0.00146	0.202633
1297	0.025292	0.200825	0.199675	0.000803	0.200168
1298	0.0271	0.201483	0.200004	-0.001827	0.201319
1299	0.008199	0.20099	0.197538	0.000474	0.201154
1300	0.011979	0.199675	0.199182	-0.000183	0.200825
1301	0.016581	0.19836	0.200004	0.00146	0.204606
1302	0.022498	0.201319	0.20214	0.000146	0.201154
1303	0.031867	0.196223	0.199018	0.001625	0.203126
1304	0.040249	0.204934	0.201319	0.000474	0.205756
1305	0.046166	0.201812	0.199675	0.000474	0.20214
1306	0.050768	0.202633	0.199839	0.00031	0.199346
1307	0.057342	0.205099	0.200004	0.001296	0.201154
1308	0.061286	0.204277	0.198031	-0.001662	0.200825
1309	0.068847	0.203784	0.199511	-0.001991	0.202633
1310	0.074435	0.202798	0.200661	-0.000183	0.201319
1311	0.078544	0.203126	0.200168	-0.000841	0.20099
1312	0.084296	0.201976	0.201647	0.00031	0.201647
1313	0.084789	0.203784	0.202305	-1.9e-05	0.200004
1314	0.091857	0.20362	0.200332	0.000639	0.202633
1315	0.097445	0.203291	0.199675	0.00031	0.200825
1316	0.102704	0.200825	0.200004	0.00146	0.202962
1317	0.104184	0.202305	0.199675	0.001132	0.199675
1318	0.105334	0.199839	0.201319	0.001132	0.202305
1319	0.101554	0.202962	0.200004	0.000967	0.203455
1320	0.111744	0.200332	0.199346	0.00031	0.200825
1321	0.115195	0.199675	0.201319	0.000146	0.20214
1322	0.120948	0.20214	0.200004	-0.000183	0.202469
1323	0.12292	0.205592	0.198853	-0.000347	0.200825
1324	0.126043	0.205592	0.20099	0.000639	0.202633
1325	0.126043	0.20362	0.199182	0.000146	0.202798
1326	0.132946	0.205592	0.200825	-0.001169	0.197867
1327	0.135904	0.202798	0.19836	0.000803	0.203126
1328	0.135904	0.205921	0.200661	-0.000183	0.199182
1329	0.141328	0.200332	0.197045	0.003597	0.206085
1330	0.132946	0.205921	0.199675	-0.001498	0.200332
1331	0.144287	0.198031	0.197867	0.000803	0.199511
1332	0.142972	0.199346	0.201319	-0.000676	0.202305
1333	0.149053	0.200004	0.19836	0.00031	0.205099
1334	0.145602	0.202633	0.201483	-0.000183	0.202469
1335	0.148396	0.197374	0.200332	0.00146	0.20362
1336	0.153162	0.199018	0.196881	0.000803	0.202798
1337	0.154312	0.201483	0.199675	0.000803	0.203126
1338	0.153655	0.201483	0.20099	0.000967	0.202798
1339	0.156778	0.201483	0.198689	0.00294	0.20214
1340	0.159079	0.201812	0.197538	0.001132	0.200825
1341	0.159572	0.200497	0.19836	-1.9e-05	0.200004
1342	0.160229	0.200497	0.198853	0.000474	0.198689
1343	0.162859	0.202469	0.201812	-0.001334	0.200004
1344	0.165982	0.200825	0.199675	0.000146	0.201319
1345	0.166146	0.203126	0.200825	-0.000676	0.199839
1346	0.167954	0.201812	0.199675	0.001132	0.202962
1347	0.16894	0.203455	0.201154	0.00031	0.198853
1348	0.174528	0.202305	0.199675	0.001789	0.201154
1349	0.171899	0.201319	0.202798	-0.000183	0.20362
1350	0.175021	0.20099	0.199346	0.001296	0.201483
1351	0.171077	0.203455	0.201154	0.001789	0.202633
1352	0.178966	0.197703	0.200825	0.000803	0.203784
1353	0.174364	0.199018	0.198524	0.000146	0.20362
1354	0.176008	0.196881	0.199511	0.000967	0.204113
1355	0.178637	0.199182	0.199675	0.000967	0.20099
1356	0.181103	0.199182	0.198853	-0.002155	0.200168
1357	0.178473	0.200168	0.200168	0.002118	0.202633
1358	0.179459	0.202962	0.200168	0.000146	0.200004
1359	0.183897	0.200661	0.199511	0.001954	0.201812
1360	0.181267	0.201812	0.201647	0.002118	0.201154
1361	0.183568	0.202305	0.200004	0.000639	0.201154
1362	0.181924	0.201319	0.201483	0.00146	0.200661
1363	0.188663	0.19195	0.199511	0.001132	0.200497
1364	0.182417	0.200004	0.202469	-0.000676	0.198689
1365	0.183404	0.199839	0.201483	0.000474	0.201154
1366	0.182089	0.199839	0.202962	-0.000512	0.200661
1367	0.186855	0.199839	0.199018	0.001132	0.202798
1368	0.181596	0.199839	0.199018	0.000146	0.201319
1369	0.186033	0.200497	0.201483	0.000967	0.200825
1370	0.18817	0.20362	0.199675	0.000967	0.199675
1371	0.188663	0.203948	0.201976	0.00146	0.200332
1372	0.187184	0.206907	0.198853	0.001625	0.200825
1373	0.188334	0.200332	0.199018	0.000803	0.19721
1374	0.193922	0.193101	0.200004	0.001625	0.198524
1375	0.18817	0.202633	0.199346	0.000967	0.19721
1376	0.189485	0.201976	0.19836	0.00146	0.199018
1377	0.187513	0.200004	0.200168	0.000146	0.199346
1378	0.190635	0.202633	0.198524	-0.000512	0.20099
1379	0.187677	0.202469	0.200497	0.001789	0.199839
1380	0.189978	0.199346	0.199018	0.00146	0.201483
1381	0.193101	0.204277	0.198524	0.001789	0.196881
1382	0.190142	0.200497	0.202305	0.00031	0.20099
1383	0.189485	0.202469	0.201154	-0.000347	0.20099
1384	0.193101	0.20099	0.197867	0.001132	0.202305
1385	0.194087	0.201483	0.199675	0.004583	0.201319
1386	0.192279	0.20099	0.199018	-0.001827	0.197374
1387	0.19573	0.20099	0.19836	0.001625	0.20214
1388	0.194416	0.201483	0.200661	0.000803	0.199018
1389	0.194909	0.201812	0.197045	0.001789	0.202469
1390	0.195895	0.202305	0.201976	-0.002155	0.198689
1391	0.19458	0.199346	0.197703	0.007213	0.20214
1392	0.196223	0.204113	0.199675	0.005734	0.200332
1393	0.196881	0.200332	0.197045	0.007542	0.200661
1394	0.194416	0.200661	0.201154	0.010336	0.200497
1395	0.196552	0.202469	0.195073	0.016417	0.202469
1396	0.195402	0.204277	0.196223	0.024635	0.196881
1397	0.195237	0.20099	0.199511	0.032688	0.200332
1398	0.195073	0.200661	0.196717	0.037783	0.198196
1399	0.193922	0.201483	0.200004	0.045508	0.201154
1400	0.19573	0.200332	0.199018	0.051425	0.201976
1401	0.196552	0.199511	0.201154	0.055863	0.201647
1402	0.195237	0.200168	0.199182	0.061779	0.205427
1403	0.197703	0.20362	0.199839	0.068518	0.200661
1404	0.199018	0.203126	0.198853	0.076736	0.202962
1405	0.192772	0.200004	0.199182	0.076572	0.200661
1406	0.200004	0.200497	0.199839	0.085283	0.204606
1407	0.200168	0.205263	0.200168	0.090706	0.203455
1408	0.196223	0.197538	0.200825	0.09991	0.20214
1409	0.195566	0.201976	0.200661	0.101883	0.201647
1410	0.197538	0.200168	0.201483	0.102869	0.203455
1411	0.195073	0.199839	0.200497	0.10632	0.201976
1412	0.198031	0.199018	0.200168	0.107635	0.202305
1413	0.194909	0.203291	0.198853	0.112566	0.202962
1414	0.196552	0.201154	0.200661	0.118811	0.201483
1415	0.195895	0.20099	0.200168	0.121112	0.199346
1416	0.197538	0.200332	0.20214	0.125714	0.199675
1417	0.19721	0.20214	0.204113	0.131796	0.203126
1418	0.19573	0.204441	0.202962	0.129823	0.200332
1419	0.196881	0.202469	0.200168	0.135411	0.202305
1420	0.196223	0.201319	0.201319	0.135411	0.203126
1421	0.199839	0.200497	0.198524	0.139356	0.202469
1422	0.196717	0.199182	0.200661	0.141164	0.201154
1423	0.200497	0.199182	0.200168	0.145108	0.201812
1424	0.19573	0.201154	0.202798	0.145273	0.201154
1425	0.200332	0.204441	0.200168	0.14856	0.201976
1426	0.200004	0.203126	0.200497	0.150204	0.200332
1427	0.198031	0.200332	0.201319	0.153326	0.200825
1428	0.196223	0.200004	0.200004	0.156285	0.201154
1429	0.200332	0.202305	0.197867	0.158421	0.201812
1430	0.193265	0.196717	0.201483	0.156449	0.200168
1431	0.195895	0.19836	0.198196	0.159243	0.200332
1432	0.19721	0.200497	0.202305	0.161051	0.201812
1433	0.196388	0.199182	0.202798	0.162202	0.201647
1434	0.196717	0.20099	0.202962	0.164503	0.202305
1435	0.197703	0.200004	0.20099	0.163681	0.201812
1436	0.200825	0.201647	0.199182	0.166639	0.201812
1437	0.202798	0.203126	0.200497	0.168612	0.197538
1438	0.203784	0.201483	0.198853	0.168612	0.197045
1439	0.202469	0.20362	0.200825	0.170255	0.197538
1440	0.203455	0.202305	0.198196	0.174693	0.201812
1441	0.198853	0.201319	0.199675	0.16894	0.196552
1442	0.200332	0.200825	0.201154	0.174035	0.200825
1443	0.202305	0.201483	0.199018	0.174035	0.20099
1444	0.200497	0.200661	0.200661	0.173871	0.200168
1445	0.199182	0.199675	0.198689	0.177487	0.202469
1446	0.199182	0.200661	0.195237	0.177322	0.203291
1447	0.198524	0.201647	0.197867	0.180281	0.199346
1448	0.199346	0.20214	0.195237	0.180116	0.197867
1449	0.200004	0.205099	0.196223	0.178309	0.200825
1450	0.199675	0.205592	0.199346	0.18061	0.200497
1451	0.201647	0.203455	0.195895	0.182253	0.199182
1452	0.19836	0.203948	0.200332	0.179952	0.200661
1453	0.200332	0.200004	0.199346	0.182746	0.203948
1454	0.200825	0.206085	0.201483	0.178637	0.199182
1455	0.202305	0.202962	0.199839	0.183568	0.198853
1456	0.195402	0.20362	0.201647	0.186033	0.202305
1457	0.199675	0.201647	0.199018	0.185047	0.202305
1458	0.199839	0.206578	0.201154	0.18439	0.200004
1459	0.199839	0.201976	0.20099	0.186855	0.204606
1460	0.200825	0.202469	0.199839	0.186691	0.198524
1461	0.201976	0.201812	0.199346	0.195073	0.202305
1462	0.196881	0.201976	0.20099	0.192279	0.202798
1463	0.19836	0.200168	0.199346	0.190142	0.201812
1464	0.197703	0.199511	0.199346	0.192279	0.202962
1465	0.199346	0.201319	0.201647	0.183897	0.20214
1466	0.200497	0.200497	0.197374	0.191786	0.202469
1467	0.197703	0.201154	0.200825	0.191786	0.201812
1468	0.197538	0.199182	0.195237	0.192443	0.203291
1469	0.203126	0.205099	0.200825	0.191457	0.198853
1470	0.201976	0.199839	0.199346	0.190142	0.201647
1471	0.201154	0.200825	0.200497	0.192279	0.203455
1472	0.20214	0.200497	0.202469	0.194251	0.201976
1473	0.201483	0.203455	0.200004	0.191786	0.202633
1474	0.200168	0.200825	0.201483	0.192772	0.203291
1475	0.201483	0.198524	0.201976	0.194744	0.201976
1476	0.207728	0.197867	0.201154	0.186033	0.203126
1477	0.200497	0.200004	0.200661	0.19458	0.201483
1478	0.197045	0.199018	0.200497	0.19573	0.203455
1479	0.196552	0.199346	0.199675	0.199018	0.204113
1480	0.200004	0.200004	0.200332	0.194251	0.199346
1481	0.196223	0.198853	0.196552	0.198524	0.204441
1482	0.195895	0.200332	0.200497	0.193429	0.203948
1483	0.199511	0.200497	0.194744	0.19836	0.20362
1484	0.201812	0.201154	0.1908	0.197703	0.203126
1485	0.200168	0.198524	0.197538	0.196223	0.204277
1486	0.199182	0.202469	0.200332	0.196223	0.199018
1487	0.200332	0.201154	0.199675	0.19195	0.201812
1488	0.201319	0.204934	0.200332	0.192443	0.196552
1489	0.200332	0.201812	0.201647	0.194416	0.19721
1490	0.197374	0.201976	0.201319	0.197703	0.202798
1491	0.202633	0.201812	0.20099	0.197374	0.197538
1492	0.198853	0.201647	0.199675	0.196552	0.197374
1493	0.201483	0.200332	0.200497	0.196881	0.202469
1494	0.203291	0.201154	0.203948	0.197703	0.200332
1495	0.200332	0.198689	0.199511	0.199346	0.20362
1496	0.197538	0.200004	0.195895	0.199346	0.203948
1497	0.198524	0.200168	0.202633	0.197867	0.199675
1498	0.200825	0.199346	0.199182	0.202469	0.200661
1499	0.198524	0.202305	0.197045	0.196881	0.200497
1500	0.201319	0.20099	0.197374	0.196717	0.197045
1501	0.199018	0.201647	0.197703	0.196552	0.204277
1502	0.202469	0.202962	0.199346	0.19721	0.200661
1503	0.200168	0.202962	0.197703	0.196552	0.197538
1504	0.200661	0.200497	0.200661	0.194251	0.20214
1505	0.202798	0.201812	0.198689	0.196552	0.198031
1506	0.206414	0.200168	0.198196	0.086433	0.204113
1507	0.199018	0.207564	0.201647	0.00031	0.199675
1508	0.200497	0.201976	0.200825	-0.000183	0.198524
1509	0.201154	0.200332	0.201154	-0.000676	0.201154
1510	0.200332	0.20099	0.201976	-0.001991	0.201319
1511	0.200332	0.200332	0.201483	0.009678	0.200661
1512	0.198689	0.200332	0.201154	0.013952	0.201647
1513	0.201483	0.20099	0.199346	0.024635	0.200004
1514	0.199675	0.201647	0.199018	0.031373	0.201647
1515	0.199018	0.199511	0.199182	0.038276	0.202469
1516	0.199839	0.203455	0.198853	0.045837	0.199839
1517	0.199839	0.200661	0.197374	0.051261	0.202962
1518	0.197374	0.200004	0.199675	0.059972	0.201812
1519	0.204441	0.201812	0.197374	0.063916	0.200661
1520	0.201812	0.202305	0.198689	0.072463	0.196717
1521	0.201483	0.200497	0.19836	0.071805	0.199839
1522	0.198031	0.203948	0.203948	0.07838	0.196717
1523	0.201483	0.200825	0.197538	0.084132	0.199018
1524	0.202305	0.202633	0.199182	0.08857	0.199182
1525	0.202305	0.205263	0.200332	0.092514	0.200497
1526	0.20099	0.200168	0.198196	0.098102	0.199346
1527	0.19836	0.202962	0.20099	0.103691	0.202633
1528	0.198689	0.199675	0.199182	0.104841	0.202305
1529	0.19458	0.199018	0.199675	0.112401	0.203126
1530	0.200661	0.198524	0.19836	0.114867	0.204277
1531	0.197045	0.198689	0.197703	0.118154	0.201483
1532	0.197538	0.19721	0.197538	0.122592	0.205099
1533	0.198689	0.200825	0.199839	0.123413	0.202305
1534	0.200332	0.198031	0.19721	0.128015	0.202305
1535	0.198853	0.199511	0.199346	0.132617	0.199675
1536	0.20214	0.199675	0.196552	0.133275	0.198031
1537	0.195566	0.200661	0.199346	0.134918	0.19836
1538	0.200168	0.199511	0.198524	0.138205	0.199018
1539	0.200497	0.202633	0.19836	0.141164	0.200168
1540	0.199675	0.197045	0.202962	0.141164	0.200332
1541	0.200332	0.197867	0.200825	0.15119	0.200661
1542	0.199511	0.199346	0.200168	0.149217	0.200332
1543	0.200661	0.196552	0.201647	0.151025	0.202798
1544	0.199182	0.198031	0.201483	0.152176	0.20099
1545	0.199511	0.197374	0.196552	0.15497	0.200332
1546	0.198689	0.197374	0.19836	0.157107	0.201976
1547	0.200825	0.197538	0.195073	0.158093	0.203291
1548	0.199182	0.197538	0.198196	0.157435	0.199839
1549	0.198689	0.19573	0.19573	0.163352	0.20099
1550	0.202305	0.195895	0.196881	0.162859	0.201319
1551	0.199018	0.193265	0.197045	0.163188	0.202305
1552	0.198524	0.194416	0.200497	0.165817	0.20099
1553	0.200168	0.192772	0.199675	0.168447	0.200168
1554	0.199839	0.193922	0.200004	0.168118	0.200332
1555	0.196388	0.190635	0.202469	0.164338	0.200168
1556	0.200661	0.191786	0.19836	0.170913	0.199839
1557	0.203455	0.194909	0.20099	0.170419	0.196223
1558	0.201812	0.192115	0.200004	0.174528	0.200004
1559	0.200004	0.192115	0.201812	0.173049	0.199839
1560	0.201154	0.19195	0.200168	0.176829	0.199511
1561	0.202469	0.194251	0.200825	0.174857	0.196717
1562	0.199675	0.190964	0.199346	0.175021	0.205592
1563	0.199346	0.188827	0.201976	0.177651	0.200168
1564	0.201812	0.193594	0.200661	0.181267	0.201976
1565	0.198196	0.188992	0.199182	0.179788	0.200497
1566	0.200497	0.187841	0.201976	0.182582	0.197867
1567	0.198853	0.188334	0.197374	0.181431	0.198031
1568	0.201319	0.187019	0.199346	0.18176	0.202962
1569	0.201647	0.188334	0.199018	0.183239	0.201154
1570	0.202962	0.186855	0.199346	0.180938	0.198524
1571	0.201154	0.188334	0.198689	0.186691	0.198524
1572	0.198853	0.188006	0.199675	0.185376	0.199346
1573	0.199839	0.183239	0.204277	0.18554	0.200661
1574	0.198196	0.183897	0.203291	0.185376	0.199182
1575	0.200661	0.181431	0.199675	0.190964	0.199675
1576	0.200332	0.182746	0.201154	0.186033	0.199839
1577	0.199346	0.177815	0.202305	0.187184	0.195402
1578	0.200497	0.178309	0.199839	0.187184	0.198196
1579	0.201647	0.176994	0.199182	0.188827	0.199839
1580	0.200825	0.178144	0.199346	0.189485	0.200168
1581	0.202798	0.171406	0.195895	0.191128	0.201812
1582	0.198689	0.166968	0.200004	0.192772	0.200168
1583	0.200332	0.168447	0.200497	0.190964	0.201483
1584	0.201319	0.164503	0.199018	0.189156	0.20099
1585	0.198031	0.159736	0.199346	0.186691	0.200497
1586	0.197045	0.160558	0.199839	0.195402	0.202305
1587	0.201154	0.160394	0.199675	0.189649	0.202305
1588	0.202798	0.158914	0.200004	0.192279	0.188827
1589	0.200004	0.159243	0.200332	0.192279	0.196223
1590	0.200661	0.158421	0.198524	0.193101	0.197867
1591	0.199182	0.158421	0.199839	0.193594	0.198689
1592	0.201483	0.156285	0.197374	0.193101	0.198524
1593	0.199346	0.1576	0.195237	0.193922	0.196059
1594	0.204113	0.155956	0.199675	0.196059	0.200661
1595	0.199675	0.157435	0.203291	0.194087	0.200661
1596	0.202305	0.15119	0.200004	0.193922	0.201319
1597	0.199839	0.153326	0.20099	0.197045	0.204113
1598	0.203291	0.153984	0.199018	0.19195	0.201976
1599	0.201483	0.154477	0.200168	0.195566	0.195895
1600	0.200825	0.147245	0.197703	0.193922	0.199511
1601	0.201483	0.145766	0.19721	0.19195	0.20099
1602	0.201483	0.145602	0.200004	0.194416	0.20099
1603	0.200661	0.141493	0.199675	0.196223	0.200332
1604	0.200661	0.141	0.201483	0.194416	0.201647
1605	0.201319	0.135576	0.198853	0.19573	0.201647
1606	0.198689	0.133439	0.201647	0.195895	0.20099
1607	0.195237	0.131138	0.199182	0.201319	0.202962
1608	0.19836	0.131138	0.201154	0.200332	0.200825
1609	0.201154	0.12933	0.199511	0.196059	0.206249
1610	0.197867	0.128015	0.200332	0.198196	0.199675
1611	0.199675	0.122427	0.201319	0.198031	0.205099
1612	0.19836	0.123742	0.201319	0.197374	0.199346
1613	0.201647	0.119962	0.198524	0.202305	0.201647
1614	0.200332	0.119469	0.201976	0.19836	0.201483
1615	0.202962	0.117332	0.201812	0.198524	0.197867
1616	0.202962	0.117496	0.204441	0.199675	0.200168
1617	0.200661	0.110265	0.20099	0.197045	0.200168
1618	0.200825	0.108128	0.199675	0.198031	0.204277
1619	0.200497	0.10139	0.20099	0.200661	0.203126
1620	0.199346	0.090871	0.200497	0.197703	0.201154
1621	0.201812	0.089391	0.19836	0.198196	0.206249
1622	0.197374	0.075257	0.198196	0.198524	0.199182
1623	0.196717	0.071805	0.200168	0.201812	0.200825
1624	0.198853	0.069669	0.197703	0.199839	0.201647
1625	0.198031	0.066546	0.205921	0.186855	0.204441
1626	0.200004	0.064409	0.201319	0.136069	0.200332
1627	0.200497	0.070983	0.20099	0.131138	0.198853
1628	0.200825	0.071312	0.199182	0.131138	0.202469
1629	0.200004	0.074599	0.197538	-0.000183	0.201154
1630	0.197538	0.077229	0.200004	-0.000183	0.199675
1631	0.198853	0.079366	0.199182	-1.9e-05	0.198196
1632	0.201319	0.079859	0.19836	0.00031	0.20477
1633	0.199018	0.076572	0.198524	0.000146	0.19836
1634	0.200332	0.081502	0.201647	0.000146	0.200497
1635	0.202469	0.083968	0.198853	0.000474	0.200497
1636	0.203291	0.084132	0.20099	0.000146	0.200332
1637	0.201319	0.082817	0.201154	-1.9e-05	0.201154
1638	0.197703	0.085611	0.202469	-0.000183	0.196717
1639	0.199018	0.080352	0.201483	-0.000183	0.203784
1640	0.202305	0.081831	0.200168	-0.000347	0.198853
1641	0.200661	0.082653	0.198853	-0.000183	0.200661
1642	0.198196	0.082982	0.198689	-1.9e-05	0.200168
1643	0.202469	0.082324	0.19836	0.000146	0.203291
1644	0.199511	0.084132	0.197538	0.000146	0.200004
1645	0.201483	0.085776	0.196059	0.00031	0.201812
1646	0.203784	0.084296	0.19573	0.000146	0.198853
1647	0.204113	0.083639	0.197867	0.000146	0.199675
1648	0.201647	0.086597	0.198524	-1.9e-05	0.203784
1649	0.201647	0.091364	0.198196	-0.000183	0.200332
1650	0.20099	0.090378	0.200497	-1.9e-05	0.20362
1651	0.201812	0.09498	0.202469	-1.9e-05	0.201647
1652	0.201483	0.093336	0.199675	0.000967	0.200661
1653	0.199675	0.092021	0.200497	0.000803	0.202633
1654	0.201319	0.086926	0.195895	0.001954	0.202469
1655	0.197867	0.074599	0.201319	0.000639	0.199346
1656	0.201812	0.066381	0.198689	0.002282	0.202962
1657	0.199511	0.069176	0.200661	0.00294	0.201319
1658	0.200004	0.056356	0.198031	0.000146	0.201647
1659	0.008199	0.051589	0.20099	0.002775	0.205263
1660	0.007706	0.048302	0.197867	0.002611	0.198689
1661	0.007542	0.042221	0.195895	0.005405	0.201154
1662	0.016417	0.041892	0.201976	0.009185	0.202305
1663	0.023813	0.044686	0.19836	0.016746	0.199511
1664	0.034989	0.050603	0.197703	0.016746	0.199675
1665	0.04255	0.054055	0.199839	0.027922	0.20214
1666	0.049124	0.056849	0.200004	0.034332	0.194087
1667	0.056684	0.057835	0.200825	0.041564	0.204441
1668	0.060958	0.05915	0.200332	0.046987	0.201976
1669	0.070983	0.058492	0.199675	0.054548	0.203291
1670	0.072134	0.059314	0.205099	0.061122	0.200004
1671	0.080352	0.061615	0.200497	0.068189	0.200332
1672	0.081338	0.056849	0.20362	0.072791	0.201319
1673	0.087255	0.052082	0.19721	0.078051	0.201976
1674	0.092514	0.053726	0.198524	0.083968	0.202469
1675	0.096788	0.048795	0.189485	0.087912	0.200825
1676	0.099746	0.047152	0.197538	0.093665	0.203948
1677	0.104019	0.042221	0.198031	0.097116	0.200332
1678	0.106649	0.042057	0.197374	0.10254	0.200004
1679	0.112237	0.044851	0.199018	0.103526	0.200004
1680	0.116839	0.035154	0.197045	0.108128	0.198196
1681	0.118811	0.034496	0.200332	0.112401	0.201812
1682	0.122263	0.037619	0.200825	0.115689	0.198689
1683	0.123085	0.041399	0.197374	0.11914	0.198853
1684	0.130152	0.040742	0.199839	0.123413	0.200332
1685	0.13196	0.049946	0.201976	0.125386	0.201812
1686	0.136562	0.051918	0.1908	0.126536	0.200661
1687	0.135576	0.054712	0.200825	0.133603	0.201483
1688	0.140835	0.057671	0.200661	0.131467	0.199675
1689	0.142807	0.062273	0.200332	0.136891	0.199182
1690	0.146095	0.059807	0.199675	0.14215	0.201976
1691	0.149217	0.066546	0.201154	0.138699	0.199182
1692	0.146259	0.065067	0.200332	0.144451	0.200004
1693	0.152176	0.065888	0.200661	0.148889	0.20099
1694	0.154641	0.066217	0.200661	0.148724	0.200825
1695	0.151683	0.068847	0.195237	0.152176	0.201319
1696	0.1576	0.074106	0.198689	0.150532	0.199675
1697	0.157928	0.077393	0.194251	0.155956	0.200004
1698	0.158093	0.080023	0.197867	0.153655	0.198196
1699	0.164338	0.081831	0.197703	0.15234	0.200661
1700	0.163188	0.08594	0.198524	0.158421	0.199018
1701	0.166639	0.083146	0.198031	0.160887	0.201647
1702	0.164503	0.090049	0.203126	0.159243	0.200497
1703	0.168776	0.089391	0.199346	0.163845	0.20099
1704	0.16894	0.093829	0.202469	0.16516	0.197867
1705	0.171734	0.094322	0.200497	0.167297	0.202305
1706	0.170913	0.093172	0.200661	0.172885	0.202469
1707	0.173542	0.097609	0.199839	0.173378	0.201812
1708	0.175021	0.100075	0.200497	0.173378	0.199511
1709	0.175843	0.101883	0.198031	0.171406	0.205263
1710	0.174035	0.101225	0.197703	0.175843	0.198524
1711	0.175021	0.103691	0.201319	0.175021	0.197374
1712	0.177487	0.105663	0.198524	0.177158	0.199675
1713	0.175186	0.107635	0.200825	0.174035	0.199346
1714	0.179952	0.107306	0.198031	0.176665	0.199675
1715	0.176829	0.107635	0.201483	0.180116	0.200825
1716	0.181924	0.103691	0.19836	0.181596	0.199346
1717	0.181924	0.104348	0.198524	0.178966	0.202469
1718	0.181924	0.103033	0.200497	0.182089	0.202305
1719	0.181596	0.106156	0.205592	0.181596	0.201976
1720	0.184554	0.104348	0.196881	0.179952	0.201319
1721	0.183404	0.100732	0.198853	0.182417	0.200004
1722	0.188663	0.097445	0.199511	0.183897	0.20099
1723	0.186198	0.095473	0.201647	0.185212	0.200004
1724	0.188663	0.09498	0.19836	0.184225	0.202798
1725	0.186198	0.092843	0.196223	0.187841	0.200825
1726	0.189814	0.095473	0.199675	0.187841	0.199346
1727	0.187184	0.09235	0.200661	0.188992	0.201812
1728	0.186526	0.094158	0.198031	0.186526	0.199675
1729	0.187841	0.091692	0.198853	0.190307	0.202305
1730	0.187513	0.093172	0.202305	0.187677	0.20214
1731	0.187841	0.087912	0.197538	0.188663	0.20362
1732	0.184225	0.088241	0.200825	0.188006	0.19721
1733	0.191293	0.091364	0.19721	0.188006	0.201812
1734	0.187348	0.094158	0.193758	0.189156	0.200332
1735	0.188663	0.091692	0.199346	0.188992	0.199182
1736	0.19195	0.09498	0.200497	0.191128	0.200004
1737	0.193594	0.080352	0.200825	0.192443	0.196552
1738	0.191128	0.068025	0.200332	0.190964	0.199675
1739	0.193922	0.055534	0.199675	0.191457	0.199018
1740	0.192115	0.051754	0.200004	0.194416	0.201812
1741	0.194416	0.046823	0.202469	0.189978	0.202305
1742	0.194744	0.042385	0.198689	0.192608	0.200332
1743	0.192772	0.038605	0.198196	0.193101	0.20099
1744	0.194909	0.037783	0.199839	0.194251	0.202469
1745	0.194744	0.036797	0.200661	0.193429	0.199346
1746	0.195895	0.035318	0.198196	0.194909	0.202305
1747	0.193101	0.034003	0.195895	0.194416	0.200497
1748	0.19573	0.024635	0.19721	0.198031	0.199018
1749	0.195073	0.027758	0.199018	0.196059	0.201812
1750	0.197538	0.025457	0.194744	0.192608	0.199675
1751	0.192443	0.026114	0.198689	0.196552	0.200825
1752	0.195073	0.028086	0.20099	0.193429	0.200497
1753	0.195073	0.025621	0.198031	0.193758	0.200004
1754	0.191621	0.01954	0.199839	0.193758	0.200332
1755	0.197538	0.020526	0.199675	0.197703	0.200661
1756	0.199182	0.015595	0.200004	0.19721	0.200168
1757	0.196388	0.014445	0.199346	0.199182	0.201812
1758	0.197374	0.013952	0.198524	0.196717	0.199839
1759	0.199675	0.014773	0.199675	0.195566	0.199839
1760	0.197867	0.013787	0.20214	0.197538	0.19836
1761	0.196881	0.013623	0.198853	0.198853	0.201483
1762	0.19721	0.012637	0.201483	0.194744	0.199018
1763	0.197867	0.010993	0.200332	0.199018	0.202305
1764	0.19573	0.012308	0.199346	0.198524	0.202633
1765	0.195402	0.00672	0.198524	0.20362	0.201154
1766	0.195073	0.011322	0.200168	0.199675	0.199511
1767	0.199018	0.009843	0.199346	0.19836	0.197374
1768	0.197045	0.009843	0.196881	0.197867	0.200168
1769	0.194744	0.010336	0.199346	0.198524	0.200825
1770	0.198689	0.015266	0.20099	0.198853	0.19721
1771	0.197703	0.008363	0.197703	0.197374	0.199182
1772	0.198196	0.00935	0.198853	0.199018	0.20099
1773	0.200332	0.009678	0.196388	0.197867	0.199675
1774	0.198031	0.007542	0.203784	0.199182	0.198524
1775	0.199346	0.00787	0.204277	0.198524	0.203455
1776	0.19836	0.006556	0.199018	0.19721	0.201976
1777	0.197045	0.008035	0.201154	0.199182	0.197374
1778	0.200825	0.006062	0.197374	0.198031	0.200497
1779	0.196223	0.005076	0.201812	0.197374	0.202633
1780	0.198031	0.001789	0.198031	0.199182	0.201154
1781	0.200497	0.003597	0.200004	0.200168	0.198689
1782	0.194087	0.002611	0.199182	0.197374	0.201154
1783	0.193429	0.005076	0.196552	0.199346	0.201154
1784	0.200661	0.004255	0.198689	0.199675	0.202469
1785	0.19573	0.003433	0.198689	0.198196	0.198031
1786	0.199675	0.001296	0.199018	0.197045	0.198689
1787	0.196552	0.002611	0.200004	0.199511	0.199675
1788	0.198689	0.001789	0.198031	0.199182	0.199182
1789	0.200661	0.002118	0.198689	0.198689	0.199018
1790	0.201319	0.002118	0.200332	0.196059	0.00294
1791	0.200004	0.000803	0.197703	0.197867	0.017074
1792	0.201647	0.000803	0.19721	0.196717	0.023156
1793	0.200497	0.000146	0.200168	0.198524	0.034989
1794	0.199018	0.001625	0.200004	0.199018	0.038769
1795	0.20099	0.000639	0.197374	0.200004	0.046494
1796	0.200332	0.004912	0.198524	0.200661	0.053233
1797	0.200168	0.000803	0.19458	0.200004	0.062108
1798	0.196388	0.001789	0.196059	0.200497	0.066546
1799	0.20214	-0.000183	0.198524	0.201154	0.075914
1800	0.198524	0.000474	0.199675	0.200332	0.077886
1801	0.199182	0.00146	0.198689	0.197045	0.07953
1802	0.19836	0.002447	0.197374	0.200661	0.087255
1803	0.200825	0.004583	0.199346	0.199675	0.090542
1804	0.199511	0.001625	0.198689	0.197867	0.095637
1805	0.197703	0.002611	0.200004	0.198689	0.099746
1806	0.200497	0.002611	0.198689	0.204934	0.103855
1807	0.200497	0.003926	0.201647	0.199346	0.105827
1808	0.199018	0.004748	0.197374	0.203291	0.111908
1809	0.199182	0.013787	0.200497	0.197538	0.113552
1810	0.200825	0.011979	0.199346	0.197703	0.118318
1811	0.200497	0.014116	0.201319	0.201483	0.121605
1812	0.196881	0.012965	0.200497	0.199182	0.125714
1813	0.199839	0.01576	0.200332	0.200004	0.13196
1814	0.201812	0.016253	0.20099	0.200332	0.131796
1815	0.199018	0.018389	0.200168	0.202469	0.135247
1816	0.198689	0.018882	0.199346	0.201812	0.139356
1817	0.197538	0.022334	0.20099	0.199511	0.13837
1818	0.197703	0.027758	0.199182	0.201647	0.141493
1819	0.19836	0.033839	0.197045	0.201154	0.144944
1820	0.197703	0.043536	0.199675	0.199839	0.14478
1821	0.201154	0.047645	0.19721	0.201647	0.149053
1822	0.199182	0.054712	0.201483	0.20099	0.149382
1823	0.200004	0.05915	0.197703	0.200004	0.15119
1824	0.199511	0.06671	0.201647	0.198031	0.15234
1825	0.201319	0.071477	0.201812	0.200332	0.155134
1826	0.199675	0.077229	0.205099	0.199018	0.157271
1827	0.201154	0.081338	0.197538	0.199182	0.160394
1828	0.200168	0.085776	0.201647	0.200497	0.160394
1829	0.203291	0.090871	0.198689	0.198689	0.162037
1830	0.197538	0.093172	0.200004	0.202798	0.163845
1831	0.202962	0.099417	0.199346	0.203455	0.169105
1832	0.202469	0.102047	0.200168	0.200497	0.166804
1833	0.199675	0.105334	0.199511	0.20099	0.168283
1834	0.19836	0.108786	0.198031	0.201319	0.1742
1835	0.19836	0.114045	0.19836	0.200004	0.170419
1836	0.197538	0.117496	0.197045	0.202305	0.172227
1837	0.196881	0.122756	0.199839	0.20099	0.174364
1838	0.198524	0.124564	0.19721	0.201647	0.173871
1839	0.199675	0.12818	0.199182	0.202305	0.17272
1840	0.19836	0.130974	0.201154	0.197538	0.175515
1841	0.201483	0.135904	0.192279	0.194251	0.175186
1842	0.201154	0.136398	0.202633	0.198853	0.169762
1843	0.201154	0.141	0.203126	0.199018	0.170091
1844	0.202305	0.141	0.199018	0.197867	0.170255
1845	0.200004	0.141328	0.201483	0.200661	0.175186
1846	0.201647	0.14593	0.198524	0.200332	0.177815
1847	0.197867	0.150368	0.202633	0.201647	0.178144
1848	0.201319	0.149217	0.201812	0.199018	0.178144
1849	0.200825	0.154806	0.199346	0.199675	0.177815
1850	0.200332	0.15497	0.199346	0.199346	0.183897
1851	0.201154	0.15612	0.199675	0.199018	0.182582
1852	0.200497	0.15875	0.196717	0.19836	0.183568
1853	0.203455	0.160229	0.19721	0.200661	0.184061
1854	0.201154	0.162859	0.200332	0.199346	0.182582
1855	0.200661	0.159736	0.19836	0.203126	0.184718
1856	0.199182	0.163681	0.199675	0.203291	0.184883
1857	0.203291	0.168612	0.197867	0.203126	0.185047
1858	0.199018	0.169762	0.199675	0.201154	0.183897
1859	0.201154	0.169269	0.199346	0.197538	0.186198
1860	0.200497	0.170091	0.200661	0.199839	0.186526
1861	0.199675	0.171241	0.201319	0.201812	0.187348
1862	0.197374	0.171899	0.203126	0.198689	0.188992
1863	0.201483	0.175021	0.198524	0.199018	0.192443
1864	0.200168	0.174364	0.200497	0.202962	0.190307
1865	0.199839	0.178144	0.200497	0.197703	0.187513
1866	0.200661	0.177651	0.198689	0.199839	0.192115
1867	0.200168	0.176665	0.200825	0.198853	0.191457
1868	0.201976	0.177158	0.196388	0.201976	0.192936
1869	0.199346	0.181267	0.197374	0.200332	0.189978
1870	0.198853	0.181596	0.197703	0.202798	0.191786
1871	0.20099	0.185047	0.199018	0.201647	0.188663
1872	0.200168	0.181596	0.198031	0.198031	0.193429
1873	0.198524	0.182582	0.199511	0.203784	0.191621
1874	0.203948	0.184883	0.199511	0.199182	0.192772
1875	0.201154	0.18554	0.196388	0.199511	0.190142
1876	0.201812	0.187019	0.200661	0.199346	0.192115
1877	0.199018	0.188006	0.200004	0.201319	0.195073
1878	0.19836	0.184554	0.199675	0.200497	0.192279
1879	0.197045	0.186691	0.199511	0.20099	0.193101
1880	0.000146	0.187348	0.200497	0.200168	0.194087
1881	-0.000347	0.190142	0.199675	0.204606	0.197374
1882	0.00031	0.188006	0.19836	0.200497	0.196059
1883	0.00031	0.187019	0.200004	0.200497	0.195566
1884	0.000474	0.189485	0.201154	0.200497	0.196881
1885	0.002447	0.1908	0.194251	0.200332	0.19836
1886	0.004583	0.192936	0.199182	0.199675	0.187677
1887	0.001789	0.191293	0.199839	0.202633	0.196223
1888	0.001954	0.191786	0.198524	0.201647	0.194416
1889	0.012637	0.193758	0.197374	0.200004	0.196059
1890	0.009021	0.193429	0.198196	0.200332	0.193594
1891	0.022991	0.191128	0.199675	0.198524	0.195237
1892	0.030059	0.191786	0.202469	0.201647	0.197374
1893	0.034003	0.192772	0.201154	0.199675	0.196388
1894	0.039427	0.195402	0.199839	0.20214	0.196717
1895	0.038605	0.192772	0.201483	0.199675	0.197045
1896	0.050932	0.195566	0.199511	0.20099	0.199018
1897	0.053562	0.197538	0.202305	0.199675	0.195895
1898	0.051918	0.193922	0.195895	0.200497	0.197374
1899	0.03088	0.19573	0.19836	0.199675	0.194744
1900	0.0271	0.183897	0.197045	0.197703	0.198853
1901	-0.003963	0.180116	0.19721	0.200332	0.197867
1902	-1.9e-05	0.180281	0.200825	0.199018	0.129988
1903	-1.9e-05	0.180774	0.200168	0.199346	0.131796
1904	-1.9e-05	0.178966	0.20099	0.200825	0.138699
1905	-0.000183	0.177487	0.200825	0.200661	0.136069
1906	0.000474	0.181267	0.200825	0.202469	0.143136
1907	-0.000183	0.18554	0.199675	0.205427	0.147245
1908	-1.9e-05	0.184225	0.198524	0.197538	0.141328
1909	-0.000183	0.185376	0.199511	0.202798	0.148067
1910	0.001625	0.185869	0.200168	0.201483	0.148889
1911	-0.000512	0.187513	0.198689	0.201976	0.153655
1912	-1.9e-05	0.185705	0.200168	0.201154	0.152011
1913	-0.000183	0.185212	0.200825	0.201976	0.152669
1914	-1.9e-05	0.189649	0.200332	0.197045	0.153326
1915	0.00031	0.187184	0.199675	0.201154	0.159736
1916	0.00031	0.189814	0.200825	0.202469	0.1576
1917	0.00031	0.188827	0.20099	0.199018	0.163188
1918	0.000474	0.191786	0.200825	0.200332	0.162695
1919	-0.000347	0.191293	0.202798	0.201647	0.16516
1920	-0.000183	0.193265	0.200004	0.200332	0.165817
1921	-0.000347	0.129659	0.200497	0.203126	0.169598
1922	-0.000512	0.061779	0.200332	0.199839	0.169433
1923	0.000146	0.032031	0.198689	0.201483	0.170584
1924	-0.000183	0.01954	0.200332	0.202633	0.171406
1925	-1.9e-05	0.014116	0.199346	0.200004	0.17157
1926	0.000146	0.012308	0.198853	0.202305	0.173542
1927	0.00031	0.012144	0.200004	0.201319	0.174857
1928	0.000146	0.010007	0.200004	0.201647	0.174035
1929	0.00031	0.011979	0.200332	0.201483	0.176994
1930	-0.000183	0.014445	0.19836	0.19721	0.177322
1931	-0.000183	0.011322	0.200004	0.19573	0.17535
1932	-0.000347	0.00935	0.196223	0.202305	0.18061
1933	-0.000347	0.010829	0.200661	0.19836	0.179295
1934	0.000146	0.010993	0.198196	0.20099	0.179788
1935	-0.000183	0.009514	0.202469	0.200004	0.176501
1936	0.000146	0.010664	0.200168	0.198524	0.180774
1937	0.00031	0.011651	0.201812	0.200497	0.181924
1938	0.00031	0.010171	0.205592	0.201647	0.182089
1939	0.00031	0.010336	0.200332	0.199675	0.182253
1940	0.000474	0.010829	0.20099	0.196552	0.184718
1941	-0.000183	0.012801	0.198031	0.20099	0.191128
1942	-0.000183	0.020033	0.201976	0.200168	0.183568
1943	-0.000347	0.027758	0.198031	0.20362	0.187348
1944	-0.000512	0.036962	0.200004	0.198853	0.188992
1945	-0.000347	0.039098	0.197538	0.202633	0.188334
1946	-1.9e-05	0.046823	0.197538	0.20099	0.187677
1947	-1.9e-05	0.053726	0.197374	0.20099	0.190964
1948	0.000146	0.061451	0.195895	0.199675	0.187677
1949	0.00031	0.066546	0.197703	0.199839	0.191293
1950	0.000146	0.072627	0.200168	0.196388	0.188663
1951	0.00031	0.076736	0.196388	0.198524	0.189485
1952	-1.9e-05	0.085118	0.202633	0.198689	0.1908
1953	-0.000183	0.087584	0.197374	0.196059	0.193265
1954	0.003268	0.090049	0.201812	0.199182	0.194087
1955	0.000146	0.091692	0.201154	0.200004	0.193922
1956	0.014445	0.092679	0.201154	0.20099	0.193758
1957	0.008363	0.103362	0.201154	0.203126	0.192443
1958	0.012472	0.106485	0.196881	0.20362	0.195237
1959	0.013623	0.112566	0.20099	0.201154	0.194251
1960	0.001954	0.115031	0.200661	0.203948	0.19573
1961	0.010007	0.120291	0.200661	0.200004	0.195566
1962	0.020855	0.121605	0.197374	0.202305	0.19573
1963	0.018554	0.125714	0.200004	0.20099	0.196552
1964	0.013952	0.128344	0.19721	0.200661	0.197045
1965	0.018225	0.134261	0.199511	0.202469	0.193758
1966	0.025785	0.133275	0.198524	0.203948	0.195402
1967	0.035318	0.129659	0.200004	0.203948	0.195895
1968	0.038441	0.138041	0.197703	0.201483	0.193265
1969	0.045508	0.143958	0.202798	0.202962	0.196223
1970	0.051754	0.146588	0.200661	0.196717	0.195895
1971	0.057013	0.150697	0.20099	0.203126	0.197703
1972	0.062273	0.14971	0.202469	0.199018	0.197045
1973	0.067203	0.147245	0.198031	0.201976	0.198689
1974	0.071312	0.153819	0.202798	0.201319	0.20214
1975	0.076243	0.155463	0.199346	0.203455	0.202962
1976	0.080845	0.156285	0.19836	0.199675	0.199182
1977	0.083639	0.156449	0.199346	0.205921	0.200168
1978	0.08972	0.152011	0.199018	0.202305	0.200168
1979	0.091035	0.157271	0.19721	0.205263	0.198853
1980	0.097609	0.162366	0.199018	0.203126	0.199018
1981	0.10517	0.164174	0.196388	0.202469	0.200004
1982	0.102869	0.162859	0.200332	0.202469	0.19721
1983	0.109279	0.164667	0.200497	0.200661	0.19836
1984	0.111908	0.171077	0.199182	0.200168	0.197703
1985	0.114045	0.171077	0.201812	0.198196	0.19458
1986	0.120948	0.175679	0.201483	0.20099	0.194909
1987	0.125879	0.173378	0.201812	0.201319	0.19721
1988	0.127194	0.173049	0.200825	0.202962	0.19721
1989	0.131302	0.176829	0.202962	0.201647	0.198524
1990	0.131467	0.173214	0.203455	0.201319	0.19721
1991	0.133439	0.175843	0.20477	0.203126	0.200332
1992	0.136726	0.175679	0.199839	0.20362	0.202305
1993	0.138534	0.180116	0.202305	0.202305	0.199675
1994	0.14478	0.17913	0.198524	0.203291	0.20099
1995	0.141657	0.180116	0.19721	0.201812	0.200168
1996	0.147903	0.18176	0.197374	0.201647	0.201976
1997	0.149875	0.181103	0.197867	0.202798	0.195566
1998	0.152011	0.182582	0.196552	0.201647	0.192608
1999	0.152176	0.185376	0.200825	0.204441	0.194251
2000	0.155299	0.189485	0.199675	0.197703	0.192115
2001	0.156942	0.184718	0.200332	0.19836	0.19195
2002	0.158914	0.187184	0.202633	0.199182	0.194251
2003	0.160722	0.186855	0.200168	0.199839	0.195237
2004	0.161873	0.185705	0.200332	0.198196	0.188334
2005	0.163352	0.18817	0.200168	0.20099	0.193594
2006	0.158257	0.187513	0.200168	0.199675	0.192772
2007	0.16253	0.190142	0.199346	0.200168	0.194744
2008	0.163023	0.190635	0.201483	0.203126	0.193594
2009	0.167297	0.190307	0.199018	0.203126	0.196717
2010	0.164503	0.1908	0.197867	0.202469	0.195566
2011	0.16894	0.193101	0.198524	0.20362	0.196552
2012	0.166804	0.191293	0.198689	0.201647	0.197374
2013	0.168776	0.189978	0.193429	0.201319	0.198196
2014	0.163845	0.191128	0.197374	0.202633	0.19721
2015	0.170584	0.191293	0.197703	0.200497	0.196717
2016	0.170748	0.19195	0.197867	0.200825	0.196717
2017	0.170748	0.19195	0.194744	0.201812	0.196717
2018	0.177651	0.196223	0.194087	0.198689	0.068682
2019	0.177158	0.193429	0.19721	0.197538	0.07838
2020	0.17798	0.194416	0.197538	0.198853	0.07953
2021	0.179459	0.195402	0.197703	0.200004	0.087255
2022	0.178966	0.197045	0.19836	0.199675	0.092021
2023	0.17913	0.195237	0.201154	0.200661	0.095473
2024	0.181596	0.196717	0.197867	0.201483	0.10254
2025	0.179952	0.197538	0.202305	0.202633	0.099417
2026	0.183732	0.19458	0.197045	0.199675	0.110922
2027	0.182253	0.195237	0.19836	0.20362	0.114045
2028	0.181924	0.193101	0.196552	0.202633	0.119797
2029	0.184225	0.195895	0.198196	0.202962	0.121112
2030	0.181103	0.194087	0.196059	0.201976	0.122756
2031	0.181267	0.195566	0.19721	0.202305	0.126207
2032	0.183075	0.194909	0.196881	0.198689	0.128344
2033	0.184718	0.192279	0.196059	0.201319	0.132124
2034	0.184061	0.196881	0.199182	0.199675	0.131796
2035	0.188006	0.196881	0.19836	0.20099	0.133932
2036	0.191786	0.195895	0.200332	0.199182	0.105005
2037	0.190635	0.200825	0.19836	0.200825	0.092021
2038	0.188663	0.198524	0.199018	0.19836	0.094651
2039	0.189978	0.195566	0.196059	0.201976	0.106485
2040	0.186526	0.198196	0.200168	0.201812	0.103526
2041	0.193758	0.195895	0.202469	0.20099	0.109279
2042	0.192115	0.196388	0.198196	0.20362	0.115524
2043	0.191621	0.197045	0.195237	0.202469	0.118647
2044	0.192115	0.198689	0.196717	0.203126	0.122427
2045	0.192608	0.19573	0.194909	0.202469	0.127687
2046	0.192115	0.197703	0.197867	0.20362	0.128344
2047	0.191786	0.196717	0.199018	0.201976	0.131302
2048	0.191786	0.19573	0.195073	0.198689	0.13459
2049	0.191621	0.19721	0.201812	0.199346	0.137055
2050	0.189649	0.196059	0.197374	0.20099	0.143136
2051	0.193758	0.197045	0.199018	0.200168	0.139192
2052	0.194251	0.199346	0.196552	0.199346	0.143465
2053	0.192279	0.197703	0.201647	0.201483	0.145273
2054	0.194087	0.199675	0.197045	0.202633	0.152998
2055	0.192443	0.202962	0.200168	0.201154	0.153162
2056	0.193922	0.196388	0.199675	0.200825	0.152176
2057	0.193594	0.200661	0.201154	0.19836	0.15497
2058	0.193101	0.197045	0.199346	0.201976	0.156942
2059	0.194744	0.200661	0.201319	0.201812	0.159408
2060	0.196881	0.198031	0.20099	0.201812	0.161215
2061	0.195566	0.198031	0.199675	0.204277	0.164667
2062	0.197045	0.198853	0.200168	0.20214	0.164338
2063	0.19573	0.19721	0.19836	0.201154	0.163845
2064	0.197538	0.197867	0.199018	0.200825	0.167132
2065	0.194087	0.197538	0.202633	0.202633	0.168612
2066	0.196881	0.200661	0.198196	0.20099	0.172227
2067	0.194909	0.196223	0.202305	0.202798	0.169762
2068	0.196881	0.200332	0.199675	0.198031	0.169598
2069	0.196717	0.19721	0.198853	0.200825	0.173378
2070	0.195895	0.195402	0.203126	0.197045	0.171077
2071	0.197703	0.195237	0.196717	0.201976	0.174528
2072	0.195566	0.200168	0.199182	0.199511	0.176501
2073	0.196881	0.198524	0.201812	0.200004	0.17272
2074	0.19836	0.20099	0.199346	0.200661	0.173707
2075	0.200168	0.201483	0.201154	0.198524	0.176008
2076	0.198196	0.201976	0.200168	0.200661	0.180774
2077	0.202798	0.202962	0.197045	0.201319	0.179952
2078	0.19721	0.196881	0.199839	0.204277	0.181267
2079	0.198031	0.201154	0.198689	0.202305	0.180938
2080	0.195402	0.199182	0.199018	0.196881	0.18061
2081	0.198689	0.20099	0.197703	0.198689	0.182089
2082	0.199018	0.196223	0.198196	0.200004	0.18554
2083	0.194251	0.200168	0.198524	0.19836	0.183897
2084	0.198196	0.202798	0.198689	0.201319	0.186198
2085	0.200497	0.198524	0.197538	0.199839	0.185376
2086	0.196552	0.199346	0.197045	0.200332	0.186198
2087	0.195073	0.200168	0.200168	0.201647	0.186526
2088	0.20099	0.200332	0.196552	0.197867	0.187184
2089	0.19721	0.201319	0.200168	0.201812	0.184883
2090	0.196388	0.199839	0.199839	0.20214	0.187841
2091	0.200168	0.203126	0.199018	0.198031	0.187348
2092	0.200004	0.201483	0.197045	0.197045	0.186855
2093	0.200497	0.199675	0.198853	0.199839	0.186855
2094	0.200004	0.201976	0.198031	0.198853	0.18932
2095	0.200332	0.200497	0.199018	0.20099	0.190471
2096	0.199675	0.201319	0.200004	0.198524	0.190635
2097	0.202305	0.202305	0.197867	0.20099	0.192608
2098	0.201483	0.199018	0.197538	0.199346	0.191128
2099	0.203126	0.199839	0.195073	0.197703	0.19573
2100	0.19721	0.199182	0.195237	0.198689	0.192279
2101	0.200661	0.197538	0.199839	0.198196	0.19573
2102	0.198031	0.200004	0.198196	0.192608	0.195402
2103	0.198196	0.198689	0.196717	0.200004	0.196717
2104	0.198031	0.200497	0.200168	0.201154	0.193758
2105	0.197703	0.198853	0.200497	0.199511	0.194909
2106	0.201154	0.199018	0.196552	0.199675	0.193594
2107	0.199675	0.20099	0.198031	0.199346	0.196223
2108	0.200004	0.200661	0.197703	0.19721	0.193758
2109	0.199182	0.200497	0.199511	0.20099	0.19573
2110	0.201154	0.200168	0.199346	0.201319	0.195895
2111	0.199511	0.200004	0.199675	0.200004	0.193922
2112	0.198853	0.199511	0.200825	0.201154	0.197867
2113	0.20214	0.19836	0.201976	0.191128	0.194744
2114	0.20214	0.198853	0.200004	0.198853	0.19721
2115	0.200825	0.199182	0.202469	0.200168	0.195895
2116	0.200004	0.196881	0.19836	0.201154	0.199018
2117	0.198689	0.200332	0.203126	0.200497	0.196388
2118	0.20099	0.198196	0.20099	0.202469	0.198524
2119	0.199018	0.201647	0.200497	0.200661	0.196552
2120	0.199346	0.199839	0.200497	0.200332	0.198196
2121	0.199018	0.198689	0.200332	0.205099	0.199018
2122	0.199511	0.195566	0.199018	0.201812	0.197867
2123	0.197867	0.198196	0.198689	0.202633	0.199018
2124	0.199346	0.200168	0.199182	0.196059	0.201647
2125	0.200497	0.200004	0.201812	0.199018	0.195895
2126	0.198853	0.199018	0.203455	0.19836	0.193758
2127	0.19836	0.198196	0.200168	0.202305	0.201319
2128	0.200168	0.200004	0.200168	0.198853	0.19573
2129	0.197867	0.201319	0.197703	0.20099	0.19721
2130	0.195566	0.201154	0.201647	0.197538	0.197374
2131	0.201154	0.196552	0.197867	0.201154	0.195566
2132	0.199346	0.202305	0.200168	0.199018	0.198031
2133	0.201647	0.20099	0.199675	0.200661	0.202305
2134	0.199839	0.200332	0.20099	0.199018	0.194744
2135	0.201812	0.194416	0.20099	0.197374	0.19836
2136	0.202305	0.202633	0.200332	0.200332	0.198196
2137	0.199346	0.201154	0.201319	0.199675	0.196552
2138	0.201319	0.199018	0.198689	0.20099	0.19573
2139	0.203455	0.203126	0.198031	0.201647	0.196388
2140	0.199839	0.201647	0.200004	0.200332	0.198196
2141	0.202633	0.204113	0.200332	0.19721	0.197045
2142	0.202305	0.202633	0.197045	0.201647	0.196881
2143	0.202962	0.204277	0.196223	0.199182	0.196552
2144	0.202633	0.200497	0.198853	0.198031	0.19836
2145	0.202305	0.20362	0.198196	0.198853	0.196717
2146	0.203126	0.199839	0.197374	0.205427	0.199182
2147	0.20099	0.203784	0.200661	0.19573	0.197374
2148	0.203291	0.197867	0.199675	0.19836	0.19836
2149	0.201154	0.200661	0.199018	0.197867	0.198031
2150	0.203291	0.201647	0.198689	0.199346	0.199182
2151	0.199182	0.20099	0.201319	0.200168	0.196223
2152	0.202305	0.200332	0.202798	0.199346	0.199839
2153	0.20214	0.20214	0.200168	0.198196	0.198031
2154	0.202633	0.197374	0.198689	0.199511	0.20099
2155	0.201812	0.198524	0.199182	0.200825	0.19836
2156	0.201647	0.201812	0.197867	0.199675	0.196552
2157	0.200168	0.199511	0.197374	0.210029	0.199675
2158	0.202469	0.201647	0.199839	0.196059	0.196717
2159	0.201976	0.201812	0.202305	0.198853	0.19721
2160	0.200168	0.200004	0.200004	0.200168	0.197538
2161	0.203126	0.201154	0.19721	0.199346	0.196059
2162	0.201647	0.205427	0.199675	0.197867	0.197538
2163	0.202305	0.199346	0.199018	0.199346	0.199346
2164	0.203455	0.20099	0.199018	0.199675	0.196059
2165	0.204277	0.199182	0.196388	0.20099	0.199182
2166	0.199346	0.200825	0.200497	0.200825	0.199839
2167	0.201647	0.202305	0.197538	0.201154	0.203291
2168	0.201483	0.199018	0.199839	0.202305	0.199182
2169	0.20099	0.200168	0.200497	0.199675	0.200497
2170	0.20099	0.200497	0.201154	0.201319	0.20099
2171	0.204934	0.202633	0.198031	0.207728	0.200004
2172	0.198689	0.202962	0.198031	0.202962	0.202305
2173	0.200661	0.201647	0.196717	0.201319	0.201154
2174	0.20099	0.200168	0.199018	0.203126	0.198524
2175	0.200497	0.201812	0.202305	0.201647	0.19836
2176	0.200497	0.199346	0.197538	0.198689	0.200661
2177	0.198031	0.198031	0.199018	0.201647	0.202469
2178	0.198031	0.197538	0.200168	0.200004	0.198031
2179	0.200168	0.201154	0.199346	0.200332	0.197703
2180	0.199511	0.198196	0.199018	0.199346	0.20214
2181	0.20099	0.199018	0.203291	0.199675	0.197045
2182	0.197703	0.19836	0.199182	0.199346	0.198853
2183	0.199675	0.20099	0.201483	0.199839	0.198196
2184	0.202798	0.201483	0.199511	0.200004	0.198853
2185	0.198524	0.198031	0.203126	0.199839	0.198524
2186	0.202633	0.19836	0.19836	0.201483	0.200497
2187	0.20477	0.200004	0.200497	0.200661	0.198689
2188	0.202798	0.197374	0.200168	0.20099	0.197703
2189	0.202305	0.203126	0.198524	0.200825	0.202305
2190	0.199346	0.202305	0.201812	0.199675	0.198689
2191	0.201812	0.202962	0.200004	0.205099	0.197045
2192	0.201483	0.201319	0.201976	0.199018	0.197374
2193	0.20099	0.197374	0.196552	0.200825	0.199182
2194	0.200661	0.202798	0.198031	0.200497	0.199675
2195	0.201647	0.201647	0.195237	0.196881	0.199346
2196	0.200497	0.200661	0.197703	0.197538	0.197045
2197	0.203291	0.201319	0.200497	0.201976	0.20214
2198	0.20099	0.201647	0.200497	0.197703	0.193758
2199	0.201154	0.199346	0.199346	0.197374	0.191786
2200	0.20099	0.203291	0.20099	0.195402	0.190635
2201	0.202633	0.198524	0.200332	0.20099	0.192443
2202	0.20099	0.199839	0.202633	0.200004	0.191786
2203	0.200661	0.203126	0.199018	0.196717	0.189485
2204	0.20214	0.201647	0.197045	0.19836	0.191293
2205	0.201812	0.202633	0.19836	0.200661	0.194087
2206	0.203455	0.202962	0.198031	0.201647	0.192608
2207	0.198524	0.20214	0.196881	0.200004	0.1908
2208	0.20362	0.199511	0.199346	0.204113	0.192772
2209	0.202469	0.202962	0.199511	0.202305	0.191293
2210	0.201154	0.200825	0.19836	0.199018	0.194251
2211	0.200004	0.200332	0.199511	0.201647	0.193594
2212	0.204113	0.199511	0.197374	0.201483	0.194416
2213	0.200825	0.200332	0.197703	0.198524	0.192936
2214	0.201154	0.200332	0.20477	0.200497	0.189814
2215	0.201647	0.201319	0.19721	0.200332	0.193594
2216	0.20362	0.201483	0.19721	0.197374	0.193101
2217	0.202962	0.202798	0.199839	0.200332	0.195073
2218	0.202962	0.204934	0.198524	0.198689	0.193265
2219	0.202962	0.200332	0.201483	0.201483	0.196717
2220	0.203948	0.202633	0.200497	0.200661	0.19573
2221	0.202798	0.200661	0.19721	0.203784	0.196552
2222	0.20099	0.199511	0.200661	0.199346	0.194744
2223	0.203455	0.204277	0.197703	0.203455	0.192443
2224	0.201319	0.202305	0.199346	0.198689	0.195073
2225	0.203455	0.200332	0.198031	0.202469	0.188499
2226	0.198524	0.200497	0.197045	0.198031	0.193594
2227	0.204113	0.199018	0.197538	0.200825	0.196223
2228	0.198031	0.197374	0.199511	0.198689	0.192772
2229	0.199018	0.197703	0.196552	0.201976	0.196881
2230	0.202798	0.199511	0.199839	0.200497	0.19573
2231	0.200497	0.198196	0.199839	0.200825	0.196552
2232	0.198524	0.197867	0.199182	0.201154	0.19836
2233	0.199018	0.199511	0.197045	0.200825	0.196717
2234	0.204113	0.200661	0.200497	0.202798	0.198031
2235	0.200661	0.199018	0.200004	0.19721	0.149382
2236	0.201812	0.19836	0.197703	0.202305	0.137877
2237	0.200332	0.198196	0.199182	0.199675	0.141657
2238	0.201154	0.197045	0.199018	0.202469	0.144451
2239	0.198524	0.200825	0.201812	0.202633	0.146095
2240	0.202469	0.199839	0.199182	0.200825	0.148724
2241	0.19836	0.199675	0.203784	0.200825	0.145602
2242	0.202469	0.200004	0.205263	0.202633	0.133439
2243	0.200004	0.200168	0.199018	0.200497	0.121277
2244	0.201812	0.197374	0.195402	0.202305	0.107799
2245	0.201154	0.19836	0.201154	0.202633	0.106485
2246	0.200825	0.199018	0.198689	0.199346	0.092186
2247	0.198031	0.200497	0.196717	0.19836	0.07838
2248	0.200004	0.200661	0.196881	0.198689	0.070162
2249	0.20099	0.201319	0.198524	0.200497	0.063259
2250	0.199839	0.200497	0.200497	0.197703	0.054383
2251	0.202305	0.201647	0.199346	0.200168	0.040413
2252	0.201812	0.203948	0.201154	0.198031	0.035811
2253	0.201812	0.201647	0.197703	0.201976	0.028579
2254	0.20362	0.201154	0.200332	0.200497	0.025292
2255	0.20362	0.199839	0.199182	0.200004	0.026278
2256	0.201319	0.201647	0.20099	0.196552	0.032195
2257	0.201483	0.199675	0.200004	0.198689	0.029072
2258	0.203126	0.203948	0.199675	0.198031	0.026278
2259	0.202633	0.197045	0.200004	0.200004	0.025785
2260	0.20214	0.201319	0.199839	0.199675	0.022498
2261	0.201647	0.198689	0.198689	0.201319	0.022498
2262	0.200168	0.19836	0.199839	0.199675	0.017239
2263	0.199018	0.197374	0.200825	0.203291	0.014773
2264	0.204441	0.201319	0.204277	0.200332	0.011486
2265	0.201319	0.199675	0.200332	0.198689	0.012144
2266	0.201647	0.199346	0.19836	0.203126	0.012308
2267	0.201976	0.200168	0.200497	0.19836	0.010993
2268	0.20214	0.198853	0.19836	0.198196	0.011815
2269	0.201319	0.201483	0.194251	0.198524	0.015431
2270	0.205099	0.198031	0.199839	0.200004	0.009678
2271	0.202305	0.20362	0.201483	0.201319	0.012965
2272	0.203291	0.198196	0.199346	0.195402	0.00935
2273	0.202962	0.198689	0.201154	0.189156	0.00935
2274	0.204606	0.198524	0.199346	0.195895	0.0105
2275	0.202469	0.199839	0.20099	0.200168	0.010664
2276	0.200661	0.198031	0.198853	0.199346	0.010336
2277	0.200661	0.199346	0.200004	0.200168	0.010171
2278	0.200661	0.195237	0.196717	0.200332	0.011486
2279	0.199511	0.19721	0.19458	0.201483	0.010829
2280	0.200168	0.199839	0.196388	0.198031	0.005405
2281	0.204113	0.196552	0.197703	0.201483	0.003926
2282	0.204113	0.199675	0.198689	0.199346	0.004255
2283	0.20214	0.197538	0.196388	0.200004	0.002447
2284	0.201812	0.201319	0.198689	0.19836	0.001954
2285	0.205592	0.200497	0.198524	0.199675	0.003597
2286	0.201976	0.202962	0.199675	0.200497	0.00031
2287	0.202469	0.20099	0.197703	0.199839	0.003268
2288	0.201483	0.208715	0.201483	0.197374	0.000146
2289	0.201154	0.201319	0.198031	0.198031	0.001954
2290	0.202633	0.201976	0.192608	0.197538	0.000967
2291	0.203948	0.201154	0.197374	0.198196	0.003761
2292	0.202469	0.198524	0.201647	0.198524	-0.000676
2293	0.203784	0.198524	0.200332	0.200332	0.003104
2294	0.201812	0.200825	0.19836	0.201483	-0.001005
2295	0.199182	0.199675	0.197867	0.198689	0.001789
2296	0.201976	0.197867	0.199346	0.201647	0.003597
2297	0.20099	0.202798	0.198689	0.198196	0.000639
2298	0.200825	0.189649	0.196059	0.199675	0.000474
2299	0.200168	0.200004	0.196552	0.201483	0.000474
2300	0.201976	0.199182	0.196717	0.202305	-0.000841
2301	0.198853	0.199675	0.18932	0.197538	0.000803
2302	0.201976	0.200004	0.199182	0.200332	0.000474
2303	0.197374	0.200825	0.195566	0.197374	-0.001498
2304	0.20477	0.200332	0.196552	0.20099	0.003104
2305	0.202798	0.201812	0.200825	0.201154	-0.000183
2306	0.203291	0.201483	0.200004	0.20099	0.001132
2307	0.201647	0.202305	0.202633	0.200661	0.001132
2308	0.203455	0.197538	0.199675	0.202633	0.000803
2309	0.201812	0.199839	0.200661	0.200497	0.000146
2310	0.200661	0.199839	0.201483	0.199839	-1.9e-05
2311	0.201647	0.199511	0.199182	0.203126	0.000967
2312	0.199182	0.196059	0.198853	0.199675	-0.000347
2313	0.201647	0.200332	0.197703	0.202633	-0.016126
2314	0.199346	0.199182	0.200497	0.201154	-1.9e-05
2315	0.202962	0.198524	0.198689	0.204606	0.00146
2316	0.200825	0.200825	0.199182	0.200497	0.000639
2317	0.202305	0.199511	0.19836	0.200825	0.000803
2318	0.199346	0.201319	0.199018	0.202469	0.000146
2319	0.202798	0.200661	0.199839	0.202469	0.00031
2320	0.200497	0.200332	0.200661	0.199839	-0.000183
2321	0.200825	0.200497	0.198689	0.200497	-1.9e-05
2322	0.202305	0.203455	0.200332	0.200825	-0.000183
2323	0.20099	0.199018	0.203126	0.202305	0.000967
2324	0.202305	0.199839	0.198524	0.205592	-0.000183
2325	0.199839	0.198853	0.199182	0.199511	0.000639
2326	0.201483	0.198196	0.200332	0.201647	0.00031
2327	0.200168	0.202469	0.200168	0.202469	0.00031
2328	0.20362	0.203455	0.199346	0.197703	0.000803
2329	0.199839	0.19836	0.198853	0.201483	0.00031
2330	0.200332	0.200168	0.198853	0.199675	-1.9e-05
2331	0.20214	0.199346	0.199346	0.199839	-0.000183
2332	0.198689	0.193922	0.197045	0.202962	-0.000183
2333	0.198196	0.200497	0.197045	0.201154	-0.000183
2334	0.203126	0.198031	0.202962	0.20362	-0.000347
2335	0.198853	0.200661	0.197045	0.198689	-0.000347
2336	0.202633	0.198853	0.197374	0.199018	0.000146
2337	0.200332	0.201647	0.19836	0.198853	-1.9e-05
2338	0.200004	0.200497	0.199346	0.197538	0.00031
2339	0.203455	0.20214	0.199839	0.197867	-1.9e-05
2340	0.204934	0.200825	0.197703	0.199839	0.00031
2341	0.205921	0.201483	0.198524	0.200661	0.000146
2342	0.200332	0.201319	0.196552	0.199018	-1.9e-05
2343	0.201154	0.199346	0.198524	0.20099	-0.000347
2344	0.200825	0.20099	0.20099	0.200004	-0.000512
2345	0.202633	0.199511	0.202469	0.199675	-0.000347
2346	0.201154	0.200004	0.198031	0.199182	-0.000512
2347	0.20099	0.204606	0.196717	0.199018	-0.000183
2348	0.201647	0.204934	0.197045	0.199182	-1.9e-05
2349	0.202798	0.202962	0.195895	0.20099	0.000146
2350	0.201319	0.201647	0.197867	0.198524	0.000146
2351	0.201483	0.199839	0.194251	0.199511	0.000146
2352	0.204934	0.201812	0.197867	0.198196	-1.9e-05
2353	0.199675	0.201812	0.195566	0.197867	-0.000183
2354	0.198853	0.201483	0.200004	0.20362	-0.000183
2355	0.200332	0.199675	0.201154	0.200661	-0.000512
2356	0.201154	0.200497	0.202469	0.198524	-0.000512
2357	0.201319	0.200497	0.200168	0.201319	-0.000347
2358	0.199511	0.201319	0.19721	0.200825	0.000146
2359	0.201976	0.202633	0.200825	0.198853	0.000146
2360	0.199511	0.198689	0.199346	0.201812	0.00031
2361	0.199675	0.201976	0.199018	0.197867	0.00031
2362	0.201976	0.198853	0.198031	0.199839	0.00031
2363	0.202305	0.200004	0.198524	0.197374	0.000146
2364	0.202798	0.198853	0.199346	0.198031	-0.000183
2365	0.199511	0.200825	0.197045	0.200332	-0.000512
2366	0.200497	0.19573	0.199839	0.202469	-0.000183
2367	0.20099	0.201319	0.200661	0.200661	-0.000512
2368	0.200168	0.196388	0.197374	0.202798	-0.000512
2369	0.198689	0.19836	0.199675	0.201812	-0.000183
2370	0.20099	0.201483	0.197867	0.198524	0.000146
2371	0.200332	0.20099	0.198031	0.201647	-1.9e-05
2372	0.199346	0.200661	0.199018	0.199839	0.000146
2373	0.200004	0.197867	0.199346	0.203948	0.00031
2374	0.200661	0.200332	0.201976	0.201647	0.00031
2375	0.200661	0.201319	0.202798	0.199018	-0.000183
2376	0.199511	0.197867	0.201154	0.200661	-0.000347
2377	0.196717	0.194744	0.199675	0.202633	-0.000347
2378	0.199018	0.197045	0.199018	0.197703	-0.000347
2379	0.200497	0.199675	0.198196	0.199018	-0.000347
2380	0.192443	0.199018	0.199675	0.200661	-0.000183
2381	0.201319	0.198853	0.197374	0.201812	0.000146
2382	0.199018	0.20099	0.201647	0.198689	0.000146
2383	0.201483	0.198524	0.196881	0.201154	0.000474
2384	0.201647	0.199675	0.197703	0.202633	0.000474
2385	0.199018	0.201154	0.200332	0.202633	0.00031
2386	0.199675	0.200168	0.199675	0.203784	-1.9e-05
2387	0.199839	0.199675	0.199675	0.199511	-0.000183
2388	0.198853	0.198196	0.197703	0.199346	-0.000347
2389	0.198524	0.202469	0.200825	0.200004	-0.000347
2390	0.199346	0.199182	0.199675	0.200497	-0.000347
2391	0.195402	0.198689	0.20214	0.199839	0.000146
2392	0.198689	0.201319	0.202469	0.20099	0.000146
2393	0.19721	0.201154	0.197703	0.198196	0.000146
2394	0.199182	0.200332	0.194909	0.200825	0.00031
2395	0.199182	0.203455	0.196552	0.198853	0.000474
2396	0.203784	0.20362	0.197703	0.200332	0.000146
2397	0.19836	0.203291	0.19836	0.200497	-0.000183
2398	0.201483	0.199018	0.199182	0.199018	-0.000347
2399	0.200497	0.19573	0.198689	0.198853	-0.000347
2400	0.199675	0.199675	0.202962	0.197703	-0.000347
2401	0.201154	0.199839	0.19836	0.199346	-1.9e-05
2402	0.198196	0.199182	0.199182	0.196059	-1.9e-05
2403	0.200332	0.199839	0.197045	0.19836	0.000146
2404	0.198031	0.201647	0.201976	0.199182	0.000146
2405	0.19836	0.198524	0.200661	0.201483	0.000146
2406	0.197703	0.200004	0.199839	0.200332	0.000146
2407	0.201483	0.202305	0.198853	0.200332	0.000146
2408	0.196223	0.201154	0.201154	0.200825	-0.000183
2409	0.199511	0.202633	0.198524	0.200004	-0.000183
2410	0.196059	0.201976	0.200497	0.200168	-0.000347
2411	0.199182	0.199018	0.198689	0.20099	-0.000347
2412	0.199182	0.201976	0.197045	0.199346	-0.000512
2413	0.198524	0.199346	0.196388	0.200332	-1.9e-05
2414	0.200168	0.202305	0.20099	0.198853	-1.9e-05
2415	0.19836	0.201812	0.195402	0.20099	0.000146
2416	0.20099	0.199511	0.199182	0.200168	0.00031
2417	0.199675	0.200825	0.199511	0.200497	0.000474
2418	0.200661	0.203291	0.198031	0.200825	0.000146
2419	0.19836	0.200168	0.200004	0.200661	-1.9e-05
2420	0.199675	0.200168	0.198524	0.201483	-0.000347
2421	0.200004	0.200332	0.198031	0.20214	-0.000347
2422	0.19836	0.198853	0.200332	0.201976	-0.000347
2423	0.196388	0.200004	0.199675	0.200661	-0.000183
2424	0.200497	0.197867	0.198689	0.20214	-1.9e-05
2425	0.196552	0.202633	0.198853	0.200825	-0.000183
2426	0.20099	0.200497	0.195237	0.201319	0.000146
2427	0.196388	0.203126	0.197538	0.199346	0.00031
2428	0.195402	0.195073	0.196059	0.201812	0.00031
2429	0.196388	0.200332	0.198689	0.201319	0.00031
2430	0.19573	0.187841	0.199839	0.198689	-0.000183
2431	0.193594	0.03351	0.200497	0.201319	-0.000347
2432	0.198524	0.030223	0.200332	0.200168	-0.000347
2433	0.197538	0.033181	0.198031	0.201812	-0.000347
2434	0.201483	0.040084	0.197867	0.197867	-0.000347
2435	0.202305	0.046659	0.199675	0.201319	-1.9e-05
2436	0.199675	0.052082	0.19836	0.196059	-1.9e-05
2437	0.199675	0.057999	0.198689	0.202469	0.000146
2438	0.196881	0.064409	0.199346	0.19836	0.00031
2439	0.200004	0.068518	0.200168	0.201976	0.000474
2440	0.196059	0.078215	0.199018	0.200004	-1.9e-05
2441	0.196223	0.079694	0.196059	0.201647	-0.000183
2442	0.195073	0.083803	0.202962	0.202305	-0.000183
2443	0.197374	0.090213	0.199182	0.201319	-0.000347
2444	0.19721	0.094322	0.19836	0.200332	-0.000512
2445	0.198031	0.099582	0.196388	0.200004	-0.000347
2446	0.199511	0.106156	0.19836	0.198853	-1.9e-05
2447	0.198524	0.105992	0.199018	0.198689	-1.9e-05
2448	0.198853	0.110593	0.198524	0.19721	0.000146
2449	0.199182	0.117168	0.199182	0.195402	0.000146
2450	0.199675	0.119469	0.198524	0.198196	0.00031
2451	0.201319	0.122263	0.200497	0.197867	0.00031
2452	0.198853	0.124893	0.199182	0.199675	-1.9e-05
2453	0.198853	0.127522	0.201976	0.200332	-0.000183
2454	0.198524	0.128673	0.199839	0.201647	-0.000347
2455	0.196717	0.132124	0.201483	0.202633	-0.000512
2456	0.200661	0.136069	0.200168	0.202469	-0.000183
2457	0.198689	0.140835	0.19836	0.201647	-1.9e-05
2458	0.198853	0.140342	0.196552	0.20099	0.000146
2459	0.198524	0.143958	0.201647	0.202633	0.00031
2460	0.198031	0.145766	0.197703	0.200168	0.000474
2461	0.197045	0.149217	0.195895	0.202305	0.000146
2462	0.196388	0.152505	0.200661	0.198689	0.000474
2463	0.196223	0.15119	0.19721	0.197867	-0.000347
2464	0.196388	0.155134	0.200332	0.196388	-1.9e-05
2465	0.19721	0.159243	0.199182	0.196223	-0.000512
2466	0.198031	0.1576	0.201319	0.197867	-0.000512
2467	0.200168	0.160229	0.199675	0.198031	-1.9e-05
2468	0.199675	0.164338	0.200825	0.19836	0.000146
2469	0.200825	0.161709	0.198196	0.200825	0.001625
2470	0.19721	0.163516	0.200661	0.200168	0.001789
2471	0.199839	0.165653	0.198524	0.201483	0.002611
2472	0.198853	0.166968	0.199018	0.202633	0.00031
2473	0.197703	0.168447	0.198853	0.201319	0.001954
2474	0.198524	0.170255	0.199675	0.201154	-1.9e-05
2475	0.198031	0.168447	0.196388	0.202633	-0.000841
2476	0.195402	0.17157	0.198031	0.203784	0.001625
2477	0.196717	0.171077	0.19836	0.199346	-0.000183
2478	0.199675	0.177322	0.197703	0.200332	-0.000347
2479	0.198853	0.178802	0.198031	0.200661	-1.9e-05
2480	0.195566	0.176008	0.089063	0.199675	0.000146
2481	0.194251	0.176008	0.022827	0.199511	-0.000183
2482	0.201319	0.177651	0.009514	0.198524	0.000146
2483	0.198853	0.178966	0.007049	0.194909	0.00031
2484	0.197703	0.17798	0.005898	0.198689	0.000146
2485	0.197703	0.18176	0.007542	0.199182	-0.000183
2486	0.199018	0.181924	0.00409	0.201812	-1.9e-05
2487	0.19573	0.184225	0.003761	0.202962	-0.000347
2488	0.199346	0.182089	0.006556	0.199511	-0.000183
2489	0.200497	0.186362	0.004419	0.201154	-0.000347
2490	0.20099	0.18439	0.004748	0.201647	0.000146
2491	0.200661	0.185212	0.003926	0.201154	0.000146
2492	0.197374	0.185705	0.003433	0.201976	0.00031
2493	0.200497	0.18554	-0.000183	0.204277	0.00031
2494	0.199018	0.186691	0.001625	0.200825	0.000146
2495	0.197538	0.187019	0.004255	0.202305	0.000146
2496	0.198196	0.185705	0.003433	0.197538	-1.9e-05
2497	0.198853	0.188499	0.004255	0.198196	0.000146
2498	0.197538	0.189156	0.004255	0.198853	-0.000512
2499	0.202962	0.18817	0.002282	0.199675	0.003268
