Ladekurvenmessung

Zeit: 2018_05_04 09.05.03

Info: FVA3, v = 1.05, T = 23, F = 20, h = 518.2

Ladewiderstand[Ohm]: 1012700

Störkapazität[pF]: 0.000000

Entladezeit[ms]: 200

Abtastrate[Hz]: 250000

Anzahl der Messwerte: 2500.000000

Verzögerung[ms]: 3

Ladespannung[V]: 0.200000


	Kurve_1	Kurve_2	Kurve_3	Kurve_4	Kurve_5	Kurve_6
0	0.00146	0.000146	0.000474	0.002775	-0.000512	0.004583
1	-0.000183	-0.000841	0.004748	0.000146	0.004912	0.003433
2	0.002282	0.001296	0.003104	0.002282	0.000146	0.004255
3	0.001296	0.000803	0.006391	0.001954	0.004912	0.004419
4	0.00294	0.001296	0.002775	0.002447	0.001954	-0.001005
5	0.001296	0.002118	0.004583	0.00146	0.004748	-0.000841
6	0.00409	0.003268	0.002282	0.002447	0.003926	0.000967
7	0.003597	0.000146	0.003597	-0.000512	0.004748	0.001132
8	0.005405	0.002775	0.00146	0.001789	-1.9e-05	0.000639
9	0.003433	0.001296	0.004583	0.001132	0.003104	0.000639
10	0.00294	0.003433	0.002611	0.000146	0.002611	0.00146
11	0.002282	0.003761	0.006227	0.001132	-0.001498	0.003104
12	0.004583	0.003104	0.005241	-0.002155	0.002118	0.003268
13	0.000803	0.00031	0.003597	0.001789	-0.00347	0.003597
14	0.001132	0.000803	-0.001169	-0.001005	-0.000183	0.002447
15	0.00146	-0.001334	0.000639	0.002447	-0.001827	0.000803
16	-0.000347	0.00031	0.002611	0.00146	0.000967	0.000639
17	0.000474	0.001132	-0.000841	0.002282	0.001789	0.001296
18	-0.002648	0.00031	0.004419	0.000803	0.003597	0.003104
19	0.002282	0.001789	0.001625	0.001789	0.002118	0.002611
20	0.001132	-0.000347	0.00294	0.001625	0.004583	0.002447
21	-0.000512	0.000803	0.00672	0.000146	0.00294	0.002118
22	0.00146	-0.000512	0.003926	0.000474	0.005076	0.003597
23	0.003268	0.000967	0.00409	0.000639	0.004583	0.00146
24	0.00146	0.001625	0.001789	0.00146	0.003926	0.002775
25	0.004255	0.002118	0.001625	0.00031	0.007049	0.002775
26	0.003433	0.002118	0.002775	0.003104	0.011815	0.001789
27	0.003761	0.003597	0.001789	0.00031	0.003761	0.000146
28	0.003268	0.00031	0.00146	0.005076	0.009843	0.000474
29	0.004583	0.002282	-0.000347	0.000474	0.006062	-0.001169
30	0.002447	0.000639	0.000967	0.000967	0.003761	0.000803
31	0.000146	0.001954	0.001625	0.002775	0.005734	0.005405
32	-0.000347	0.00031	-0.000841	0.001625	0.003268	-0.001498
33	0.001132	0.00031	-0.000512	0.000639	0.002775	0.001132
34	0.001625	0.000474	0.004419	0.003761	0.002611	0.001296
35	-0.001827	0.000474	0.002282	0.001296	0.001625	0.001625
36	0.002775	0.001789	0.001789	0.004912	-0.001991	0.004912
37	0.000803	0.002611	0.000639	0.000639	0.003433	0.00294
38	0.001132	0.00672	-0.000347	0.000146	0.001296	-0.000676
39	0.00146	0.003104	0.004912	0.001132	0.002775	0.002447
40	0.002611	0.00294	0.00031	0.000967	0.002282	-0.000512
41	0.002118	0.00294	0.003433	0.002775	0.003104	0.001625
42	0.005569	0.004583	0.003926	-0.001662	0.003268	0.000146
43	0.001625	-0.000841	0.001789	0.001954	0.003268	0.003433
44	0.002282	0.006884	0.002282	-0.001991	0.002118	0.002775
45	0.002447	0.00031	0.006556	0.005734	0.003761	0.001789
46	0.000474	0.00031	-0.000347	0.003268	0.002447	0.002611
47	0.003268	0.00146	0.001789	0.003104	-1.9e-05	-0.000512
48	0.001625	0.000474	0.000639	0.006227	0.001954	-0.001991
49	0.002447	-0.001662	0.000474	0.004419	-0.001662	-0.000841
50	-0.002155	0.001296	0.000803	0.00146	0.00146	0.000803
51	-1.9e-05	0.000474	0.000967	0.004419	0.000146	-0.000183
52	-0.001662	0.003433	0.005076	0.005734	0.001132	0.000803
53	0.002118	0.005076	0.002282	0.003761	0.000146	0.002447
54	-0.003635	0.002282	0.001296	0.004583	0.001954	0.00146
55	0.000803	0.004419	-1.9e-05	0.003433	-0.000512	-0.001827
56	-0.000676	0.001296	0.006062	0.003761	0.00146	0.000967
57	0.001625	0.004748	0.000146	0.002447	0.000474	0.000474
58	0.003597	0.002118	0.000967	0.003433	0.001296	0.001789
59	0.002282	0.001132	0.000967	0.003926	0.00146	-0.003963
60	0.001954	0.000474	0.001789	0.003597	-0.000347	-0.002484
61	0.001625	0.003268	0.000967	0.002282	0.00146	0.003268
62	0.002447	0.003104	-0.000841	0.003104	0.002447	-0.003635
63	0.001132	0.002775	-0.000512	0.003761	-0.000512	-0.004128
64	-0.001005	0.002611	-0.000841	0.001625	-0.004785	0.003597
65	-0.002484	0.002447	-0.000183	0.003433	-0.001827	-0.000512
66	-0.001662	0.002775	-0.000841	0.003926	-0.002484	0.000803
67	0.00031	0.001132	0.005734	0.00294	-0.001169	0.001296
68	-0.00347	0.000639	-0.002484	0.003761	-0.001827	0.00146
69	-0.002155	-1.9e-05	-0.001827	0.001954	0.000639	0.003926
70	-0.000183	0.003761	-0.000183	0.004419	0.000474	-1.9e-05
71	-0.002155	-0.003799	0.002447	0.005734	-0.000841	0.000803
72	-0.000183	0.003597	-0.002155	0.00146	0.000967	-0.000183
73	0.001132	0.002118	0.001789	0.002775	-0.001662	0.002447
74	0.00146	0.004419	0.000639	0.001954	-0.001334	0.000639
75	-1.9e-05	0.002118	0.00146	0.001132	-0.001991	0.003597
76	-0.000347	0.003433	0.001625	-0.001991	0.003926	0.002282
77	0.002447	0.003597	-0.000676	-0.001005	-0.001005	0.002118
78	0.002775	0.001296	0.005898	-0.002648	-0.000841	0.000803
79	0.000474	0.002447	-0.001991	0.003268	0.00031	0.000639
80	0.000474	0.000967	0.000474	-0.001991	-0.000512	0.000639
81	0.000146	0.000474	-0.000841	0.00146	-0.002155	0.002118
82	-0.002813	-0.001169	0.000803	0.002447	0.001296	0.001789
83	0.000146	0.002282	-0.002155	0.002118	-1.9e-05	0.001789
84	-0.001169	0.000146	-0.000676	0.002611	0.000146	0.003761
85	0.001296	0.002447	-0.000183	0.005734	0.000639	-0.001169
86	-0.001498	0.001132	0.002282	0.002447	-0.001991	0.004419
87	0.000803	0.002611	0.001132	0.002282	-0.001334	0.00146
88	-0.000183	0.000803	0.001954	0.003104	-0.001334	0.001296
89	-1.9e-05	0.00294	0.00787	0.000474	-0.001005	0.00031
90	0.00146	0.001789	-0.000512	0.002118	-0.001005	0.001625
91	0.001296	0.003761	0.001132	0.000146	0.00031	-0.000183
92	0.003268	0.002775	0.004583	0.000803	-0.00232	-0.000183
93	0.00294	0.004255	0.002611	0.002447	0.000146	0.005569
94	0.003104	0.002611	0.00146	0.001954	-0.001005	0.001789
95	0.003433	0.002611	0.002118	0.001296	0.000967	0.00146
96	0.003104	0.000639	0.000803	0.005898	-0.000347	0.000967
97	-0.003799	0.001296	0.003104	0.00031	-0.001005	0.000967
98	0.002118	0.000639	0.000639	0.005405	-0.00347	0.002118
99	0.001296	-0.000841	0.002282	-0.006264	0.00146	0.00146
100	0.001789	0.003104	0.004912	-0.000676	-0.000512	0.001132
101	-0.000841	0.000639	0.001789	0.003104	0.000639	0.001625
102	0.001625	0.003104	-0.000347	0.000803	-0.000347	0.000474
103	-1.9e-05	-0.001005	0.004748	0.002611	-0.000512	0.001296
104	0.000967	0.007213	0.004255	0.005241	-0.001827	-0.000512
105	0.001954	0.00146	-1.9e-05	0.003597	0.000639	-0.000676
106	0.001296	0.001789	0.002447	0.001954	0.000146	-0.002813
107	0.001789	0.002282	0.00146	0.002282	-0.001498	-0.000512
108	-0.003635	0.001954	0.002118	-0.000183	-0.000676	0.000967
109	0.000967	-0.001005	0.002775	0.004255	-0.002155	0.002775
110	0.002118	0.003104	0.000967	0.000803	0.000803	-0.000512
111	0.002118	0.005569	0.008692	0.00146	-0.001498	0.002118
112	0.00031	0.006556	0.000639	-0.000841	-0.000347	0.001625
113	0.00031	0.006227	-0.001334	0.000967	-0.001005	0.00409
114	0.00031	0.005076	-1.9e-05	0.000639	0.000639	0.002118
115	0.004255	0.005076	0.000146	0.00146	-0.001498	0.00146
116	-0.001005	0.004748	0.003104	0.00294	0.000474	0.001625
117	0.003268	0.005241	0.001789	0.000639	-0.001827	0.002611
118	-0.000841	0.004255	0.001625	0.004583	0.000967	0.002447
119	-0.004949	0.005076	0.001625	0.002611	0.001954	0.002118
120	-0.001662	0.005734	0.003104	0.001132	-0.000676	0.000967
121	-0.000183	0.008035	0.003433	0.001296	0.000474	-0.001827
122	0.000474	0.004583	0.009185	0.003926	-1.9e-05	-0.002648
123	0.000146	0.004419	0.00031	0.003926	-1.9e-05	-0.000347
124	0.000967	0.004255	0.003433	0.003104	0.000474	0.003433
125	-0.000676	0.005405	0.004419	0.00146	-0.001005	-0.000841
126	0.002611	0.005241	0.003926	0.00294	0.000146	0.00146
127	0.002447	0.004419	0.000803	0.001132	-0.000183	0.001132
128	0.000474	0.002118	0.001132	-0.000347	-0.002484	0.000474
129	-0.005607	0.005569	0.001954	0.000639	-0.001005	0.002282
130	-0.004785	0.005076	0.001132	0.001296	0.000967	0.000639
131	-0.002648	0.002775	0.006556	-0.001498	0.00146	0.003597
132	0.000146	0.005898	0.003761	0.000146	-0.001005	0.00031
133	-0.001334	0.001954	0.007049	0.000803	0.001789	0.002282
134	0.001296	0.003926	0.000967	-0.000841	0.001296	0.001132
135	0.002447	0.003268	0.003761	0.003268	0.001625	0.005405
136	-1.9e-05	0.002611	0.002447	0.001625	0.000967	0.000474
137	-0.001662	-1.9e-05	0.004419	0.003104	-1.9e-05	0.001954
138	0.003433	0.003926	0.007049	0.002447	0.00294	-0.001005
139	0.000146	-0.001334	0.004255	0.003926	0.002611	0.000146
140	-0.000512	0.001625	0.005898	0.002447	0.000474	0.000967
141	-0.005936	0.002775	0.005898	0.003268	-0.002484	0.000639
142	-0.000183	0.002611	0.005076	-1.9e-05	0.003268	0.002611
143	0.001132	0.00294	0.004583	0.002447	-0.000183	0.00031
144	0.000967	-0.000512	0.010007	0.003104	0.000474	0.003926
145	0.001954	-1.9e-05	0.002282	-0.001334	-0.001169	0.001789
146	0.000803	0.001296	0.006391	-0.00347	-0.001334	0.003433
147	0.001789	0.00146	0.005241	-0.000347	0.003433	-0.000347
148	0.000474	-0.001662	0.005405	0.00031	0.00146	0.003268
149	0.004255	0.003597	0.003761	-0.000676	0.003104	0.001625
150	0.001789	0.002611	0.004748	0.007542	0.003268	0.003104
151	0.000803	0.004912	0.00409	0.003433	0.000967	-0.000676
152	-0.004128	0.00294	0.002447	0.002611	0.001625	0.001789
153	0.000146	0.001625	0.00409	0.002118	0.002282	0.001296
154	0.002447	0.00294	0.006227	-0.001005	0.000474	-0.000183
155	0.000803	0.00031	0.008035	0.000146	0.000967	-0.001991
156	0.00146	0.000474	-0.000512	0.003433	-0.000347	-0.001169
157	0.001789	0.000967	0.006391	-0.000183	0.000639	0.003268
158	0.002447	0.002447	0.000803	0.004255	-1.9e-05	-0.003963
159	-0.000676	0.000639	0.004748	0.000146	-0.000347	0.001625
160	0.003268	0.001132	0.001789	0.001625	-0.000183	0.000146
161	0.000146	0.001132	0.003597	0.002447	0.00146	0.00409
162	0.00146	-0.001169	-0.000512	-0.000841	-0.001005	0.00146
163	-0.007908	0.002447	0.004255	0.001954	0.00031	0.003433
164	-1.9e-05	0.001296	0.000803	-0.001169	-0.002155	0.002611
165	0.000967	0.000803	0.005241	0.000967	0.001296	0.003926
166	0.001625	0.000967	0.006391	0.000639	0.00146	0.002611
167	-1.9e-05	0.000803	0.002118	0.003433	0.001132	0.001296
168	0.004255	0.000146	-0.000183	-0.000347	0.002118	0.002775
169	-1.9e-05	0.000639	0.001625	0.002611	-1.9e-05	0.001625
170	0.001625	0.00146	0.00146	-0.000347	-0.001005	-0.001827
171	0.002611	0.000639	0.00146	0.000474	0.000803	0.001954
172	0.000639	-0.001662	0.00031	-0.001662	0.001789	-0.001169
173	0.003597	-0.000841	-0.001498	0.000146	0.00031	0.000639
174	-0.006593	-0.001005	0.001132	-0.000676	0.001132	0.001296
175	0.002447	-0.001662	0.002282	0.000967	0.001625	0.001132
176	-0.004949	0.000803	0.004583	0.000639	-1.9e-05	0.004419
177	0.002611	-1.9e-05	0.003597	0.003433	-0.003142	-0.002648
178	-0.001005	-0.001498	-0.002484	0.00294	-0.000183	0.002775
179	-0.003142	-0.000347	-0.001827	-1.9e-05	-0.004292	0.003433
180	0.00031	-0.001334	0.000803	0.001296	-0.000512	0.00146
181	-0.000183	0.000474	-0.001662	0.000803	-0.001662	0.001132
182	0.002118	-0.000347	0.000967	-0.000183	0.000474	0.002118
183	0.00409	0.000967	-0.000512	0.002447	0.004255	0.00146
184	0.000967	-0.001827	0.00146	0.002282	0.004255	0.002775
185	-0.003963	0.001625	-0.000512	-0.002155	0.004255	0.001625
186	0.001625	0.001132	0.002775	0.002775	0.002447	0.006062
187	0.000639	0.002282	0.001296	-0.001498	0.001789	0.000967
188	0.003433	-0.000183	0.003597	-0.003142	0.000967	0.000474
189	0.000146	-0.003635	-0.000183	-0.001005	0.002118	-0.001169
190	0.00146	-0.002977	-0.002155	0.000474	-1.9e-05	0.001296
191	-0.000676	-0.000841	-0.00232	-0.000512	0.001132	-0.000676
192	0.003926	-0.002977	-0.001005	0.00031	0.001296	-0.000676
193	-0.000512	-0.004785	-0.000183	0.000639	0.001296	0.000474
194	0.000146	-0.002813	-0.001169	0.00031	-0.000676	-0.001498
195	0.000146	-0.002813	-0.001662	-0.000183	-0.000512	0.002447
196	-0.006757	-0.002813	-0.000183	0.000146	0.000803	0.002611
197	0.000474	-0.000512	-0.001334	0.001625	0.002611	0.003268
198	0.001625	0.002447	0.00031	-1.9e-05	-0.001991	0.002118
199	0.001296	0.00031	0.005569	0.003926	-0.002813	0.004255
200	0.003104	0.002775	-0.002813	0.00294	0.001296	-0.000676
201	0.002282	-0.001827	-0.000183	0.002447	-1.9e-05	0.004583
202	0.004583	0.000146	0.000146	0.000803	0.000474	0.001132
203	0.00409	-0.000512	-0.004949	0.003104	0.000474	0.000967
204	0.003104	-0.000347	-0.001662	-0.000347	0.001296	0.000146
205	0.003761	-0.000512	-0.00232	-0.000841	0.000639	0.000474
206	0.002282	0.000146	-0.002977	0.001296	0.002447	-0.001827
207	-0.004621	0.003433	-0.001334	-0.002155	0.000803	-0.006429
208	-0.000841	0.000146	0.000803	0.002118	0.002611	-0.001334
209	0.002282	0.000639	-0.00232	0.004583	-0.000183	-0.002813
210	-0.000347	-0.000676	0.003268	0.001625	0.000967	0.00031
211	0.001296	-0.001991	-0.003799	0.003268	-0.000512	0.000146
212	-0.001498	-0.002977	-0.002813	0.004419	0.000639	-1.9e-05
213	0.000474	0.001954	-0.00232	0.000967	-0.000841	0.000146
214	0.00031	-0.005278	-0.001827	0.006062	-0.003306	0.002611
215	0.001789	0.000474	0.000474	0.000639	-0.000183	0.000474
216	0.001789	0.000639	0.002118	0.002775	-0.001991	0.002611
217	0.005241	0.003761	-0.003306	0.002118	0.00146	0.000639
218	-0.001991	-0.001498	0.000803	0.002775	-0.000676	0.002775
219	0.001625	0.000474	0.001296	0.001132	0.00031	0.003597
220	0.003104	0.000639	-0.001334	0.000803	0.000639	0.000803
221	-0.000676	-0.002813	0.002611	0.002611	0.000639	0.001789
222	0.00409	-0.000183	-0.002977	-0.002155	-0.002155	0.000474
223	0.000967	-0.001498	-0.000183	-0.000841	0.002447	0.002118
224	0.003268	0.000803	-0.002155	0.000474	0.000803	-0.001169
225	0.001296	-0.002813	0.00031	0.002282	0.00031	0.002775
226	0.000639	0.001132	0.000639	0.00146	0.000146	-0.001662
227	0.00031	-0.002648	0.000474	0.002447	0.003104	0.002118
228	-0.000676	-0.000841	-0.003306	0.005569	0.000474	0.00031
229	-0.009223	-0.001991	-0.002648	0.004912	0.000803	0.00294
230	-0.001005	-0.000347	-0.001662	0.001625	0.004583	0.00146
231	0.002118	-0.001005	-0.00232	0.003433	-1.9e-05	0.002118
232	-0.001334	-0.001334	-1.9e-05	0.001296	0.001789	0.002611
233	0.002282	-0.000183	-0.002813	0.003761	0.005734	0.00294
234	0.005076	0.000803	-0.001169	0.001789	0.002611	0.001789
235	0.002611	0.000474	-0.002155	0.002118	-0.000183	-0.002484
236	0.002447	0.000474	0.001789	0.001132	0.002447	0.003104
237	0.004419	0.002447	-0.001498	0.001625	0.000803	0.002118
238	0.003926	-0.000347	-0.001827	-0.002155	0.001625	0.003597
239	0.005569	0.00672	-0.004621	-0.000841	0.00031	0.001789
240	-0.005114	-0.001169	0.003433	-0.000512	0.002775	0.001132
241	0.001296	0.001789	-0.002155	-0.000512	0.002118	0.001625
242	0.002118	0.000967	0.000803	-0.000512	0.002611	0.00146
243	0.001625	-0.002648	0.002447	0.001789	0.001954	0.001954
244	0.000474	-0.002484	-0.000183	-0.001827	-1.9e-05	0.000967
245	-0.000347	-0.000841	-0.001334	0.000474	0.001296	-0.001662
246	0.001132	-0.004456	-0.002813	0.004419	-0.001169	0.00031
247	0.00031	-0.000512	0.002118	0.000639	-0.001169	0.000474
248	0.001132	0.000146	-0.002484	0.005241	-0.000183	0.00146
249	0.000474	0.002775	-0.001334	0.001954	0.000639	0.00031
250	0.003926	0.002118	-0.002155	0.002775	-0.000676	-1.9e-05
251	-0.002813	0.00294	0.00146	-0.001827	0.000474	0.000967
252	0.001296	0.000146	0.00031	0.001132	-0.000512	0.002282
253	0.003268	-0.001662	0.000967	0.00031	-0.000183	0.00294
254	0.003433	0.00294	-0.001662	0.000967	-0.000512	0.000803
255	0.001296	-0.000512	-0.001334	0.000967	0.001789	-1.9e-05
256	0.004419	0.002611	-0.001498	0.001296	0.001132	-0.001005
257	0.001625	0.00294	0.000803	0.002447	0.001296	0.005241
258	0.002118	0.00146	0.00031	0.00409	0.001789	0.00409
259	0.001789	0.004583	0.001954	0.004583	0.00146	0.000967
260	0.001789	0.004912	-0.001662	0.002775	0.002282	-0.000512
261	0.00146	0.001132	-0.001169	0.00409	0.001132	0.005076
262	-0.004128	0.001954	-0.001498	0.002118	0.000474	0.000639
263	-0.001991	-0.000676	-0.002648	0.002611	-0.000841	0.001789
264	-0.000512	0.00146	0.000967	0.004255	-0.002648	0.001625
265	0.002447	0.00031	0.002447	0.003104	0.002118	0.001954
266	-0.001662	0.002118	0.001296	0.004419	-0.002484	-0.000841
267	0.000146	0.001625	-0.001498	0.003433	-0.004128	0.001789
268	0.002447	0.004419	-0.000841	0.006556	0.00146	0.002447
269	0.002775	0.006556	-0.000183	0.006391	-0.002813	0.00146
270	0.003761	0.000967	0.000639	0.004255	0.000474	0.002118
271	0.003597	0.009185	-0.000512	0.005076	0.00031	-1.9e-05
272	0.002611	0.00409	-0.001827	0.001789	0.001954	0.002282
273	-0.001827	0.00409	-0.000841	0.002611	0.000474	0.001132
274	-0.001005	0.005569	0.003761	0.003433	0.003268	0.003104
275	0.001954	0.003104	-0.000512	0.000639	0.001296	0.001132
276	0.001296	0.000803	0.004419	0.004583	0.001296	0.00146
277	-0.002155	0.002611	-0.001662	0.002611	0.002447	-0.000347
278	0.000146	0.002775	0.000146	0.005076	0.001296	0.000803
279	-0.001169	0.001625	-0.001334	0.005241	0.002611	-0.000183
280	-0.001498	0.00146	-0.003306	0.005405	0.007213	-0.000512
281	-0.000347	0.002447	-0.000676	0.004912	0.002775	-0.000841
282	-0.002813	0.005898	-0.002977	0.006391	0.00294	-0.000183
283	-0.001991	0.001296	-0.00232	0.003104	0.00146	0.001625
284	-0.004456	0.005405	-0.002484	0.003761	-0.000183	0.002447
285	0.006391	0.003761	-0.000512	0.003268	0.002611	0.00409
286	-1.9e-05	0.002611	0.00031	0.002775	-0.001169	0.001625
287	-0.000347	0.001789	-0.001169	0.001789	-0.000676	-0.000512
288	0.002611	0.003597	-0.001991	0.001296	-0.001991	-0.00347
289	0.00409	-0.000183	0.002118	0.00031	0.002775	0.000967
290	0.003761	0.005569	0.000474	0.001625	0.00146	-0.001169
291	0.000146	0.000967	0.001954	0.003433	0.000146	0.00409
292	0.003104	0.003761	0.001625	-0.00232	0.002611	-0.001005
293	0.002611	0.003926	-0.000347	0.000474	0.002118	0.000967
294	0.000146	-0.000512	-0.002977	-0.003635	0.002118	-1.9e-05
295	-0.002484	0.000803	0.001296	0.002282	0.002118	0.003104
296	-0.001498	-0.000512	-1.9e-05	0.004583	0.005076	0.00146
297	0.001296	-0.001169	0.001296	0.000474	0.00031	-0.000512
298	0.001296	0.000474	0.00031	0.00409	0.000639	0.001625
299	-0.000512	0.001296	-0.003799	0.004583	-0.000676	-0.000512
300	0.002611	0.002447	0.000474	-0.001005	0.00031	0.002282
301	0.000146	-0.001991	0.001132	0.003926	-0.002484	-0.000183
302	-0.002484	-0.001169	0.000803	0.005241	-0.000347	0.00031
303	0.001789	0.001789	-0.00347	0.004748	-0.000347	-0.000512
304	0.000639	0.001625	0.004583	0.002611	0.000146	0.002775
305	0.001789	-0.003142	-0.001005	0.001789	0.00031	0.002118
306	-0.001991	-0.000676	0.001954	0.002447	0.00031	0.003104
307	0.001296	0.001789	0.001132	0.001954	0.003597	-0.001662
308	0.00146	0.00031	0.001954	0.002447	0.002611	0.00031
309	0.001132	0.000146	0.002447	0.002118	0.001296	-0.00232
310	0.002447	0.000967	-0.001334	0.00294	0.000639	-0.000841
311	-0.000183	-0.001827	0.000146	0.00146	0.002775	0.000474
312	0.001296	-0.002648	-0.000676	0.003268	-0.001827	-0.000347
313	-0.001334	-0.000183	-1.9e-05	0.003597	0.001296	-0.001169
314	0.001296	-0.001005	-0.000512	0.003926	-0.00347	-0.001991
315	0.001625	-0.000183	0.000803	0.002447	-1.9e-05	0.001296
316	0.00146	0.000639	-0.002648	0.00409	-0.002155	-1.9e-05
317	-0.001169	-0.002155	-0.003799	0.002447	-0.000183	0.002611
318	-0.001662	0.000967	-0.001169	0.003597	0.00031	0.001954
319	-0.003635	0.000803	0.000967	0.003268	0.000967	0.00146
320	0.002611	-0.002155	0.000146	0.001789	0.00031	0.002118
321	0.00146	0.000146	0.000639	0.002447	-0.000347	0.000639
322	0.00031	-0.000512	-0.000512	0.000639	-0.000183	0.003761
323	0.002447	0.000967	0.003104	0.00294	-0.000347	0.002775
324	0.000474	-0.000512	-0.000512	0.002611	0.000639	0.001789
325	0.001789	0.004255	0.000803	0.000146	0.001954	0.001789
326	0.000967	-0.000512	0.001789	0.006391	0.001625	0.002775
327	0.001954	-0.000676	-0.005607	0.003926	0.001132	0.000474
328	-0.002484	-0.001169	-0.000676	-0.001169	0.003433	0.000803
329	-0.001169	-0.001662	-0.000512	0.004912	0.002282	0.002118
330	0.000146	-0.002484	-0.001169	0.00294	-0.002484	0.00031
331	-0.000841	-0.004456	-0.003142	0.00409	-0.004292	0.000146
332	-0.005607	-0.00347	-0.000841	0.001789	0.001132	0.000474
333	0.00031	-0.002813	-0.001662	0.003597	0.001954	0.000639
334	-0.001169	-0.002813	0.002611	0.003268	0.000146	0.000639
335	-1.9e-05	-0.001169	0.002118	0.003597	-1.9e-05	-0.000512
336	-0.001169	-0.001498	0.000146	0.003926	0.001296	0.005734
337	-0.000512	-0.001662	-0.001498	0.001296	-0.001991	0.000146
338	0.000474	-0.004128	0.003104	0.001625	0.00146	0.00294
339	-0.000347	-0.004949	0.002447	-1.9e-05	0.000967	-0.001005
340	0.000639	-0.0061	0.002611	-0.000183	-0.001005	0.001954
341	-0.001991	-0.002813	0.002775	-0.000347	0.000639	0.002611
342	0.003268	-0.004621	-0.000183	0.00031	0.003433	0.001132
343	0.000639	-0.004456	0.000803	-0.00232	0.003926	0.001789
344	0.001954	-0.003963	-1.9e-05	-0.002813	0.002775	0.00146
345	0.001296	-0.003635	0.003761	0.00146	0.002447	-0.000841
346	0.000639	-0.006429	0.000474	0.002611	0.000639	-0.000676
347	0.00146	-0.005771	-0.000347	0.002282	0.002447	0.000639
348	0.003433	-0.002813	0.000146	0.001296	-0.000183	0.002775
349	0.00146	-0.004621	0.000639	0.000967	0.001296	0.001625
350	-0.002813	-0.006264	-0.002648	0.002775	0.000803	-0.001827
351	-0.002977	-0.005936	0.001789	0.005241	0.00146	0.003268
352	0.001296	-0.001827	-1.9e-05	0.003597	-0.000183	-0.000841
353	-0.000676	-0.005443	-0.002648	0.005405	0.000639	0.001296
354	-0.001498	-0.002484	0.00146	0.002282	0.00031	0.000967
355	0.002118	0.003433	0.002611	0.003433	-0.000347	-0.000841
356	0.00031	0.001132	0.001132	0.00146	0.000474	-0.001498
357	-1.9e-05	-0.003306	0.002775	0.004748	-0.000676	-0.001334
358	0.003597	0.000146	0.000803	0.003597	0.003268	-0.000512
359	0.001625	-0.001169	0.003104	0.002447	0.001296	0.00672
360	0.001296	-0.00232	0.001296	-0.001169	0.001789	0.003597
361	-0.001662	-0.001169	-0.001662	0.003926	0.000967	0.001954
362	-0.001662	-0.003635	0.00146	0.000803	0.004748	0.003268
363	0.00294	-0.003142	-0.000183	0.00146	-0.001991	0.00146
364	0.000639	-0.005936	-0.003142	0.001132	0.00031	0.002611
365	0.001954	-0.007908	-0.001498	0.001625	-0.002155	0.000803
366	0.000967	-0.003799	0.001132	0.002611	0.00146	0.002611
367	0.001296	-0.002155	-0.003963	0.002282	-0.001662	-1.9e-05
368	-0.000676	-0.004949	-1.9e-05	0.003761	-0.001991	0.002775
369	0.000639	-0.000183	0.000146	0.004583	0.00031	0.000967
370	-0.003306	-0.004456	0.002118	-0.000347	0.006391	0.001625
371	-0.001334	-0.002484	0.00031	-0.000183	0.007377	0.001789
372	-0.004785	-0.003635	0.002118	0.00294	0.000146	0.002447
373	-0.002155	-0.001662	0.002118	0.00146	0.005405	0.006391
374	0.000803	-0.001991	0.000146	0.002775	-0.000512	0.003597
375	0.001132	-0.002813	-0.005114	0.002118	0.002447	0.002447
376	-0.001991	-0.002484	-0.001334	0.003268	0.000639	0.004419
377	-0.001334	-0.002977	0.002282	0.001789	0.002611	0.002611
378	0.003268	-0.002155	-0.002648	0.003104	0.001625	0.00146
379	-0.002155	-0.002813	0.001789	0.004255	0.000474	0.003104
380	0.002447	-0.000183	-0.000183	0.004419	0.00294	0.000146
381	0.001296	-0.001005	0.002118	-0.000347	0.003268	0.00146
382	0.000967	-0.000183	0.00031	-0.000841	0.002118	0.001954
383	-0.0061	-0.001334	-0.001005	-0.001827	0.002775	0.001954
384	0.000803	-0.001498	0.003433	0.003268	0.00409	0.000639
385	0.001625	-0.001662	-0.000512	0.002447	0.000967	0.00031
386	-0.002155	-0.002813	-0.005607	0.003433	0.002611	0.001132
387	-0.001498	-1.9e-05	0.004583	0.003926	0.000967	0.003104
388	-0.000841	-0.002648	0.002447	0.002447	-0.001005	0.003926
389	-1.9e-05	-0.002648	0.002282	0.004255	-0.000841	0.003597
390	-0.001991	-0.000183	0.002775	0.000474	-0.000676	0.002447
391	0.000146	-0.001334	-0.001991	0.00409	-0.005278	0.001625
392	0.001296	-0.000512	0.002775	-0.001498	-0.001005	0.003761
393	0.001296	0.001954	0.000803	-1.9e-05	-0.005114	0.002118
394	-0.008894	0.002775	0.003597	-0.004128	-0.001498	0.003268
395	0.002118	0.005241	-0.000676	0.002447	0.000474	0.002447
396	0.000639	0.002118	0.003104	0.002282	0.000146	0.005076
397	0.000803	0.003761	-0.004292	0.000474	-0.000183	0.002775
398	0.003433	0.000639	0.000474	0.003268	0.003761	0.003597
399	0.001789	0.000967	0.000639	0.002282	-0.000183	0.001625
400	-0.000841	0.000639	0.002611	0.004419	-0.001498	0.002447
401	0.000639	0.000967	0.001954	0.002282	0.000803	0.001789
402	0.001789	0.001296	0.002118	0.004583	0.001789	0.003597
403	-0.001498	0.001954	0.001954	-0.004949	0.002118	0.001625
404	0.000146	0.002447	-0.000841	0.00146	-0.000183	-0.00232
405	-0.007579	-0.001169	0.004255	0.001296	0.001954	-0.00232
406	-0.001498	-0.000512	0.002282	0.005569	0.002118	0.005241
407	-0.001005	0.001789	0.002118	0.002775	0.001625	0.002447
408	0.001132	0.000803	-0.004128	0.004748	0.000146	0.002775
409	-0.000676	0.000967	0.001296	0.00294	0.002118	0.002282
410	0.001789	-0.000676	-0.000347	0.000803	-0.000183	0.00146
411	-0.002155	0.000474	0.002611	0.004255	-0.000512	0.002611
412	-0.000841	0.001132	-0.000512	0.002775	-0.000347	0.003597
413	0.002447	0.002447	0.002447	0.000146	0.001132	0.003597
414	0.002447	0.004912	0.002775	-0.005114	-0.000347	0.003104
415	0.001789	0.006391	0.001296	0.001132	-0.000183	0.006391
416	-0.003799	0.002447	0.002611	0.000474	-0.000512	0.006391
417	0.001789	0.00146	0.000803	0.003268	0.001296	0.005569
418	0.000967	0.002447	0.000146	0.001132	-0.000841	0.003433
419	0.002447	-0.000512	-0.001334	0.007213	-0.002155	0.006062
420	0.002775	-0.000512	0.001789	0.001954	0.000967	0.002447
421	0.001625	-1.9e-05	0.000639	0.002282	0.000146	0.005734
422	0.000639	-0.000676	0.004419	0.001625	-0.000512	0.004748
423	-0.000676	0.002118	0.001296	0.005241	-0.002977	0.005076
424	-0.001005	0.001132	0.002282	0.002118	0.002611	0.006391
425	0.001954	0.002282	0.000803	-0.003799	-0.001334	0.002775
426	-0.003799	0.003761	0.001296	0.003104	0.002611	0.005241
427	-0.001334	0.002611	0.000474	0.002611	-0.002813	0.005076
428	-0.000512	0.00031	0.000803	0.001625	0.001625	0.007706
429	-0.000841	0.003104	0.000803	0.003433	-0.001169	0.006062
430	-0.001005	-0.001334	-0.003963	0.002775	0.000639	0.005898
431	-0.001005	0.001296	-0.001169	0.002775	0.000639	0.003104
432	-0.001169	0.000474	0.000967	0.002447	-1.9e-05	0.00935
433	0.004912	0.00146	-0.000183	0.000474	0.000967	0.007049
434	0.000803	-0.000183	0.003433	0.003268	-0.000183	0.007213
435	0.002775	-0.000676	0.001625	0.000803	0.001954	0.004748
436	-0.001334	0.000803	0.00294	-0.005936	-0.000841	0.005734
437	-0.001169	-0.000183	-0.001498	-0.001662	0.002282	0.002775
438	0.003926	-0.001991	-0.002813	-0.002155	0.001132	0.007377
439	-0.003142	-0.000512	0.004748	0.001789	-0.000841	0.008528
440	-0.001005	0.000639	-0.003635	0.002282	-0.002484	0.005734
441	-0.001662	-0.003635	-0.004292	-0.002648	-0.000841	0.005898
442	-0.000512	-0.001498	-0.000676	0.00294	-1.9e-05	0.005076
443	-0.001334	-0.000676	0.000967	0.002282	-0.000347	0.006556
444	-0.000841	-0.006429	0.002611	-0.003799	-0.000347	0.004419
445	-0.001991	-0.003799	0.003104	0.00146	-0.001498	0.00672
446	-1.9e-05	-0.000676	0.002611	0.000803	-0.001827	0.004419
447	0.00031	0.001132	0.003268	-0.009223	-0.002155	0.009843
448	-0.000676	0.001132	0.002611	-0.001334	-0.001827	0.004748
449	0.005734	-0.000676	0.00409	0.003268	-0.003963	0.007049
450	-0.000676	0.00146	0.003268	-0.000841	-0.002155	0.005241
451	0.002447	0.003268	0.001789	-0.000183	-0.001334	0.006227
452	-0.001991	-0.000183	-0.000676	-0.000512	-0.001827	0.006391
453	-0.000512	0.00031	0.000146	-0.001662	-1.9e-05	0.005076
454	-0.001498	-0.000676	0.003926	-0.001991	-0.000512	0.005569
455	0.001789	-1.9e-05	-0.00347	0.001625	-0.001169	0.003926
456	-0.00347	-0.000841	0.00031	0.002118	-0.001827	0.00672
457	-1.9e-05	0.00031	-0.000841	0.002447	0.000474	0.00146
458	-0.002813	-1.9e-05	0.001132	-0.005771	-0.002155	0.003433
459	0.000474	0.002282	0.000146	-1.9e-05	-0.00347	0.001132
460	0.003268	-0.000676	0.001954	0.001789	-0.000676	0.000803
461	-0.003799	0.00146	0.000146	-0.000183	-0.004785	0.002775
462	-0.002813	0.000474	0.002282	0.000967	-0.003963	0.003268
463	0.000146	-1.9e-05	-0.002648	-0.000841	-0.002484	-0.000512
464	-0.000347	-0.000512	0.00146	-1.9e-05	-0.002813	0.005734
465	-0.001662	-0.00347	0.002118	-0.000512	-0.001827	0.003761
466	-0.001005	-0.001662	0.003268	-0.000512	-0.004456	0.003268
467	-0.000841	0.00146	0.002282	-1.9e-05	-0.004292	0.003268
468	0.000146	0.00031	0.002447	0.000474	-0.001498	0.002282
469	-0.001005	-0.000183	0.005898	-0.006922	-0.000841	0.001789
470	0.000474	0.002775	0.003761	-0.001005	0.000474	0.00146
471	0.001296	-0.002648	0.00294	-0.000841	0.001954	0.003433
472	-0.000676	0.00146	0.006062	-0.000347	0.002611	0.001625
473	-0.001827	-0.000183	0.002775	-0.000347	0.002775	0.002775
474	0.00146	0.001296	-0.00232	0.002118	-0.001334	-0.001005
475	-0.005278	-0.002155	0.001789	0.001789	0.00031	0.001625
476	-0.00232	-0.000347	-0.000347	-0.000841	-0.002813	-0.001005
477	-0.005114	-0.000841	0.00146	0.002447	-0.001498	0.000474
478	-0.006922	-0.001169	0.000146	0.003268	-0.000512	0.000146
479	-0.003142	-0.001991	-0.000512	0.004419	-0.000512	0.000146
480	-0.004292	0.001132	0.00031	-0.008565	-0.000512	-1.9e-05
481	-0.003799	-0.001827	0.002775	0.002447	-0.003635	0.001132
482	-0.001005	0.00146	0.001625	0.001132	-0.003142	-0.001334
483	-0.001334	0.00146	0.000803	0.000967	-0.003799	0.003433
484	-0.000512	0.000474	0.002775	-0.000183	-0.003142	0.001789
485	-0.000512	0.000803	-0.001005	0.002611	-1.9e-05	-0.002813
486	-0.003142	-0.002648	0.001132	0.000803	-0.001169	-0.000347
487	0.002447	0.001132	0.001296	0.000639	-0.003635	0.001132
488	-0.002813	-0.000676	0.00294	0.002118	0.001954	-0.005278
489	-0.000347	0.000967	0.001132	0.001625	-0.001334	-0.002648
490	0.000474	-0.001827	0.00294	0.003597	0.002282	-0.001334
491	-0.001005	0.001296	0.002611	-0.00988	-1.9e-05	-0.005114
492	-0.001498	-0.002977	0.001954	-0.001005	-0.000512	-0.002155
493	-0.000347	0.000639	0.000639	0.00409	-0.000512	-0.00347
494	0.001296	0.000146	0.001132	-1.9e-05	-0.005771	-0.002155
495	0.003268	0.00294	0.003761	-0.000347	-0.002484	-0.002813
496	0.001625	-0.004456	0.003104	0.005076	-0.00347	-0.001827
497	-0.001334	-0.000676	0.001296	0.003104	-0.003142	-0.002977
498	0.001954	0.000474	0.001296	0.000474	-0.003306	-0.000347
499	-0.001498	0.001625	0.003268	0.005241	-0.000512	-0.002977
500	-0.000183	0.002447	0.003268	0.005076	-0.003142	-0.003142
501	0.000967	0.001296	0.003926	0.002118	-1.9e-05	-0.001991
502	0.001132	0.003926	-0.000183	-0.005443	-0.001662	-0.003306
503	-0.000676	0.002447	0.003268	0.001296	0.001132	-0.004292
504	0.001132	0.004419	0.00146	0.005241	-0.001991	-0.003306
505	0.002447	0.002118	0.004583	0.005898	0.000474	0.003268
506	0.000474	0.002775	0.003761	0.005898	-0.001334	-0.004785
507	-0.000347	0.000803	0.005405	0.005076	-0.001827	-0.003799
508	0.000146	0.002447	0.000474	0.00409	-0.001498	-0.005607
509	-0.000676	0.001296	0.003268	0.00409	-1.9e-05	-0.003963
510	-0.000512	0.001789	0.001954	0.004255	-0.000183	-0.006593
511	-0.002648	-1.9e-05	0.000967	0.006556	-0.002484	-0.001498
512	-0.000183	-0.001498	0.001625	0.00409	-0.001334	-0.003635
513	0.000639	0.000146	0.002447	-0.004949	-0.001991	-0.002977
514	-0.002484	-0.001334	0.003104	0.003268	-0.001498	-0.002155
515	0.002118	0.001789	0.002611	0.004419	-0.006264	-0.001827
516	-0.002484	0.003926	0.002611	0.004912	-0.002977	-0.000347
517	-0.000512	0.000146	0.003268	0.002282	-0.003306	-0.001991
518	-0.000676	0.000967	0.006062	0.003761	-0.001005	-0.001169
519	-0.000183	0.001625	0.002775	0.004748	-0.001498	-0.004949
520	0.000639	0.001625	0.004583	0.001132	0.000639	0.002447
521	0.00146	0.002282	0.008035	0.003761	-1.9e-05	-0.003963
522	0.00031	-0.002484	0.004748	0.003433	-0.002155	-0.004292
523	-0.000841	0.001132	0.004748	0.004583	0.002611	-0.002813
524	-0.001005	0.003926	0.003433	-0.004456	0.00146	-0.0061
525	0.002282	0.000967	0.000967	-0.000183	0.002118	-0.005607
526	0.00146	-0.000183	0.001789	0.003597	-0.005771	-0.002648
527	-0.004621	0.002447	-0.001334	0.004583	-0.000841	-0.002155
528	-0.003306	-0.000676	0.000146	0.008692	-0.000183	-0.001498
529	-0.001662	-0.000676	0.005076	0.005734	0.001132	-0.002977
530	-0.000347	-0.001498	-0.000512	0.007377	-0.001005	-0.003142
531	-0.003142	-0.000841	0.000474	0.004583	0.001296	-0.001334
532	-0.001498	0.001789	0.003268	0.006391	-0.000841	-0.001827
533	-0.001662	0.000639	0.000474	0.008857	0.00146	-0.003306
534	0.000474	-0.000676	0.001789	0.005241	-0.00232	-0.001991
535	0.000474	0.001625	0.003104	-0.005771	0.000639	-0.002155
536	0.003761	0.001625	0.002118	0.004583	0.000803	-0.001827
537	0.003433	-1.9e-05	0.00294	0.003433	-0.007908	-0.000841
538	0.001625	0.00409	0.00031	0.000967	0.001132	-0.003306
539	0.000967	0.001789	0.003104	0.000967	0.002447	-0.001662
540	0.002282	0.002282	0.00409	0.002611	0.001625	-0.003799
541	0.002282	0.000474	-0.000347	0.002611	-0.001005	-0.004292
542	0.000474	-0.000841	0.001296	-0.001991	-0.000841	-0.000512
543	-0.000841	-0.004292	0.001132	0.003597	0.001954	-0.00232
544	0.000803	-0.000841	-0.001005	0.003433	0.001296	-0.003142
545	0.001296	-0.00347	-0.003963	0.002447	0.001954	-0.002977
546	0.001625	0.001625	0.007049	-0.007086	0.001296	-0.001334
547	0.001296	-0.000676	-1.9e-05	0.002775	0.000146	-0.00232
548	0.002118	0.000639	0.000967	0.001954	-0.007086	0.000967
549	-0.000183	0.003268	0.005241	0.002775	-0.003635	0.000967
550	-0.000676	0.00031	0.000639	0.007706	0.001625	-0.000183
551	0.001296	0.00031	0.002611	0.003761	-0.00232	0.00031
552	-0.001662	0.001296	-0.000512	0.001789	-0.000347	0.000146
553	0.000639	0.001789	-0.001827	0.00294	-0.000676	-0.002484
554	0.000803	0.000474	0.002775	0.005405	0.00031	0.000967
555	0.001132	0.000639	0.000146	0.005241	-1.9e-05	0.000146
556	0.001625	0.000474	0.000803	0.000803	0.000474	0.000967
557	0.003104	0.003104	0.000639	-0.008565	0.000639	-0.002155
558	0.002282	0.001625	-0.000676	0.000967	0.00031	-0.002813
559	0.000803	0.001954	-0.001662	-0.001827	-0.006757	-0.002155
560	0.002282	0.002118	-0.002648	0.000639	-0.002813	0.001954
561	0.00031	-0.000512	-0.005114	0.000967	0.001954	-0.00232
562	-0.004128	-0.001662	-0.001334	0.001132	-0.005936	-0.005114
563	0.000803	0.002282	-0.003306	0.000474	-0.000841	-0.001334
564	-1.9e-05	0.001625	-0.003799	0.000803	-0.002155	-0.000841
565	-0.001005	-0.000183	-0.000183	0.001789	-0.002484	-0.000183
566	-0.000183	-0.000841	-0.004456	0.00409	-0.001827	-0.000183
567	-0.001827	0.000803	-0.003635	0.000639	-0.001334	-0.000512
568	-0.001498	0.00031	-0.000676	-0.008894	-0.002155	-0.001005
569	0.001789	0.000146	-0.000347	-0.000183	0.001132	0.001954
570	-1.9e-05	0.002118	-0.001498	-0.001005	-0.00347	-0.001005
571	0.001132	0.000639	0.00031	-0.001005	-0.003306	0.003433
572	0.00031	0.003104	-0.001991	-0.001169	-0.002813	-0.000512
573	0.003761	0.00031	0.000803	0.000474	-0.003306	0.000639
574	0.005076	0.002447	-0.001169	-0.00232	-0.001498	-0.000841
575	-0.000183	0.001296	-0.002813	-0.000676	-0.001334	-1.9e-05
576	-0.002813	-0.001498	-0.000512	-0.001334	0.000803	-0.001991
577	0.000146	-0.002813	-0.004456	-0.000183	-0.002813	0.000803
578	-0.002813	0.001296	-0.006922	0.002282	0.001625	-0.000841
579	0.000803	-1.9e-05	-0.004456	-0.008237	-0.000676	-1.9e-05
580	-1.9e-05	-0.001991	-0.002813	-0.002813	0.000639	0.001789
581	0.000146	0.002118	-0.009058	0.003597	-0.00232	0.003761
582	-0.001169	-0.001827	-0.004621	-0.001334	-0.00232	0.003597
583	0.000803	0.00031	-0.005114	0.000639	-0.003635	0.002118
584	-0.001005	-0.000676	-0.001169	0.000146	-0.000512	-0.000676
585	-0.000512	0.000146	-0.003306	-0.001498	-0.001662	-0.000347
586	-0.000676	0.00031	-0.001169	-0.003963	-0.00232	0.002611
587	-0.001005	0.001789	-0.002155	-0.003635	-0.001827	-0.000676
588	0.000967	0.001132	-0.001662	-0.00232	-0.002648	0.003104
589	0.001954	0.000967	0.000146	-0.004785	-0.002648	-0.004785
590	0.002447	0.001132	-0.000512	-0.012674	-0.003799	0.000803
591	0.000967	0.001296	-0.001498	-0.004621	-0.002977	0.00031
592	0.002447	0.002611	-0.000512	-0.001169	0.000474	-0.000676
593	0.000146	0.001789	-0.000676	-0.002484	0.000474	0.001625
594	0.001296	-0.000183	-1.9e-05	0.000967	-0.001005	0.000474
595	0.003597	-0.004785	0.001954	-0.002484	-0.000183	0.000639
596	0.002447	-0.002484	-0.001991	-0.002813	-0.001334	0.003926
597	0.000474	-0.00232	-0.000347	-0.002155	-0.001169	0.000474
598	0.00146	-0.001662	-0.003635	0.000146	-0.001005	-0.001334
599	-0.003306	-0.001498	0.000639	0.000146	-0.002484	0.001954
600	0.00146	0.000474	-0.005771	-1.9e-05	0.000639	-0.000512
601	0.000803	0.000639	-0.001827	-0.009551	0.000967	0.000639
602	-0.001005	0.000639	-0.001005	-0.002648	-0.002484	-0.000841
603	0.001789	0.000474	0.001625	-1.9e-05	0.00294	0.001296
604	-1.9e-05	0.000803	-0.002484	-0.001169	-0.00232	0.001954
605	0.001132	0.001625	0.001132	-0.00347	-0.001334	-0.002484
606	0.001132	0.001789	0.004255	-0.005771	0.000803	-0.000841
607	0.003104	0.001132	-0.001169	-0.002813	-0.001169	-1.9e-05
608	0.002447	-0.000183	-0.000676	-0.005443	-1.9e-05	0.001132
609	0.001132	0.00146	-0.000841	-0.000841	-1.9e-05	-1.9e-05
610	-0.001827	-0.001498	0.002447	-0.003142	0.000967	0.001954
611	0.001954	-0.001991	-0.001005	-1.9e-05	0.000474	0.001132
612	-0.000183	0.002775	0.001296	-0.006922	0.00031	-0.002484
613	0.002282	0.002118	-0.001827	-0.003799	0.000967	0.003926
614	0.002611	-0.000676	-1.9e-05	-0.000676	0.006062	0.003926
615	-0.000512	-0.000183	-0.003142	0.001132	-0.002648	0.001954
616	-0.002813	0.001954	-0.000841	0.00409	-0.000676	0.001132
617	0.005241	0.003268	-0.000512	0.00146	0.002282	-0.000183
618	-0.000512	0.002282	-0.002484	0.002118	-0.005114	-0.000512
619	-0.000183	-0.000512	-0.001169	-0.001005	-0.00232	0.000146
620	0.001132	0.000803	-0.000512	0.000967	-0.000183	0.002118
621	-0.001498	0.000474	-0.000347	-0.002155	-0.002648	0.00031
622	0.003104	-0.000183	0.001296	-0.000512	0.000967	0.001132
623	-0.002813	0.001625	0.001132	-0.010045	0.003433	0.001954
624	0.000803	0.00146	0.000474	-0.001662	0.000639	0.000474
625	0.000803	0.00031	0.002447	-0.00232	0.006556	0.004255
626	-0.002813	0.000967	-0.001498	-0.000347	-0.000512	0.00294
627	-0.001498	-1.9e-05	0.00031	0.000803	0.00146	0.002118
628	0.00031	-0.000183	-0.000676	-0.001005	0.001789	0.001789
629	-0.003306	-0.001498	-0.000183	-0.000183	0.003761	0.002118
630	0.001296	0.000474	-0.000512	-0.001662	0.002611	0.000639
631	0.001296	-0.000841	-0.002155	0.002447	0.002775	0.000967
632	-0.000347	-0.002813	-0.001334	-0.000512	0.002447	0.00146
633	-0.001827	-0.000183	-0.000676	0.001132	0.001625	0.001296
634	0.000967	0.003597	-0.003799	-0.007086	0.00146	-0.00232
635	0.00146	0.00031	-0.002484	0.001132	0.000967	0.002118
636	0.001954	-0.000347	-0.001005	-0.001169	0.005405	-0.000512
637	0.003104	-0.000347	-0.000347	0.000474	-0.001498	0.005734
638	0.00031	-0.000512	0.000639	-0.001169	0.002282	0.00146
639	0.002611	0.001789	0.002118	0.000639	-0.000183	-0.00347
640	0.000803	-0.00232	-0.000676	-0.001991	0.004419	0.000639
641	0.00031	-0.003635	-0.000183	-1.9e-05	0.001296	0.003268
642	0.000474	-0.00347	0.00146	-0.001827	-0.000347	0.000146
643	0.001296	-0.002813	-0.00232	0.001625	0.002775	-0.000183
644	-0.000183	-0.003306	0.002447	0.001296	-1.9e-05	0.002447
645	0.003597	0.00294	0.001132	-0.005607	0.002775	0.000474
646	-1.9e-05	-0.002484	0.001296	0.002118	0.003597	0.001789
647	0.00409	0.000146	0.003433	0.001625	0.006227	0.002447
648	0.001789	-0.001169	0.006556	0.004419	-0.000347	0.002447
649	0.00031	0.000803	0.003597	0.001625	0.001789	-0.000183
650	0.002447	0.001954	0.003926	0.002775	0.000474	0.002118
651	0.001789	-1.9e-05	0.001789	0.001132	-0.000512	-0.002155
652	0.000474	-0.001005	0.002447	0.002775	-0.000512	0.002447
653	0.002611	-0.000183	0.003104	0.003926	0.00031	0.001296
654	-0.000183	0.00146	0.002447	0.006062	-0.000183	-0.000512
655	0.002611	-1.9e-05	0.005569	0.003104	0.001625	-0.003306
656	0.002118	0.001954	0.004583	-0.006757	0.000146	-0.000841
657	0.001132	0.000146	0.00672	0.00294	-0.000841	0.000967
658	0.00031	0.000639	0.003104	0.004583	0.006391	0.000146
659	-0.002155	-0.000347	0.010664	0.005569	-1.9e-05	0.001954
660	0.000803	0.002447	0.005405	0.003926	0.000146	-0.001334
661	0.00031	-1.9e-05	0.002447	0.004583	0.001625	0.004419
662	0.000967	0.001789	0.002282	0.001954	0.000803	0.003597
663	-0.000183	-0.004949	0.003268	0.005734	0.000803	0.008199
664	0.000967	-1.9e-05	0.002118	0.003761	-0.001169	0.001954
665	0.000474	0.00031	0.00146	0.004748	0.000803	-0.000183
666	-1.9e-05	0.000146	0.000803	0.005898	0.00146	0.00031
667	0.00146	0.000146	0.001789	-0.003635	-0.000183	0.001132
668	0.001132	-0.004292	0.001296	0.003104	0.003433	0.001132
669	0.001789	0.000146	0.001625	0.007542	0.004419	0.001625
670	-0.000512	-0.001498	0.000474	0.00409	0.000474	0.00146
671	0.004583	0.001789	0.001625	0.004255	-0.002977	0.001789
672	0.000146	-0.000347	0.004912	0.00409	-0.000183	0.000639
673	0.000967	0.000967	0.00146	0.005241	0.003268	0.003597
674	-0.000183	-0.000512	0.001789	0.003597	0.004912	0.002447
675	0.00294	0.001789	0.00146	0.003926	-1.9e-05	0.00146
676	-0.001498	-0.002484	0.002118	0.004419	0.000967	0.004912
677	-0.000841	0.000474	0.001954	0.003433	0.001954	0.001296
678	0.00146	-1.9e-05	0.002447	-0.006593	0.002118	0.003761
679	0.000474	0.002447	0.001296	0.00146	0.003761	0.001625
680	-0.001169	-0.002155	-0.003963	0.003926	0.008363	0.00294
681	-0.000512	0.00031	0.002611	0.002775	0.001296	0.001625
682	0.001625	0.001954	-0.001334	0.00672	0.002282	0.001625
683	0.000146	-0.001334	-0.001169	0.003761	0.001789	-0.000512
684	0.001954	-0.000676	-0.001498	0.003926	-1.9e-05	0.000146
685	0.00031	-0.001334	-0.000183	0.000803	0.001625	0.001296
686	0.003926	-0.000347	0.000474	0.001954	0.000474	0.001132
687	-0.001005	-1.9e-05	0.001789	0.001954	0.002775	0.000474
688	0.001132	-0.002977	-0.000512	0.002447	0.001625	-0.001169
689	-0.000183	-0.000841	0.003433	-0.004785	0.003926	-0.00232
690	0.000474	-0.000347	-0.000676	0.00031	-0.001334	-0.002155
691	-0.001662	-0.001169	0.00146	0.002447	0.005898	0.001296
692	0.000474	-0.001662	0.001296	0.001625	-0.001169	0.002118
693	0.001132	-0.000676	0.002447	0.005076	-0.001662	0.003268
694	0.00409	-0.001498	0.003268	0.00294	0.002282	0.000967
695	0.000967	-0.002813	0.002118	0.004255	0.002775	0.001954
696	0.00294	0.000803	0.000967	0.00409	0.002282	0.007706
697	0.002775	0.002118	0.001132	0.003104	0.000967	0.000967
698	-0.000512	0.000803	0.002447	0.003104	0.000474	0.000803
699	0.002282	0.000474	0.000639	0.004255	-0.001005	0.00146
700	0.001296	0.000967	0.000639	-0.004292	0.002447	0.000803
701	0.003597	0.000803	-1.9e-05	0.000803	-0.000841	0.002118
702	0.001954	0.000639	0.000967	0.000967	0.006884	-0.001662
703	0.000146	-1.9e-05	0.00031	0.00294	-0.002813	0.003268
704	0.002118	0.001625	0.00031	0.001625	0.000639	0.00031
705	0.00031	-0.001169	0.000146	0.001789	0.003597	-0.003142
706	-0.000512	0.000474	0.00294	0.000474	0.000474	0.002775
707	0.001789	0.000474	-0.000676	0.006062	0.000146	0.001789
708	-0.000183	-0.00232	-0.001005	0.005241	0.000803	-0.000512
709	-0.004949	0.000146	0.000639	0.00146	0.000474	-0.001662
710	-1.9e-05	-0.001827	-0.000676	0.004419	-0.000347	0.002775
711	0.001954	0.001296	0.001132	0.002282	0.001296	0.000967
712	0.001132	-0.001498	-0.002155	0.000474	-0.000183	0.001954
713	0.003104	-1.9e-05	0.001132	-0.000676	0.007377	-0.004456
714	-0.000183	0.000803	-0.002648	0.001625	-0.003306	0.000803
715	0.000146	0.003104	0.000967	-0.001005	-0.001005	0.000967
716	0.001132	0.000803	0.002118	0.000146	-0.001662	0.001625
717	-0.000676	-1.9e-05	0.002611	0.000474	-0.002648	-0.000347
718	0.003433	0.003433	-0.000841	0.000639	0.00031	0.003926
719	0.000474	0.002118	0.001132	-0.000676	-0.000347	0.000639
720	-0.000676	0.00146	0.00031	0.000474	-0.002977	0.00031
721	-0.000512	-0.003306	0.000967	0.002282	0.000803	0.00146
722	-0.00232	-1.9e-05	0.000474	0.005405	-0.001498	0.000639
723	-0.000676	-0.000841	0.002775	-0.000512	0.00031	0.002611
724	-0.000183	0.000639	0.000474	0.001132	0.004419	-0.001827
725	-0.002648	-0.001991	0.000803	0.002282	0.000639	0.001625
726	-1.9e-05	0.001132	-0.001169	-0.001005	-0.000676	0.002775
727	-0.002155	-0.000676	-0.000676	0.004255	-0.001827	0.003761
728	-0.000183	-0.001498	-0.00347	-0.001662	-1.9e-05	0.003597
729	-0.000676	0.000474	-0.000183	0.000803	-0.002484	0.008857
730	-0.000347	0.000639	-0.004292	0.000639	0.003433	0.001625
731	-0.004128	-0.000841	-0.000512	0.002775	-0.002977	0.001296
732	0.00146	0.002282	-0.001827	-0.000512	0.001625	0.003433
733	0.00294	0.002282	0.001954	0.006062	-1.9e-05	0.000639
734	0.00031	-1.9e-05	0.004419	-0.002155	0.001625	0.001789
735	0.003926	0.001954	-0.001334	0.000146	0.004583	-0.002648
736	-1.9e-05	-0.000347	0.002282	0.000474	0.00031	0.003268
737	0.002118	0.002775	0.003268	-0.001827	0.00031	0.001625
738	0.000474	-0.000512	0.000803	-0.001005	-0.000183	0.000146
739	-0.001169	-0.001169	-0.000512	-1.9e-05	0.000639	-0.002155
740	-0.001169	-0.00232	0.000474	-0.000183	-0.001498	0.003104
741	-0.001005	-0.001827	-1.9e-05	0.000474	-0.001662	-0.001662
742	-0.002155	-0.000676	-1.9e-05	-0.000676	-0.000347	-0.000183
743	-0.002155	-0.001498	-0.000676	0.00146	-0.000183	0.000639
744	-0.001991	0.00031	0.00031	0.006391	0.000146	0.001954
745	-0.002648	-0.001005	-1.9e-05	-0.004949	-0.001334	0.000474
746	-0.001991	-0.002813	0.00146	0.002775	-0.001827	0.000967
747	-0.003799	0.004583	0.001625	-0.001334	-0.002813	0.001789
748	-0.004785	0.002447	-0.000183	0.001625	-0.001334	0.003597
749	0.001296	0.001132	0.003597	-0.000183	-0.00232	0.00146
750	0.001296	0.001954	-0.001498	-0.000347	-0.001662	-0.000676
751	0.003761	0.003433	0.006391	0.003597	0.004912	0.009843
752	0.013787	0.014938	0.012801	0.012965	0.010993	0.014938
753	0.017074	0.018882	0.021019	0.022169	0.020362	0.020362
754	0.029566	0.027758	0.028251	0.029401	0.028251	0.025128
755	0.035482	0.035647	0.03729	0.040906	0.039591	0.033017
756	0.042057	0.040249	0.041399	0.043207	0.044029	0.038934
757	0.047316	0.046987	0.048631	0.054383	0.05274	0.046987
758	0.052247	0.054548	0.053397	0.059314	0.054383	0.053726
759	0.058821	0.060958	0.063587	0.067203	0.060793	0.062108
760	0.065231	0.063916	0.067532	0.069997	0.067203	0.069176
761	0.07197	0.071312	0.070162	0.07953	0.071805	0.073942
762	0.074928	0.076407	0.080352	0.080681	0.079037	0.080681
763	0.083146	0.081831	0.081502	0.083475	0.080023	0.081995
764	0.08216	0.088241	0.087255	0.089885	0.084132	0.088077
765	0.092843	0.090706	0.091364	0.096623	0.093829	0.0935
766	0.097116	0.09876	0.099253	0.099746	0.093336	0.099582
767	0.103197	0.103691	0.100239	0.101554	0.097445	0.101718
768	0.104841	0.104019	0.106813	0.106813	0.106813	0.107964
769	0.110758	0.112894	0.112237	0.112073	0.107471	0.113223
770	0.113881	0.111744	0.113881	0.115524	0.114209	0.114867
771	0.117003	0.115689	0.119633	0.119633	0.119633	0.118483
772	0.119797	0.118976	0.120126	0.124564	0.120784	0.122592
773	0.122756	0.121934	0.121441	0.1267	0.123578	0.126372
774	0.124399	0.124235	0.12818	0.130809	0.126372	0.128673
775	0.122427	0.128837	0.127194	0.133275	0.129988	0.129823
776	0.128344	0.129495	0.131138	0.138699	0.133275	0.132946
777	0.132453	0.134425	0.13459	0.138534	0.138041	0.135247
778	0.13574	0.139685	0.136562	0.145437	0.138534	0.13952
779	0.137219	0.139849	0.139849	0.144287	0.143794	0.143465
780	0.146095	0.143629	0.142479	0.145602	0.140835	0.145437
781	0.144451	0.146752	0.144615	0.147903	0.145766	0.14856
782	0.146259	0.147903	0.151847	0.149217	0.144451	0.150697
783	0.150204	0.149382	0.153491	0.15234	0.150204	0.152505
784	0.152011	0.153655	0.152176	0.156778	0.000803	0.155956
785	0.155792	0.152833	0.15612	0.156285	0.010171	0.156778
786	0.153326	0.156942	0.157107	0.156613	0.021348	0.156285
787	0.156778	0.156285	0.159408	0.161215	0.030387	0.160722
788	0.159736	0.160065	0.160065	0.159901	0.036469	0.161215
789	0.160558	0.162366	0.162859	0.163188	0.039427	0.159243
790	0.162695	0.159079	0.16138	0.16401	0.053562	0.159408
791	0.163681	0.158914	0.164338	0.168447	0.055205	0.166475
792	0.162037	0.164996	0.166475	0.168447	0.063752	0.164996
793	0.16516	0.163516	0.166475	0.171734	0.060958	0.166475
794	0.164503	0.165324	0.167625	0.172063	0.066875	0.170255
795	0.169105	0.170091	0.167461	0.175021	0.072298	0.171734
796	0.167625	0.170748	0.171899	0.172063	0.078215	0.172063
797	0.172063	0.176501	0.173378	0.175843	0.081009	0.172392
798	0.176665	0.1742	0.172885	0.178309	0.090871	0.175679
799	0.173214	0.178144	0.176008	0.17535	0.090542	0.175843
800	0.174857	0.174693	0.177158	0.177322	0.097609	0.177651
801	0.177815	0.17798	0.175843	0.179952	0.103526	0.1742
802	0.175843	0.177651	0.179788	0.180281	0.104019	0.181103
803	0.176994	0.17798	0.178966	0.18061	0.110265	0.179295
804	0.180774	0.180281	0.183568	0.183897	0.114702	0.178966
805	0.179459	0.180445	0.180116	0.180445	0.11799	0.178144
806	0.180116	0.179295	0.179952	0.18554	0.122427	0.181431
807	0.181267	0.18176	0.180445	0.184225	0.126865	0.178637
808	0.180445	0.182582	0.178802	0.187348	0.126865	0.179295
809	0.181103	0.182746	0.18176	0.189649	0.133439	0.17913
810	0.182746	0.185212	0.183075	0.187348	0.134261	0.183239
811	0.182417	0.182089	0.184883	0.186526	0.137877	0.184225
812	0.184554	0.187677	0.184883	0.191293	0.138534	0.182911
813	0.182253	0.187019	0.188827	0.188663	0.140013	0.188992
814	0.184225	0.190142	0.186526	0.190471	0.141493	0.187513
815	0.183568	0.184554	0.189156	0.19195	0.146423	0.190471
816	0.185869	0.188499	0.187348	0.189814	0.152669	0.190471
817	0.186526	0.188334	0.188006	0.189814	0.148724	0.19458
818	0.186198	0.187677	0.190471	0.19195	0.149875	0.188827
819	0.186033	0.192443	0.191786	0.189978	0.154641	0.192772
820	0.186362	0.183404	0.188992	0.192279	0.157928	0.189978
821	0.1908	0.189156	0.189978	0.195073	0.159408	0.192936
822	0.189156	0.192115	0.19721	0.1908	0.163681	0.192608
823	0.194416	0.1908	0.189156	0.194416	0.163188	0.190964
824	0.186691	0.191786	0.191621	0.191293	0.162859	0.192772
825	0.188992	0.191786	0.192115	0.191457	0.163188	0.191786
826	0.18554	0.189814	0.191293	0.195895	0.16894	0.192279
827	0.187348	0.1908	0.19195	0.196388	0.166639	0.191457
828	0.18932	0.192115	0.189485	0.192443	0.170419	0.192115
829	0.189814	0.19458	0.196223	0.19721	0.167954	0.191786
830	0.188992	0.19195	0.193101	0.194416	0.172392	0.195073
831	0.193922	0.193758	0.190307	0.196059	0.171899	0.193429
832	0.191621	0.193594	0.19195	0.199018	0.173707	0.194909
833	0.192772	0.193265	0.192115	0.195237	0.175679	0.195402
834	0.193265	0.193429	0.194416	0.197045	0.177158	0.19573
835	0.192115	0.195237	0.195402	0.192115	0.175679	0.195402
836	0.193101	0.194416	0.195402	0.193429	0.177487	0.199675
837	0.195237	0.195895	0.196388	0.193922	0.181103	0.196881
838	0.194416	0.194087	0.195895	0.194416	0.177158	0.196059
839	0.19458	0.198031	0.196388	0.19195	0.17798	0.195237
840	0.195895	0.19836	0.195237	0.196717	0.181267	0.195237
841	0.193265	0.194251	0.196717	0.194087	0.184883	0.196059
842	0.198853	0.19458	0.195402	0.199346	0.183239	0.196881
843	0.193429	0.193594	0.197867	0.199182	0.185705	0.196388
844	0.199018	0.196223	0.199675	0.194416	0.183568	0.196059
845	0.198031	0.194416	0.198853	0.199018	0.187677	0.196388
846	0.196059	0.193758	0.196223	0.200332	0.183075	0.196388
847	0.195895	0.194416	0.198524	0.198524	0.187513	0.198524
848	0.19458	0.198853	0.200332	0.198196	0.185869	0.197374
849	0.192115	0.195073	0.198524	0.198524	0.186033	0.198524
850	0.19195	0.197045	0.195402	0.195237	0.186198	0.198689
851	0.193594	0.195895	0.198853	0.199839	0.186362	0.197538
852	0.194416	0.199182	0.198031	0.196717	0.185869	0.198031
853	0.19836	0.19573	0.199018	0.198853	0.188334	0.199675
854	0.196223	0.200661	0.199182	0.198524	0.191786	0.200825
855	0.198524	0.19721	0.199839	0.198196	0.190471	0.196388
856	0.197538	0.200004	0.200825	0.194909	0.191786	0.197703
857	0.19836	0.199346	0.200825	0.19836	0.190307	0.197703
858	0.197538	0.200661	0.197045	0.198689	0.192608	0.195073
859	0.199018	0.200168	0.200168	0.193429	0.190635	0.196388
860	0.19836	0.196552	0.19836	0.192772	0.19458	0.198031
861	0.198853	0.199511	0.197538	0.19458	0.191786	0.201154
862	0.200825	0.20099	0.196223	0.200825	0.191786	0.198524
863	0.200004	0.200825	0.198031	0.199346	0.189485	0.197703
864	0.196388	0.198196	0.200825	0.198689	0.189814	0.197374
865	0.199018	0.200004	0.197538	0.199346	0.190471	0.201647
866	0.197867	0.198031	0.201319	0.198524	0.192443	0.199346
867	0.200497	0.19721	0.199018	0.19836	0.193922	0.194744
868	0.198689	0.19836	0.199182	0.199675	0.191621	0.201976
869	0.195237	0.199018	0.200004	0.197538	0.192936	0.200497
870	0.199018	0.199675	0.20099	0.198196	0.197045	0.199346
871	0.196552	0.200332	0.197703	0.19836	0.19573	0.199839
872	0.199346	0.201647	0.198853	0.196223	0.193758	0.203126
873	0.199182	0.199182	0.200004	0.197538	0.200332	0.201154
874	0.201976	0.201154	0.19573	0.199346	0.194416	0.199346
875	0.20099	0.198196	0.201154	0.198689	0.198031	0.199182
876	0.204277	0.203948	0.198689	0.196059	0.193101	0.199182
877	0.196881	0.200332	0.202469	0.196059	0.198524	0.200497
878	0.010007	0.199839	0.202469	0.197867	0.19721	0.196881
879	-0.000841	0.199511	0.193429	0.198031	0.196717	0.201647
880	-0.000347	0.200004	0.197374	0.19836	0.198196	0.199182
881	-0.000841	0.197538	0.203126	0.199839	0.195237	0.201483
882	-0.000347	0.199182	0.195237	0.199018	0.196552	0.198853
883	-0.000512	0.197538	0.197867	0.199182	0.196388	0.202798
884	-0.000347	0.198689	0.201154	0.198689	0.19721	0.199511
885	-0.000512	0.19836	0.200004	0.199018	0.194744	0.201319
886	-0.000676	0.19721	0.199018	0.196223	0.199675	0.202469
887	-0.001005	0.201483	0.20099	0.200497	0.196717	0.200004
888	-0.000841	0.200497	0.20099	0.195895	0.195402	0.198689
889	-0.001005	0.201483	0.20099	0.19836	0.19721	0.199182
890	-0.000676	0.200168	0.20099	0.197538	0.197374	0.202633
891	-0.000183	0.200661	0.199675	0.199182	0.197867	0.197867
892	-0.000676	0.199675	0.202305	0.19458	0.199018	0.202469
893	-0.000347	0.200168	0.198689	0.19573	0.198689	0.198689
894	-0.000183	0.197867	0.200825	0.196881	0.200168	0.20214
895	-0.000183	0.198031	0.198689	0.198524	0.198031	0.198853
896	-0.000676	0.197703	0.200332	0.20099	0.197703	0.201812
897	-0.000841	0.197703	0.199346	0.199018	0.201154	0.199346
898	-0.001005	0.199018	0.203291	0.200168	0.191786	0.197703
899	-0.000676	0.200004	0.199675	0.196388	0.198031	0.200168
900	-0.000676	0.199511	0.200661	0.196881	0.197703	0.198853
901	-0.000676	0.200497	0.200497	0.19458	0.19721	0.200661
902	-0.000347	0.200497	0.200004	0.200004	0.197867	0.200168
903	-0.000183	0.199675	0.201647	0.198853	0.009185	0.201483
904	-0.000347	0.200661	0.198524	0.199346	0.01576	0.203784
905	-0.000183	0.199675	0.201483	0.199346	0.026114	0.20362
906	0.00031	0.198031	0.200004	0.200497	0.032031	0.199346
907	-0.000512	0.199511	0.203784	0.199839	0.037126	0.200168
908	-0.000512	0.201812	0.199839	0.200004	0.04633	0.199018
909	-0.000841	0.200332	0.203126	0.199839	0.053562	0.200497
910	-0.000676	0.202305	0.201976	0.197045	0.060793	0.198524
911	-0.000512	0.199839	0.203784	0.199675	0.066217	0.201154
912	-0.000512	0.203948	0.198689	0.195895	0.06934	0.200497
913	-0.000512	0.206249	0.196059	0.199675	0.075421	0.201647
914	-0.000347	0.198031	0.199346	0.196717	0.078544	0.199675
915	-0.000347	0.199675	0.200825	0.200004	0.083475	0.201647
916	-1.9e-05	0.200825	0.198196	0.19836	0.089556	0.200825
917	-1.9e-05	0.199018	0.199675	0.201483	0.094487	0.196223
918	-0.000676	0.199018	0.199511	0.200332	0.099089	0.200661
919	-0.000512	0.201154	0.198524	0.202469	0.105992	0.199182
920	-0.000676	0.203948	0.201319	0.203126	0.109607	0.197703
921	-0.000841	0.205263	0.201483	0.205427	0.111908	0.200661
922	-0.000676	0.20099	0.201154	0.201647	0.116839	0.199182
923	-0.000347	0.200497	0.199839	0.200168	0.11914	0.20214
924	-1.9e-05	0.201976	0.201154	0.201154	0.122098	0.203784
925	0.00031	0.20099	0.199675	0.19836	0.124893	0.203126
926	-1.9e-05	0.199839	0.20099	0.199182	0.126043	0.201812
927	0.000146	0.201319	0.199839	0.197703	0.132782	0.203948
928	0.00031	0.199675	0.19836	0.200332	0.136069	0.201647
929	-0.000676	0.200332	0.198196	0.199182	0.136891	0.201812
930	-0.000347	0.199675	0.195073	0.202305	0.142479	0.20099
931	-1.9e-05	0.202305	0.200825	0.20099	0.145602	0.201812
932	-0.000841	0.199346	0.20099	0.202469	0.144615	0.201647
933	0.000146	0.200497	0.198196	0.20099	0.150039	0.199018
934	-0.000841	0.198853	0.202469	0.202633	0.148889	0.201812
935	-0.000841	0.20099	0.198031	0.201483	0.153326	0.201154
936	0.000967	0.199018	0.19836	0.201483	0.153655	0.20099
937	-0.001005	0.19836	0.20099	0.199182	0.155792	0.200004
938	0.001132	0.19836	0.198853	0.197703	0.154312	0.202962
939	0.001296	0.19721	0.200825	0.203126	0.155134	0.201812
940	0.000803	0.20099	0.200004	0.200004	0.158093	0.20099
941	0.000474	0.197045	0.20099	0.201154	0.163516	0.201647
942	0.00672	0.200332	0.201154	0.201647	0.161709	0.200497
943	0.016417	0.199346	0.203455	0.20099	0.166146	0.202305
944	0.019047	0.200332	0.20099	0.202633	0.168118	0.199018
945	0.025457	0.198853	0.202305	0.202305	0.167954	0.203455
946	0.034661	0.201483	0.201976	0.200332	0.172392	0.200661
947	0.041564	0.199346	0.201647	0.202798	0.170255	0.201647
948	0.046166	0.199839	0.199511	0.201812	0.170419	0.201319
949	0.057013	0.201154	0.200497	0.201647	0.173049	0.201483
950	0.059807	0.199511	0.199182	0.20477	0.176336	0.199018
951	0.065067	0.200332	0.199182	0.209372	0.174364	0.200332
952	0.070655	0.200168	0.199346	0.202962	0.177487	0.201483
953	0.077886	0.201154	0.201154	0.205756	0.17798	0.19836
954	0.079366	0.199839	0.202305	0.203126	0.179459	0.201976
955	0.088734	0.202305	0.198031	0.204277	0.178966	0.199675
956	0.089227	0.199675	0.19721	0.206249	0.179788	0.203455
957	0.095144	0.202633	0.199839	0.200825	0.180774	0.197867
958	0.100239	0.200168	0.201154	0.202798	0.180445	0.201647
959	0.104019	0.201647	0.199675	0.201483	0.182253	0.200825
960	0.108786	0.201812	0.201647	0.202305	0.183404	0.201976
961	0.115524	0.202633	0.202305	0.200825	0.185212	0.199346
962	0.113881	0.201483	0.199018	0.204277	0.183568	0.201647
963	0.119304	0.203291	0.194744	0.20099	0.188499	0.201976
964	0.124235	0.205756	0.200332	0.204606	0.186526	0.201812
965	0.126043	0.199511	0.201647	0.201154	0.188827	0.201319
966	0.13311	0.201319	0.198524	0.202305	0.186033	0.199839
967	0.130316	0.201812	0.199182	0.203784	0.187019	0.199511
968	0.13459	0.202798	0.199182	0.200825	0.187348	0.200825
969	0.134261	0.200168	0.203291	0.205756	0.189156	0.201647
970	0.141	0.201483	0.198689	0.203291	0.187841	0.199018
971	0.142807	0.198524	0.201319	0.199182	0.187677	0.203948
972	0.147574	0.196881	0.198524	0.198853	0.188992	0.199839
973	0.146752	0.196388	0.199511	0.202305	0.190142	0.200004
974	0.148067	0.199182	0.199839	0.202305	0.188334	0.198853
975	0.146423	0.199675	0.20099	0.201812	0.189814	0.203291
976	0.153984	0.200332	0.202633	0.20362	0.191128	0.200497
977	0.159243	0.200661	0.198524	0.202962	0.189978	0.203784
978	0.155299	0.200497	0.196059	0.201976	0.193101	0.202633
979	0.161215	0.201483	0.198524	0.203948	0.191786	0.200497
980	0.160065	0.201154	0.200825	0.200661	0.192936	0.205099
981	0.161051	0.201812	0.19573	0.204441	0.192772	0.201483
982	0.163352	0.196881	0.199511	0.200825	0.196059	0.202798
983	0.171406	0.201483	0.200332	0.203291	0.195402	0.201483
984	0.167297	0.200168	0.199018	0.202633	0.193922	0.201319
985	0.170419	0.201319	0.197867	0.200168	0.19836	0.199182
986	0.169598	0.201319	0.197374	0.203455	0.195402	0.201154
987	0.169926	0.203784	0.201154	0.201812	0.194087	0.200004
988	0.173707	0.199182	0.200661	0.20362	0.19458	0.201647
989	0.17272	0.201154	0.199346	0.199675	0.188827	0.201319
990	0.173542	0.199346	0.20099	0.204441	0.194416	0.200825
991	0.176336	0.197374	0.201647	0.202962	0.194251	0.201154
992	0.17913	0.19721	0.200497	0.205263	0.195237	0.201154
993	0.175515	0.197045	0.201976	0.201483	0.193594	0.202305
994	0.178637	0.200168	0.202633	0.205921	0.196059	0.201976
995	0.17913	0.20099	0.201812	0.204277	0.199346	0.201976
996	0.180445	0.198524	0.200661	0.203455	0.197045	0.203291
997	0.18061	0.200661	0.199346	0.20214	0.19721	0.202305
998	0.181103	0.202305	0.200332	0.203291	0.196388	0.20099
999	0.180774	0.200168	0.202633	0.201976	0.200661	0.201647
1000	0.183897	0.202798	0.198853	0.200168	0.197538	0.20099
1001	0.182253	0.200497	0.201812	0.204606	0.199346	0.200168
1002	0.185869	0.202633	0.201647	0.204934	0.196552	0.200004
1003	0.186855	0.200168	0.199346	0.203948	0.198689	0.201154
1004	0.186033	0.201154	0.200168	0.202305	0.197703	0.197703
1005	0.188334	0.199182	0.202305	0.204113	0.196881	0.193758
1006	0.187348	0.201647	0.198853	0.203126	0.197045	0.200332
1007	0.187184	0.199018	0.199182	0.20362	0.197374	0.198853
1008	0.186855	0.201154	0.199675	0.203455	0.198853	0.196717
1009	0.188663	0.200825	0.203126	0.203126	0.198524	0.202305
1010	0.187348	0.199675	0.202305	0.201154	0.198031	0.202305
1011	0.188663	0.198853	0.200825	0.202962	0.196388	0.202962
1012	0.187019	0.204441	0.201812	0.202469	0.199018	0.204606
1013	0.189156	0.202962	0.199346	0.204113	0.200332	0.202633
1014	0.189978	0.202469	0.197374	0.200661	0.198689	0.204606
1015	0.191293	0.199018	0.197538	0.204277	0.197703	0.20362
1016	0.192115	0.200661	0.199018	0.200497	0.20099	0.203126
1017	0.194416	0.202633	0.198689	0.201483	0.197374	0.200497
1018	0.193922	0.202469	0.201483	0.202469	0.198853	0.203126
1019	0.192936	0.203126	0.200825	0.203126	0.196223	0.202469
1020	0.193429	0.199839	0.20099	0.197703	0.200004	0.202633
1021	0.193758	0.204441	0.199346	0.197703	0.200332	0.201154
1022	0.193758	0.19721	0.200332	0.20362	0.199346	0.202962
1023	0.192279	0.201483	0.199346	0.201483	0.197374	0.200004
1024	0.1908	0.200004	0.200661	0.200004	0.19573	0.199675
1025	0.189649	0.199346	0.198524	0.198853	0.198031	0.202633
1026	0.193922	0.200497	0.200497	0.201319	0.19836	0.204606
1027	0.192608	0.199839	0.199018	0.201319	0.200661	0.202798
1028	0.197374	0.200825	0.19573	0.200661	0.19836	0.203291
1029	0.193265	0.198524	0.199675	0.203784	0.201319	0.202962
1030	0.195073	0.201483	0.199018	0.202798	0.198196	0.201483
1031	0.195566	0.199839	0.200168	0.20099	0.199675	0.203948
1032	0.196881	0.201154	0.196881	0.200661	0.200497	0.197538
1033	0.199182	0.199511	0.20099	0.199839	0.200168	0.200661
1034	0.195895	0.206249	0.199675	0.20099	0.199346	0.203948
1035	0.196881	0.199346	0.201319	0.199839	0.200497	0.202469
1036	0.195237	0.201483	0.201812	0.197703	0.199018	0.201647
1037	0.200825	0.205921	0.202798	0.199018	0.201483	0.202305
1038	0.196552	0.200825	0.200332	0.199018	0.203455	0.200661
1039	0.198524	0.198853	0.201483	0.199182	0.199346	0.199675
1040	0.197867	0.197703	0.200497	0.200661	0.198524	0.199346
1041	0.19836	0.198031	0.198196	0.204606	0.197867	0.200661
1042	0.195566	0.196223	0.201647	0.199346	0.201483	0.20099
1043	0.195073	0.196552	0.199182	0.204277	0.198524	0.200497
1044	0.192936	0.197538	0.202633	0.20099	0.20099	0.203948
1045	0.198853	0.201647	0.200004	0.20099	0.197374	0.203126
1046	0.195073	0.195073	0.20099	0.202633	0.200332	0.204277
1047	0.198853	0.198689	0.199839	0.201154	0.19836	0.203126
1048	0.197703	0.201154	0.199346	0.200168	0.19836	0.205592
1049	0.194744	0.200661	0.197703	0.204934	0.202305	0.20099
1050	0.20099	0.199511	0.205263	0.203291	0.203455	0.202469
1051	0.204277	0.200497	0.197538	0.200497	0.198853	0.201483
1052	0.201647	0.201647	0.201976	0.200004	0.200332	0.203126
1053	0.201812	0.200497	0.200825	0.199839	0.200825	0.201483
1054	0.20099	0.201154	0.203126	0.20214	0.200497	0.201647
1055	0.199511	0.199675	0.202962	0.20099	0.201319	0.195895
1056	0.199511	0.19836	0.203126	0.202633	0.198853	0.198689
1057	0.198524	0.199511	0.203291	0.200332	0.201154	0.198689
1058	0.198524	0.196552	0.202305	0.202633	0.199675	0.199018
1059	0.197703	0.198196	0.199675	0.199675	0.202469	0.202469
1060	0.194416	0.198689	0.199839	0.203784	0.200497	0.198853
1061	0.197538	0.19458	0.202469	0.202305	0.201483	0.202633
1062	0.199018	0.200661	0.198524	0.203291	0.196552	0.199346
1063	0.19721	0.201154	0.196717	0.202798	0.200004	0.205756
1064	0.199346	0.201154	0.199182	0.201154	0.198689	0.178802
1065	0.198524	0.199675	0.200661	0.20099	0.20099	0.178144
1066	0.19836	0.200825	0.199511	0.200661	0.197867	0.178144
1067	0.201647	0.200004	0.201483	0.200661	0.196881	0.182253
1068	0.201812	0.201647	0.200332	0.203126	0.200332	0.181924
1069	0.20099	0.198031	0.203948	0.199346	0.200825	0.18817
1070	0.201976	0.201976	0.201483	0.190635	0.200825	0.184883
1071	0.199675	0.202962	0.199346	0.202633	0.201319	0.180938
1072	0.199839	0.198031	0.200332	0.196717	0.200825	0.185047
1073	0.200497	0.198689	0.200004	0.196223	0.198689	0.18439
1074	0.197374	0.200332	0.198524	0.200168	0.200004	0.180116
1075	0.196881	0.201319	0.201154	0.199346	0.200332	0.184883
1076	0.196552	0.199675	0.202305	0.197538	0.202469	0.186198
1077	0.200168	0.198031	0.19836	0.20099	0.199675	0.185869
1078	0.196388	0.19573	0.199182	0.197045	0.20099	0.188663
1079	0.196717	0.201319	0.197867	0.200332	0.198196	0.188499
1080	0.19721	0.196552	0.199675	0.203126	0.20099	0.187513
1081	0.199018	0.19836	0.199346	0.198689	0.199511	0.189814
1082	0.19458	0.200004	0.19836	0.201483	0.200497	0.18932
1083	0.200497	0.200497	0.197867	0.200497	0.201483	0.188992
1084	0.200661	0.200825	0.201154	0.199346	0.199511	0.193265
1085	0.200004	0.201647	0.198196	0.199346	0.201154	0.187841
1086	0.199675	0.197538	0.205263	0.196717	0.19836	0.190142
1087	0.199839	0.199839	0.203455	0.19721	0.202633	0.188006
1088	0.200661	0.201647	0.201319	0.199346	0.202469	0.189485
1089	0.200004	0.19721	0.202305	0.195566	0.202469	0.190964
1090	0.200661	0.200004	0.201812	0.196717	0.201319	0.191621
1091	0.196717	0.198031	0.199839	0.199182	0.202633	0.190635
1092	0.201154	0.199346	0.199346	0.198853	0.20099	0.193429
1093	0.195073	0.195237	0.201976	0.201647	0.200825	0.192115
1094	0.196223	0.198031	0.198689	0.201976	0.201647	0.188663
1095	0.200004	0.196059	0.201319	0.20099	0.205099	0.196552
1096	0.197867	0.200332	0.19721	0.201483	0.198689	0.193594
1097	0.200661	0.193429	0.201812	0.197374	0.200661	0.192279
1098	0.19836	0.201154	0.199346	0.200661	0.200004	0.191128
1099	0.199839	0.199346	0.202469	0.198689	0.197703	0.195073
1100	0.198853	0.200661	0.200332	0.196223	0.199675	0.192772
1101	0.203291	0.20099	0.204934	0.20362	0.193758	0.195566
1102	0.196717	0.20099	0.200661	0.19458	0.199182	0.194087
1103	0.202469	0.200661	0.197703	0.197045	0.197703	0.197538
1104	0.197538	0.200661	0.202305	0.197703	0.199018	0.194416
1105	0.201976	0.201483	0.200168	0.199675	0.200332	0.19573
1106	0.197374	0.19721	0.200825	0.198853	0.202469	0.195237
1107	0.201319	0.204277	0.199018	0.200661	0.199346	0.193265
1108	0.197374	0.198524	0.202305	0.198853	0.203455	0.194416
1109	0.19836	0.200661	0.20099	0.200004	0.202962	0.192608
1110	0.199018	0.199346	0.201154	0.200332	0.200825	0.193429
1111	0.197538	0.198689	0.197867	0.201154	0.197867	0.194251
1112	0.196223	0.196223	0.201647	0.201647	0.197538	0.196552
1113	0.199346	0.203948	0.196552	0.201319	0.19836	0.19573
1114	0.197045	0.200004	0.197867	0.201647	0.198031	0.198196
1115	0.197538	0.200332	0.197703	0.198689	0.197867	0.195073
1116	0.199511	0.200332	0.199018	0.20099	0.199182	0.196223
1117	0.196881	0.198196	0.199346	0.199182	0.199675	0.194909
1118	0.200332	0.201647	0.200332	0.201647	0.196717	0.197538
1119	0.198689	0.202633	0.202469	0.197867	0.201154	0.201319
1120	0.201483	0.199839	0.202305	0.203455	0.20099	0.19458
1121	0.199839	0.199675	0.201812	0.19836	0.199346	0.19836
1122	0.199018	0.201154	0.200661	0.199182	0.19836	0.195566
1123	0.198524	0.199675	0.203291	0.202469	0.200825	0.199018
1124	0.200168	0.203455	0.199839	0.20099	0.201647	0.195073
1125	0.196388	0.199182	0.204441	0.197867	0.201812	0.199346
1126	0.196388	0.201319	0.197538	0.203291	0.201812	0.19573
1127	0.200825	0.199346	0.197045	0.201647	0.202798	0.201319
1128	0.200004	0.199018	0.193429	0.200004	0.201812	0.195566
1129	0.197045	0.199182	0.200497	0.20477	0.200004	0.198031
1130	0.199346	0.204934	0.198853	0.200497	0.199675	0.195402
1131	0.199675	0.200332	0.199346	0.202305	0.197867	0.196881
1132	0.199018	0.196881	0.199839	0.199839	0.197703	0.198524
1133	0.200497	0.200661	0.197045	0.197867	0.005241	0.199018
1134	0.198689	0.197374	0.202798	0.20099	0.009678	0.199346
1135	0.20099	0.200497	0.202633	0.199018	0.014938	0.200332
1136	0.19836	0.196881	0.199346	0.198524	0.024635	0.202962
1137	0.19836	0.200004	0.198853	0.201812	0.014773	0.200004
1138	0.19836	0.199182	0.200825	0.199018	0.022991	0.20214
1139	0.202798	0.199675	0.198689	0.200168	0.032688	0.19836
1140	0.199182	0.198689	0.200168	0.200004	0.041892	0.199511
1141	0.201647	0.200168	0.201319	0.200004	0.047152	0.197703
1142	0.199018	0.198853	0.201812	0.200497	0.055698	0.199511
1143	0.197703	0.200497	0.199839	0.20099	0.058821	0.198524
1144	0.198031	0.198196	0.201483	0.201976	0.065067	0.198689
1145	0.199018	0.198031	0.200497	0.202469	0.07049	0.196059
1146	0.200825	0.198689	0.200004	0.204113	0.074599	0.199346
1147	0.196552	0.202469	0.197538	0.203291	0.079694	0.198524
1148	0.199839	0.201154	0.199675	0.203948	0.083639	0.196388
1149	0.200825	0.20099	0.201812	0.203455	0.093172	0.198689
1150	0.199675	0.201483	0.199182	0.203455	0.091199	0.199018
1151	0.195566	0.201154	0.200004	0.205592	0.097116	0.19836
1152	0.197703	0.201154	0.200497	0.206085	0.101061	0.201319
1153	0.196388	0.201976	0.200825	0.202305	0.109114	0.199346
1154	0.199018	0.200497	0.199675	0.20099	0.108128	0.197538
1155	0.198031	0.197538	0.203126	0.201812	0.11651	0.199675
1156	0.198689	0.201319	0.20099	0.203126	0.120455	0.196388
1157	0.199346	0.199018	0.200661	0.199839	0.124235	0.199839
1158	0.198524	0.201319	0.200168	0.20214	0.126372	0.199839
1159	0.19836	0.199511	0.201154	0.202305	0.131467	0.200004
1160	0.199511	0.20099	0.199675	0.202962	0.135083	0.200004
1161	0.198689	0.199346	0.200332	0.203784	0.13459	0.200004
1162	0.198196	0.198031	0.195895	0.202305	0.139192	0.197703
1163	0.199839	0.199346	0.199839	0.202305	0.139192	0.200332
1164	0.199182	0.200168	0.195073	0.200661	0.141821	0.198524
1165	0.198689	0.199346	0.198689	0.201812	0.141821	0.199182
1166	0.19836	0.195895	0.198524	0.201812	0.146095	0.199511
1167	0.197703	0.199511	0.200332	0.201812	0.146752	0.199675
1168	0.195073	0.199511	0.201319	0.199839	0.149875	0.200497
1169	0.200168	0.200661	0.200168	0.200825	0.150368	0.20362
1170	0.196059	0.200661	0.200661	0.199182	0.159079	0.197703
1171	0.200004	0.200004	0.200661	0.199675	0.156449	0.195895
1172	0.199346	0.199511	0.201976	0.201976	0.161873	0.199511
1173	0.197538	0.199675	0.198853	0.197867	0.164174	0.198524
1174	0.197703	0.199018	0.205427	0.197045	0.165817	0.201812
1175	0.197867	0.198689	0.200004	0.199018	0.166968	0.200168
1176	0.199018	0.196552	0.200825	0.200004	0.168283	0.205427
1177	0.199182	0.199839	0.197045	0.198524	0.16779	0.197538
1178	0.200825	0.199018	0.197045	0.201812	0.169105	0.201647
1179	0.198524	0.198689	0.198689	0.200332	0.170419	0.200004
1180	0.200825	0.199839	0.198196	0.198031	0.170419	0.201976
1181	0.19836	0.201154	0.197703	0.200168	0.173707	0.198524
1182	0.201483	0.200332	0.199346	0.20099	0.1742	0.201976
1183	0.200168	0.199182	0.198689	0.198524	0.175679	0.200825
1184	0.200168	0.202798	0.199675	0.199839	0.175021	0.199346
1185	0.198031	0.197538	0.202305	0.196388	0.177158	0.201483
1186	0.200004	0.198196	0.199839	0.198031	0.178966	0.199018
1187	0.197045	0.196223	0.200497	0.20099	0.178144	0.199675
1188	0.19836	0.196881	0.197867	0.194744	0.178966	0.201319
1189	0.198196	0.196388	0.205099	0.197538	0.177322	0.202798
1190	0.198524	0.199839	0.200004	0.198853	0.179459	0.200661
1191	0.200661	0.199839	0.201319	0.200661	0.182089	0.204277
1192	0.199839	0.199839	0.201976	0.199839	0.18439	0.199346
1193	0.198853	0.196223	0.20099	0.200661	0.184718	0.200168
1194	0.198196	0.202305	0.200332	0.198524	0.186691	0.200168
1195	0.203126	0.202305	0.19836	0.201812	0.185212	0.200004
1196	0.197867	0.201812	0.200168	0.199018	0.187513	0.201483
1197	0.199511	0.205099	0.200497	0.194251	0.185212	0.199182
1198	0.198689	0.193265	0.199346	0.197374	0.186362	0.200004
1199	0.199511	0.199675	0.200332	0.200168	0.184883	0.200004
1200	0.199675	0.20099	0.20214	0.199511	0.187841	0.20362
1201	0.200168	0.200332	0.200168	0.200497	0.187019	0.201647
1202	0.197538	0.199018	0.202633	0.203126	0.189485	0.202962
1203	0.198196	0.200497	0.199182	0.202798	0.191786	0.199182
1204	0.198689	0.199675	0.201154	0.202469	0.189156	0.201812
1205	0.199839	0.200661	0.199675	0.200168	0.187677	0.202962
1206	0.197538	0.200825	0.20099	0.202962	0.193429	0.200004
1207	0.199839	0.201812	0.200825	0.200168	0.191128	0.196552
1208	0.199839	0.200497	0.20214	0.198524	0.192279	0.199182
1209	0.197045	0.194416	0.200825	0.198524	0.193922	0.199018
1210	0.198031	0.199511	0.200497	0.200497	0.196059	0.199675
1211	0.200004	0.200004	0.201483	0.198031	0.192936	0.199018
1212	0.199018	0.20362	0.19836	0.200332	0.191786	0.200332
1213	0.198196	0.196059	0.196223	0.199018	0.19573	0.202305
1214	0.201154	0.199018	0.197867	0.199018	0.192772	0.200497
1215	0.200825	0.199018	0.198524	0.200004	0.195073	0.200004
1216	0.199346	0.199675	0.196717	0.198853	0.193265	0.200661
1217	0.200332	0.199511	0.20099	0.201319	0.192772	0.202469
1218	0.200332	0.199839	0.199346	0.198853	0.192279	0.199182
1219	0.198031	0.199182	0.202798	0.196223	0.193594	0.203455
1220	0.198524	0.192772	0.199511	0.196223	0.192115	0.200497
1221	0.197045	0.196059	0.201154	0.200004	0.193101	0.206742
1222	0.197867	0.199346	0.198524	0.197538	0.194251	0.203291
1223	0.197867	0.200168	0.200497	0.201812	0.193922	0.203455
1224	0.19573	0.200332	0.199018	0.200661	0.194909	0.201154
1225	0.198689	0.196388	0.199675	0.203126	0.196717	0.202305
1226	0.201483	0.202305	0.199839	0.200497	0.199018	0.200168
1227	0.199511	0.199675	0.19721	0.201812	0.19458	0.201647
1228	0.198689	0.199839	0.194909	0.200661	0.197703	0.201647
1229	0.201483	0.203126	0.19721	0.201319	0.196717	0.200004
1230	0.200332	0.201812	0.201647	0.198031	0.197867	0.199511
1231	0.200497	0.191621	0.197867	0.199182	0.196223	0.203126
1232	0.199018	0.194087	0.197538	0.199346	0.197538	0.202305
1233	0.200661	-0.000183	0.199675	0.199511	0.197538	0.201812
1234	0.19836	-1.9e-05	0.200661	0.199675	0.198031	0.199839
1235	0.197867	0.009021	0.198689	0.200168	0.197867	0.199346
1236	0.197374	0.012965	0.201483	0.20099	0.198524	0.201812
1237	0.200332	0.023484	0.199839	0.199511	0.198196	0.198853
1238	0.197703	0.02973	0.199511	0.199675	0.198689	0.197867
1239	0.198524	0.036797	0.202469	0.201812	0.197374	0.199839
1240	0.199675	0.043371	0.200332	0.202305	0.198524	0.199182
1241	0.199018	0.05011	0.203455	0.201483	0.198031	0.198031
1242	0.201976	0.046001	0.202305	0.20099	0.195566	0.199511
1243	0.199018	0.05915	0.201483	0.202962	0.198031	0.200004
1244	0.199182	0.06934	0.201319	0.200332	0.198031	0.201319
1245	0.199018	0.073449	0.201647	0.202469	0.19836	0.200332
1246	0.200004	0.081667	0.199346	0.203126	0.199018	0.199018
1247	0.19721	0.082817	0.203126	0.201319	0.199839	0.198853
1248	0.201154	0.089391	0.199346	0.200661	0.198031	0.198524
1249	0.199346	0.092186	0.200661	0.201647	0.200168	0.199346
1250	0.199018	0.101554	0.199675	0.204441	0.199018	0.197374
1251	0.200497	0.101061	0.200825	0.202633	0.199675	0.200168
1252	0.197538	0.107799	0.201976	0.199511	0.202962	0.200661
1253	0.199182	0.100075	0.201976	0.204441	0.199511	0.199346
1254	0.200168	0.111744	0.199018	0.205921	0.201976	0.196881
1255	0.198031	0.115524	0.200332	0.204606	0.200168	0.196881
1256	0.197867	0.113552	0.200661	0.206085	0.20099	0.197374
1257	0.196717	0.117496	0.200332	0.206742	0.19836	0.19836
1258	0.19573	0.000146	0.201154	0.203291	0.201154	0.196388
1259	0.19836	0.000146	0.201154	0.20477	0.193429	0.198031
1260	0.197703	0.001789	0.199675	0.202305	0.201483	0.19573
1261	0.198853	0.011158	0.198689	0.204934	0.200661	0.197374
1262	0.198853	0.020197	0.200497	0.20099	0.197374	0.19836
1263	0.200168	0.030059	0.196059	0.201976	0.19721	0.198031
1264	0.196059	0.020526	0.201483	0.199346	0.198853	0.200825
1265	0.202633	0.037619	0.198689	0.201812	0.19573	0.198524
1266	0.197867	0.044851	0.201483	0.202962	0.198689	0.200168
1267	0.19836	0.050603	0.201154	0.204934	0.19721	0.201154
1268	0.199511	0.060958	0.200004	0.203948	0.20099	0.199675
1269	0.198031	0.064738	0.199346	0.200332	0.20214	0.19836
1270	0.199346	0.069011	0.199839	0.202469	0.200004	0.200332
1271	0.197538	0.075585	0.199018	0.205263	0.198853	0.198196
1272	0.196059	0.081338	0.197374	0.206414	0.197703	0.199018
1273	0.197538	0.083968	0.201154	0.20214	0.199675	0.19836
1274	0.196223	0.0935	0.199018	0.207564	0.200332	0.198031
1275	0.195895	0.084625	0.201154	0.201154	0.198689	0.199346
1276	0.201812	0.10139	0.199839	0.204441	0.197045	0.201319
1277	0.19458	0.107142	0.198853	0.202469	0.198853	0.199675
1278	0.196388	0.111744	0.195402	0.205921	0.197538	0.199018
1279	0.19721	0.112401	0.196552	0.202798	0.200332	0.200497
1280	0.198853	0.118154	0.200497	0.203455	0.200168	0.199675
1281	0.199675	0.118154	0.200332	0.201812	0.200825	0.202633
1282	0.198689	0.126043	0.197538	0.201483	0.196552	0.203291
1283	0.199346	0.126536	0.19836	0.203455	0.20362	0.202962
1284	0.198853	0.134918	0.201319	0.202305	0.200332	0.202962
1285	0.200825	0.135083	0.202469	0.20099	0.200825	0.200004
1286	0.197703	0.127522	0.199511	0.201483	0.200825	0.200004
1287	0.198853	0.011486	0.200825	0.202469	0.201154	0.202305
1288	0.19836	0.001954	0.199018	0.200168	0.201319	0.196552
1289	0.197703	0.01313	0.200332	0.203948	0.197703	0.194416
1290	0.19721	0.010829	0.197538	0.202798	0.20362	0.196388
1291	0.196388	0.018882	0.198031	0.206249	0.201812	0.198196
1292	0.196717	0.027758	0.20099	0.202305	0.200332	0.196717
1293	0.205099	0.00146	0.198524	0.204441	0.199182	0.200661
1294	0.198031	0.011158	0.199839	0.204441	0.20214	0.200332
1295	0.199511	0.021841	0.202798	0.199346	0.198031	0.199511
1296	0.199675	0.026278	0.199839	0.205592	0.197374	0.200661
1297	0.199182	0.008692	0.200004	0.200825	0.198524	0.199346
1298	0.197703	0.011486	0.20362	0.202305	0.200004	0.200497
1299	0.199018	0.015924	0.20099	0.203126	0.199018	0.199839
1300	0.19836	0.010993	0.201647	0.204441	0.200825	0.199839
1301	0.19836	0.019704	0.197374	0.201319	0.200168	0.199839
1302	0.200004	0.028744	0.199018	0.201154	0.200825	0.200168
1303	0.200168	0.034168	0.20099	0.199182	0.20477	0.198689
1304	0.198031	0.02595	0.198853	0.203126	0.201483	0.199675
1305	0.195895	0.033839	0.196388	0.204113	0.203126	0.197045
1306	0.197867	0.035975	0.200332	0.202469	0.200168	0.196059
1307	0.197703	0.044851	0.200332	0.201976	0.200168	0.19721
1308	0.197703	0.002118	0.200168	0.20362	0.197045	0.199018
1309	0.196388	0.017239	0.201976	0.201319	0.200497	0.197538
1310	0.199018	0.0271	0.200497	0.202469	0.19836	0.196881
1311	0.197374	0.034332	0.200332	0.204934	0.201976	0.199511
1312	0.197703	0.040577	0.199018	0.202633	0.197045	0.198524
1313	0.195237	0.048467	0.199346	0.201319	0.199675	0.202962
1314	0.200332	0.057013	0.199346	0.201812	0.197867	0.20099
1315	0.197374	0.059643	0.201647	0.202633	0.200497	0.202962
1316	0.199511	0.067861	0.200004	0.20362	0.200497	0.200497
1317	0.198689	0.072956	0.201976	0.201647	0.199675	0.201483
1318	0.200661	0.077722	0.200497	0.201976	0.200825	0.199839
1319	0.200497	0.075421	0.199675	0.205592	0.201812	0.201976
1320	0.196552	0.086433	0.199182	0.200497	0.202305	0.199839
1321	0.198524	0.090213	0.199346	0.202305	0.198853	0.200168
1322	0.197045	0.094651	0.199346	0.203126	0.205099	0.193429
1323	0.200497	0.098595	0.197867	0.204441	0.20099	0.197538
1324	0.197045	0.100568	0.200332	0.198196	0.202798	0.198031
1325	0.197538	0.107964	0.197867	0.200497	0.200332	0.200168
1326	0.193265	0.109936	0.196223	0.199182	0.200497	0.200661
1327	0.196717	0.118483	0.196552	0.202305	0.199018	0.199018
1328	0.193594	0.118811	0.197538	0.201483	0.200332	0.199839
1329	0.197374	0.115031	0.195895	0.200004	0.199511	0.199839
1330	0.195566	0.113881	0.19836	0.20214	0.199182	0.201319
1331	0.197867	0.120619	0.197703	0.199018	0.200661	0.200825
1332	0.198524	0.126372	0.202962	0.199018	0.199675	0.199839
1333	0.19721	0.130152	0.200661	0.200004	0.200825	0.189649
1334	0.199018	0.132124	0.200004	0.203126	0.201812	0.196223
1335	0.197538	0.136069	0.201483	0.197867	0.201976	0.199018
1336	0.200168	0.139192	0.197374	0.199346	0.199839	0.200004
1337	0.198031	0.139192	0.200168	0.19836	0.202633	0.197538
1338	0.20099	0.143465	0.198524	0.199018	0.20099	0.199839
1339	0.198196	0.144451	0.199675	0.197045	0.199346	0.19836
1340	0.200004	0.148396	0.197538	0.196059	0.198853	0.197867
1341	0.198689	0.141493	0.197045	0.19836	0.198524	0.200497
1342	0.199675	0.14971	0.19836	0.200332	0.200004	0.199346
1343	0.195073	0.149546	0.201154	0.199018	0.200168	0.202305
1344	0.200168	0.153819	0.198524	0.200168	0.199511	0.189978
1345	0.199018	0.153491	0.199839	0.199839	0.201483	0.197045
1346	0.199018	0.155299	0.199346	0.195237	0.196717	0.201812
1347	0.196059	0.158914	0.201647	0.20099	0.195895	0.199182
1348	0.199018	0.159901	0.200004	0.197045	0.201154	0.201812
1349	0.199839	0.164503	0.200497	0.200497	0.198689	0.20362
1350	0.197867	0.167954	0.198853	0.197867	0.200332	0.200661
1351	0.198689	0.166639	0.198524	0.199182	0.200332	0.201812
1352	0.200497	0.160229	0.200661	0.198031	0.199839	0.200661
1353	0.199346	0.169105	0.197703	0.198853	0.200004	0.199346
1354	0.196717	0.169926	0.200004	0.197703	0.202798	0.198196
1355	0.199018	0.17272	0.196881	0.197867	0.195402	0.188334
1356	0.196881	0.171899	0.19721	0.199018	0.200168	0.197703
1357	0.198031	0.176008	0.198524	0.199511	0.197374	0.196717
1358	0.199346	0.174528	0.201319	0.200168	0.197374	0.198031
1359	0.197374	0.175021	0.199346	0.199839	0.198196	0.198853
1360	0.198031	0.175843	0.198524	0.201154	0.200168	0.198689
1361	0.198853	0.178637	0.195895	0.199675	0.197703	0.198689
1362	0.19721	0.177815	0.199018	0.20214	0.200168	0.196223
1363	0.194744	0.168447	0.199839	0.200004	0.199182	0.198196
1364	0.19573	0.173378	0.200825	0.20214	0.196552	0.199018
1365	0.195566	0.18061	0.199839	0.200004	0.199346	0.200661
1366	0.199346	0.181596	0.198524	0.201319	0.197703	0.197703
1367	0.19721	0.18176	0.199511	0.203291	0.199511	0.198524
1368	0.200497	0.183732	0.198689	0.20362	0.198524	0.203948
1369	0.199182	0.184718	0.200332	0.202633	0.200825	0.200004
1370	0.198689	0.186526	0.198524	0.20214	0.196881	0.199839
1371	0.199018	0.185869	0.199839	0.199839	0.203126	0.200825
1372	0.199511	0.186855	0.200004	0.199182	0.197374	0.199182
1373	0.197867	0.184718	0.198853	0.199182	0.200332	0.199675
1374	0.197867	0.178637	0.201319	0.200497	0.199018	0.199839
1375	0.195895	0.185869	0.199511	0.20099	0.199511	0.201319
1376	0.199182	0.187019	0.195237	0.205427	0.200004	0.199182
1377	0.198196	0.186691	0.197867	0.199511	0.198031	0.198689
1378	0.200661	0.189485	0.199675	0.201647	0.200497	0.19721
1379	0.196388	0.186526	0.197374	0.204934	0.199675	0.199675
1380	0.19836	0.191457	0.196717	0.200332	0.20099	0.197374
1381	0.200168	0.185869	0.199675	0.204113	0.202469	0.20099
1382	0.197703	0.187841	0.198196	0.201154	0.199018	0.199839
1383	0.200497	0.189156	0.199511	0.201812	0.198853	0.205592
1384	0.199839	0.164338	0.201976	0.201812	0.201483	0.203455
1385	0.197538	0.15234	0.200004	0.202305	0.198524	0.204606
1386	0.197867	0.160887	0.201154	0.20099	0.199839	0.20362
1387	0.200168	0.166804	0.199346	0.199511	0.198853	0.201483
1388	0.199675	0.16401	0.199018	0.193922	0.200332	0.201154
1389	0.199839	0.166475	0.200004	0.199346	0.196717	0.197867
1390	0.200004	0.168118	0.200004	0.198031	0.202962	0.198853
1391	0.201319	0.168447	0.197045	0.200168	0.200332	0.199511
1392	0.200004	0.169105	0.202469	0.202798	0.201812	0.200332
1393	0.197045	0.171899	0.196059	0.201483	0.20099	0.199018
1394	0.195402	0.1742	0.201154	0.202305	0.200168	0.201154
1395	0.198853	0.176336	0.199839	0.202469	0.203291	0.199018
1396	0.196223	0.166968	0.200168	0.203291	0.193594	0.201976
1397	0.19721	0.17535	0.201154	0.201154	0.196059	0.200004
1398	0.199182	0.176665	0.199182	0.203948	0.197538	0.200825
1399	0.197374	0.17913	0.200661	0.201154	0.19836	0.205099
1400	0.199346	0.18061	0.198031	0.203455	0.19721	0.199839
1401	0.197867	0.179788	0.198689	0.20362	0.201319	0.198853
1402	0.200004	0.166968	0.198689	0.201647	0.198031	0.200497
1403	0.19836	0.164338	0.199675	0.203948	0.198689	0.198853
1404	0.201812	0.170748	0.198689	0.201483	0.198689	0.199675
1405	0.200497	0.169926	0.201154	0.199346	0.200332	0.197045
1406	0.201319	0.172885	0.19836	0.200497	0.20099	0.198524
1407	0.200332	0.162366	0.20099	0.203126	0.199839	0.199675
1408	0.201154	0.172392	0.199839	0.200004	0.198853	0.197703
1409	0.199675	0.169926	0.19836	0.203784	0.199346	0.201483
1410	0.199511	0.170419	0.196552	0.199182	0.200661	0.206742
1411	0.200332	0.173542	0.200661	0.204277	0.20099	0.201319
1412	0.197867	0.174364	0.198524	0.203784	0.204441	0.202469
1413	0.199675	0.175679	0.19721	0.205921	0.19836	0.200168
1414	0.197703	0.177487	0.19836	0.20362	0.198031	0.200661
1415	0.199675	0.177815	0.196552	0.207235	0.198853	0.200332
1416	0.197045	0.176008	0.20099	0.202469	0.195895	0.201154
1417	0.200332	0.180445	0.197867	0.202469	0.199182	0.199346
1418	0.197867	0.169598	0.198853	0.205921	0.197703	0.201319
1419	0.197867	0.179788	0.199346	0.199839	0.193922	0.201483
1420	0.198689	0.184225	0.199511	0.200332	0.199511	0.201319
1421	0.198524	0.18061	0.198689	0.200004	0.198196	0.204277
1422	0.197703	0.180774	0.200168	0.201319	0.199511	0.200825
1423	0.198689	0.185212	0.198196	0.20099	0.199511	0.199511
1424	0.198196	0.182582	0.199182	0.202469	0.202305	0.202469
1425	0.201976	0.183404	0.199018	0.201647	0.199511	0.20099
1426	0.198524	0.184061	0.198689	0.205921	0.201483	0.201483
1427	0.195073	0.186526	0.198524	0.199346	0.201647	0.198689
1428	0.203948	0.184225	0.198196	0.201319	0.200332	0.200332
1429	0.198031	0.176172	0.202633	0.202962	0.201976	0.19836
1430	0.201154	0.184554	0.196717	0.202798	0.200004	0.203126
1431	0.19836	0.186526	0.197045	0.202469	0.199511	0.201976
1432	0.198196	0.187841	0.196059	0.202798	0.200004	0.206085
1433	0.198689	0.186855	0.199018	0.202962	0.201154	0.201319
1434	0.197703	0.190142	0.198196	0.202798	0.200168	0.201483
1435	0.202305	0.190471	0.199839	0.199182	0.201319	0.196223
1436	0.198031	0.190307	0.197538	0.200825	0.199182	0.200168
1437	0.197538	0.189156	0.200004	0.200168	0.199182	0.201976
1438	0.201319	0.189978	0.199675	0.201319	0.199675	0.198689
1439	0.20214	0.190635	0.202633	0.200004	0.199839	0.199839
1440	0.200825	0.182582	0.200661	0.198524	0.20099	0.200168
1441	0.199839	0.188334	0.200004	0.20214	0.20099	0.201483
1442	0.197045	0.187677	0.203455	0.20099	0.201812	0.202469
1443	0.204113	0.188499	0.201154	0.20099	0.201319	0.201976
1444	0.19721	0.1908	0.200004	0.198689	0.202962	0.199675
1445	0.198853	0.188827	0.200825	0.204277	0.202962	0.199346
1446	0.199511	0.188006	0.199346	0.204113	0.203126	0.199511
1447	0.199675	0.191786	0.199839	0.203291	0.201154	0.199346
1448	0.199182	0.191293	0.199839	0.203126	0.201976	0.199675
1449	0.200004	0.194744	0.200497	0.205263	0.202469	0.199182
1450	0.201154	0.191786	0.199182	0.203948	0.201647	0.200497
1451	0.200332	0.184225	0.198524	0.20362	0.197538	0.200825
1452	0.198196	0.19195	0.200497	0.204277	0.202633	0.200825
1453	0.200661	0.193429	0.199182	0.203126	0.201812	0.20099
1454	0.201647	0.192115	0.20099	0.199675	0.200168	0.20477
1455	0.200332	0.191293	0.199346	0.199675	0.199511	0.199018
1456	0.200004	0.192608	0.201483	0.200497	0.201976	0.202469
1457	0.205263	0.048631	0.200332	0.200825	0.201812	0.202962
1458	0.201154	0.014445	0.201483	0.201154	0.200825	0.197045
1459	0.202633	0.025292	0.200661	0.199511	0.20099	0.196223
1460	0.201319	0.034003	0.200332	0.201319	0.200004	0.198853
1461	0.203126	0.038769	0.198196	0.19836	0.200497	0.197538
1462	0.202798	0.038112	0.197867	0.200497	0.200825	0.198853
1463	0.200004	0.050274	0.196059	0.200825	0.201812	0.201976
1464	0.20099	0.058657	0.198524	0.200661	0.200004	0.202305
1465	0.200004	0.064902	0.194416	0.200497	0.201976	0.202305
1466	0.201647	0.070819	0.19721	0.205099	0.197867	0.198524
1467	0.198031	0.07575	0.200497	0.201483	0.010993	0.201319
1468	0.201976	0.084789	0.196552	0.199346	0.010664	0.199018
1469	0.200332	0.085118	0.198853	0.197867	0.020033	0.202305
1470	0.199511	0.091035	0.197538	0.197703	0.028086	0.198853
1471	0.200661	0.094158	0.200825	0.200004	0.035975	0.200825
1472	0.202469	0.100239	0.200497	0.199182	0.044686	0.199675
1473	0.200332	0.093829	0.199511	0.198031	0.049946	0.204113
1474	0.198031	0.107799	0.200004	0.198196	0.058328	0.200661
1475	0.198689	0.109114	0.200497	0.200661	0.065067	0.201812
1476	0.196881	0.114867	0.199511	0.19573	0.07049	0.205427
1477	0.197867	0.121605	0.198524	0.199675	0.077722	0.197538
1478	0.197045	0.119797	0.19458	0.199675	0.082982	0.200332
1479	0.20099	0.124071	0.192443	0.200497	0.087255	0.20099
1480	0.201647	0.127358	0.197703	0.199018	0.093993	0.201483
1481	0.203455	0.131467	0.195073	0.199675	0.094158	0.19836
1482	0.200332	0.13459	0.197538	0.200332	0.100568	0.199018
1483	0.203291	0.137548	0.19573	0.201319	0.104677	0.198031
1484	0.199839	0.130645	0.201647	0.198031	0.105992	0.200825
1485	0.202633	0.141657	0.19721	0.196388	0.111415	0.200497
1486	0.199346	0.142643	0.200004	0.199018	0.115524	0.202469
1487	0.200825	0.147081	0.198031	0.195895	0.117661	0.200825
1488	0.200825	0.147409	0.198853	0.199675	0.120948	0.199675
1489	0.198031	0.148889	0.199675	0.197538	0.126536	0.199182
1490	0.202962	0.149382	0.200332	0.200004	0.129495	0.20099
1491	0.201483	0.150697	0.199182	0.198524	0.133439	0.200661
1492	0.201976	0.15875	0.198853	0.201812	0.13459	0.201319
1493	0.200825	0.152833	0.204934	0.197538	0.138205	0.20099
1494	0.202798	0.158421	0.198524	0.198853	0.142479	0.199346
1495	0.203455	0.153819	0.19836	0.196881	0.146095	0.200825
1496	0.203126	0.162202	0.19573	0.19721	0.143794	0.202633
1497	0.199346	0.16516	0.20214	0.199511	0.14856	0.199839
1498	0.203126	0.168283	0.199018	0.19836	0.149875	0.199346
1499	0.202633	0.165489	0.197867	0.203291	0.15234	0.201483
1500	0.200004	0.170584	0.19573	0.200168	0.153491	0.196223
1501	0.202469	0.169926	0.199346	0.197703	0.157107	0.201647
1502	0.201483	0.170748	0.197703	0.20362	0.157271	0.197867
1503	0.202305	0.173542	0.196717	0.202305	0.159736	0.198524
1504	0.201812	0.173378	0.199346	0.199182	0.161544	0.200825
1505	0.202962	0.174528	0.198853	0.200332	0.162037	0.200004
1506	0.198689	0.164667	0.198853	0.199346	0.162859	0.199346
1507	0.203455	0.177322	0.200497	0.199675	0.163516	0.201483
1508	0.198853	0.177651	0.200497	0.197538	0.169105	0.202633
1509	0.200004	0.178637	0.199346	0.198853	0.169926	0.203126
1510	0.199511	0.179952	0.19836	0.197867	0.170091	0.199182
1511	0.202962	0.182746	0.194251	0.201319	0.173871	0.201812
1512	0.202798	0.179952	0.198689	0.197374	0.173378	0.197538
1513	0.202962	0.182253	0.19721	0.20099	0.171406	0.196881
1514	0.204113	0.183568	0.197538	0.199839	0.174364	0.20099
1515	0.20214	0.184225	0.197867	0.200661	0.175679	0.198689
1516	0.204934	0.184225	0.198689	0.199182	0.176501	0.201319
1517	0.201319	0.178637	0.092186	0.200004	0.181267	0.199018
1518	0.202469	0.183732	0.033346	0.195895	0.175679	0.201319
1519	0.201154	0.187348	0.039427	0.194087	0.179788	0.199675
1520	0.200825	0.188006	0.01313	0.197045	0.18061	0.201483
1521	0.201647	0.186033	0.018554	0.200332	0.181103	0.199675
1522	0.199839	0.190471	0.026771	0.198689	0.184061	0.200825
1523	0.200497	0.187019	0.038276	0.19836	0.185376	0.201319
1524	0.19836	0.188006	0.041892	0.201319	0.182253	0.201154
1525	0.200825	0.186033	0.046987	0.199182	0.185376	0.201976
1526	0.201483	0.190142	0.052904	0.200661	0.184225	0.20214
1527	0.200004	0.1908	0.0603	0.200168	0.186691	0.202962
1528	0.200004	0.18439	0.066053	0.204113	0.18554	0.200004
1529	0.201319	0.189978	0.069669	0.200661	0.187019	0.202962
1530	0.204277	0.193101	0.072463	0.199839	0.187677	0.197045
1531	0.201319	0.190471	0.080023	0.199182	0.189485	0.199018
1532	0.201812	0.194251	0.086104	0.200004	0.183075	0.199839
1533	0.203455	0.192772	0.091528	0.199675	0.191457	0.199675
1534	0.202798	0.193758	0.095473	0.199346	0.191786	0.198031
1535	0.201976	0.189978	0.10139	0.199182	0.188992	0.204441
1536	0.202962	0.193265	0.103033	0.198196	0.190635	0.197374
1537	0.202633	0.193429	0.109607	0.199346	0.188499	0.200004
1538	0.203291	0.192279	0.112566	0.196223	0.190964	0.199675
1539	0.199675	0.182746	0.116346	0.200168	0.189978	0.200661
1540	0.201154	0.18932	0.123085	0.197703	0.192443	0.200497
1541	0.200332	0.195895	0.124564	0.200825	0.191293	0.202469
1542	0.199675	0.194744	0.124564	0.199675	0.193265	0.202633
1543	0.200168	0.193265	0.129988	0.201647	0.191457	0.199346
1544	0.196223	0.193758	0.132453	0.198031	0.195402	0.200497
1545	0.201154	0.197867	0.133768	0.201483	0.192936	0.198524
1546	0.200825	0.194744	0.135576	0.200332	0.191786	0.201812
1547	0.202305	0.198689	0.137548	0.199182	0.191786	0.198689
1548	0.201976	0.195073	0.143465	0.200332	0.191457	0.20099
1549	0.204113	0.200004	0.146095	0.197045	0.191786	0.199182
1550	0.203784	0.18932	0.147245	0.201483	0.192443	0.203291
1551	0.201647	0.195566	0.14856	0.199182	0.194251	0.200004
1552	0.20099	0.196717	0.153491	0.200168	0.192443	0.202962
1553	0.20099	0.195402	0.151354	0.199346	0.194909	0.200004
1554	0.202962	0.196059	0.154148	0.202469	0.196059	0.196059
1555	0.199182	0.194251	0.121441	0.199675	0.197374	0.197374
1556	0.199346	0.195895	0.111744	0.201154	0.196388	0.202469
1557	0.198689	0.193594	0.116839	0.202798	0.197703	0.19721
1558	0.199675	0.19721	0.117496	0.201812	0.195402	0.196717
1559	0.193922	0.195895	0.123742	0.20214	0.196717	0.201647
1560	0.199182	0.197703	0.127029	0.200168	0.196059	0.200332
1561	0.197045	0.190307	0.130645	0.201154	0.195073	0.201647
1562	0.199839	0.198196	0.13196	0.200661	0.19458	0.199675
1563	0.200497	0.196388	0.136233	0.200332	0.193758	0.201812
1564	0.201154	0.192443	0.137877	0.198031	0.191457	0.19721
1565	0.200825	0.191786	0.141493	0.201483	0.195895	0.198689
1566	0.199675	0.192279	0.140835	0.199346	0.196552	0.199018
1567	0.203291	0.193429	0.14593	0.202305	0.192608	0.202469
1568	0.201154	0.187513	0.145437	0.200168	0.191621	0.200332
1569	0.201812	0.19195	0.149053	0.199018	0.196223	0.200004
1570	0.193922	0.193265	0.152833	0.196881	0.198196	0.199018
1571	0.19836	0.194416	0.153655	0.201976	0.197045	0.200004
1572	0.197374	0.185705	0.155956	0.19836	0.198031	0.200168
1573	0.196552	0.190964	0.155956	0.201154	0.197867	0.20099
1574	0.19573	0.190964	0.159408	0.201976	0.197374	0.202305
1575	0.197867	0.193758	0.16138	0.197703	0.196388	0.201483
1576	0.196059	0.19195	0.15875	0.203784	0.198524	0.200168
1577	0.199018	0.194251	0.162202	0.199839	0.198853	0.199346
1578	0.201976	0.194744	0.164667	0.204441	0.199182	0.201647
1579	0.200497	0.193429	0.16253	0.199839	0.197867	0.197867
1580	0.202633	0.195566	0.173049	0.199182	0.198689	0.199839
1581	0.200497	0.198031	0.169598	0.199346	0.198689	0.199346
1582	0.202633	0.195895	0.171406	0.198524	0.19721	0.200661
1583	0.20099	0.189978	0.1742	0.19721	0.200004	0.200332
1584	0.202469	0.19458	0.175515	0.199182	0.200004	0.201319
1585	0.199839	0.194744	0.173542	0.197374	0.198524	0.198524
1586	0.201812	0.194416	0.174693	0.196223	0.19721	0.199018
1587	0.197538	0.194416	0.176665	0.198524	0.199675	0.19836
1588	0.20477	0.192772	0.176501	0.198853	0.199675	0.198853
1589	0.200168	0.190635	0.17913	0.201976	0.201483	0.20099
1590	0.201812	0.19573	0.176336	0.202962	0.198853	0.19721
1591	0.198689	0.192936	0.178637	0.203455	0.199839	0.202633
1592	0.20099	0.19573	0.179623	0.203784	0.19836	0.199346
1593	0.201154	0.17535	0.180281	0.204441	0.199182	0.19836
1594	0.200004	0.172885	0.179952	0.202305	0.201319	0.201483
1595	0.199675	0.17913	0.179952	0.203291	0.199511	0.201483
1596	0.199018	0.183404	0.178637	0.200661	0.200004	0.199839
1597	0.201647	0.186198	0.18061	0.200168	0.200004	0.202798
1598	0.202305	0.184061	0.182746	0.200825	0.201976	0.199511
1599	0.205592	0.187184	0.18439	0.201319	0.199839	0.201154
1600	0.203291	0.186526	0.184554	0.198689	0.201154	0.201483
1601	0.204277	0.185705	0.185212	0.202305	0.199018	0.201319
1602	0.20099	0.185376	0.185869	0.200332	0.200004	0.200168
1603	0.20477	0.188827	0.186855	0.201976	0.19836	0.199346
1604	0.198689	0.188334	0.190307	0.200332	0.199346	0.197045
1605	0.199839	0.179459	0.191128	0.202962	0.199346	0.19721
1606	0.199182	0.186691	0.190471	0.200332	0.200004	0.200332
1607	0.199675	0.189649	0.186855	0.200004	0.198031	0.199018
1608	0.198689	0.187348	0.1908	0.202962	0.200168	0.199182
1609	0.196552	0.191293	0.18932	0.203291	0.199182	0.19721
1610	0.19836	0.187677	0.189156	0.204441	0.201483	0.199675
1611	0.199675	0.188827	0.188006	0.199346	0.197867	0.199346
1612	0.20099	0.189814	0.189485	0.20099	0.198689	0.20099
1613	0.199182	0.189978	0.189649	0.200825	0.198689	0.199346
1614	0.200332	0.190964	0.193594	0.200332	0.195073	0.202305
1615	0.199675	0.190635	0.1908	0.199511	0.199839	0.199675
1616	0.200825	0.184554	0.192115	0.200004	0.199018	0.202305
1617	0.198689	0.188992	0.194087	0.197538	0.198524	0.202469
1618	0.199839	0.192936	0.19195	0.203126	0.201647	0.200168
1619	0.197374	0.191293	0.193922	0.196717	0.200332	0.20099
1620	0.200661	0.191457	0.192608	0.19836	0.19836	0.198196
1621	0.197374	0.187019	0.193101	0.199346	0.204113	0.203455
1622	0.19836	0.190307	0.192115	0.198524	0.201483	0.198524
1623	0.196388	0.190471	0.193922	0.200004	0.200825	0.198853
1624	0.197374	0.192115	0.191457	0.201154	0.200497	0.201154
1625	0.197867	0.192279	0.194251	0.200661	0.201483	0.198689
1626	0.20214	0.192608	0.192443	0.200661	0.198689	0.200004
1627	0.198853	0.186691	0.195402	0.200825	0.198031	0.200004
1628	0.19836	0.190964	0.191293	0.197867	0.199511	0.199675
1629	0.198689	0.194087	0.19195	0.197703	0.197538	0.201812
1630	0.197045	0.19458	0.19573	0.196059	0.199346	0.203291
1631	0.200332	0.193758	0.194416	0.198196	0.197703	0.20214
1632	0.196552	0.193758	0.196223	0.199839	0.203784	0.199675
1633	0.200004	0.195073	0.197374	0.197867	0.199839	0.20214
1634	0.197867	0.194251	0.195237	0.19721	0.198689	0.202798
1635	0.199839	0.196552	0.198031	0.198853	0.199511	0.199839
1636	0.197703	0.193758	0.19721	0.194909	0.200004	0.205427
1637	0.199182	0.194744	0.195895	0.195895	0.20099	0.201812
1638	0.199182	0.191128	0.19836	0.197538	0.199839	0.201976
1639	0.198031	0.191786	0.195566	0.195237	0.201483	0.200661
1640	0.198524	0.191786	0.194909	0.196223	0.201319	0.200004
1641	0.198031	0.191621	0.193922	0.197374	0.201483	0.19836
1642	0.198031	0.19458	0.19836	0.20099	0.199839	0.202469
1643	0.19721	0.196717	0.194909	0.199675	0.197867	0.197374
1644	0.198031	0.196552	0.196717	0.20099	0.198689	0.197867
1645	0.199346	0.19836	0.197045	0.196552	0.199018	0.198853
1646	0.200004	0.196223	0.19721	0.198689	0.19836	0.198524
1647	0.195895	0.197374	0.198524	0.196388	0.194087	0.199675
1648	0.199182	0.197703	0.198031	0.199346	0.199018	0.199839
1649	0.195073	0.192279	0.197867	0.197045	0.198689	0.200825
1650	0.196717	0.195402	0.199182	0.196717	0.196059	0.201647
1651	0.197703	0.195402	0.198689	0.196059	0.199346	0.203455
1652	0.197374	0.200332	0.197374	0.196881	0.200168	0.201812
1653	0.199182	0.196059	0.201319	0.193429	0.202798	0.20099
1654	0.196717	0.199346	0.198853	0.194909	0.199511	0.199675
1655	0.19836	0.198689	0.196881	0.196223	0.200825	0.198196
1656	0.198196	0.19836	0.197045	0.197045	0.200661	0.198524
1657	0.198853	0.199839	0.19721	0.19721	0.200497	0.202305
1658	0.196552	0.198853	0.198689	0.197703	0.200825	0.19836
1659	0.198853	0.199675	0.198689	0.196881	0.200004	0.196552
1660	0.197703	0.19458	0.196881	0.196223	0.198853	0.19721
1661	0.197538	0.193922	0.19836	0.196552	0.198031	0.200497
1662	0.197867	0.198031	0.19721	0.197374	0.196552	0.199839
1663	0.197867	0.199675	0.19721	0.199018	0.196388	0.201647
1664	0.197703	0.197703	0.198853	0.196881	0.201154	0.203126
1665	0.200004	0.199675	0.197867	0.193429	0.196717	0.201812
1666	0.196223	0.198853	0.199018	0.197867	0.20099	0.201976
1667	0.196552	0.197045	0.199839	0.197538	0.198031	0.201647
1668	0.195073	0.196881	0.199675	0.197867	0.198031	0.201154
1669	0.200825	0.200661	0.200825	0.200004	0.197045	0.200332
1670	0.19836	0.199182	0.200661	0.195895	0.202798	0.201976
1671	0.19836	0.197045	0.19836	0.195566	0.199346	0.198853
1672	0.196552	0.195895	0.199346	0.197374	0.199346	0.202962
1673	0.195073	0.198524	0.19721	0.19573	0.203784	0.200497
1674	0.19721	0.198689	0.198524	0.19836	0.199839	0.199182
1675	0.196717	0.198689	0.197703	0.198196	0.200168	0.198031
1676	0.192936	0.199018	0.199511	0.197703	0.197045	0.20214
1677	0.195566	0.201647	0.198524	0.196552	0.20214	0.196552
1678	0.199511	0.199018	0.196717	0.197867	0.200004	0.200004
1679	0.197703	0.198031	0.194416	0.196059	0.19836	0.199346
1680	0.199346	0.200004	0.198196	0.194416	0.199182	0.202962
1681	0.197374	0.195895	0.198689	0.199018	0.200004	0.19836
1682	0.195895	0.195237	0.197538	0.198689	0.199182	0.201812
1683	0.196388	0.196552	0.198524	0.197045	0.200497	0.201976
1684	0.197374	0.198853	0.192443	0.196223	0.198031	0.200332
1685	0.197045	0.198853	0.200661	0.194087	0.199675	0.202798
1686	0.199018	0.200661	0.200168	0.199018	0.199346	0.198853
1687	0.197703	0.198524	0.202469	0.194744	0.199182	0.202469
1688	0.201319	0.196552	0.199346	0.197538	0.201812	0.19721
1689	0.198196	0.195073	0.201154	0.197867	0.199511	0.199018
1690	0.198689	0.199839	0.197045	0.197374	0.200497	0.198524
1691	0.200168	0.200825	0.198853	0.196388	0.200497	0.198689
1692	0.199675	0.200497	0.199018	0.195895	0.203291	0.194909
1693	0.199839	0.191293	0.197538	0.197703	0.20099	0.198853
1694	0.197374	0.19836	0.194416	0.197045	0.200497	0.197538
1695	0.200497	0.199018	0.197374	0.199018	0.199839	0.200168
1696	0.199675	0.199346	0.196717	0.19721	0.203455	0.200497
1697	0.196223	0.200661	0.198031	0.199675	0.197703	0.196552
1698	0.197867	0.198031	0.200332	0.197045	0.194087	0.20099
1699	0.199675	0.200004	0.19836	0.200661	0.197374	0.200825
1700	0.196717	0.196717	0.200004	0.196388	0.200497	0.200497
1701	0.196552	0.199346	0.198689	0.197374	0.198031	0.200497
1702	0.200332	0.199182	0.200825	0.19836	0.198524	0.20362
1703	0.200825	0.200168	0.198689	0.19458	0.200825	0.197867
1704	0.198031	0.190471	0.199018	0.197374	0.199346	0.202305
1705	0.197867	0.198689	0.18817	0.197867	0.200825	0.197867
1706	0.199346	0.198524	0.200332	0.199346	0.200004	0.199511
1707	0.200004	0.203455	0.198524	0.196059	0.200168	0.199346
1708	0.200661	0.199182	0.198689	0.198689	0.200332	0.197703
1709	0.198689	0.197867	0.198853	0.196552	0.197538	0.195237
1710	0.202469	0.200825	0.199346	0.199018	0.200332	0.197374
1711	0.200332	0.198196	0.19836	0.196223	0.20099	0.198524
1712	0.20099	0.19836	0.197374	0.201647	0.198196	0.195566
1713	0.201647	0.196552	0.200332	0.196881	0.200168	0.197538
1714	0.200661	0.199346	0.197867	0.200168	0.199675	0.196552
1715	0.198853	0.188499	0.200661	0.19836	0.195402	0.204113
1716	0.200004	0.200661	0.188006	0.198031	0.196717	0.20099
1717	0.201812	0.196059	0.198524	0.197867	0.197538	0.201647
1718	0.200168	0.196059	0.197045	0.199511	0.197374	0.20214
1719	0.201647	0.196552	0.199346	0.19836	0.20214	0.201319
1720	0.201483	0.198689	0.197538	0.199346	0.19721	0.19836
1721	0.205427	0.202633	0.199346	0.20099	0.201647	0.201483
1722	0.202633	0.198689	0.199182	0.19836	0.202633	0.199511
1723	0.201319	0.199839	0.198524	0.201154	0.199182	0.199182
1724	0.197538	0.198689	0.200661	0.195402	0.199182	0.200168
1725	0.202633	0.200168	0.199675	0.19836	0.201647	0.197867
1726	0.198853	0.190964	0.197867	0.196717	0.200332	0.200332
1727	0.200661	0.197867	0.187348	0.197045	0.197374	0.198853
1728	0.201319	0.196059	0.197867	0.19721	0.201483	0.203455
1729	0.202633	0.19721	0.197374	0.197703	0.199018	0.20214
1730	0.200661	0.197045	0.198524	0.198689	0.198196	0.201647
1731	0.200661	0.198689	0.197703	0.204113	0.19836	0.197374
1732	0.201483	0.198196	0.201976	0.200825	0.200168	0.202305
1733	0.202305	0.195566	0.199839	0.199675	0.200661	0.198524
1734	0.200168	0.196223	0.199018	0.199839	0.199182	0.200332
1735	0.199675	0.197374	0.20214	0.195402	0.199346	0.198031
1736	0.201154	0.197374	0.19721	0.200004	0.199839	0.201154
1737	0.198853	0.194251	0.199018	0.197374	0.200661	0.195073
1738	0.204441	0.193265	0.188499	0.196881	0.198196	0.20099
1739	0.200332	0.197045	0.20099	0.194416	0.199839	0.20099
1740	0.200497	0.196552	0.201319	0.196059	0.199018	0.201812
1741	0.202469	0.19721	0.199182	0.195237	0.198196	0.199346
1742	0.201812	0.195237	0.199018	0.197867	0.195895	0.198031
1743	0.201647	0.193429	0.201154	0.194416	0.202469	0.197703
1744	0.203455	0.197374	0.199182	0.197374	0.201483	0.199839
1745	0.201319	0.196388	0.201812	0.198524	0.201647	0.199018
1746	0.202633	0.198853	0.200497	0.197045	0.200661	0.199346
1747	0.202962	0.197374	0.201812	0.197045	0.200332	0.199182
1748	0.199346	0.199511	0.199675	0.200332	0.200332	0.198853
1749	0.200004	0.198196	0.192936	0.20099	0.197045	0.201319
1750	0.205427	0.198031	0.197374	0.19836	0.195073	0.198196
1751	0.202962	0.197538	0.198031	0.198689	0.200004	0.202469
1752	0.19836	0.19836	0.199018	0.200497	0.198031	0.199346
1753	0.201319	0.196881	0.199511	0.20214	0.19836	0.199675
1754	0.200661	0.198196	0.19721	0.200168	0.199839	0.197045
1755	0.201154	0.199675	0.201812	0.199675	0.194909	0.199675
1756	0.199182	0.198853	0.197045	0.199675	0.199182	0.198689
1757	0.199839	0.199346	0.196717	0.197374	0.199511	0.197538
1758	0.199346	0.198689	0.202633	0.195566	0.20099	0.196059
1759	0.200168	0.204606	0.200004	0.197867	0.198524	0.201319
1760	0.200004	0.196717	0.193594	0.19721	0.198689	0.200332
1761	0.20099	0.198524	0.198524	0.195566	0.200004	0.198689
1762	0.197045	0.197867	0.201319	0.195237	0.200332	0.201812
1763	0.202469	0.198196	0.198524	0.197374	0.197374	0.19721
1764	0.199182	0.19458	0.199839	0.199511	0.195566	0.198524
1765	0.200497	0.198689	0.197867	0.19836	0.201154	0.199018
1766	0.199675	0.197703	0.200661	0.199018	0.199675	0.201976
1767	0.199018	0.201647	0.197703	0.198031	0.197538	0.198196
1768	0.199839	0.197703	0.199182	0.197045	0.199018	0.200004
1769	0.193594	0.19836	0.199018	0.195566	0.202633	0.197538
1770	0.201319	0.202469	0.201812	0.198853	0.195566	0.200004
1771	0.194744	0.193758	0.196223	0.196717	0.197374	0.199839
1772	0.194251	0.204441	0.197703	0.196881	0.19721	0.200661
1773	0.198524	0.196059	0.200332	0.196223	0.197374	0.201319
1774	0.198031	0.199675	0.201154	0.201647	0.197374	0.199346
1775	0.195566	0.199182	0.20099	0.198196	0.199182	0.199346
1776	0.201647	0.199675	0.19721	0.192772	0.199839	0.198031
1777	0.201647	0.197045	0.199182	0.196552	0.200497	0.200332
1778	0.20214	0.199018	0.196717	0.199346	0.200004	0.200497
1779	0.199182	0.198853	0.199018	0.196059	0.201319	0.202305
1780	0.200661	0.199511	0.198196	0.196059	0.201976	0.199346
1781	0.200004	0.199511	0.200168	0.20099	0.201154	0.201154
1782	0.199182	0.196717	0.196881	0.197374	0.201319	0.199018
1783	0.200661	0.197045	0.196059	0.195895	0.199511	0.200168
1784	0.198689	0.19836	0.197538	0.196059	0.199675	0.200332
1785	0.200004	0.197538	0.200168	0.196717	0.200825	0.203948
1786	0.199675	0.196223	0.198031	0.195566	0.20099	0.197374
1787	0.200497	0.198196	0.195895	0.198853	0.197703	0.19721
1788	0.200004	0.198689	0.198524	0.198031	0.201483	0.202305
1789	0.20362	0.200825	0.198853	0.199675	0.196552	0.201483
1790	0.198689	0.198196	0.199675	0.196552	0.201154	0.199839
1791	0.198689	0.199018	0.201812	0.196552	0.198853	0.20099
1792	0.200661	0.199346	0.200168	0.19573	0.196717	0.201812
1793	0.201483	0.198196	0.198853	0.197374	0.198524	0.19836
1794	0.198689	0.201647	0.202469	0.194909	0.199839	0.202798
1795	0.201647	0.199839	0.198853	0.194909	0.199675	0.201483
1796	0.198196	0.198689	0.199182	0.196881	0.20099	0.200661
1797	0.197703	0.200497	0.199675	0.195895	0.200497	0.199511
1798	0.201483	0.199182	0.199018	0.198196	0.201647	0.200168
1799	0.199675	0.198031	0.198689	0.198853	0.201154	0.198689
1800	0.198689	0.198853	0.198689	0.19573	0.19836	0.200332
1801	0.201154	0.197867	0.201154	0.199675	0.201647	0.199839
1802	0.200168	0.201154	0.198689	0.200004	0.198524	0.197867
1803	0.201812	0.199675	0.198689	0.196717	0.201319	0.198524
1804	0.200497	0.199018	0.199839	0.197867	0.196059	0.197374
1805	0.198524	0.197538	0.201319	0.197374	0.20099	0.201154
1806	0.198853	0.199018	0.200497	0.19721	0.200004	0.202798
1807	0.199346	0.200497	0.202962	0.19836	0.202469	0.20214
1808	0.198196	0.197867	0.205592	0.197867	0.197867	0.197703
1809	0.19836	0.198689	0.202798	0.196881	0.198524	0.199839
1810	0.198853	0.199675	0.200497	0.197045	0.198853	0.19836
1811	0.199675	0.198689	0.201812	0.199839	0.200661	0.201976
1812	0.199182	0.200497	0.200497	0.197867	0.20099	0.20099
1813	0.198689	0.199346	0.200825	0.199839	0.202469	0.199346
1814	0.200332	0.20099	0.198689	0.197703	0.198689	0.199675
1815	0.199018	0.198196	0.198196	0.197703	0.200168	0.201319
1816	0.197538	0.194909	0.196717	0.201154	0.200825	0.200004
1817	0.201154	0.199018	0.199018	0.197374	0.198031	0.200825
1818	0.198689	0.197867	0.197867	0.200825	0.200332	0.19836
1819	0.201483	0.199182	0.198853	0.199182	0.19458	0.197867
1820	0.201319	0.199182	0.200004	0.195073	0.198196	0.199018
1821	0.20099	0.19195	0.196223	0.199182	0.199346	0.198196
1822	0.199839	0.197045	0.20099	0.200004	0.200497	0.199182
1823	0.197538	0.20099	0.200168	0.198689	0.197045	0.198689
1824	0.194087	0.196552	0.200497	0.199839	0.200497	0.199018
1825	0.19721	0.199839	0.200661	0.199182	0.199018	0.198853
1826	0.196717	0.19836	0.199675	0.199675	0.200004	0.201647
1827	0.19458	0.198524	0.196388	0.199839	0.200661	0.200004
1828	0.201154	0.198524	0.199018	0.198689	0.200168	0.204606
1829	0.198031	0.19836	0.199018	0.199511	0.200825	0.200497
1830	0.196552	0.199675	0.197703	0.201154	0.200004	0.201647
1831	0.198689	0.199511	0.197703	0.204934	0.202962	0.199839
1832	0.200497	0.201812	0.197538	0.198031	0.199511	0.199839
1833	0.198524	0.198689	0.198689	0.197703	0.202962	0.197045
1834	0.200168	0.199018	0.200332	0.199346	0.200004	0.200661
1835	0.196717	0.199346	0.198853	0.19836	0.202962	0.199182
1836	0.198196	0.199839	0.201483	0.198524	0.199182	0.198031
1837	0.193265	0.200825	0.202305	0.198853	0.200004	0.198689
1838	0.201483	0.202469	0.199018	0.204277	0.200825	0.199018
1839	0.196881	0.197045	0.200004	0.201483	0.200004	0.204277
1840	0.199675	0.197045	0.198853	0.201812	0.200168	0.192772
1841	0.198524	0.196059	0.199182	0.203784	0.200825	0.197867
1842	0.19458	0.196223	0.200004	0.201154	0.199346	0.201976
1843	0.198524	0.199675	0.200497	0.200661	0.202633	0.19721
1844	0.196881	0.199182	0.198689	0.201812	0.202633	0.198524
1845	0.199182	0.199839	0.202305	0.200825	0.200661	0.204113
1846	0.199182	0.199182	0.198689	0.200004	0.201319	0.201319
1847	0.199346	0.200661	0.203291	0.201154	0.202305	0.201976
1848	0.199182	0.19836	0.19836	0.198853	0.203455	0.199182
1849	0.199675	0.200332	0.196059	0.201647	0.201319	0.199675
1850	0.198524	0.199511	0.200004	0.198031	0.201647	0.200168
1851	0.197538	0.200497	0.198689	0.201319	0.200168	0.197538
1852	0.196059	0.198524	0.199346	0.195402	0.200497	0.199018
1853	0.199839	0.200168	0.198853	0.200497	0.200497	0.195895
1854	0.198196	0.197867	0.202469	0.200332	0.200497	0.196717
1855	0.199675	0.200497	0.194744	0.201812	0.201319	0.197374
1856	0.197867	0.199018	0.201976	0.200661	0.200497	0.199346
1857	0.197374	0.198196	0.197867	0.20099	0.200332	0.200497
1858	0.196223	0.198524	0.197374	0.200825	0.199839	0.199839
1859	0.195402	0.19573	0.201154	0.200661	0.201976	0.199675
1860	0.19573	0.198196	0.198031	0.204277	0.195237	0.199675
1861	0.198853	0.196059	0.198031	0.200004	0.198853	0.199511
1862	0.19836	0.198853	0.199018	0.201976	0.198524	0.200004
1863	0.197538	0.19836	0.199018	0.20099	0.19836	0.200168
1864	0.199511	0.200661	0.198853	0.201976	0.206414	0.201483
1865	0.198853	0.199018	0.198031	0.19721	0.198196	0.200497
1866	0.200168	0.201976	0.197867	0.204441	0.197703	0.199839
1867	0.200332	0.199511	0.200661	0.198853	0.199511	0.202469
1868	0.202633	0.200168	0.199018	0.19836	0.199675	0.200497
1869	0.200497	0.199675	0.199346	0.200004	0.201812	0.199675
1870	0.199346	0.198031	0.203126	0.204606	0.199346	0.199182
1871	0.200332	0.197538	0.198031	0.200497	0.203126	0.200825
1872	0.193922	0.195895	0.197867	0.199346	0.200497	0.198524
1873	0.196223	0.194416	0.200332	0.204277	0.200168	0.198031
1874	0.198196	0.197867	0.199018	0.200004	0.20099	0.200497
1875	0.197703	0.195402	0.199182	0.199839	0.200497	0.199346
1876	0.19836	0.198031	0.199182	0.201647	0.199346	0.199511
1877	0.195566	0.197867	0.199018	0.204277	0.199182	0.201483
1878	0.198196	0.194909	0.197045	0.196552	0.200497	0.20214
1879	0.197867	0.200332	0.197374	0.199511	0.199675	0.206085
1880	0.197867	0.198031	0.19836	0.201154	0.200168	0.202798
1881	0.199346	0.199018	0.20362	0.198524	0.198031	0.201319
1882	0.198524	0.199018	0.197374	0.195895	0.199675	0.201319
1883	0.200497	0.197867	0.197045	0.19573	0.199511	0.196388
1884	0.19836	0.198524	0.198853	0.194909	0.199511	0.201976
1885	0.200332	0.200004	0.197374	0.198689	0.198031	0.199182
1886	0.200497	0.199346	0.199839	0.19458	0.200825	0.199182
1887	0.202962	0.199018	0.201483	0.193265	0.199018	0.198853
1888	0.200497	0.193594	0.20099	0.200332	0.201154	0.200661
1889	0.198524	0.196717	0.199018	0.19836	0.199675	0.200168
1890	0.198031	0.195566	0.202305	0.195237	0.198031	0.19836
1891	0.19836	0.193429	0.199018	0.19836	0.199511	0.196552
1892	0.197867	0.195073	0.202633	0.200168	0.199346	0.198031
1893	0.196059	0.194909	0.199018	0.197045	0.199839	0.197867
1894	0.200332	0.193594	0.197867	0.198196	0.199675	0.200168
1895	0.197703	0.196717	0.197538	0.198689	0.199511	0.199346
1896	0.197374	0.199675	0.199018	0.199346	0.196717	0.199018
1897	0.197703	0.197374	0.199675	0.198196	0.199018	0.198031
1898	0.201976	0.198853	0.200332	0.198196	0.201812	0.200497
1899	0.199018	0.19836	0.198689	0.197867	0.200168	0.201812
1900	0.203948	0.200661	0.19836	0.197703	0.199675	0.198196
1901	0.202633	0.198524	0.200168	0.197703	0.198689	0.201976
1902	0.200497	0.200168	0.198196	0.198524	0.200004	0.200661
1903	0.199839	0.197703	0.202798	0.198196	0.200004	0.197538
1904	0.202798	0.198689	0.193265	0.196223	0.197867	0.197538
1905	0.198031	0.199018	0.197374	0.197703	0.199839	0.199018
1906	0.197867	0.198853	0.19721	0.198031	0.200168	0.195402
1907	0.19836	0.199839	0.198196	0.196552	0.198031	0.197867
1908	0.19836	0.197374	0.196223	0.197703	0.200661	0.197374
1909	0.199346	0.197045	0.201154	0.19836	0.199018	0.198689
1910	0.198031	0.19721	0.19721	0.196717	0.199511	0.197703
1911	0.201976	0.198196	0.200497	0.195237	0.199018	0.200332
1912	0.196552	0.197538	0.200332	0.194087	0.199018	0.201154
1913	0.200332	0.199675	0.196717	0.197538	0.195566	0.201812
1914	0.19836	0.195237	0.201647	0.196223	0.203126	0.201154
1915	0.199839	0.200168	0.195566	0.195237	0.195566	0.201647
1916	0.200168	0.200497	0.199675	0.192279	0.197538	0.201976
1917	0.200168	0.19721	0.19721	0.194416	0.197703	0.198853
1918	0.199675	0.19836	0.199511	0.192936	0.200497	0.20099
1919	0.200661	0.20099	0.199018	0.191457	0.199675	0.199675
1920	0.201154	0.197374	0.200004	0.190471	0.200332	0.200168
1921	0.199675	0.198031	0.197045	0.192772	0.20362	0.199675
1922	0.202962	0.199675	0.20099	0.194909	0.199675	0.201483
1923	0.197538	0.194909	0.19836	0.19195	0.202305	0.199018
1924	0.20099	0.197374	0.200168	0.19458	0.200168	0.202305
1925	0.198689	0.196059	0.201319	0.194087	0.199675	0.198524
1926	0.199018	0.195566	0.193265	0.194087	0.197045	0.200004
1927	0.199346	0.197538	0.196717	0.191293	0.199839	0.200004
1928	0.199511	0.198031	0.196223	0.195402	0.199511	0.19721
1929	0.197867	0.196552	0.19721	0.195237	0.199018	0.200168
1930	0.204441	0.200825	0.197374	0.191128	0.198853	0.201483
1931	0.200168	0.19573	0.198689	0.194251	0.20099	0.201483
1932	0.201154	0.19836	0.196717	0.189814	0.199675	0.200004
1933	0.202305	0.197703	0.198853	0.188334	0.200168	0.204441
1934	0.200825	0.199018	0.197867	0.184225	0.20099	0.199346
1935	0.203291	0.196717	0.200825	0.187841	0.199018	0.200661
1936	0.203126	0.200004	0.200332	0.186855	0.199675	0.200332
1937	0.202633	0.196059	0.197374	0.186198	0.200497	0.201812
1938	0.201976	0.195402	0.199511	0.187184	0.200497	0.199675
1939	0.201483	0.192608	0.19836	0.190635	0.199675	0.199839
1940	0.199839	0.195237	0.199182	0.191457	0.196552	0.194251
1941	0.202962	0.196552	0.202305	0.19195	0.200332	0.198689
1942	0.200497	0.195402	0.199346	0.193101	0.201647	0.198031
1943	0.203291	0.197045	0.197045	0.188334	0.199346	0.200004
1944	0.199018	0.197374	0.200825	0.18932	0.201154	0.199182
1945	0.203948	0.205263	0.198031	0.192608	0.202469	0.198853
1946	0.198196	0.20099	0.200168	0.191128	0.200825	0.202305
1947	0.20099	0.200004	0.200004	0.191786	0.196552	0.19836
1948	0.201319	0.198196	0.196717	0.189156	0.202962	0.199182
1949	0.199675	0.198853	0.197374	0.188992	0.199182	0.199346
1950	0.19836	0.196717	0.198031	0.188663	0.199839	0.200004
1951	0.204934	0.199182	0.197045	0.18932	0.199346	0.198524
1952	0.203455	0.199018	0.19836	0.187677	0.200825	0.203455
1953	0.199839	0.199346	0.196388	0.188827	0.201483	0.197374
1954	0.203784	0.197703	0.19836	0.188499	0.201319	0.199675
1955	0.203291	0.199182	0.199346	0.186198	0.202962	0.201154
1956	0.199839	0.197703	0.199346	0.189156	0.201483	0.200004
1957	0.199675	0.199182	0.19836	0.188006	0.200004	0.201812
1958	0.200332	0.197867	0.200497	0.187184	0.201647	0.197538
1959	0.200332	0.197374	0.198524	0.188334	0.201154	0.197045
1960	0.199346	0.200168	0.194416	0.186691	0.20099	0.196223
1961	0.201976	0.19721	0.195895	0.187841	0.201319	0.197045
1962	0.201483	0.198031	0.196881	0.190142	0.200168	0.196552
1963	0.199511	0.19836	0.195073	0.187513	0.201812	0.200332
1964	0.201319	0.195402	0.197045	0.186033	0.203455	0.202962
1965	0.199675	0.195566	0.19721	0.185869	0.199839	0.199346
1966	0.200497	0.198196	0.19836	0.184883	0.196388	0.201154
1967	0.197045	0.198524	0.199511	0.187019	0.200004	0.202798
1968	0.197538	0.199675	0.198031	0.181267	0.199346	0.199511
1969	0.200168	0.197538	0.205427	0.182089	0.197374	0.202798
1970	0.199839	0.198196	0.197045	0.184554	0.199346	0.200332
1971	0.196717	0.198689	0.199511	0.181103	0.199018	0.201154
1972	0.197703	0.197703	0.199346	0.182089	0.19836	0.199511
1973	0.200661	0.198031	0.198524	0.182253	0.197538	0.200497
1974	0.194087	0.199182	0.199182	0.180116	0.201812	0.199346
1975	0.198196	0.19836	0.197045	0.180116	0.200004	0.199182
1976	0.200497	0.19573	0.195073	0.180116	0.201647	0.199839
1977	0.201154	0.200497	0.196717	0.180938	0.201319	0.197703
1978	0.200168	0.19836	0.197867	0.178966	0.202305	0.201154
1979	0.201319	0.201647	0.19573	0.179952	0.199018	0.195402
1980	0.199839	0.197045	0.199839	0.176994	0.203948	0.200168
1981	0.202962	0.197374	0.195402	0.175679	0.197045	0.199675
1982	0.200004	0.198196	0.201319	0.173378	0.199511	0.199675
1983	0.200497	0.198689	0.200004	0.173378	0.200332	0.19836
1984	0.200661	0.19721	0.201319	0.175679	0.199511	0.201319
1985	0.20214	0.19836	0.20099	0.172063	0.200497	0.198524
1986	0.200497	0.19573	0.203455	0.177651	0.199182	0.200661
1987	0.201483	0.194909	0.196388	0.175021	0.201647	0.201154
1988	0.20099	0.193265	0.198524	0.172063	0.202798	0.201483
1989	0.198853	0.19836	0.200825	0.170419	0.203784	0.199182
1990	0.200825	0.196717	0.196881	0.170913	0.200332	0.197703
1991	0.200825	0.19721	0.20099	0.166639	0.201319	0.201319
1992	0.20214	0.199839	0.196881	0.170419	0.200168	0.201647
1993	0.200661	0.200168	0.198196	0.167461	0.203291	0.200497
1994	0.202305	0.198689	0.197538	0.168118	0.200497	0.197538
1995	0.201976	0.198689	0.200825	0.166475	0.199675	0.200497
1996	0.204113	0.196552	0.191786	0.162859	0.200825	0.198689
1997	0.201319	0.197374	0.199182	0.16516	0.198689	0.200168
1998	0.203291	0.202305	0.19573	0.160722	0.202633	0.198196
1999	0.201319	0.194744	0.198689	0.16253	0.201812	0.201319
2000	0.198031	0.198689	0.199018	0.161873	0.200661	0.201319
2001	0.20099	0.198524	0.199839	0.160065	0.198689	0.200004
2002	0.199018	0.19573	0.199182	0.160229	0.199675	0.20477
2003	0.200497	0.198853	0.200661	0.161544	0.198853	0.203455
2004	0.198689	0.198031	0.202469	0.159572	0.20099	0.200497
2005	0.200332	0.199182	0.20099	0.160229	0.200004	0.19836
2006	0.200004	0.199182	0.198689	0.157928	0.20099	0.19836
2007	0.196552	0.202469	0.198689	0.159408	0.20099	0.197538
2008	0.200332	0.197374	0.199018	0.155299	0.202305	0.198524
2009	0.201483	0.201647	0.19195	0.154477	0.200661	0.19721
2010	0.198853	0.200168	0.19573	0.156778	0.202305	0.199675
2011	0.200004	0.202305	0.197703	0.157271	0.203784	0.202305
2012	0.199018	0.20099	0.198031	0.154148	0.203455	0.200004
2013	0.201319	0.199346	0.197374	0.153819	0.198689	0.200332
2014	0.199346	0.199675	0.198031	0.155792	0.203291	0.201154
2015	0.200497	0.19836	0.196552	0.152833	0.197867	0.196388
2016	0.201812	0.198524	0.195402	0.153984	0.198689	0.199511
2017	0.192936	0.198689	0.199346	0.152176	0.198524	0.198853
2018	0.20099	0.199675	0.199182	0.151683	0.198853	0.200004
2019	0.19836	0.197538	0.196223	0.152505	0.200004	0.200004
2020	0.200168	0.199675	0.199675	0.149875	0.200004	0.200825
2021	0.197867	0.199346	0.200661	0.14971	0.202305	0.200661
2022	0.195073	0.201319	0.199675	0.150039	0.201812	0.201812
2023	0.195895	0.200168	0.199346	0.14971	0.201976	0.202305
2024	0.20099	0.199182	0.200004	0.152669	0.203126	0.200332
2025	0.199182	0.198196	0.197538	0.149546	0.20214	0.199839
2026	0.203455	0.20099	0.195895	0.149217	0.20099	0.201154
2027	0.199675	0.198853	0.197867	0.148396	0.201647	0.198689
2028	0.200497	0.198524	0.196223	0.147574	0.199839	0.198689
2029	0.200825	0.202798	0.198524	0.147903	0.20099	0.200497
2030	0.201647	0.200168	0.192772	0.146259	0.202469	0.195237
2031	0.201976	0.199511	0.192936	0.146259	0.198524	0.19836
2032	0.199018	0.199839	0.19573	0.143958	0.20099	0.198031
2033	0.199346	0.198031	0.197374	0.145437	0.20362	0.200497
2034	0.198689	0.198031	0.19721	0.14593	0.198031	0.201154
2035	0.20099	0.199182	0.200168	0.146095	0.199675	0.202305
2036	0.196717	0.193758	0.198031	0.144451	0.197867	0.200497
2037	0.200004	0.193101	0.200825	0.147245	0.201976	0.203948
2038	0.198524	0.194416	0.195237	0.148067	0.202798	0.201647
2039	0.196388	0.158257	0.19721	0.149053	0.200168	0.198689
2040	0.200004	0.00294	0.199018	0.146423	0.202469	0.200661
2041	0.200825	0.007049	0.196059	0.148396	0.201154	0.20099
2042	0.199018	0.003268	0.198689	0.146752	0.202469	0.201319
2043	0.203784	0.014445	0.199346	0.147574	0.200332	0.201319
2044	0.197703	-0.000183	0.198031	0.148231	0.203784	0.199675
2045	0.199675	0.008035	0.199675	0.145766	0.199182	0.197703
2046	0.199346	0.016746	0.199511	0.146916	0.200497	0.200004
2047	0.199182	0.019868	0.197703	0.152998	0.201976	0.197538
2048	0.201812	0.03088	0.198031	0.153819	0.200332	0.201976
2049	0.198853	0.039591	0.198689	0.153162	0.201483	0.198853
2050	0.197374	0.044851	0.201154	0.158421	0.198196	0.198689
2051	0.198031	0.052575	0.196223	0.157764	0.201812	0.198031
2052	0.19836	0.061944	0.198689	0.160394	0.198853	0.201319
2053	0.198196	0.064245	0.200004	0.161544	0.200661	0.201154
2054	0.199182	0.069833	0.200825	0.166475	0.006062	0.202305
2055	0.198031	0.075092	0.199511	0.167461	0.014773	0.201976
2056	0.198853	-0.00347	0.199018	0.169598	0.019211	0.199018
2057	0.199346	0.004255	0.199511	0.174364	0.026936	0.199018
2058	0.199346	0.014609	0.196223	0.176172	0.034825	0.199675
2059	0.198853	0.022498	0.199511	0.177487	0.040742	0.200497
2060	0.201647	0.010664	0.200332	0.18176	0.049124	0.195895
2061	0.199018	0.007049	0.20099	0.186691	0.055041	0.198689
2062	0.200661	0.018882	0.199182	0.187677	0.059314	0.200332
2063	0.20362	0.02595	0.198689	0.192443	0.066381	0.200497
2064	0.198031	0.032031	0.196552	0.192608	0.074271	0.195402
2065	0.202798	0.038441	0.198853	0.197045	0.076736	0.200168
2066	0.196388	0.044358	0.198853	0.198689	0.085611	0.200825
2067	0.201319	0.050439	0.19836	0.203948	0.087419	0.19836
2068	0.201483	0.017896	0.199018	0.203948	0.093172	0.201319
2069	0.202305	0.019375	0.196881	0.207728	0.095144	0.200825
2070	0.197538	0.025621	0.198196	0.211016	0.103033	0.200825
2071	0.202798	0.034825	0.198031	0.21496	0.105827	0.202305
2072	0.194087	0.042057	0.197538	0.216768	0.10895	0.200661
2073	0.197538	0.048302	0.197374	0.217097	0.11536	0.198031
2074	0.201319	0.054712	0.197374	0.218905	0.121441	0.202469
2075	0.200825	0.060958	0.195566	0.217097	0.120784	0.198524
2076	0.196552	0.066546	0.199182	0.225315	0.123249	0.20099
2077	0.198031	0.071148	0.19573	0.222192	0.128837	0.200332
2078	0.200332	0.077886	0.196717	0.223835	0.12933	0.200497
2079	0.201319	0.082324	0.197867	0.222192	0.13196	0.20362
2080	0.20099	0.089391	0.196881	0.222849	0.136069	0.201812
2081	0.200168	0.087748	0.193429	0.22137	0.138863	0.200004
2082	0.200661	0.09613	0.194909	0.222028	0.139192	0.199346
2083	0.198689	0.097938	0.192443	0.220384	0.144451	0.199182
2084	0.201319	0.106649	0.197374	0.222192	0.146095	0.198853
2085	0.201647	0.10895	0.199675	0.221699	0.147245	0.199018
2086	0.200168	0.108786	0.194744	0.220713	0.152505	0.199511
2087	0.19836	0.111908	0.199675	0.219562	0.147903	0.202798
2088	0.199675	0.11651	0.197867	0.220877	0.157107	0.201647
2089	0.198031	0.120784	0.198689	0.222356	0.155134	0.200004
2090	0.198524	0.120619	0.195895	0.219727	0.155627	0.197538
2091	0.200825	0.124071	0.196881	0.221699	0.157271	0.20214
2092	0.199839	0.128673	0.196717	0.217919	0.160722	0.197538
2093	0.204113	0.131302	0.198524	0.218412	0.158421	0.199511
2094	0.202798	0.135576	0.197867	0.217097	0.165324	0.196223
2095	0.201154	0.138041	0.197867	0.220713	0.165489	0.19836
2096	0.198196	0.142479	0.197867	0.218412	0.166311	0.199511
2097	0.201647	0.146588	0.196223	0.214796	0.166804	0.200332
2098	0.199511	0.147081	0.198853	0.213974	0.170913	0.199839
2099	0.199839	0.148724	0.199182	0.215782	0.169598	0.201319
2100	0.200168	0.149875	0.198689	0.214796	0.17157	0.19836
2101	0.198689	0.15119	0.196059	0.215782	0.171241	0.19721
2102	0.19721	0.151354	0.197045	0.216111	0.172556	0.200661
2103	0.199018	0.154641	0.19836	0.215125	0.175021	0.199346
2104	0.19836	0.155792	0.197703	0.216111	0.176008	0.200168
2105	0.197538	0.155463	0.195895	0.218576	0.174693	0.198196
2106	0.199018	0.158093	0.195073	0.216768	0.178473	0.198853
2107	0.198031	0.162695	0.19721	0.214467	0.176994	0.196717
2108	0.199511	0.164174	0.193758	0.216439	0.178802	0.198031
2109	0.197703	0.162037	0.198524	0.213317	0.180281	0.199018
2110	0.198524	0.16516	0.198196	0.217261	0.181596	0.199511
2111	0.198196	0.169926	0.188334	0.21874	0.181431	0.195566
2112	0.200497	0.165653	0.150039	0.217426	0.179295	0.199018
2113	0.198853	0.167625	0.154148	0.215946	0.180774	0.19836
2114	0.199675	0.171241	0.1576	0.21759	0.17913	0.206578
2115	0.197374	0.170091	0.160229	0.217754	0.184718	0.200004
2116	0.197538	0.173707	0.159243	0.219069	0.182911	0.200168
2117	0.201483	0.128015	0.163352	0.21874	0.186362	0.201483
2118	0.201647	0.133439	0.163188	0.219562	0.187677	0.199018
2119	0.200825	0.133603	0.164174	0.218905	0.189156	0.199675
2120	0.196717	0.136069	0.165817	0.220877	0.185869	0.198853
2121	0.198853	0.138534	0.168118	0.222028	0.189649	0.200825
2122	0.196717	0.144122	0.168447	0.222028	0.188499	0.198524
2123	0.196059	0.140506	0.168283	0.223671	0.188827	0.200004
2124	0.195895	0.144122	0.170091	0.222192	0.188827	0.199675
2125	0.196552	0.147574	0.173378	0.220713	0.186691	0.201154
2126	0.191786	0.148067	0.171899	0.22022	0.187184	0.198689
2127	0.196881	0.152669	0.173542	0.222192	0.187677	0.200168
2128	0.197867	0.156778	0.176829	0.221699	0.191128	0.198524
2129	0.196717	0.157764	0.176501	0.221863	0.190307	0.202469
2130	0.196717	0.1576	0.176501	0.222028	0.191293	0.200004
2131	0.200332	0.160065	0.181596	0.223671	0.191128	0.202305
2132	0.195566	0.160558	0.182089	0.222028	0.195073	0.202633
2133	0.20099	0.165982	0.180774	0.223835	0.192772	0.199675
2134	0.198196	0.164667	0.178966	0.222849	0.193758	0.201154
2135	0.199182	0.16401	0.178473	0.223671	0.194744	0.200497
2136	0.200825	0.163845	0.183568	0.223835	0.193758	0.201154
2137	0.198196	0.167461	0.182417	0.223671	0.190471	0.197538
2138	0.19836	0.164831	0.187019	0.224986	0.191128	0.199346
2139	0.198853	0.169269	0.184883	0.223178	0.191457	0.197703
2140	0.197867	0.169269	0.185376	0.224	0.194744	0.197867
2141	0.198196	0.171899	0.183075	0.223342	0.192115	0.199182
2142	0.199675	0.173707	0.188827	0.226136	0.192608	0.19836
2143	0.195566	0.171899	0.187513	0.224822	0.194744	0.199511
2144	0.200332	0.178144	0.189485	0.227944	0.19195	0.195073
2145	0.198031	0.175021	0.185869	0.228602	0.195402	0.199675
2146	0.198196	0.176336	0.188334	0.225479	0.195237	0.199675
2147	0.200004	0.18176	0.191457	0.227123	0.192279	0.19836
2148	0.199018	0.181431	0.188992	0.23041	0.193758	0.200332
2149	0.195566	0.180116	0.191293	0.229259	0.193758	0.199018
2150	0.199839	0.181924	0.189978	0.228602	0.193101	0.198031
2151	0.198524	0.184883	0.192115	0.228766	0.196717	0.198524
2152	0.197703	0.18439	0.187019	0.228273	0.197045	0.199346
2153	0.200497	0.184883	0.192279	0.23041	0.197045	0.198196
2154	0.197045	0.182911	0.188334	0.231232	0.197703	0.201483
2155	0.198689	0.186691	0.191621	0.23156	0.195073	0.195895
2156	0.198689	0.183732	0.185376	0.231725	0.195895	0.195073
2157	0.199675	0.185376	0.189814	0.231396	0.195073	0.197703
2158	0.198689	0.184883	0.193101	0.23156	0.196552	0.196388
2159	0.199839	0.187513	0.191457	0.234026	0.195566	0.197867
2160	0.19721	0.184554	0.192443	0.233697	0.195895	0.197867
2161	0.201154	0.188006	0.188827	0.235505	0.196388	0.200661
2162	0.196552	0.186691	0.191457	0.235669	0.196881	0.201483
2163	0.199839	0.187677	0.190964	0.23797	0.190964	0.203291
2164	0.19836	0.190635	0.195073	0.232218	0.194087	0.200168
2165	0.199018	0.189814	0.195402	0.236162	0.195237	0.200168
2166	0.199018	0.192115	0.194416	0.232711	0.19721	0.201647
2167	0.205099	0.191128	0.189814	0.235834	0.194909	0.199346
2168	0.202305	0.187184	0.192608	0.235834	0.198196	0.199839
2169	0.201812	0.194087	0.194416	0.234847	0.197703	0.200825
2170	0.201154	0.191786	0.194909	0.237148	0.198524	0.197374
2171	0.199018	0.189814	0.194087	0.236327	0.19836	0.195895
2172	0.20099	0.192443	0.195566	0.233861	0.197538	0.201319
2173	0.199182	0.190471	0.193594	0.232053	0.199182	0.197867
2174	0.199018	0.191293	0.193265	0.232711	0.196059	0.197867
2175	0.196388	0.191293	0.195237	0.231889	0.197703	0.199675
2176	0.199018	0.192279	0.192772	0.236162	0.194416	0.199839
2177	0.203126	0.193265	0.197374	0.229752	0.196552	0.199839
2178	0.202798	0.193429	0.191621	0.232711	0.197538	0.199511
2179	0.199511	0.191128	0.191786	0.230245	0.199018	0.20099
2180	0.201483	0.193101	0.192936	0.230738	0.199511	0.200661
2181	0.201647	0.192279	0.196223	0.22515	0.199018	0.196717
2182	0.198853	0.194416	0.196223	0.228109	0.197045	0.197374
2183	0.200661	0.194744	0.198689	0.227616	0.200497	0.200332
2184	0.204606	0.197374	0.196717	0.22515	0.199346	0.197867
2185	0.202798	0.196223	0.19573	0.223014	0.200497	0.200332
2186	0.195237	0.195566	0.197867	0.224493	0.20099	0.196717
2187	0.201976	0.191786	0.197867	0.226465	0.195566	0.20214
2188	0.201154	0.190964	0.197538	0.224164	0.199511	0.198524
2189	0.204606	0.19458	0.195237	0.22778	0.197703	0.199018
2190	0.20099	0.192443	0.195895	0.224	0.19836	0.197867
2191	0.201976	0.1908	0.197703	0.225972	0.198031	0.200004
2192	0.201154	0.195073	0.198689	0.223178	0.197703	0.198524
2193	0.200004	0.195237	0.196388	0.22515	0.197045	0.197867
2194	0.199675	0.193265	0.199346	0.220548	0.199182	0.19721
2195	0.201154	0.197045	0.197374	0.220877	0.19573	0.198031
2196	0.200661	0.19721	0.196223	0.22137	0.200332	0.199839
2197	0.192115	0.195895	0.199182	0.223178	0.196717	0.20099
2198	0.200168	0.192936	0.19573	0.218247	0.193429	0.204934
2199	0.202633	0.19458	0.197703	0.220548	0.197374	0.200332
2200	0.20362	0.193429	0.197867	0.219233	0.198031	0.200004
2201	0.200825	0.196223	0.196717	0.218905	0.198689	0.198524
2202	0.200661	0.196881	0.198853	0.221863	0.198853	0.20099
2203	0.20099	0.197045	0.196881	0.220877	0.199511	0.197374
2204	0.20362	0.199182	0.196223	0.220384	0.197538	0.200004
2205	0.201483	0.197538	0.197374	0.218247	0.200661	0.196717
2206	0.203784	0.199675	0.197045	0.219398	0.19836	0.200004
2207	0.201812	0.197374	0.19721	0.216768	0.198524	0.200332
2208	0.19573	0.19836	0.198689	0.219562	0.197538	0.197045
2209	0.200332	0.198853	0.199182	0.217754	0.199182	0.199839
2210	0.201319	0.199182	0.196881	0.218412	0.198196	0.198196
2211	0.199346	0.19458	0.198689	0.217754	0.198853	0.199675
2212	0.201319	0.197045	0.199018	0.218576	0.196388	0.196223
2213	0.200332	0.195237	0.198853	0.215782	0.199839	0.197538
2214	0.199839	0.195895	0.199182	0.217754	0.195566	0.198853
2215	0.200661	0.198031	0.20099	0.216275	0.194251	0.199182
2216	0.199018	0.197867	0.199018	0.215782	0.197703	0.199018
2217	0.203126	0.199346	0.198196	0.214631	0.195402	0.201319
2218	0.202962	0.198853	0.197703	0.21233	0.197703	0.198524
2219	0.20099	0.199182	0.198689	0.212659	0.196717	0.20099
2220	0.199182	0.195402	0.200661	0.213152	0.196552	0.201154
2221	0.202633	0.199675	0.19836	0.214631	0.196552	0.199675
2222	0.198689	0.193265	0.200661	0.210523	0.198853	0.200497
2223	0.201647	0.198524	0.197045	0.212495	0.19836	0.199346
2224	0.197867	0.195402	0.198853	0.211837	0.199346	0.198853
2225	0.199018	0.193265	0.198689	0.211344	0.198524	0.199018
2226	0.199346	0.197374	0.199346	0.211837	0.196059	0.203455
2227	0.203291	0.199018	0.196223	0.215453	0.201154	0.19721
2228	0.201647	0.196881	0.199018	0.21118	0.200332	0.200497
2229	0.19721	0.198853	0.196717	0.209701	0.198196	0.199346
2230	0.204113	0.196223	0.197374	0.210194	0.201647	0.203126
2231	0.197867	0.196388	0.195073	0.207071	0.197045	0.203455
2232	0.197703	0.198524	0.199511	0.2074	0.196552	0.202962
2233	0.198196	0.197538	0.202305	0.207071	0.199346	0.197867
2234	0.199675	0.198524	0.197703	0.207235	0.199511	0.201647
2235	0.200168	0.19836	0.199346	0.205099	0.202469	0.199675
2236	0.199018	0.196223	0.200661	0.207564	0.200661	0.199182
2237	0.196059	0.198689	0.201812	0.20477	0.198689	0.200497
2238	0.201319	0.196717	0.199511	0.208057	0.200332	0.198689
2239	0.197538	0.197867	0.20362	0.204113	0.200332	0.199018
2240	0.20099	0.198196	0.199346	0.202798	0.198524	0.198031
2241	0.203126	0.193265	0.201319	0.205427	0.198196	0.199511
2242	0.195895	0.19836	0.199839	0.206578	0.196717	0.199839
2243	0.197867	0.19836	0.201154	0.202469	0.199346	0.201319
2244	0.196717	0.197045	0.201154	0.2074	0.197867	0.196059
2245	0.195402	0.195895	0.199511	0.208386	0.199511	0.200497
2246	0.196552	0.199675	0.198853	0.205592	0.197703	0.203291
2247	0.198031	0.196717	0.198524	0.203455	0.196552	0.203126
2248	0.193922	0.193922	0.198689	0.205592	0.198031	0.201154
2249	0.197703	0.196059	0.200332	0.206414	0.198524	0.203455
2250	0.197703	0.198524	0.200825	0.203455	0.199675	0.198524
2251	0.198196	0.199346	0.200661	0.202305	0.194416	0.200004
2252	0.197703	0.196881	0.200661	0.203291	0.193594	0.200661
2253	0.195402	0.199675	0.202798	0.202962	0.196717	0.201483
2254	0.196717	0.197867	0.200332	0.199182	0.198853	0.201812
2255	0.196717	0.200661	0.202305	0.20099	0.197374	0.199346
2256	0.19573	0.198524	0.198689	0.201812	0.197538	0.198524
2257	0.197374	0.199675	0.200332	0.200497	0.196223	0.198031
2258	0.19573	0.19836	0.20099	0.201812	0.201319	0.198689
2259	0.197045	0.20099	0.20099	0.201154	0.197867	0.200661
2260	0.19721	0.201812	0.200332	0.199511	0.200497	0.198853
2261	0.196059	0.199346	0.200497	0.200497	0.197867	0.198853
2262	0.19573	0.197867	0.201154	0.199182	0.197045	0.202305
2263	0.196388	0.200661	0.201483	0.197374	0.190635	0.200168
2264	0.194416	0.197374	0.199018	0.202305	0.197867	0.202962
2265	0.194909	0.199018	0.200168	0.199511	0.192608	0.201647
2266	0.196552	0.200661	0.204277	0.200661	0.193594	0.199839
2267	0.190964	0.197703	0.200004	0.198524	0.19836	0.199839
2268	0.197867	0.199346	0.200332	0.199182	0.196059	0.202305
2269	0.196223	0.197703	0.203126	0.200332	0.198196	0.198031
2270	0.195237	0.198524	0.202633	0.199675	0.196717	0.200497
2271	0.196552	0.19721	0.200825	0.197703	0.199182	0.19836
2272	0.195566	0.200661	0.203948	0.198196	0.198853	0.200497
2273	0.19573	0.197374	0.203784	0.198031	0.199839	0.199675
2274	0.197045	0.199675	0.199675	0.199346	0.189649	0.199839
2275	0.192772	0.199839	0.205099	0.200497	0.198524	0.203126
2276	0.196552	0.201319	0.202798	0.197703	0.200168	0.200332
2277	0.197045	0.198031	0.207071	0.199018	0.203784	0.200661
2278	0.193758	0.198853	0.199511	0.202469	0.201319	0.197538
2279	0.194909	0.195895	0.202962	0.198689	0.197703	0.202962
2280	0.195237	0.198196	0.199675	0.20099	0.200332	0.198196
2281	0.19458	0.197867	0.197867	0.201976	0.199182	0.198196
2282	0.196223	0.197538	0.199346	0.198689	0.198853	0.199182
2283	0.199511	0.198853	0.201319	0.200661	0.198689	0.201154
2284	0.196388	0.199182	0.204277	0.197374	0.19573	0.199182
2285	0.198031	0.198524	0.202962	0.197703	0.189978	0.205921
2286	0.19721	0.19836	0.201154	0.197538	0.199675	0.203784
2287	0.197867	0.200168	0.204441	0.198524	0.195566	0.203455
2288	0.197703	0.198524	0.211673	0.199182	0.199346	0.200825
2289	0.197538	0.196881	0.20099	0.20099	0.197867	0.200332
2290	0.197867	0.197045	0.205921	0.197374	0.198524	0.201976
2291	0.201154	0.198689	0.203291	0.199675	0.200497	0.198031
2292	0.198196	0.195566	0.20477	0.200661	0.199511	0.199182
2293	0.198031	0.19836	0.201812	0.201154	0.199839	0.198031
2294	0.198853	0.199675	0.202798	0.203455	0.200168	0.200497
2295	0.19721	0.199182	0.20099	0.197703	0.200004	0.197867
2296	0.20099	0.199346	0.202469	0.200332	0.189978	0.200497
2297	0.192936	0.198853	0.20099	0.199346	0.200004	0.199346
2298	0.196059	0.198196	0.200168	0.201647	0.199839	0.199182
2299	0.197045	0.196881	0.206742	0.197703	0.19721	0.197045
2300	0.197045	0.200825	0.200825	0.198689	0.19721	0.198031
2301	0.196059	0.199018	0.201812	0.197703	0.198853	0.201812
2302	0.195895	0.200497	0.202305	0.198689	0.196059	0.198196
2303	0.196717	0.19836	0.201319	0.199511	0.198196	0.201647
2304	0.198031	0.196881	0.200825	0.198689	0.197703	0.200825
2305	0.197538	0.197703	0.204441	0.199346	0.197374	0.197867
2306	0.198031	0.199511	0.200004	0.200004	0.199346	0.203455
2307	0.199675	0.200497	0.203126	0.198689	0.193429	0.199182
2308	0.198031	0.195895	0.200661	0.199675	0.19721	0.201319
2309	0.198689	0.199675	0.202798	0.20099	0.199346	0.201647
2310	0.196881	0.200004	0.202469	0.200497	0.199346	0.198031
2311	0.199675	0.198853	0.19721	0.200497	0.200332	0.197045
2312	0.19836	0.199018	0.198853	0.198853	0.197374	0.196059
2313	0.200332	0.199839	0.195073	0.201976	0.19458	0.19836
2314	0.196059	0.198853	0.192443	0.200332	0.200825	0.198689
2315	0.203291	0.198524	0.193922	0.200332	0.20099	0.19721
2316	0.200825	0.199511	0.196388	0.19836	0.196881	0.199018
2317	0.197703	0.200825	0.194416	0.198689	0.197867	0.198853
2318	0.196881	0.197538	0.197045	0.199839	0.195237	0.200332
2319	0.199511	0.199346	0.197538	0.199018	0.19573	0.199346
2320	0.199675	0.197538	0.197703	0.198689	0.198689	0.201647
2321	0.199018	0.199182	0.198689	0.200332	0.19836	0.198853
2322	0.198196	0.198196	0.197374	0.201319	0.198031	0.201154
2323	0.198524	0.197703	0.19573	0.198031	0.197045	0.198031
2324	0.199675	0.197703	0.198196	0.200332	0.200332	0.200497
2325	0.198524	0.199018	0.194744	0.200825	0.19836	0.198853
2326	0.199675	0.196717	0.193922	0.202305	0.200661	0.200004
2327	0.199511	0.200825	0.194744	0.198524	0.203784	0.200168
2328	0.200168	0.200168	0.195073	0.196881	0.198689	0.199346
2329	0.200825	0.198031	0.191786	0.198853	0.19836	0.198853
2330	0.201812	0.200168	0.195402	0.202305	0.197703	0.199839
2331	0.201812	0.197867	0.195073	0.199182	0.198524	0.19836
2332	0.202469	0.201319	0.195073	0.199675	0.197538	0.19836
2333	0.203455	0.196881	0.193101	0.198524	0.199675	0.199675
2334	0.203126	0.200332	0.193429	0.199675	0.194087	0.198031
2335	0.202305	0.197538	0.19458	0.199675	0.198031	0.201483
2336	0.201812	0.19836	0.192772	0.200661	0.196059	0.195566
2337	0.200825	0.19458	0.19458	0.19836	0.199018	0.198196
2338	0.200825	0.197867	0.197045	0.199675	0.19836	0.19836
2339	0.201976	0.201154	0.194909	0.199675	0.198689	0.204441
2340	0.202633	0.194909	0.19458	0.198689	0.197045	0.199018
2341	0.202305	0.19721	0.196223	0.200825	0.201483	0.203126
2342	0.20214	0.197867	0.193429	0.200004	0.200497	0.199018
2343	0.202962	0.197867	0.194251	0.200332	0.20099	0.199675
2344	0.203455	0.196388	0.19458	0.196223	0.198031	0.199675
2345	0.204441	0.199182	0.19573	0.198853	0.201154	0.197867
2346	0.203126	0.19458	0.190964	0.199346	0.200332	0.197538
2347	0.201319	0.198853	0.191786	0.199018	0.19721	0.198196
2348	0.203784	0.195566	0.192608	0.198524	0.200168	0.197867
2349	0.205592	0.201154	0.193594	0.198524	0.196388	0.197538
2350	0.202798	0.199511	0.193265	0.199182	0.200332	0.197703
2351	0.20214	0.203784	0.191457	0.201319	0.200497	0.19836
2352	0.199839	0.198689	0.19836	0.200497	0.197374	0.201976
2353	0.199182	0.199839	0.193758	0.201483	0.19836	0.198853
2354	0.199675	0.195402	0.197867	0.199346	0.199182	0.200332
2355	0.198031	0.198689	0.19458	0.199675	0.198524	0.19573
2356	0.200004	0.196388	0.196717	0.199675	0.198853	0.201319
2357	0.199839	0.195566	0.195073	0.200168	0.199839	0.192115
2358	0.19836	0.196552	0.194087	0.200332	0.199182	0.200332
2359	0.199675	0.193758	0.192443	0.201154	0.203455	0.200168
2360	0.20099	0.200332	0.19458	0.201812	0.200332	0.200661
2361	0.199511	0.197867	0.194087	0.195566	0.202305	0.198031
2362	0.202305	0.201319	0.194087	0.202305	0.20362	0.200497
2363	0.199182	0.199839	0.194909	0.198853	0.197045	0.199839
2364	0.20214	0.201154	0.189978	0.199182	0.199346	0.198524
2365	0.200497	0.196059	0.19458	0.197538	0.199511	0.198031
2366	0.201483	0.200497	0.193101	0.199182	0.199675	0.199182
2367	0.199839	0.196717	0.195566	0.197374	0.198524	0.200497
2368	0.199346	0.19721	0.192772	0.200332	0.200661	0.197045
2369	0.19573	0.196223	0.197538	0.199839	0.198853	0.197374
2370	0.197045	0.196388	0.192115	0.199839	0.200332	0.196223
2371	0.19573	0.196881	0.19458	0.201483	0.201319	0.199018
2372	0.195237	0.19458	0.194909	0.198196	0.199182	0.198689
2373	0.199182	0.195895	0.195073	0.201812	0.206578	0.199675
2374	0.194251	0.197374	0.195402	0.198853	0.198689	0.201647
2375	0.197703	0.197538	0.194416	0.19836	0.199839	0.200332
2376	0.199018	0.19458	0.192608	0.199182	0.20214	0.199018
2377	0.199675	0.196059	0.191457	0.202305	0.201154	0.198853
2378	0.198853	0.195895	0.194416	0.198689	0.199346	0.199346
2379	0.201319	0.197703	0.190307	0.199675	0.199182	0.19721
2380	0.200661	0.196059	0.195895	0.198031	0.198031	0.197045
2381	0.203291	0.197374	0.196059	0.199675	0.198524	0.197703
2382	0.198689	0.198196	0.196059	0.197867	0.201812	0.198196
2383	0.202469	0.199182	0.193922	0.193101	0.199346	0.196552
2384	0.203126	0.196552	0.197703	0.196717	0.205921	0.200825
2385	0.199018	0.195895	0.19573	0.198853	0.199182	0.199346
2386	0.197045	0.192279	0.194416	0.19573	0.200004	0.195566
2387	0.19721	0.193265	0.199018	0.197703	0.199346	0.197867
2388	0.199675	0.190471	0.196717	0.199018	0.200661	0.196881
2389	0.195895	0.1908	0.195073	0.197538	0.20099	0.19836
2390	0.197374	0.195237	0.195402	0.199018	0.20099	0.196881
2391	0.194909	0.191128	0.197538	0.199675	0.200332	0.197374
2392	0.198689	0.195566	0.196388	0.20099	0.198853	0.198689
2393	0.197538	0.197703	0.197374	0.19836	0.204113	0.196059
2394	0.202305	0.196881	0.195402	0.19458	0.199346	0.196552
2395	0.200661	0.19721	0.199839	0.197374	0.206085	0.202798
2396	0.199346	0.198689	0.196059	0.197867	0.197538	0.197374
2397	0.198524	0.196059	0.198524	0.195073	0.197703	0.198689
2398	0.201647	0.197374	0.198196	0.198853	0.199182	0.196717
2399	0.199182	0.198689	0.197703	0.202798	0.200661	0.198689
2400	0.201976	0.197538	0.198031	0.199182	0.199346	0.198031
2401	0.204934	0.200661	0.196881	0.199839	0.200825	0.197867
2402	0.19721	0.19721	0.193594	0.199182	0.200332	0.197703
2403	0.201154	0.195402	0.200168	0.20099	0.199511	0.199182
2404	0.20099	0.198689	0.198031	0.199182	0.201154	0.196223
2405	0.196881	0.196717	0.199511	0.199511	0.20099	0.193758
2406	0.197703	0.194909	0.199346	0.200168	0.205921	0.196881
2407	0.19721	0.198196	0.200168	0.201319	0.199182	0.194744
2408	0.197045	0.195073	0.197703	0.197867	0.201812	0.195566
2409	0.200332	0.197045	0.199346	0.20362	0.199018	0.193265
2410	0.195237	0.19458	0.19836	0.19836	0.203784	0.19721
2411	0.197867	0.197703	0.197867	0.198689	0.199018	0.197867
2412	0.196552	0.196881	0.198031	0.199839	0.199182	0.19836
2413	0.196223	0.197703	0.196717	0.200661	0.198031	0.198031
2414	0.199018	0.197538	0.197538	0.199018	0.198196	0.199675
2415	0.203126	0.201319	0.199511	0.197867	0.196552	0.196388
2416	0.199018	0.198524	0.20099	0.200497	0.197703	0.200332
2417	0.201812	0.199018	0.200497	0.199346	0.201647	0.19721
2418	0.201154	0.200004	0.199346	0.200332	0.196388	0.200661
2419	0.198689	0.196388	0.198689	0.201154	0.200661	0.199675
2420	0.19836	0.196717	0.198689	0.200168	0.200825	0.199346
2421	0.196223	0.194416	0.196552	0.198524	0.20214	0.198524
2422	0.196223	0.197703	0.197538	0.199675	0.197538	0.199346
2423	0.197703	0.195402	0.197045	0.200168	0.201647	0.197538
2424	0.196059	0.195895	0.197538	0.203784	0.198853	0.196388
2425	0.196881	0.195895	0.199018	0.200825	0.202469	0.19573
2426	0.198689	0.200004	0.19195	0.20214	0.198853	0.199839
2427	0.200168	0.19836	0.196059	0.201319	0.199839	0.199018
2428	0.199839	0.19836	0.19836	0.203948	0.20099	0.196717
2429	0.202633	0.198031	0.197703	0.201319	0.195402	0.200004
2430	0.202469	0.200332	0.196059	0.199675	0.19721	0.198524
2431	0.203948	0.195895	0.197374	0.199675	0.198853	0.197538
2432	0.201483	0.200497	0.198196	0.199675	0.202633	0.19836
2433	0.202633	0.197538	0.199182	0.199018	0.198196	0.200168
2434	0.199839	0.198196	0.200168	0.198689	0.199018	0.199182
2435	0.199839	0.198031	0.19836	0.19836	0.197867	0.201319
2436	0.200004	0.195402	0.195073	0.201976	0.199839	0.198196
2437	0.201154	0.197045	0.200497	0.202633	0.200004	0.202305
2438	0.202469	0.197867	0.194251	0.200497	0.197374	0.200332
2439	0.199346	0.198524	0.196717	0.20362	0.20214	0.201319
2440	0.198689	0.196552	0.19836	0.201483	0.197374	0.200004
2441	0.200825	0.198031	0.196059	0.202633	0.196388	0.19836
2442	0.198524	0.194744	0.201812	0.202633	0.197374	0.198853
2443	0.20099	0.197703	0.196388	0.200168	0.195073	0.197538
2444	0.199675	0.197045	0.197374	0.201154	0.196552	0.198853
2445	0.200497	0.198031	0.197374	0.202305	0.193594	0.19721
2446	0.200004	0.19836	0.199346	0.199182	0.193922	0.199511
2447	0.201647	0.197867	0.199018	0.20214	0.19721	0.19721
2448	0.202305	0.198524	0.201319	0.20099	0.196717	0.199346
2449	0.201154	0.197703	0.198689	0.197045	0.196717	0.198524
2450	0.20214	0.198689	0.200661	0.202633	0.200004	0.197703
2451	0.201319	0.199511	0.199675	0.195566	0.195237	0.199839
2452	0.202469	0.198031	0.198853	0.199839	0.195073	0.200332
2453	0.200497	0.194087	0.197045	0.199346	0.196388	0.196223
2454	0.200661	0.197538	0.195402	0.200332	0.193265	0.199675
2455	0.199346	0.194416	0.196059	0.199346	0.199511	0.197538
2456	0.201647	0.198853	0.197538	0.203126	0.194744	0.201483
2457	0.199346	0.198853	0.19836	0.201483	0.195566	0.199182
2458	0.20099	0.197867	0.200004	0.203784	0.198524	0.200332
2459	0.198196	0.197867	0.200004	0.201483	0.192936	0.200497
2460	0.201647	0.199346	0.194744	0.201483	0.193101	0.198689
2461	0.199346	0.197045	0.199675	0.20099	0.199675	0.19836
2462	0.200497	0.192443	0.198524	0.202633	0.192115	0.19836
2463	0.201976	0.155463	0.199675	0.201483	0.194087	0.198853
2464	0.200497	0.154477	0.199675	0.200332	0.192936	0.19573
2465	0.20214	0.156285	0.201319	0.199675	0.194416	0.199346
2466	0.198031	0.159079	0.200497	0.198524	0.19195	0.198689
2467	0.199511	0.013459	0.20477	0.20214	0.193101	0.199511
2468	0.201154	0.014773	0.199018	0.199018	0.193758	0.199346
2469	0.205099	0.022169	0.199839	0.202469	0.194416	0.197045
2470	0.200332	0.02332	0.198689	0.200825	0.196223	0.19721
2471	0.201483	0.030059	0.196552	0.201976	0.194909	0.199839
2472	0.200825	0.035975	0.197867	0.201483	0.202305	0.197045
2473	0.200661	0.044358	0.198031	0.201319	0.193265	0.198524
2474	0.200004	0.04896	0.200661	0.202469	0.195402	0.197867
2475	0.200004	0.054383	0.197538	0.201647	0.194087	0.197045
2476	0.198524	0.059643	0.197374	0.200825	0.195073	0.199839
2477	0.200497	0.069011	0.195237	0.200825	0.192443	0.198031
2478	0.201154	0.07197	0.196388	0.200497	0.195237	0.198524
2479	0.199675	0.077886	0.196552	0.202962	0.193265	0.19836
2480	0.200825	0.081009	0.197538	0.201647	0.192115	0.197703
2481	0.201154	0.085611	0.197374	0.198031	0.19721	0.201976
2482	0.199346	0.093665	0.198853	0.197703	0.197045	0.200332
2483	0.201319	0.096788	0.198196	0.198689	0.202305	0.195402
2484	0.199346	0.101718	0.202469	0.200497	0.195402	0.202633
2485	0.200168	0.105992	0.201647	0.195895	0.195895	0.196881
2486	0.201976	0.107635	0.197045	0.19836	0.195566	0.199182
2487	0.200825	0.112566	0.197867	0.201154	0.19573	0.195073
2488	0.205263	0.115689	0.194087	0.198853	0.196223	0.19573
2489	0.202633	0.117168	0.198689	0.201483	0.197867	0.198196
2490	0.202305	0.125386	0.196717	0.200332	0.199511	0.196717
2491	0.203126	0.123742	0.200004	0.202305	0.198031	0.196717
2492	0.200825	0.12933	0.198689	0.195895	0.197045	0.19721
2493	0.201319	0.132453	0.197703	0.199182	0.196388	0.19836
2494	0.202469	0.135904	0.197538	0.203291	0.199511	0.194909
2495	0.199182	0.136891	0.19721	0.201812	0.195895	0.199675
2496	0.200332	0.13837	0.19836	0.200497	0.192279	0.199018
2497	0.200332	0.141164	0.198689	0.201812	0.193101	0.200004
2498	0.198689	0.142807	0.19836	0.199346	0.195073	0.198853
2499	0.200332	0.147245	0.20099	0.200825	0.193101	0.200332
