Ladekurvenmessung

Zeit: 2018_05_04 10.04.45

Info: FVA3, v = 1.05, T = 23, F = 20, h = 591.0

Ladewiderstand[Ohm]: 1012700

Störkapazität[pF]: 0.000000

Entladezeit[ms]: 200

Abtastrate[Hz]: 250000

Anzahl der Messwerte: 2500.000000

Verzögerung[ms]: 1

Ladespannung[V]: 0.200000


	Kurve_1	Kurve_2	Kurve_3	Kurve_4	Kurve_5	Kurve_6
0	-0.020563	0.000639	0.000803	-0.000183	0.003104	0.000146
1	-0.016783	-0.001827	0.000803	0.001132	0.000967	0.006227
2	-0.017934	0.003433	0.00294	0.002447	0.00294	0.003597
3	-0.014482	-1.9e-05	-0.000183	0.001296	0.001954	0.002775
4	-0.020563	0.002447	-0.001991	-0.003635	0.004255	0.000639
5	-0.024508	0.001132	-0.000676	-0.000676	0.003104	0.001789
6	-0.018755	0.00031	0.001789	0.000474	0.001296	0.001296
7	-0.02007	0.000146	0.000639	0.002775	0.001132	-0.001334
8	-0.021221	-0.003963	0.002118	0.003926	-0.000676	0.000146
9	-0.020892	-0.000183	-0.001662	0.000967	0.001789	0.003433
10	-0.020563	0.002118	0.004583	0.003433	0.000803	-0.00232
11	-0.022536	-0.000841	0.000803	0.001625	0.00294	0.000803
12	-0.019413	-0.002977	0.00409	0.001954	-0.000841	0.000639
13	-0.019577	0.001132	0.00294	0.001132	0.007706	-0.001005
14	-0.020235	-0.001498	0.00146	0.002118	0.005241	0.000639
15	-0.022536	0.002282	0.007049	-0.000841	0.005569	-0.002155
16	-0.023193	-0.002813	0.002118	0.001132	0.002775	-0.002155
17	-0.021056	0.003268	0.001132	0.003433	0.003597	-0.000676
18	-0.019577	0.001625	0.000474	0.001296	0.002611	-0.001498
19	-0.021385	0.000146	-0.000347	0.003761	0.003761	-0.007086
20	-0.021385	-0.001827	0.001132	0.000146	0.000639	-0.000676
21	-0.019906	0.001296	-1.9e-05	-0.001169	0.002118	-0.002648
22	-0.023686	-0.001169	-0.001169	-0.002648	0.003268	-0.002155
23	-0.023357	0.002775	0.001954	0.003761	0.003104	-0.002648
24	-0.020892	-0.000512	0.000474	-0.002155	0.005569	-0.004621
25	-0.026316	0.001789	0.002447	0.003268	0.003433	-0.005607
26	-0.028288	0.000967	0.000474	-0.000676	0.000146	-0.001498
27	-0.021878	0.002447	0.003597	0.004583	0.000639	-0.001827
28	-0.024837	-0.000183	-0.001334	0.002447	-0.000347	-0.005114
29	-0.019413	0.002118	0.000474	0.000474	0.000474	-0.004785
30	-0.021221	0.001625	0.00146	0.003104	0.002775	-0.006429
31	-0.019577	-0.002813	0.000639	-1.9e-05	-0.001334	-0.002484
32	-0.019084	0.000803	0.002282	-0.001991	-0.001005	-0.004785
33	-0.01892	0.003926	-0.004292	-0.000512	0.00146	-0.001334
34	-0.015633	0.002447	-0.001498	0.003761	-0.002648	-0.003306
35	-0.017769	0.001789	-0.000183	0.001954	0.000639	-0.002155
36	-0.017441	0.002611	-0.002155	0.002118	0.003597	-0.004621
37	-0.015633	-0.001662	-0.001334	-0.002155	0.002775	-0.000512
38	-0.016126	-0.001005	0.00146	0.002775	0.002282	-0.00347
39	-0.019084	-0.00347	-0.001334	-0.000347	-0.000183	-0.000347
40	-0.014975	-0.000676	-0.000512	0.00294	0.004748	-0.00232
41	-0.016948	-0.001827	-0.002813	-0.000183	0.00031	-0.005936
42	-0.01251	-0.002977	0.00294	0.00146	0.000803	-0.004785
43	-0.010866	-0.001005	-1.9e-05	0.00146	0.000474	-0.001498
44	-0.011195	0.002611	0.00146	0.000474	0.001132	-0.005936
45	-0.011524	0.002447	-0.001005	0.00146	-0.000347	-0.001169
46	-0.009223	0.001789	0.002447	-0.001005	0.000474	-0.001991
47	-0.00725	0.002775	-0.000676	0.00031	0.004255	-0.007086
48	-0.007908	-0.000347	0.000639	-0.00347	0.000474	-0.00347
49	-0.008401	0.00294	0.003268	0.001954	0.003433	-0.003635
50	-0.004621	0.000967	-0.000347	0.000803	0.00146	0.000474
51	-0.003799	0.003104	0.002775	0.003104	0.00409	-0.006429
52	-0.005278	0.000803	0.001625	-0.00347	0.004255	-0.003306
53	-0.001991	-0.000841	0.001789	-0.001662	0.007213	-0.000676
54	-0.000676	-0.002484	-0.001498	-0.002484	0.009843	0.001625
55	0.000474	-0.001005	0.000639	0.007049	0.005569	-0.001334
56	-0.003306	-0.002977	-0.001991	0.003268	0.00031	-1.9e-05
57	0.000967	0.001132	0.00294	0.002447	0.004912	0.000146
58	-0.000676	0.000146	0.000803	0.001954	0.002447	-0.005443
59	0.001296	-0.002155	0.000967	-0.000512	0.002282	-0.002484
60	0.000639	0.00146	0.000803	-0.000841	0.002118	-0.002484
61	0.003926	0.002447	0.002611	-0.001005	0.00146	-0.002813
62	0.00146	-0.000841	0.001625	0.004583	0.000803	-0.001662
63	0.004419	-0.002648	0.001296	0.001296	-0.000183	-0.000841
64	0.004748	0.002447	0.003597	-0.001991	0.004748	-0.000512
65	0.006062	-0.001662	0.000803	-0.000841	0.00146	0.001132
66	0.004419	0.001296	-0.000512	0.00031	0.001954	-0.001498
67	0.008363	-0.000676	0.00294	-0.001169	0.000474	-0.001169
68	0.0105	0.002447	0.000967	0.000146	0.004255	0.000474
69	0.00935	-0.001005	-0.003635	-0.002484	0.002118	-0.000512
70	0.011486	-0.001005	0.00409	-1.9e-05	0.005405	0.001296
71	0.0105	0.001132	0.005734	-0.001827	0.002447	0.002611
72	0.010171	0.000474	-0.001005	-0.002155	0.005405	-0.000676
73	0.012308	-1.9e-05	-0.000347	-0.00232	0.00031	0.002282
74	0.014445	-1.9e-05	0.001954	0.000474	-0.000347	0.00031
75	0.013623	-0.000676	0.000146	-0.001662	0.005241	0.001296
76	0.018225	-0.001169	0.000803	-0.001334	0.003597	0.000474
77	0.012144	0.000803	0.00031	0.00146	0.003104	0.002611
78	0.017567	-0.000512	0.002611	0.001789	0.002118	-0.002155
79	0.017239	0.000146	0.00294	0.000474	0.003761	-0.003963
80	0.017732	-0.002813	0.000639	0.002282	0.001296	-0.004292
81	0.015595	-0.000841	0.001625	0.002447	0.003761	-0.005936
82	0.017896	-0.002977	0.004419	0.000803	0.001789	-0.000512
83	0.018389	0.002611	0.005734	0.002611	0.000474	-0.004621
84	0.01576	0.000474	-0.00232	0.002775	0.001625	-0.00232
85	0.021512	0.001132	0.002611	0.001954	0.001625	-0.003306
86	0.018225	0.001625	-0.000512	-0.000841	-0.000183	0.001132
87	0.018225	-0.002813	0.000639	0.002447	0.002775	-1.9e-05
88	0.015102	-1.9e-05	0.002775	-0.000347	0.00294	0.003597
89	0.021348	-0.001991	0.000967	-0.000183	0.003433	-0.002155
90	0.018225	-1.9e-05	0.000639	-1.9e-05	0.004748	-0.002155
91	0.021512	-0.004621	0.001296	0.000803	0.002775	-0.001169
92	0.019704	-0.00232	0.000967	-0.003142	0.004912	-0.001005
93	0.024635	-0.002648	-0.000347	0.00409	0.00294	-0.000512
94	0.021676	0.000967	-0.001662	0.001625	0.003433	-0.003142
95	0.023649	-0.002155	-0.005607	0.001954	0.00146	-1.9e-05
96	0.018225	-0.000512	-0.001334	0.003761	0.001789	-0.00347
97	0.021676	0.003597	0.001625	-0.000676	0.002611	-0.002484
98	0.022334	0.000474	-0.000183	0.002611	0.001789	-0.005607
99	0.020526	0.00031	0.001296	0.000967	0.000803	0.001296
100	0.022498	0.004748	0.004255	0.002447	0.001132	-0.005607
101	0.021512	-0.000183	0.002282	-0.000347	0.002447	-0.002977
102	0.02595	-0.000676	0.007377	-0.001005	0.002775	-0.001991
103	0.020526	-0.001169	0.002118	-0.004128	0.002447	-0.001498
104	0.02447	-0.000512	0.003433	0.001954	-0.001334	0.002611
105	0.02069	0.001296	0.004748	-0.003142	-0.001169	0.001132
106	0.024306	-0.001005	0.001789	-0.003306	0.001625	-0.001827
107	0.022498	-0.000512	0.002282	0.001625	0.000967	0.00146
108	0.022334	0.001625	0.002118	-0.001991	-0.000347	-0.001498
109	0.021348	-0.000347	0.00146	-0.000676	0.006391	-0.002977
110	0.020362	-0.001991	0.001954	0.001132	0.000146	-0.000841
111	0.023649	0.001954	0.000803	0.001132	-0.000183	-0.003963
112	0.020197	0.006062	0.001296	0.001132	0.00146	-0.000676
113	0.019375	0.000639	0.004912	0.003597	0.000967	-0.004785
114	0.019375	-0.002648	-0.000183	-0.000676	-0.001169	-0.00232
115	0.02069	0.002775	0.001132	0.002611	0.002282	-0.004785
116	0.01691	-0.000841	0.002118	0.000803	-0.002484	-0.001827
117	0.021348	0.001789	0.001789	0.00294	-0.001169	-0.00347
118	0.014116	-0.000347	0.000967	-0.000512	-0.001005	-0.00232
119	0.019375	0.002118	0.004583	0.001296	-0.003635	0.000474
120	0.01428	-0.000183	0.003597	0.001625	-0.001169	0.000474
121	0.017074	0.000474	0.006391	-0.000183	0.000803	0.001132
122	0.023649	0.000474	0.004255	-0.000841	-0.002484	-0.000676
123	0.01576	0.00031	-0.001169	-0.001169	0.002118	0.001625
124	0.018389	-0.003306	0.003597	-0.001498	0.001132	-0.001991
125	0.018061	-0.0061	0.008857	-0.001827	-0.003142	-0.000512
126	0.014609	-0.000347	0.002775	-1.9e-05	0.000474	-0.003142
127	0.012308	-0.002648	0.001954	0.000146	-0.001662	-0.000676
128	0.012472	0.000967	0.003761	0.002282	-0.002813	-0.002813
129	0.015266	-0.000676	0.000146	-0.001498	-0.001991	-0.000512
130	0.013623	-0.000512	0.004419	0.004255	-0.001169	-0.002813
131	0.011486	-0.00347	-0.000183	-0.001169	-0.004621	-0.002648
132	0.012144	0.000474	-0.001005	0.004419	-0.000841	-0.004456
133	0.014609	-0.000841	0.001625	0.002447	-0.00347	-0.001662
134	0.01313	-0.001827	0.001954	-0.001498	-0.001662	-0.002648
135	0.010336	-0.001169	-0.000676	0.002611	-0.002484	-0.005278
136	0.011651	-0.001005	0.005734	0.000474	-0.005771	0.000803
137	0.006556	0.004419	0.00146	-0.000512	-0.00232	-0.006757
138	0.00935	-0.002155	0.004419	0.001296	-0.004785	0.001625
139	0.008199	0.000967	0.002775	-0.001498	-0.004785	-0.004128
140	0.009021	-0.001498	0.002611	0.002775	-0.004621	0.000639
141	0.007049	0.003268	0.002447	-0.000512	-0.001334	0.000967
142	0.008199	-0.00347	0.001954	-0.001169	-0.002813	0.00294
143	0.006884	-0.000512	0.000474	0.001132	0.000474	-0.001991
144	0.010336	-0.002813	0.00146	-0.000841	-0.002813	-0.000676
145	0.007377	-0.002648	0.002611	0.00146	-0.000183	-0.001498
146	0.003926	-0.001827	-1.9e-05	-0.001169	-0.0061	-0.005278
147	0.010993	0.00409	0.003597	0.000639	0.000967	-0.004785
148	0.008692	0.001625	-0.000347	0.003268	-0.004292	-0.003799
149	0.008363	0.000803	0.000639	0.005241	-0.003306	-0.004949
150	0.006062	-0.000512	0.000474	-0.000183	-0.001827	-0.003799
151	0.004583	-0.000676	0.003268	0.002611	-0.001169	-0.002648
152	0.006884	0.003433	0.002775	-0.000512	-0.002155	-0.003142
153	0.001954	-0.001169	0.002775	0.003761	-0.002155	-0.001991
154	0.001132	0.00146	0.002282	0.000639	0.004583	-0.002155
155	0.005898	-0.001005	0.002118	0.000803	-0.002977	-0.000183
156	0.005734	0.001625	0.002775	0.003597	-0.002484	-0.001334
157	0.006884	-0.001169	0.00031	0.00031	-0.001498	-1.9e-05
158	0.004912	0.003597	0.002611	0.00031	-0.000512	0.001625
159	0.007377	0.00294	-0.001334	-0.000512	-0.001662	-0.001334
160	0.004748	-0.000347	0.001132	0.003104	-0.000512	-0.001334
161	0.001789	-0.002484	-0.001334	-0.002484	-0.002484	0.000146
162	0.007213	-0.002155	0.000146	-0.000841	-0.001498	-0.000347
163	0.00294	0.001296	-0.004292	-0.001827	-0.001169	0.001296
164	0.007213	-0.001169	-0.001827	0.000639	-0.001991	-0.000676
165	0.000967	0.000639	-0.001991	-0.001662	0.000639	-0.000512
166	0.005734	-0.002155	-0.004292	0.000639	0.001132	-0.003142
167	0.005734	-0.000676	-0.001827	-0.000841	-0.002977	-0.000183
168	0.003104	-0.002155	-0.004128	0.000639	-0.002484	-0.001827
169	0.003433	0.002611	-1.9e-05	0.000803	-0.001662	-0.001498
170	0.003597	0.002775	-0.001991	-0.001169	-0.001169	-1.9e-05
171	0.003433	0.000803	-0.001662	-0.001827	-0.002155	0.000474
172	-0.000512	-0.000512	-0.002155	-0.003963	-0.000676	-0.001991
173	0.00031	0.001954	-0.002977	-0.001334	0.000639	-0.001498
174	0.004419	-0.003306	-0.005278	-0.004949	-0.003306	-0.001005
175	-0.00232	-0.003142	-0.001334	-0.002977	-0.003142	-0.001498
176	0.002447	-0.001498	-0.003306	-0.001991	-0.001662	0.000146
177	0.00294	-0.000841	-0.008401	0.00031	0.003433	-0.000347
178	0.005734	-0.00347	-0.002484	-0.004621	0.000474	0.007706
179	0.001625	0.002118	-0.000347	-1.9e-05	0.000474	-0.000183
180	0.004912	0.007213	-0.005278	-0.001498	0.000474	0.000803
181	0.005076	0.00031	-0.005443	0.001296	-0.002813	0.002447
182	0.001132	-0.001498	-0.008894	-0.002813	-0.002155	0.00031
183	0.003268	-0.001334	-0.008565	-0.000512	-0.002813	-0.001662
184	0.000803	0.000639	-0.008401	0.002447	-0.002813	0.000474
185	0.003433	0.000146	-0.008894	-0.00725	-0.002813	-0.001498
186	-0.002155	-0.000676	-0.007579	-0.001662	-0.002155	-0.000183
187	0.002611	-0.000183	-0.004949	-0.005114	-0.001827	-0.000512
188	0.001789	-0.001005	-0.005607	-0.002155	-0.001005	-0.002977
189	-0.002648	-0.001334	-0.003635	-0.004456	-0.002977	0.006391
190	-0.000841	-0.000676	0.001625	-0.001991	0.000474	-0.001005
191	-0.001169	0.000967	-0.003306	-0.002977	-0.001334	0.002611
192	0.003926	0.003597	-0.003142	-0.001991	0.000474	0.003104
193	-0.004949	-0.002977	-0.003963	-0.003306	-0.00232	-0.000512
194	-0.001334	-0.005443	-0.00232	-0.002648	0.00146	0.000803
195	0.001296	-0.001662	-0.005443	-0.00232	0.000967	0.003268
196	0.000474	-0.001498	0.000967	-0.003142	-1.9e-05	-0.001991
197	0.001296	-0.000183	-0.001169	-0.003799	0.000803	0.001296
198	0.003268	-0.001991	-0.003142	-0.000512	-0.001334	-0.000676
199	0.005405	-0.001005	-0.009716	-1.9e-05	0.000146	-0.001169
200	0.004255	-0.003306	-0.005607	-0.002648	-0.002813	0.002447
201	-1.9e-05	0.002118	-0.005114	-0.001991	0.00294	-0.001991
202	0.000967	0.000146	-0.002813	0.001954	0.00031	-0.001005
203	0.001789	0.002611	-0.002484	0.002447	-0.000183	-0.000676
204	-0.000347	0.000474	-0.004128	-0.004128	-0.004949	0.000146
205	-0.003635	0.001625	-0.000183	0.003926	0.00409	0.00031
206	-0.004456	-1.9e-05	-0.006593	-0.012674	-0.001662	0.00146
207	-0.001991	0.000474	-0.001169	-0.009716	0.001132	-0.003635
208	-0.002813	0.002447	-0.003635	-0.004456	0.000639	0.002447
209	0.003597	0.002118	-0.000347	-0.002648	-0.000841	0.00409
210	0.002447	0.002775	-0.003635	-0.004292	0.001132	0.003104
211	-0.002648	-0.001827	-0.001169	-0.000347	0.001789	0.004255
212	0.000967	-0.004128	-0.000512	-0.002484	0.002775	0.003761
213	0.000474	-0.003142	0.00031	-0.001991	0.000639	-0.000841
214	-0.000347	0.000146	-0.002648	-0.000676	0.006884	0.000639
215	-0.002155	-0.004456	-0.00232	-0.001498	-0.001005	0.002447
216	-0.005936	-0.001991	-0.004128	-0.000183	0.000803	-0.002155
217	0.003761	-0.003635	-0.002648	-0.006922	0.000639	0.003433
218	-0.000841	0.002118	-0.002977	-0.00232	-0.001334	-0.000841
219	-0.000841	-0.002813	-0.003306	-0.001662	-0.001827	0.00146
220	0.003597	-0.000512	-0.000512	-0.002977	0.001625	0.000474
221	0.00031	-0.000347	-0.004128	-0.003635	-0.00347	0.000967
222	-0.003635	-0.000183	-1.9e-05	-0.002648	0.000639	-0.004785
223	-0.002484	-0.000841	-0.000347	-0.00232	-0.001662	-0.000183
224	-0.001005	-0.000512	-1.9e-05	-0.00232	-0.001005	-0.002648
225	-0.003963	0.002118	-0.001991	-0.002813	-0.011031	-0.000841
226	0.000474	-0.000512	0.000967	-0.002648	0.00031	-0.000183
227	0.00146	0.003104	-0.002155	-0.002155	0.000146	0.000639
228	0.00146	0.000967	-0.000841	-1.9e-05	0.00146	0.003104
229	0.000639	0.004255	-0.002977	-0.004456	-0.001498	0.002447
230	-0.000347	-0.000841	-0.000841	0.000146	0.000639	0.002775
231	0.005569	-0.000183	-0.000512	0.001789	-0.000512	0.00294
232	0.005569	0.000639	-0.001005	-0.000512	-0.001169	0.00294
233	-0.000347	-0.000347	-0.001005	-0.001169	0.002611	-0.001005
234	0.000639	-0.002813	-0.001169	-0.000347	-0.001662	0.001625
235	0.003268	0.001625	-0.002155	0.001625	-0.000841	-0.000183
236	0.000803	-0.00232	-0.004456	-0.002648	-0.008237	0.00146
237	0.000639	-0.002484	0.001789	-1.9e-05	0.000474	0.001132
238	-0.00232	-0.002155	-0.003799	-0.001991	-0.001662	0.00031
239	0.000474	-0.001662	-0.005443	-0.000347	0.00294	-0.000347
240	-0.001169	-0.001662	0.000803	-0.002648	-0.000841	0.000474
241	0.002447	0.000639	-0.000841	0.00031	0.000803	-0.00232
242	0.001296	-0.002813	-0.001827	0.00031	0.001296	-1.9e-05
243	0.004255	-0.001005	0.00294	0.000474	0.001132	0.000639
244	0.00031	0.005734	0.002118	-0.001498	0.001296	0.00031
245	0.00294	0.002118	0.002118	-0.000676	0.002447	0.00146
246	0.002118	-0.000676	0.000146	-0.002155	0.00294	0.00294
247	0.002447	-0.003963	0.003597	-0.000676	0.001789	0.00031
248	-0.000347	0.00031	0.001625	0.001625	0.001132	-0.001005
249	-0.001991	0.000967	-0.003963	-0.000347	0.000474	0.003268
250	0.001296	-0.001827	-0.004128	0.003433	0.00294	-0.001991
251	0.007049	0.003597	0.00146	0.002611	0.004748	0.008035
252	0.015924	0.012144	0.011322	0.013623	0.017567	0.013459
253	0.023813	0.017896	0.015924	0.017732	0.022334	0.02332
254	0.034003	0.025457	0.028415	0.026771	0.026771	0.029072
255	0.03614	0.033181	0.034989	0.034003	0.029566	0.038441
256	0.040742	0.04107	0.041399	0.04107	0.044686	0.03992
257	0.049781	0.047645	0.046823	0.047316	0.050932	0.049288
258	0.055698	0.05274	0.054548	0.057835	0.054055	0.05011
259	0.05915	0.060958	0.060958	0.061615	0.06293	0.059643
260	0.068682	0.066546	0.067696	0.067861	0.066053	0.067861
261	0.07197	0.071641	0.069997	0.077886	0.074764	0.070162
262	0.078873	0.079037	0.076736	0.077065	0.0769	0.079694
263	0.083639	0.080516	0.080516	0.08216	0.084789	0.083968
264	0.089063	0.08331	0.082817	0.086926	0.087748	0.08857
265	0.093007	0.08857	0.091692	0.093172	0.093172	0.092514
266	0.099582	0.09498	0.095308	0.095637	0.094815	0.100403
267	0.104841	0.098267	0.096952	0.102704	0.103033	0.101554
268	0.104019	0.102047	0.101554	0.103855	0.104677	0.107635
269	0.115853	0.103197	0.105992	0.109114	0.110265	0.107142
270	0.112237	0.110922	0.111087	0.114045	0.113059	0.113223
271	0.114867	0.114867	0.115195	0.116182	0.115524	0.117825
272	0.119797	0.117168	0.117003	0.115195	0.117825	0.115031
273	0.124564	0.119633	0.123742	0.12818	0.12292	0.119469
274	0.124235	0.126372	0.128015	0.127358	0.129001	0.130645
275	0.130645	0.125386	0.129495	0.128344	0.129001	0.121934
276	0.129166	0.131796	0.133932	0.130645	0.131302	0.128837
277	0.139192	0.140342	0.137712	0.136233	0.136233	0.135247
278	0.136726	0.140342	0.134918	0.138534	0.142807	0.134918
279	0.142643	0.135411	0.139356	0.138699	0.139849	0.141164
280	0.140506	0.140835	0.142972	0.140342	0.14593	0.142314
281	0.143136	0.141821	0.141493	0.144451	0.146423	0.146752
282	0.148067	0.145273	0.144944	0.150204	0.14856	0.147081
283	0.150368	0.149217	0.146588	0.148889	0.149053	0.150697
284	0.153491	0.148889	0.14856	0.156285	0.155627	0.152011
285	0.156449	0.150039	0.151025	0.155463	0.152505	0.157435
286	0.158421	0.155299	0.152669	0.157764	0.155956	0.157271
287	0.159243	0.15234	0.155627	0.155299	0.159408	0.160229
288	0.159079	0.154806	0.152998	0.162202	0.161544	0.159572
289	0.163681	0.156449	0.155463	0.161051	0.162037	0.158914
290	0.165489	0.158914	0.159079	0.163845	0.166475	0.158586
291	0.165324	0.157107	0.161709	0.169105	0.166804	0.164174
292	0.167461	0.162859	0.164831	0.167461	0.168776	0.165489
293	0.167625	0.166804	0.161873	0.169598	0.169433	0.167132
294	0.171734	0.164503	0.166311	0.168776	0.16894	0.170255
295	0.172227	0.169762	0.169762	0.174364	0.172392	0.169269
296	0.170091	0.16779	0.169105	0.172063	0.172556	0.17272
297	0.175186	0.169762	0.173378	0.170255	0.17535	0.17157
298	0.17272	0.171899	0.1742	0.176172	0.173542	0.175843
299	0.175021	0.17272	0.1742	0.176829	0.177815	0.176501
300	0.180281	0.174693	0.175843	0.173871	0.176994	0.176665
301	0.180774	0.173378	0.176336	0.177815	0.177322	0.175021
302	0.180938	0.1742	0.17535	0.173378	0.176172	0.179623
303	0.182746	0.176665	0.178637	0.177651	0.183239	0.178802
304	0.18176	0.17535	0.174528	0.178144	0.182417	0.18439
305	0.189978	0.177651	0.180116	0.179788	0.178637	0.183732
306	0.18176	0.17913	0.178473	0.183732	0.17913	0.183897
307	0.186198	0.177815	0.181267	0.183897	0.182089	0.183239
308	0.188499	0.183732	0.183075	0.187513	0.183239	0.184554
309	0.186198	0.181267	0.184225	0.184718	0.184225	0.184883
310	0.189978	0.181596	0.184061	0.186855	0.186855	0.183239
311	0.191786	0.183075	0.184718	0.185869	0.183897	0.186526
312	0.190142	0.184061	0.185869	0.185705	0.189649	0.18439
313	0.191293	0.183568	0.185047	0.187184	0.187019	0.187841
314	0.191457	0.189156	0.189978	0.187348	0.1908	0.188499
315	0.191457	0.186362	0.182582	0.186033	0.187841	0.189156
316	0.195402	0.188663	0.187677	0.189649	0.191293	0.189814
317	0.193922	0.185376	0.184061	0.186691	0.189814	0.193429
318	0.195073	0.185705	0.190635	0.186855	0.192279	0.189814
319	0.196552	0.186526	0.187513	0.184718	0.193101	0.193758
320	0.192115	0.186855	0.189156	0.186855	0.193429	0.19195
321	0.194251	0.188663	0.187348	0.18817	0.192936	0.193922
322	0.197538	0.188006	0.190142	0.188499	0.196717	0.193594
323	0.196552	0.187677	0.189814	0.189649	0.199675	0.19195
324	0.198689	0.187677	0.189649	0.190142	0.19573	0.196552
325	0.198853	0.190635	0.192279	0.192772	0.199346	0.1908
326	0.195566	0.188827	0.188334	0.196059	0.197045	0.196059
327	0.198196	0.187348	0.192279	0.195237	0.199346	0.195402
328	0.192115	0.189156	0.191457	0.194087	0.194909	0.193429
329	0.196059	0.195073	0.193922	0.198031	0.196881	0.193429
330	0.198031	0.190471	0.192115	0.195402	0.19721	0.196881
331	0.19721	0.196223	0.192115	0.194416	0.19573	0.195566
332	0.196881	0.193594	0.190471	0.193265	0.196717	0.200168
333	0.201319	0.193429	0.195895	0.196059	0.19721	0.193594
334	0.199839	0.192608	0.191457	0.188827	0.199018	0.197867
335	0.199182	0.191293	0.196717	0.197045	0.201319	0.195895
336	0.197538	0.192443	0.192115	0.197045	0.198031	0.197374
337	0.200497	0.195895	0.195402	0.194251	0.199182	0.197867
338	0.197703	0.19721	0.196223	0.196881	0.199182	0.197374
339	0.200004	0.198853	0.198689	0.19458	0.199675	0.200004
340	0.199346	0.195073	0.192115	0.196388	0.202962	0.20099
341	0.199346	0.193594	0.193922	0.195402	0.199675	0.20214
342	0.195566	0.1908	0.195402	0.197045	0.203455	0.199182
343	0.199675	0.189156	0.193922	0.196717	0.200825	0.206249
344	0.19573	0.193101	0.197045	0.196717	0.20099	0.195402
345	0.201154	0.193101	0.196059	0.194744	0.203126	0.196717
346	0.205099	0.193429	0.196059	0.198689	0.201812	0.19573
347	0.200332	0.195402	0.197374	0.196717	0.20099	0.199182
348	0.202962	0.197374	0.197538	0.198689	0.19836	0.193758
349	0.198853	0.194087	0.200004	0.197045	0.201976	0.199675
350	0.201812	0.19836	0.199511	0.193758	0.203455	0.201976
351	0.197703	0.194744	0.197374	0.192115	0.206578	0.202798
352	0.200497	0.195566	0.19836	0.192443	0.204606	0.200825
353	0.19721	0.19721	0.198524	0.19836	0.202798	0.202962
354	0.203291	0.195402	0.193429	0.195402	0.203948	0.199018
355	0.197374	0.196881	0.199511	0.19836	0.207235	0.203948
356	0.19836	0.19573	0.197045	0.195402	0.20214	0.202469
357	0.201483	0.196552	0.19836	0.193265	0.203455	0.200661
358	0.19721	0.197045	0.19721	0.192772	0.202962	0.201647
359	0.199839	0.194251	0.197045	0.195402	0.203455	0.20362
360	0.197703	0.193594	0.199675	0.197867	0.202633	0.20362
361	0.19721	0.197703	0.199182	0.197374	0.203291	0.201647
362	0.198689	0.195566	0.19721	0.196881	0.201319	0.203126
363	0.19836	0.19721	0.198689	0.19836	0.20214	0.203126
364	0.197045	0.197374	0.197045	0.195895	0.197703	0.210029
365	0.200661	0.199839	0.196881	0.197703	0.205099	0.193265
366	0.19721	0.199346	0.198196	0.196881	0.201647	0.205921
367	0.200168	0.203126	0.200497	0.195895	0.201976	0.204606
368	0.18439	0.200661	0.199511	0.196717	0.201483	0.203784
369	0.197374	0.197374	0.20099	0.195237	0.202469	0.206249
370	0.195402	0.199675	0.199675	0.196552	0.202305	0.205921
371	0.194416	0.19721	0.197867	0.194416	0.204277	0.206249
372	0.197703	0.20214	0.198689	0.196881	0.204606	0.20477
373	0.197703	0.19721	0.195402	0.193758	0.201976	0.20855
374	0.197867	0.195237	0.198031	0.198524	0.202469	0.207564
375	0.197374	0.193594	0.199511	0.196717	0.205263	0.207564
376	0.198689	0.198524	0.19573	0.194744	0.202633	0.200661
377	0.197538	0.196388	0.197374	0.195895	0.199675	0.207071
378	0.198853	0.199346	0.200661	0.19721	0.196717	0.206085
379	0.193265	0.195237	0.197045	0.197374	0.198196	0.207728
380	0.201647	0.198853	0.198853	0.201319	0.199346	0.205263
381	0.197538	0.199346	0.19721	0.197867	0.198031	0.209208
382	0.193265	0.198689	0.199018	0.198689	0.200004	0.201647
383	0.197374	0.206414	0.199511	0.199018	0.198689	0.207071
384	0.200332	0.19836	0.199182	0.196059	0.196223	0.208879
385	0.194909	0.19836	0.197703	0.19573	0.200661	0.201812
386	0.196881	0.198689	0.200825	0.197867	0.196552	0.206907
387	0.195073	0.197867	0.202305	0.197374	0.199018	0.20477
388	0.197703	0.196552	0.196717	0.196059	0.199675	0.204113
389	0.196881	0.195073	0.199675	0.196552	0.201812	0.20855
390	0.198031	0.195402	0.199839	0.197703	0.200661	0.210029
391	0.194909	0.200497	0.201976	0.200825	0.204441	0.208386
392	0.193758	0.195895	0.198524	0.196388	0.195895	0.213645
393	0.19458	0.198853	0.198196	0.199182	0.199675	0.209372
394	0.192936	0.186198	0.197703	0.197045	0.19836	0.208222
395	0.194909	0.196388	0.198524	0.19836	0.197374	0.20855
396	0.192608	0.197703	0.197867	0.196388	0.198853	0.208386
397	0.198031	0.196552	0.198853	0.198524	0.199182	0.209043
398	0.196388	0.198853	0.195237	0.198031	0.19836	0.207893
399	0.200004	0.199346	0.201976	0.199346	0.194416	0.204934
400	0.199182	0.197703	0.199675	0.198031	0.20214	0.206907
401	0.196059	0.199018	0.197867	0.199839	0.197538	0.210358
402	0.196059	0.201483	0.204934	0.201647	0.203455	0.208057
403	0.19458	0.198524	0.199839	0.199839	0.198524	0.209865
404	0.195073	0.199839	0.198524	0.198196	0.199675	0.210523
405	0.195402	0.191293	0.196388	0.196388	0.200332	0.209208
406	0.192936	0.197374	0.201812	0.195895	0.206907	0.21118
407	0.196881	0.196717	0.19458	0.194251	0.200004	0.211837
408	0.195895	0.199018	0.19721	0.199346	0.201483	0.210029
409	0.196223	0.196881	0.195566	0.20362	0.201483	0.21496
410	0.198524	0.198196	0.199511	0.200497	0.202305	0.207893
411	0.197703	0.19721	0.198031	0.196552	0.200168	0.212824
412	0.200332	0.197045	0.19721	0.200661	0.013294	0.209372
413	0.194909	0.199675	0.194416	0.199018	0.01954	0.209701
414	0.197538	0.196552	0.19458	0.198031	0.009678	0.206414
415	0.19721	0.198524	0.197867	0.200168	0.020197	0.200332
416	0.198689	0.200332	0.198031	0.200661	0.026114	0.206085
417	0.197538	0.197703	0.198524	0.200661	0.034661	0.210687
418	0.199018	0.196059	0.201154	0.196717	0.041235	0.208715
419	0.194416	0.199182	0.199182	0.198031	0.045672	0.210687
420	0.19458	0.197538	0.197703	0.197374	0.000639	0.210523
421	0.194744	0.198524	0.200168	0.19721	0.003268	0.208879
422	0.197045	0.19721	0.197867	0.197703	0.010664	0.209536
423	0.198031	0.195566	0.200332	0.20099	0.015431	0.208386
424	0.194416	0.199511	0.187019	0.19458	0.022334	0.211509
425	0.195895	0.198031	0.198031	0.197867	0.032195	0.207564
426	0.196223	0.198853	0.197867	0.195566	0.036962	0.212166
427	0.199511	0.197867	0.199675	0.200661	0.043536	0.208879
428	0.19721	0.197867	0.196388	0.196059	0.050768	0.212002
429	0.200825	0.196388	0.196223	0.198853	0.057177	0.209043
430	0.199346	0.197538	0.198031	0.201976	0.062273	0.206907
431	0.196881	0.198031	0.198196	0.200661	0.067861	0.206414
432	0.197703	0.199839	0.19836	0.198853	0.070326	0.209701
433	0.197703	0.198031	0.197703	0.201154	0.077393	0.202633
434	0.196223	0.198031	0.199839	0.203126	0.081009	0.202469
435	0.19721	0.201647	0.196717	0.198031	0.085118	0.211673
436	0.195566	0.200497	0.194251	0.198689	0.091035	0.202469
437	0.193594	0.200004	0.192443	0.200004	0.094322	0.208879
438	0.19836	0.202469	0.199511	0.201812	0.097938	0.203784
439	0.193594	0.198853	0.192443	0.199018	0.100239	0.20362
440	0.193429	0.202305	0.200497	0.200661	0.109114	0.200497
441	0.196881	0.196717	0.197703	0.199018	0.108621	0.206249
442	0.194087	0.199018	0.199182	0.200497	0.114702	0.203455
443	0.200004	0.199346	0.200004	0.199018	0.118154	0.206085
444	0.202305	0.19836	0.199839	0.196059	0.119304	0.200825
445	0.197045	0.198524	0.198524	0.20099	0.123578	0.199675
446	0.19721	0.198524	0.19836	0.200332	0.123906	0.200661
447	0.19836	0.199182	0.196552	0.201647	0.128837	0.196223
448	0.198853	0.199675	0.198196	0.199839	0.12933	0.196059
449	0.197867	0.198853	0.199346	0.202469	0.132946	0.194909
450	0.198689	0.198524	0.197703	0.200004	0.123742	0.196717
451	0.197703	0.199675	0.201319	0.202305	0.129823	0.192936
452	0.19721	0.199182	0.195895	0.205592	0.127687	0.194416
453	0.199675	0.200168	0.200004	0.204113	0.133768	0.191786
454	0.199675	0.197045	0.198031	0.198853	0.137548	0.197867
455	0.199675	0.200332	0.200332	0.201319	0.141986	0.191786
456	0.192936	0.198853	0.198524	0.200825	0.147081	0.192279
457	0.200497	0.201647	0.204277	0.200497	0.146752	0.191786
458	0.196223	0.203126	0.201483	0.200004	0.146423	0.192443
459	0.199018	0.198853	0.202305	0.202962	0.150532	0.192115
460	0.19836	0.200497	0.207235	0.197538	0.152833	0.190307
461	0.199346	0.20099	0.200168	0.195566	0.151354	0.192772
462	0.198689	0.198689	0.198196	0.201154	0.157764	0.189156
463	0.200168	0.199018	0.200825	0.195895	0.151518	0.189978
464	0.200661	0.198524	0.198031	0.201812	0.160229	0.193429
465	0.201976	0.197703	0.197538	0.201812	0.159243	0.194744
466	0.19836	0.201319	0.198196	0.201319	0.160722	0.184225
467	0.199675	0.204606	0.199182	0.201483	0.16138	0.188663
468	0.200168	0.202633	0.20214	0.204277	0.164831	0.182911
469	0.19836	0.206249	0.193429	0.201483	0.161873	0.186198
470	0.199018	0.202962	0.199839	0.20362	0.165817	0.184883
471	0.196881	0.199018	0.199018	0.199018	0.162859	0.183404
472	0.196552	0.202798	0.198524	0.199018	0.165324	0.01313
473	0.192608	0.201976	0.199839	0.200004	0.165324	0.023649
474	0.197045	0.194744	0.201154	0.197374	0.166146	0.031702
475	0.195073	0.203455	0.199182	0.196223	0.170748	0.036797
476	0.200332	0.198196	0.198524	0.202469	0.170091	0.046494
477	0.19721	0.199182	0.200497	0.201976	0.1742	0.049124
478	0.198524	0.199346	0.200332	0.203126	0.176994	0.05389
479	0.201812	0.199839	0.199346	0.201976	0.177322	0.058492
480	0.199018	0.199182	0.198524	0.201154	0.17272	0.066875
481	0.196881	0.200661	0.195566	0.205921	0.176172	0.068847
482	0.19836	0.197538	0.196059	0.20214	0.176336	0.074764
483	0.199182	0.201483	0.199346	0.201483	0.175021	0.080681
484	0.198196	0.197045	0.195237	0.20099	0.176172	0.091857
485	0.201483	0.198031	0.200004	0.202962	0.177815	0.089391
486	0.199182	0.197867	0.199839	0.197538	0.174857	0.090871
487	0.197867	0.197045	0.199675	0.199675	0.183404	0.096294
488	0.196059	0.196059	0.20099	0.203291	0.179459	0.100075
489	0.200004	0.196552	0.20214	0.201976	0.180774	0.100896
490	0.196881	0.193101	0.199346	0.204113	0.179788	0.108457
491	0.197703	0.195402	0.201647	0.201319	0.180445	0.114045
492	0.197867	0.201154	0.199018	0.200497	0.182746	0.114374
493	0.198689	0.197374	0.20099	0.199018	0.182089	0.11914
494	0.199346	0.205263	0.200332	0.199018	0.184718	0.124071
495	0.203126	0.196388	0.199346	0.198196	0.187019	0.124564
496	0.196223	0.199839	0.199675	0.200332	0.188827	0.126043
497	0.201319	0.19721	0.198689	0.198196	0.184718	0.130152
498	0.199182	0.200497	0.200661	0.201483	0.189978	0.130809
499	0.197867	0.19836	0.19836	0.201319	0.190471	0.136233
500	0.204441	0.199675	0.200497	0.201483	0.18932	0.135576
501	0.200004	0.198689	0.198196	0.203784	0.18932	0.140506
502	0.200497	0.199511	0.200497	0.20362	0.187841	0.143301
503	0.200661	0.19573	0.195566	0.202962	0.186198	0.146916
504	0.201483	0.199182	0.201483	0.20099	0.187184	0.144615
505	0.19721	0.201976	0.198524	0.199018	0.184883	0.15119
506	0.198196	0.199018	0.199511	0.200332	0.188499	0.151518
507	0.199675	0.198853	0.198031	0.200332	0.191128	0.152669
508	0.200497	0.19836	0.196881	0.19836	0.188992	0.154477
509	0.201319	0.200168	0.197045	0.195073	0.19721	0.156942
510	0.200332	0.198689	0.195895	0.198524	0.190635	0.159736
511	0.201154	0.201976	0.197374	0.199675	0.191128	0.159736
512	0.20477	0.198031	0.199346	0.199018	0.194416	0.160229
513	0.200332	0.202633	0.198689	0.198853	0.1908	0.163023
514	0.201647	0.199346	0.197867	0.19721	0.190307	0.163681
515	0.201319	0.199511	0.200332	0.20362	0.19458	0.166639
516	0.20099	0.19573	0.199346	0.194416	0.19195	0.1742
517	0.202962	0.19836	0.19721	0.199511	0.19573	0.170748
518	0.200168	0.195402	0.196059	0.197703	0.193429	0.172227
519	0.202633	0.194087	0.199839	0.199018	0.194087	0.173378
520	0.201647	0.20099	0.197374	0.197867	0.192608	0.171406
521	0.200825	0.199511	0.197703	0.201976	0.193594	0.17157
522	0.198853	0.198853	0.198689	0.200332	0.186691	0.174693
523	0.201976	0.199346	0.201319	0.198196	0.191293	0.173378
524	0.198524	0.199675	0.201319	0.198524	0.19195	0.179459
525	0.199018	0.199018	0.202305	0.19721	0.191457	0.175515
526	0.198689	0.200168	0.19573	0.201812	0.19573	0.179623
527	0.202305	0.197703	0.200497	0.197703	0.193265	0.179788
528	0.199675	0.200168	0.198853	0.199346	0.197867	0.177158
529	0.202798	0.199346	0.197045	0.197703	0.194087	0.18061
530	0.202962	0.199346	0.200168	0.197703	0.195895	0.180774
531	0.202962	0.198524	0.196881	0.195895	0.194251	0.183075
532	0.200004	0.200825	0.197703	0.201976	0.196881	0.181924
533	0.204113	0.199839	0.197538	0.199182	0.194416	0.184061
534	0.207071	0.198196	0.19573	0.200825	0.19836	0.180938
535	0.201647	0.197867	0.196717	0.196388	0.197045	0.185212
536	0.203291	0.197045	0.19573	0.194087	0.194744	0.191786
537	0.201483	0.194744	0.198853	0.204277	0.195237	0.189485
538	0.200825	0.197538	0.197045	0.198524	0.193922	0.187677
539	0.20099	0.196059	0.200168	0.197374	0.199675	0.188827
540	0.200661	0.199675	0.20362	0.200497	0.196717	0.186691
541	0.201154	0.202962	0.200332	0.200004	0.198853	0.189156
542	0.201319	0.197703	0.201976	0.19721	0.196717	0.191128
543	0.20214	0.199839	0.200332	0.203784	0.201812	0.184883
544	0.205099	0.200004	0.200825	0.195402	0.193265	0.187841
545	0.202798	0.202305	0.201154	0.199675	0.199018	0.187513
546	0.201319	0.200332	0.199018	0.198524	0.197538	0.18817
547	0.205099	0.20099	0.199839	0.198689	0.197867	0.189485
548	0.202305	0.203126	0.19836	0.201154	0.196059	0.192608
549	0.202469	0.201319	0.199675	0.198689	0.199511	0.197703
550	0.202305	0.19721	0.19836	0.19721	0.200661	0.192443
551	0.204277	0.197374	0.198031	0.202469	0.201483	0.192936
552	0.204934	0.199018	0.19721	0.201812	0.200825	0.197045
553	0.202469	0.197374	0.199675	0.199675	0.199839	0.194744
554	0.201976	0.199511	0.197703	0.200497	0.199018	0.192115
555	0.206578	0.197703	0.199839	0.199182	0.197538	0.194416
556	0.202962	0.202305	0.198031	0.199346	0.200168	0.193101
557	0.204441	0.201319	0.19573	0.198689	0.198689	0.193101
558	0.202469	0.199018	0.199675	0.200004	0.200825	0.193429
559	0.20362	0.196059	0.199675	0.193758	0.196717	0.19836
560	0.20099	0.201976	0.201812	0.199511	0.205263	0.192772
561	0.200825	0.198524	0.204113	0.204934	0.197374	0.19573
562	0.20214	0.20214	0.202633	0.200332	0.201647	0.192608
563	0.19721	0.201812	0.198031	0.199346	0.201154	0.199839
564	0.203455	0.199511	0.202798	0.199675	0.202798	0.197703
565	0.201647	0.204113	0.197045	0.199018	0.199182	0.192279
566	0.202962	0.199839	0.200661	0.198853	0.202633	0.19836
567	0.204113	0.197867	0.200004	0.198524	0.21233	0.197538
568	0.201976	0.200497	0.199839	0.198689	0.200661	0.197045
569	0.200497	0.196223	0.19721	0.195237	0.203948	0.201483
570	0.201976	0.19458	0.198524	0.190471	0.203784	0.201154
571	0.204277	0.200332	0.197538	0.19721	0.201647	0.196717
572	0.203455	0.194909	0.201154	0.196552	0.197703	0.199018
573	0.199839	0.199018	0.200332	0.19721	0.201647	0.197374
574	0.201154	0.197045	0.196552	0.200168	0.200168	0.197867
575	0.199839	0.199018	0.202469	0.198853	0.202798	0.195073
576	0.202305	0.199182	0.198689	0.198196	0.20214	0.19721
577	0.202469	0.199018	0.201976	0.19836	0.203455	0.195566
578	0.199839	0.200661	0.199018	0.197867	0.20362	0.199839
579	0.199839	0.201812	0.199346	0.201154	0.197374	0.19721
580	0.198196	0.198689	0.201647	0.200004	0.202798	0.194087
581	0.200332	0.200004	0.198689	0.191293	0.203948	0.202798
582	0.19721	0.20099	0.197867	0.192115	0.206085	0.198196
583	0.207071	0.199346	0.197867	0.199346	0.202962	0.19458
584	0.19836	0.199182	0.197867	0.19721	0.20099	0.196223
585	0.200825	0.198689	0.201976	0.197867	0.201976	0.20099
586	0.201154	0.198689	0.194909	0.192443	0.204934	0.195566
587	0.200661	0.20099	0.200004	0.198031	0.202798	0.197374
588	0.200497	0.200825	0.200168	0.198196	0.202962	0.198031
589	0.199675	0.196059	0.19458	0.197703	0.196881	0.199346
590	0.201647	0.200497	0.19836	0.201154	0.202305	0.197703
591	0.199182	0.194416	0.198031	0.201319	0.200825	0.199839
592	0.197703	0.193429	0.200661	0.196223	0.201154	0.199839
593	0.197867	0.199839	0.199839	0.196059	0.200825	0.201483
594	0.201976	0.197703	0.200661	0.200332	0.204277	0.195402
595	0.19836	0.196552	0.198689	0.198853	0.200168	0.198031
596	0.202305	0.198689	0.199675	0.201154	0.200825	0.198524
597	0.200004	0.198853	0.201319	0.199018	0.201976	0.19721
598	0.200825	0.200004	0.201976	0.200825	0.200825	0.196552
599	0.19836	0.198196	0.199675	0.196717	0.203948	0.199346
600	0.200661	0.199182	0.201319	0.202469	0.1908	0.199839
601	0.197374	0.201319	0.201319	0.199346	0.201647	0.199675
602	0.201154	0.198689	0.199511	0.204277	0.202305	0.202633
603	0.199675	0.200661	0.200004	0.19836	0.203455	0.200332
604	0.202633	0.195895	0.199018	0.194251	0.201812	0.20477
605	0.203455	0.201647	0.199839	0.199346	0.20362	0.198031
606	0.201319	0.198524	0.198524	0.197703	0.200168	0.203948
607	0.198853	0.199346	0.205263	0.198689	0.201647	0.198031
608	0.201976	0.19836	0.200661	0.198031	0.203948	0.199346
609	0.202962	0.197538	0.201976	0.199511	0.20214	0.198196
610	0.197374	0.198524	0.202469	0.198853	0.20214	0.199675
611	0.200004	0.20099	0.199511	0.203948	0.195237	0.197374
612	0.20214	0.203126	0.197045	0.196388	0.198524	0.200332
613	0.198524	0.200661	0.197538	0.199346	0.201812	0.195402
614	0.196552	0.197703	0.198853	0.199182	0.204277	0.200497
615	0.201647	0.195895	0.198853	0.196059	0.201812	0.198689
616	0.19721	0.200661	0.198689	0.197867	0.202305	0.195402
617	0.201154	0.199511	0.199346	0.199346	0.203455	0.199675
618	0.199839	0.199675	0.198853	0.19836	0.201976	0.197538
619	0.199675	0.201319	0.200168	0.196388	0.202305	0.200661
620	0.201483	0.19836	0.200497	0.196717	0.205263	0.199346
621	0.199675	0.19721	0.199346	0.196388	0.199511	0.20099
622	0.205263	0.201319	0.198031	0.197867	0.198031	0.199182
623	0.200004	0.195237	0.198853	0.19195	0.201647	0.200661
624	0.200168	0.199839	0.199182	0.200004	0.203126	0.199182
625	0.199511	0.19836	0.196388	0.201154	0.204277	0.198853
626	0.199346	0.198853	0.198853	0.194251	0.203948	0.198689
627	0.199182	0.19836	0.197703	0.197703	0.199675	0.201647
628	0.20099	0.199675	0.200661	0.199839	0.204934	0.199018
629	0.20099	0.200497	0.199346	0.198031	0.201976	0.200004
630	0.200661	0.199018	0.199018	0.198853	0.205592	0.198196
631	0.196388	0.197867	0.200661	0.200168	0.206249	0.19836
632	0.197538	0.196388	0.198524	0.199182	0.201976	0.200497
633	0.199018	0.201154	0.197045	0.200004	0.201976	0.196552
634	0.19573	0.198853	0.198689	0.194744	0.200661	0.204113
635	0.196717	0.199182	0.203948	0.196223	0.20099	0.201812
636	0.197045	0.20099	0.19721	0.197374	0.200661	0.20214
637	0.199839	0.202798	0.197374	0.191293	0.202962	0.201976
638	0.196881	0.199018	0.199675	0.198853	0.202469	0.204441
639	0.201154	0.200661	0.198524	0.198031	0.205921	0.199018
640	0.198031	0.195566	0.194416	0.196059	0.203948	0.201976
641	0.199839	0.194251	0.198031	0.197045	0.206742	0.201483
642	0.194251	0.199346	0.200004	0.197045	0.203948	0.199839
643	0.196881	0.199346	0.199182	0.200004	0.206742	0.200168
644	0.194744	0.197867	0.197867	0.196059	0.20362	0.200004
645	0.20099	0.200004	0.200661	0.199675	0.204113	0.197045
646	0.19721	0.201812	0.198524	0.197538	0.203784	0.198689
647	0.198689	0.196059	0.199675	0.199839	0.206249	0.200168
648	0.198031	0.201319	0.198524	0.196552	0.20477	0.196059
649	0.197045	0.199675	0.200168	0.195566	0.204277	0.198524
650	0.201483	0.200004	0.201976	0.196552	0.204934	0.19836
651	0.199675	0.199346	0.200661	0.197538	0.202633	0.202305
652	0.201154	0.200332	0.201319	0.200497	0.202962	0.20099
653	0.19836	0.198853	0.199182	0.195895	0.201483	0.200168
654	0.198524	0.200332	0.201812	0.195895	0.205263	0.200168
655	0.19836	0.201647	0.199511	0.194087	0.202305	0.199675
656	0.19573	0.200497	0.204113	0.197374	0.199511	0.197867
657	0.199839	0.198524	0.201812	0.19195	0.203291	0.202469
658	0.197538	0.199182	0.199511	0.196059	0.204113	0.199839
659	0.198689	0.20099	0.19836	0.194416	0.202305	0.20214
660	0.20099	0.198853	0.202469	0.196059	0.202962	0.201319
661	0.200497	0.198031	0.198031	0.195566	0.203126	0.202633
662	0.201976	0.199018	0.201647	0.193101	0.203948	0.198031
663	0.197867	0.199346	0.202469	0.193758	0.201319	0.202798
664	0.199018	0.199018	0.199839	0.195895	0.201483	0.201154
665	0.19836	0.198853	0.203455	0.19573	0.204441	0.199675
666	0.19836	0.200168	0.20099	0.197374	0.200332	0.202469
667	0.197538	0.199675	0.200497	0.197045	0.201976	0.199346
668	0.195237	0.19721	0.199346	0.197045	0.199018	0.198689
669	0.198196	0.20477	0.201154	0.193922	0.204441	0.199182
670	0.200497	0.204934	0.198853	0.193265	0.199511	0.199182
671	0.19721	0.19721	0.202633	0.19458	0.199839	0.200332
672	0.195895	0.200004	0.198196	0.193594	0.198196	0.200661
673	0.202469	0.200168	0.199675	0.194251	0.20099	0.198853
674	0.196388	0.199839	0.201154	0.191457	0.004255	0.203291
675	0.201976	0.198853	0.200497	0.198689	0.012801	0.199018
676	0.198524	0.200661	0.197538	0.196717	0.018389	0.200168
677	0.200497	0.199839	0.201154	0.199018	0.03236	0.201976
678	0.19836	0.197045	0.198524	0.198689	0.031867	0.200004
679	0.199511	0.196552	0.198196	0.197538	0.040249	0.20099
680	0.20099	0.201647	0.196552	0.197374	0.048467	0.200004
681	0.19721	0.199346	0.195073	0.194744	0.05011	0.195237
682	0.200825	0.199675	0.200168	0.196717	0.053562	0.20099
683	0.198524	0.198524	0.194909	0.195566	0.062437	0.206578
684	0.196388	0.200168	0.198196	0.196059	0.067039	0.199675
685	0.198196	0.20214	0.200661	0.191128	0.069669	0.206249
686	0.198524	0.204441	0.200497	0.200497	0.07953	0.198524
687	0.195237	0.197703	0.200661	0.196717	0.084789	0.20099
688	0.199346	0.200661	0.200497	0.197538	0.091528	0.196388
689	0.198196	0.200661	0.199018	0.196552	0.093007	0.200661
690	0.195895	0.19721	0.199675	0.200661	0.098924	0.201483
691	0.197045	0.20362	0.198031	0.191786	0.100896	0.198031
692	0.197374	0.202962	0.199018	0.196388	0.108457	0.197867
693	0.196059	0.201154	0.197374	0.197703	0.110593	0.201319
694	0.201647	0.198196	0.198689	0.19458	0.112073	0.203291
695	0.198031	0.197867	0.199182	0.200332	0.115853	0.200332
696	0.200004	0.196388	0.197374	0.196059	0.11799	0.209208
697	0.199511	0.201483	0.202469	0.198031	0.126536	0.197703
698	0.199839	0.199839	0.195402	0.197538	0.127194	0.198689
699	0.201647	0.199346	0.202633	0.198689	0.127029	0.197045
700	0.196388	0.200168	0.198853	0.196552	0.128508	0.199511
701	0.199675	0.199018	0.199839	0.197374	0.132124	0.198196
702	0.201483	0.198853	0.200825	0.199839	0.134754	0.198853
703	0.19836	0.203126	0.202798	0.200497	0.137219	0.192279
704	0.197374	0.198853	0.20099	0.19721	0.141493	0.200004
705	0.197867	0.19836	0.202305	0.197703	0.139356	0.199675
706	0.193265	0.201319	0.202305	0.196552	0.140506	0.200661
707	0.199018	0.198031	0.200332	0.196223	0.147903	0.19836
708	0.199018	0.199018	0.199018	0.194744	0.149546	0.200004
709	0.200004	0.198853	0.199511	0.197538	0.149217	0.201483
710	0.200825	0.19836	0.199346	0.19721	0.153655	0.197867
711	0.198196	0.197703	0.199182	0.197703	0.152833	0.20099
712	0.198689	0.19836	0.201154	0.198031	0.155792	0.200332
713	0.198031	0.196881	0.196717	0.195895	0.157107	0.201483
714	0.202469	0.201812	0.197703	0.201976	0.158586	0.197703
715	0.196059	0.196388	0.197538	0.198524	0.157928	0.204441
716	0.199839	0.195237	0.199839	0.199182	0.159079	0.200825
717	0.195566	0.198524	0.199182	0.198196	0.159408	0.202798
718	0.197867	0.197045	0.201154	0.199511	0.164174	0.187513
719	0.200332	0.196059	0.199018	0.1908	0.162859	0.200168
720	0.199346	0.200332	0.201647	0.199511	0.164996	0.19458
721	0.196717	0.195566	0.198853	0.197045	0.166475	0.200168
722	0.192115	0.195895	0.20362	0.196881	0.163845	0.196881
723	0.192772	0.199675	0.200497	0.193758	0.168776	0.202305
724	0.196223	0.195895	0.200332	0.196223	0.169598	0.200497
725	0.195402	0.193265	0.198689	0.199018	0.172556	0.199018
726	0.193922	0.19195	0.197045	0.197867	0.169105	0.202798
727	0.200661	0.188334	0.199511	0.198853	0.176336	0.20099
728	0.194909	0.194416	0.198853	0.199346	0.17272	0.20214
729	0.195895	0.192936	0.200004	0.198524	0.178144	0.196552
730	0.200004	0.188992	0.197703	0.193594	0.176665	0.199675
731	0.198031	0.190964	0.198031	0.201812	0.177322	0.198689
732	0.196552	0.186526	0.197538	0.19836	0.17272	0.203948
733	0.198196	0.188992	0.204934	0.20099	0.180774	0.199346
734	0.195073	0.188827	0.197703	0.197374	0.176501	0.199018
735	0.197045	0.194909	0.19836	0.203291	0.178144	0.196223
736	0.197538	0.190142	0.202633	0.203291	0.177815	0.199182
737	0.197867	0.186198	0.198853	0.201647	0.180116	0.197867
738	0.191621	0.188334	0.199675	0.203455	0.183732	0.19573
739	0.19573	0.187184	0.204934	0.198524	0.182582	0.202633
740	0.197867	0.188499	0.203126	0.200168	0.184718	0.199346
741	0.193922	0.184883	0.198853	0.201976	0.183732	0.200497
742	0.194744	0.187184	0.200168	0.201154	0.182911	0.201647
743	0.195402	0.178637	0.198689	0.199018	0.186198	0.199675
744	0.196717	0.186855	0.200497	0.200661	0.191128	0.19721
745	0.194416	0.187184	0.198031	0.200168	0.183239	0.200168
746	0.199018	0.185047	0.19836	0.201976	0.185047	0.196717
747	0.197867	0.186691	0.199182	0.201647	0.187184	0.20099
748	0.197538	0.188334	0.198853	0.200825	0.187513	0.196881
749	0.196059	0.184225	0.198524	0.199675	0.188499	0.200332
750	0.200332	0.186855	0.20099	0.201647	0.16894	0.199511
751	0.197045	0.186033	0.197867	0.197703	0.169269	0.199839
752	0.200004	0.185869	0.197867	0.199182	0.169105	0.196059
753	0.198689	0.188663	0.199675	0.205921	0.170913	0.198524
754	0.197538	0.185376	0.20099	0.202633	0.171241	0.200497
755	0.19836	0.18932	0.19836	0.20477	0.174364	0.19836
756	0.19836	0.188827	0.199675	0.203784	0.173542	0.200168
757	0.198031	0.189649	0.195566	0.202962	0.176172	0.199346
758	0.199018	0.187841	0.197703	0.20477	0.177322	0.201319
759	0.196388	0.188006	0.201319	0.202962	0.179295	0.201319
760	0.196059	0.187019	0.198689	0.20362	0.182417	0.200497
761	0.197045	0.186033	0.202962	0.202962	0.181924	0.19836
762	0.199839	0.187841	0.199346	0.20099	0.182582	0.201812
763	0.196717	0.187513	0.197538	0.206249	0.184225	0.198031
764	0.199182	0.187513	0.197703	0.206907	0.181596	0.203455
765	0.200497	0.188663	0.20099	0.207071	0.186033	0.200332
766	0.197374	0.189649	0.194416	0.202469	0.185869	0.204441
767	0.200004	0.188499	0.198524	0.205427	0.18554	0.203455
768	0.197374	0.190307	0.197045	0.201647	0.184061	0.198689
769	0.198689	0.18932	0.197538	0.205099	0.186198	0.201319
770	0.195402	0.192772	0.197703	0.20362	0.187348	0.200332
771	0.199511	0.192115	0.199675	0.205427	0.185376	0.199675
772	0.198853	0.192443	0.200168	0.202798	0.182911	0.20099
773	0.194909	0.192608	0.198031	0.195402	0.185869	0.200825
774	0.19458	0.192936	0.200497	0.20477	0.189485	0.199182
775	0.20099	0.190964	0.200497	0.201319	0.18817	0.201647
776	0.193594	0.192772	0.200004	0.208222	0.190471	0.200004
777	0.195895	0.196059	0.19721	0.202469	0.19458	0.199346
778	0.20099	0.195895	0.20099	0.208386	0.190307	0.196059
779	0.195895	0.190964	0.198524	0.203291	0.189649	0.204113
780	0.199018	0.195237	0.20099	0.206907	0.191293	0.198853
781	0.197703	0.193101	0.195566	0.207564	0.191293	0.204113
782	0.199675	0.192443	0.196717	0.203455	0.194744	0.199675
783	0.197867	0.192443	0.198689	0.205427	0.194087	0.197867
784	0.199182	0.193265	0.199018	0.20855	0.195237	0.198689
785	0.204277	0.192936	0.197045	0.209701	0.192936	0.201154
786	0.202305	0.196552	0.196223	0.207728	0.194744	0.197374
787	0.201483	0.19195	0.199675	0.205592	0.19573	0.198853
788	0.198031	0.194744	0.198853	0.210523	0.197045	0.201154
789	0.199018	0.192936	0.202305	0.210029	0.194744	0.205099
790	0.201976	0.192772	0.20099	0.206578	0.195566	0.201976
791	0.199675	0.196223	0.19836	0.209208	0.196881	0.199675
792	0.196059	0.192936	0.198853	0.205921	0.195073	0.20362
793	0.197045	0.193922	0.202469	0.209208	0.197703	0.195895
794	0.198524	0.196552	0.196717	0.205756	0.196059	0.199182
795	0.201976	0.198853	0.200497	0.206742	0.198689	0.199182
796	0.200004	0.196388	0.20099	0.206085	0.194744	0.202469
797	0.200661	0.19721	0.199182	0.207893	0.200332	0.199511
798	0.201976	0.199018	0.199018	0.2074	0.196717	0.197703
799	0.202469	0.19721	0.200825	0.206578	0.197538	0.200497
800	0.200661	0.19721	0.197703	0.208222	0.199675	0.200825
801	0.202305	0.195566	0.199511	0.2074	0.198524	0.201976
802	0.202305	0.199839	0.198524	0.204934	0.197045	0.199511
803	0.202962	0.19458	0.199839	0.203948	0.196881	0.202469
804	0.200825	0.197867	0.19721	0.209043	0.197538	0.200825
805	0.202962	0.196388	0.198196	0.206085	0.197045	0.201154
806	0.200825	0.19573	0.195402	0.207564	0.200004	0.200332
807	0.203291	0.195402	0.195073	0.206742	0.198031	0.203291
808	0.201319	0.19721	0.198524	0.20855	0.197867	0.196223
809	0.201647	0.197867	0.200825	0.204277	0.197867	0.205756
810	0.20099	0.199018	0.204277	0.209043	0.199346	0.20099
811	0.199839	0.199182	0.197045	0.208879	0.197045	0.201154
812	0.202798	0.200004	0.201812	0.205592	0.197867	0.201319
813	0.199675	0.198031	0.197045	0.205756	0.198524	0.201812
814	0.204441	0.193922	0.201976	0.208879	0.196717	0.201647
815	0.199839	0.197045	0.200825	0.203455	0.196388	0.200661
816	0.202962	0.196388	0.199511	0.203126	0.195895	0.200332
817	0.203291	0.196881	0.198689	0.205592	0.200004	0.202469
818	0.202798	0.196552	0.199675	0.205427	0.195895	0.205099
819	0.203291	0.196717	0.197538	0.202798	0.198524	0.201647
820	0.206414	0.194744	0.199346	0.205592	0.196717	0.202798
821	0.201976	0.200825	0.201483	0.210194	0.198031	0.200497
822	0.201154	0.195402	0.197045	0.206907	0.200332	0.200825
823	0.20855	0.199346	0.201319	0.203948	0.196717	0.200004
824	0.203455	0.200168	0.197867	0.201976	0.19458	0.201483
825	0.198689	0.197538	0.199511	0.204441	0.196717	0.19836
826	0.20214	0.197867	0.199018	0.204441	0.192936	0.202469
827	0.203126	0.20214	0.201483	0.206742	0.19458	0.199182
828	0.202962	0.19721	0.199511	0.201976	0.197045	0.198689
829	0.202962	0.199346	0.201647	0.204277	0.19573	0.200332
830	0.200825	0.200332	0.200168	0.202962	0.194416	0.201154
831	0.208879	0.197703	0.199018	0.204113	0.194909	0.201647
832	0.201812	0.198196	0.197867	0.204277	0.196059	0.196552
833	0.200332	0.19836	0.195237	0.20477	0.195073	0.193265
834	0.204277	0.203455	0.198031	0.202305	0.198031	0.205263
835	0.202798	0.202798	0.195237	0.199511	0.192608	0.200661
836	0.204113	0.19721	0.196881	0.201976	0.196388	0.201812
837	0.206085	0.195566	0.196881	0.20214	0.196059	0.203126
838	0.202469	0.197867	0.199839	0.203784	0.198853	0.201812
839	0.199839	0.194416	0.199839	0.203784	0.197538	0.201812
840	0.203948	0.196223	0.204113	0.2074	0.194744	0.198031
841	0.199511	0.196059	0.199675	0.201647	0.195073	0.199675
842	0.20099	0.195237	0.200661	0.209701	0.200825	0.198524
843	0.202798	0.199675	0.200332	0.203784	0.195237	0.199346
844	0.201812	0.201976	0.199839	0.202633	0.197538	0.199675
845	0.201154	0.201154	0.201319	0.202469	0.197045	0.198031
846	0.202633	0.202798	0.199839	0.204113	0.196388	0.200004
847	0.200332	0.199346	0.201319	0.201154	0.197538	0.199839
848	0.200332	0.198031	0.198196	0.203784	0.19573	0.19836
849	0.201812	0.202633	0.201319	0.201976	0.197374	0.198853
850	0.202798	0.198689	0.199018	0.200825	0.199018	0.199182
851	0.20362	0.200168	0.200497	0.201976	0.197867	0.20362
852	0.202798	0.198524	0.199018	0.205592	0.195566	0.203784
853	0.201812	0.200004	0.197538	0.203291	0.198196	0.200004
854	0.197703	0.196881	0.201483	0.199018	0.196881	0.204934
855	0.200825	0.198853	0.197538	0.202962	0.198031	0.199346
856	0.200332	0.198524	0.196388	0.201647	0.198853	0.201976
857	0.202633	0.192608	0.198031	0.203784	0.201812	0.199675
858	0.199511	0.196388	0.197045	0.204113	0.194087	0.20099
859	0.201647	0.197867	0.198031	0.201976	0.193265	0.200168
860	0.199018	0.199675	0.201483	0.202798	0.197045	0.20214
861	0.202305	0.200661	0.200661	0.20214	0.195895	0.200168
862	0.201319	0.203126	0.199839	0.202633	0.196059	0.201154
863	0.201812	0.199675	0.20099	0.203948	0.196223	0.19836
864	0.204113	0.200332	0.203291	0.204113	0.196388	0.197867
865	0.200004	0.199675	0.200332	0.199346	0.194744	0.201812
866	0.201647	0.203784	0.197045	0.199839	0.197867	0.198524
867	0.198524	0.199182	0.200497	0.198689	0.195237	0.202798
868	0.201154	0.189978	0.199346	0.202633	0.197374	0.20099
869	0.200168	0.19573	0.196552	0.199675	0.19573	0.203455
870	0.200168	0.196059	0.199346	0.205263	0.197703	0.201483
871	0.199511	0.197374	0.19836	0.205592	0.199839	0.205263
872	0.200004	0.197867	0.201812	0.204113	0.201976	0.201154
873	0.194251	0.19836	0.198689	0.202305	0.201483	0.202798
874	0.200661	0.197374	0.201812	0.204277	0.198196	0.20214
875	0.20362	0.197703	0.198196	0.204277	0.198031	0.200332
876	0.200004	0.200168	0.20362	0.203455	0.196388	0.200332
877	0.204113	0.198196	0.199511	0.200497	0.193758	0.201976
878	0.200168	0.19721	0.199675	0.205756	0.196552	0.199839
879	0.198031	0.195566	0.199182	0.202633	0.19721	0.197867
880	0.198689	0.196059	0.202469	0.198853	0.196881	0.199346
881	0.196881	0.20099	0.200332	0.202305	0.198689	0.198031
882	0.198524	0.199182	0.200004	0.203455	0.200168	0.19836
883	0.200497	0.201154	0.199675	0.205756	0.200004	0.198524
884	0.195895	0.199346	0.198031	0.197867	0.196388	0.200332
885	0.200004	0.20099	0.201154	0.2074	0.195566	0.19721
886	0.190471	0.198031	0.198031	0.202469	0.196388	0.203126
887	0.201976	0.192936	0.208222	0.205099	0.200004	0.199675
888	0.197703	0.194909	0.198196	0.20362	0.194416	0.201976
889	0.189485	0.198689	0.202305	0.203291	0.199346	0.199675
890	0.194909	0.192279	0.20099	0.203291	0.199182	0.198853
891	0.19573	0.196388	0.20099	0.20362	0.197045	0.148231
892	0.19573	0.200168	0.199839	0.202633	0.197374	0.146259
893	0.196717	0.198689	0.200168	0.203455	0.200825	0.145273
894	0.196552	0.199675	0.199346	0.203126	0.20099	0.152011
895	0.19836	0.194416	0.200661	0.203784	0.197703	0.151518
896	0.19836	0.195237	0.201483	0.206085	0.198853	0.149053
897	0.181924	0.19836	0.200661	0.204606	0.202962	0.153984
898	0.195073	0.20099	0.208222	0.208879	0.199511	0.154641
899	0.19458	0.200661	0.200004	0.201319	0.196881	0.159408
900	0.201154	0.202798	0.201812	0.204934	0.200661	0.158093
901	0.196059	0.199675	0.199182	0.204277	0.199018	0.162366
902	0.199346	0.200825	0.20099	0.203291	0.199839	0.165817
903	0.197045	0.197374	0.196881	0.206742	0.199018	0.169269
904	0.195237	0.199018	0.201154	0.204277	0.202962	0.168776
905	0.197538	0.199839	0.202305	0.202305	0.20362	0.168776
906	0.19836	0.198853	0.197867	0.203291	0.200332	0.175186
907	0.196223	0.195566	0.196223	0.204441	0.199675	0.17272
908	0.19458	0.198689	0.201319	0.203455	0.200332	0.165653
909	0.195073	0.199675	0.20362	0.203455	0.197538	0.168776
910	0.197045	0.196881	0.199018	0.201976	0.197867	0.168612
911	0.197867	0.200168	0.200168	0.202469	0.199511	0.166804
912	0.197045	0.198524	0.201976	0.203126	0.198524	0.168283
913	0.196881	0.198196	0.201976	0.205427	0.197538	0.172227
914	0.196881	0.199346	0.201483	0.199675	0.200497	0.173049
915	0.196223	0.20099	0.199018	0.201319	0.203126	0.151354
916	0.196223	0.200661	0.19721	0.198524	0.195402	0.095473
917	0.197703	0.201154	0.198853	0.202305	0.201976	0.098924
918	0.196717	0.198689	0.199182	0.201483	0.200168	0.104184
919	0.19836	0.195895	0.203784	0.197538	0.200825	0.108621
920	0.1908	0.199018	0.194416	0.201319	0.199182	0.113881
921	0.196717	0.200497	0.20099	0.202305	0.201647	0.117496
922	0.193429	0.197867	0.201812	0.198031	0.201154	0.121112
923	0.196059	0.198689	0.201812	0.198853	0.20099	0.122098
924	0.197045	0.199182	0.20099	0.197703	0.201319	0.12818
925	0.198196	0.199018	0.202469	0.200497	0.199018	0.130481
926	0.195237	0.198689	0.199346	0.200332	0.199346	0.133439
927	0.198853	0.195073	0.192772	0.200661	0.198196	0.136398
928	0.194744	0.199182	0.204113	0.199839	0.200004	0.134425
929	0.193429	0.196223	0.200004	0.200004	0.196059	0.140178
930	0.194744	0.20099	0.203126	0.198031	0.201483	0.141164
931	0.191457	0.200004	0.18932	0.198689	0.197374	0.141821
932	0.196223	0.20099	0.198524	0.201483	0.197538	0.142643
933	0.195073	0.198196	0.199018	0.200332	0.19721	0.150204
934	0.197045	0.202305	0.202633	0.201483	0.198853	0.149546
935	0.195237	0.199346	0.200497	0.196881	0.195566	0.154477
936	0.196717	0.203455	0.202633	0.199182	0.197374	0.155134
937	0.192772	0.196717	0.201319	0.194744	0.20099	0.157764
938	0.196059	0.195237	0.201154	0.197867	0.198689	0.159079
939	0.195073	0.196717	0.203291	0.191621	0.20099	0.163516
940	0.197867	0.19458	0.206578	0.197538	0.201319	0.16138
941	0.194416	0.199182	0.197374	0.192936	0.197374	0.16894
942	0.193758	0.199182	0.189978	0.197867	0.200825	0.17157
943	0.197867	0.198031	0.198031	0.197045	0.201812	0.16138
944	0.199182	0.197045	0.19836	0.194087	0.200004	0.171734
945	0.198689	0.198196	0.201154	0.198689	0.198196	0.164667
946	0.196223	0.199018	0.198689	0.193594	0.199346	0.172227
947	0.199182	0.199182	0.20099	0.19836	0.200825	0.168776
948	0.19836	0.198853	0.198031	0.19458	0.198196	0.17157
949	0.194416	0.198689	0.199346	0.196223	0.200332	0.171241
950	0.195566	0.196881	0.200004	0.195402	0.199346	0.171899
951	0.198524	0.196388	0.199839	0.196059	0.199675	0.173542
952	0.195237	0.200332	0.200497	0.192443	0.193101	0.175679
953	0.196388	0.20362	0.194909	0.191457	0.204934	0.175186
954	0.19458	0.199675	0.19721	0.187513	0.199346	0.176994
955	0.196388	0.197703	0.200497	0.195073	0.195566	0.178966
956	0.193922	0.198853	0.20099	0.192443	0.198853	0.179788
957	0.201154	0.200004	0.19458	0.192115	0.200661	0.18554
958	0.197045	0.198524	0.195566	0.19195	0.202469	0.183897
959	0.196717	0.198031	0.196717	0.19195	0.199346	0.184883
960	0.200004	0.19721	0.196552	0.194251	0.20099	0.183075
961	0.19573	0.194416	0.197867	0.19458	0.199511	0.189485
962	0.200332	0.201647	0.20099	0.195402	0.202798	0.185212
963	0.197374	0.196717	0.19721	0.195402	0.200332	0.183239
964	0.200825	0.198031	0.198689	0.198196	0.201154	0.187184
965	0.194909	0.199675	0.196223	0.196552	0.200497	0.186033
966	0.198689	0.199839	0.192936	0.19721	0.201647	0.181924
967	0.198031	0.197538	0.200825	0.195566	0.200825	0.184883
968	0.196717	0.202962	0.197538	0.198689	0.202469	0.188006
969	0.19573	0.197538	0.197703	0.191293	0.202305	0.186526
970	0.196717	0.197374	0.199182	0.191621	0.200661	0.190142
971	0.194909	0.201154	0.198524	0.193922	0.200004	0.18932
972	0.197374	0.198524	0.200332	0.192279	0.205427	0.191786
973	0.196552	0.200825	0.197374	0.193922	0.200004	0.189814
974	0.197538	0.197045	0.19721	0.192279	0.200825	0.192608
975	0.200825	0.199839	0.198689	0.197867	0.205921	0.189649
976	0.197374	0.197045	0.192115	0.19573	0.200004	0.19195
977	0.195237	0.199018	0.198031	0.199675	0.203948	0.191128
978	0.193429	0.198524	0.196881	0.198196	0.203948	0.193101
979	0.206249	0.201483	0.195073	0.196881	0.202469	0.191786
980	0.201154	0.198031	0.192772	0.198689	0.202305	0.194087
981	0.199675	0.198524	0.196717	0.196717	0.201319	0.190471
982	0.201319	0.197867	0.190964	0.200332	0.199839	0.191457
983	0.200332	0.196717	0.195895	0.201483	0.202962	0.193265
984	0.198524	0.199018	0.198853	0.19573	0.202305	0.193758
985	0.194416	0.200825	0.197374	0.194909	0.200825	0.192443
986	0.199675	0.205921	0.193758	0.200497	0.205921	0.192443
987	0.198524	0.19573	0.196552	0.197703	0.205099	0.195402
988	0.193101	0.200661	0.202962	0.199511	0.206249	0.193101
989	0.195073	0.193758	0.194416	0.201483	0.202962	0.197374
990	0.197703	0.198524	0.198031	0.197045	0.206742	0.197538
991	0.196881	0.198689	0.194909	0.197867	0.20362	0.194909
992	0.19573	0.196223	0.19836	0.201319	0.204934	0.19195
993	0.199182	0.19573	0.196223	0.197867	0.200825	0.193758
994	0.200661	0.198031	0.19836	0.196552	0.206907	0.193265
995	0.201647	0.196388	0.198196	0.199675	0.203784	0.195073
996	0.200497	0.199346	0.196059	0.19721	0.205427	0.196388
997	0.201483	0.203126	0.198853	0.201647	0.205263	0.196223
998	0.197045	0.200004	0.197538	0.203455	0.204934	0.192443
999	0.199018	0.197703	0.196223	0.200332	0.191457	0.196388
1000	0.205263	0.200168	0.197703	0.206414	0.192936	0.19721
1001	0.197045	0.195073	0.196717	0.198524	0.192608	0.198524
1002	0.200825	0.195237	0.197374	0.202798	0.192772	0.196552
1003	0.19721	0.199346	0.199839	0.203291	0.194744	0.196552
1004	0.199511	0.198853	0.197374	0.196223	0.192936	0.19836
1005	0.200168	0.199675	0.198524	0.197538	0.198689	0.196223
1006	0.199511	0.19836	0.20099	0.199346	0.197867	0.192115
1007	0.200661	0.198524	0.194909	0.197703	0.200004	0.200004
1008	0.200332	0.202305	0.194909	0.199018	0.196552	0.199018
1009	0.198689	0.20099	0.198853	0.20214	0.19836	0.195402
1010	0.197538	0.199511	0.19721	0.196552	0.196717	0.199675
1011	0.198689	0.200168	0.198524	0.202469	0.198853	0.19836
1012	0.199018	0.197374	0.198524	0.199511	0.198031	0.202305
1013	0.198689	0.19836	0.198524	0.200004	0.199675	0.198853
1014	0.196059	0.196059	0.196059	0.20099	0.197867	0.201319
1015	0.204606	0.196223	0.196881	0.202305	0.198524	0.198853
1016	0.198689	0.199675	0.197045	0.200168	0.199182	0.197374
1017	0.20099	0.196717	0.202633	0.206249	0.198853	0.194909
1018	0.199182	0.201647	0.199675	0.201812	0.197538	0.199675
1019	0.200497	0.19836	0.197703	0.201976	0.199346	0.197538
1020	0.19836	0.199018	0.20099	0.199675	0.199018	0.197045
1021	0.197045	0.199511	0.195566	0.200497	0.19721	0.200168
1022	0.198524	0.200332	0.199018	0.200332	0.201483	0.197374
1023	0.19836	0.19836	0.199675	0.195402	0.202469	0.200497
1024	0.199839	0.197703	0.199018	0.196881	0.202305	0.196881
1025	0.193758	0.197703	0.197538	0.201319	0.201647	0.199839
1026	0.202633	0.199018	0.196388	0.202962	0.199018	0.199675
1027	0.205099	0.199346	0.199018	0.198196	0.201812	0.201976
1028	0.200332	0.199839	0.198031	0.207235	0.20099	0.19836
1029	0.195566	0.195237	0.199675	0.20477	0.202305	0.200825
1030	0.202305	0.201812	0.192772	0.203948	0.203291	0.198524
1031	0.200168	0.19721	0.197045	0.204606	0.197045	0.197374
1032	0.201483	0.197045	0.195073	0.202305	0.200661	0.199018
1033	0.198524	0.199675	0.194087	0.2074	0.199346	0.200168
1034	0.201319	0.196717	0.196552	0.199018	0.199511	0.200004
1035	0.196059	0.201154	0.196388	0.201483	0.197867	0.199511
1036	0.196223	0.199182	0.195566	0.200004	0.200661	0.20099
1037	0.200497	0.197045	0.193429	0.201154	0.20362	0.200661
1038	0.199511	0.195237	0.197867	0.196881	0.200168	0.199182
1039	0.199346	0.197703	0.199511	0.201647	0.20099	0.197374
1040	0.196223	0.193922	0.19721	0.200497	0.203126	0.200332
1041	0.195566	0.201647	0.19836	0.201647	0.200004	0.193922
1042	0.199018	0.200332	0.201976	0.200497	0.197703	0.196059
1043	0.200661	0.202305	0.198689	0.200661	0.200825	0.198853
1044	0.198853	0.199839	0.198853	0.204113	0.200168	0.201483
1045	0.199839	0.199018	0.202469	0.198853	0.199511	0.196552
1046	0.200497	0.199839	0.195237	0.197538	0.199511	0.200497
1047	0.199346	0.199182	0.199346	0.196881	0.201154	0.200004
1048	0.201319	0.195237	0.196223	0.200004	0.199511	0.196552
1049	0.203291	0.19836	0.198689	0.198689	0.198196	0.200004
1050	0.195895	0.199018	0.199346	0.199675	0.200004	0.198524
1051	0.198031	0.192608	0.196552	0.199839	0.197045	0.201483
1052	0.202798	0.198853	0.200497	0.197703	0.198031	0.201647
1053	0.19836	0.197374	0.198196	0.195073	0.195402	0.198689
1054	0.200332	0.199675	0.198196	0.198196	0.199182	0.199511
1055	0.200004	0.199511	0.196552	0.188334	0.195237	0.201647
1056	0.202798	0.199346	0.199839	0.19573	0.196059	0.191293
1057	0.197374	0.198196	0.201154	0.194416	0.196717	0.199839
1058	0.204606	0.201319	0.199675	0.191457	0.196059	0.197867
1059	0.199839	0.201812	0.199346	0.194416	0.196717	0.198524
1060	0.20214	0.201647	0.19836	0.197374	0.199839	0.200004
1061	0.198196	0.20099	0.199018	0.193429	0.196388	0.200661
1062	0.200497	0.198524	0.200332	0.196717	0.202962	0.199839
1063	0.201154	0.199839	0.197374	0.197374	0.203784	0.198689
1064	0.199018	0.199839	0.202633	0.194909	0.196059	0.204113
1065	0.200332	0.198524	0.19721	0.195073	0.198853	0.201647
1066	0.198689	0.199018	0.198196	0.183075	0.200004	0.199675
1067	0.200661	0.198689	0.19721	0.193101	0.199018	0.20099
1068	0.20099	0.197374	0.195566	0.194744	0.194909	0.202469
1069	0.205921	0.197045	0.193429	0.192443	0.198031	0.20214
1070	0.200497	0.201319	0.197703	0.192608	0.196881	0.202305
1071	0.199018	0.197374	0.200661	0.193758	0.199511	0.197374
1072	0.200004	0.19573	0.200661	0.192608	0.197538	0.198689
1073	0.200004	0.201976	0.200661	0.195237	0.197538	0.197703
1074	0.200004	0.200332	0.197045	0.193429	0.200661	0.198196
1075	0.200332	0.198689	0.202633	0.194744	0.195402	0.199511
1076	0.196388	0.200661	0.195566	0.19573	0.197374	0.19836
1077	0.199675	0.199511	0.203948	0.193758	0.199182	0.199511
1078	0.200332	0.201812	0.199511	0.191457	0.200661	0.196388
1079	0.198524	0.192608	0.198524	0.188663	0.199839	0.200497
1080	0.20099	0.20099	0.19573	0.193758	0.201483	0.199839
1081	0.200497	0.197374	0.198853	0.193429	0.196223	0.19721
1082	0.200168	0.19836	0.198689	0.192115	0.200332	0.198853
1083	0.199182	0.197045	0.196223	0.193594	0.195566	0.20099
1084	0.200497	0.202633	0.197867	0.190635	0.19836	0.199675
1085	0.200168	0.200497	0.196059	0.191293	0.188827	0.20099
1086	0.200168	0.201812	0.198689	0.192443	0.194087	0.199018
1087	0.196552	0.199346	0.195237	0.191128	0.201483	0.201154
1088	0.200497	0.197867	0.202798	0.194744	0.200004	0.197045
1089	0.197045	0.197045	0.193758	0.190471	0.198196	0.199346
1090	0.19836	0.197045	0.198853	0.19195	0.20362	0.199018
1091	0.204606	0.200661	0.19836	0.18932	0.197867	0.200332
1092	0.20099	0.194251	0.203455	0.192279	0.200661	0.199839
1093	0.197867	0.198196	0.197703	0.191786	0.201976	0.201647
1094	0.201976	0.19721	0.199839	0.189814	0.201319	0.201976
1095	0.197045	0.202962	0.201154	0.188827	0.199839	0.199182
1096	0.202798	0.199839	0.198853	0.188499	0.189485	0.201154
1097	0.200661	0.199182	0.196717	0.189649	0.200497	0.199511
1098	0.201319	0.192443	0.199018	0.187184	0.20099	0.199182
1099	0.200661	0.198031	0.200332	0.188499	0.202798	0.199018
1100	0.202633	0.196059	0.197538	0.186526	0.199675	0.199839
1101	0.205427	0.198853	0.195402	0.187677	0.20099	0.197867
1102	0.204113	0.196223	0.196223	0.185376	0.199839	0.202469
1103	0.204934	0.197538	0.205427	0.182746	0.199839	0.199346
1104	0.201812	0.195566	0.19573	0.186362	0.198689	0.20099
1105	0.201647	0.194087	0.198524	0.189814	0.199346	0.199018
1106	0.199839	0.201647	0.197538	0.185705	0.199675	0.19836
1107	0.203784	0.197867	0.201647	0.192279	0.198524	0.199182
1108	0.199511	0.197374	0.19836	0.191128	0.198689	0.197703
1109	0.199839	0.198031	0.201812	0.188499	0.199675	0.198853
1110	0.198031	0.200661	0.19836	0.187019	0.199839	0.19836
1111	0.20477	0.198031	0.198689	0.186362	0.199675	0.19836
1112	0.198031	0.199182	0.19836	0.18554	0.200332	0.201647
1113	0.199018	0.199346	0.200332	0.187841	0.195566	0.201812
1114	0.203126	0.19836	0.20362	0.187677	0.197374	0.199182
1115	0.19836	0.198853	0.201647	0.186362	0.200168	0.199675
1116	0.201319	0.200825	0.199182	0.186526	0.194909	0.199839
1117	0.199346	0.199839	0.193922	0.185047	0.198196	0.204113
1118	0.199675	0.202305	0.196059	0.18932	0.20099	0.200332
1119	0.197867	0.198689	0.197374	0.186855	0.196059	0.202305
1120	0.200661	0.20099	0.200168	0.188663	0.197703	0.198031
1121	0.198196	0.199182	0.194909	0.186198	0.197045	0.202962
1122	0.201647	0.200332	0.19836	0.190471	0.196388	0.200004
1123	0.198031	0.19836	0.195566	0.188663	0.197374	0.198853
1124	0.201976	0.19721	0.19721	0.186033	0.196388	0.201154
1125	0.201976	0.200332	0.20362	0.185869	0.197374	0.199675
1126	0.200004	0.198524	0.199182	0.191293	0.197703	0.198031
1127	0.198689	0.195402	0.199511	0.1908	0.196552	0.198689
1128	0.194251	0.200825	0.202305	0.18554	0.188334	0.199346
1129	0.201483	0.202798	0.199182	0.191293	0.195073	0.197867
1130	0.199839	0.197867	0.197374	0.190142	0.192115	0.201812
1131	0.197045	0.20099	0.199018	0.185869	0.19458	0.200004
1132	0.197538	0.19836	0.197538	0.188006	0.194909	0.195895
1133	0.198524	0.200168	0.19573	0.190471	0.198524	0.19721
1134	0.197374	0.200168	0.196388	0.187184	0.192279	0.199839
1135	0.199839	0.193922	0.198524	0.189485	0.194416	0.198524
1136	0.198524	0.199839	0.199511	0.192936	0.194744	0.199182
1137	0.20099	0.197045	0.202962	0.18932	0.197045	0.200168
1138	0.199346	0.199018	0.197045	0.193265	0.192279	0.200497
1139	0.199182	0.196059	0.200661	0.1908	0.194087	0.200168
1140	0.195237	0.198853	0.20099	0.192443	0.19458	0.200168
1141	0.198689	0.198031	0.200497	0.192115	0.193101	0.198853
1142	0.200332	0.20099	0.197703	0.191128	0.194251	0.199839
1143	0.197703	0.196717	0.197703	0.193594	0.194251	0.201976
1144	0.194416	0.197867	0.199018	0.19458	0.191128	0.200661
1145	0.196552	0.198853	0.201319	0.191457	0.193922	0.199182
1146	0.200004	0.199346	0.199018	0.193922	0.19195	0.198853
1147	0.198031	0.198524	0.200168	0.191293	0.193922	0.199182
1148	0.196388	0.195073	0.205427	0.193758	0.192115	0.197703
1149	0.198689	0.201154	0.195237	0.191293	0.187513	0.198524
1150	0.197867	0.199182	0.201976	0.193101	0.196059	0.200004
1151	0.195895	0.19836	0.198524	0.190635	0.195237	0.199511
1152	0.19458	0.198853	0.201647	0.194251	0.197703	0.195895
1153	0.199018	0.199675	0.198524	0.188006	0.196223	0.201812
1154	0.197703	0.199182	0.196388	0.192608	0.193758	0.202798
1155	0.199018	0.200661	0.19836	0.195237	0.194416	0.201319
1156	0.201976	0.197374	0.197374	0.192608	0.193758	0.201483
1157	0.200661	0.196059	0.196388	0.191293	0.193101	0.201483
1158	0.197703	0.194416	0.201483	0.190307	0.193594	0.200497
1159	0.201483	0.196059	0.201812	0.201483	0.195073	0.201483
1160	0.199511	0.196881	0.198524	0.192115	0.194087	0.199182
1161	0.201812	0.19721	0.199839	0.193922	0.194251	0.198853
1162	0.198689	0.193429	0.196552	0.195402	0.190964	0.19721
1163	0.198524	0.199346	0.20214	0.194416	0.195402	0.200497
1164	0.196552	0.198689	0.196717	0.191128	0.188663	0.198689
1165	0.198031	0.199182	0.197867	0.189649	0.191786	0.199346
1166	0.195895	0.201319	0.197374	0.194744	0.192115	0.201154
1167	0.195566	0.198853	0.200332	0.190635	0.194744	0.200661
1168	0.195895	0.198031	0.196717	0.189485	0.193101	0.200661
1169	0.197374	0.201319	0.197045	0.190964	0.19458	0.201812
1170	0.19836	0.197045	0.200825	0.189814	0.195895	0.203948
1171	0.197538	0.195895	0.200332	0.189814	0.193594	0.197538
1172	0.199018	0.199511	0.19836	0.190471	0.194909	0.200497
1173	0.199182	0.195895	0.200497	0.19195	0.194744	0.200497
1174	0.199018	0.19721	0.195237	0.193922	0.196388	0.200168
1175	0.198031	0.195237	0.196388	0.194744	0.193101	0.200661
1176	0.198196	0.199018	0.197045	0.192443	0.192443	0.199346
1177	0.198031	0.19573	0.194087	0.191621	0.194909	0.199675
1178	0.198196	0.198524	0.200004	0.197703	0.203455	0.199018
1179	0.199018	0.197538	0.196388	0.196059	0.193101	0.203291
1180	0.200497	0.198031	0.197703	0.191786	0.189649	0.196223
1181	0.200004	0.197867	0.192608	0.19458	0.192115	0.206578
1182	0.199182	0.199511	0.200497	0.195895	0.191786	0.197374
1183	0.196717	0.198196	0.198689	0.191128	0.191128	0.193101
1184	0.199182	0.198689	0.199182	0.195402	0.193101	0.196059
1185	0.196881	0.199675	0.196881	0.19195	0.197703	0.19836
1186	0.194087	0.195073	0.198031	0.192279	0.194087	0.199346
1187	0.196881	0.197867	0.199675	0.191457	0.194909	0.205427
1188	0.196881	0.195566	0.199839	0.19195	0.194909	0.198524
1189	0.198031	0.195895	0.201319	0.188006	0.196388	0.201319
1190	0.197045	0.199182	0.198031	0.189978	0.194251	0.202962
1191	0.193594	0.19458	0.196717	0.19573	0.197703	0.199018
1192	0.197045	0.190964	0.19573	0.187184	0.194744	0.2074
1193	0.198524	0.200168	0.200004	0.193758	0.19721	0.196552
1194	0.197374	0.198031	0.196552	0.190142	0.194087	0.203291
1195	0.20214	0.195566	0.201154	0.194087	0.196059	0.19836
1196	0.194416	0.198689	0.199675	0.189814	0.196059	0.197703
1197	0.194744	0.200661	0.197045	0.19195	0.193922	0.196881
1198	0.196388	0.197538	0.19836	0.189156	0.194909	0.194909
1199	0.198031	0.202633	0.199346	0.191457	0.19836	0.194744
1200	0.195566	0.201483	0.198689	0.191786	0.199018	0.196388
1201	0.194251	0.199182	0.198031	0.189814	0.191457	0.197867
1202	0.194744	0.200332	0.199182	0.18932	0.1908	0.197867
1203	0.198853	0.19721	0.192443	0.190635	0.194909	0.203784
1204	0.197867	0.203126	0.199675	0.189814	0.196059	0.201812
1205	0.199839	0.197374	0.201319	0.18932	0.198524	0.201812
1206	0.201483	0.19836	0.195566	0.194416	0.19573	0.200661
1207	0.195402	0.198689	0.196223	0.194087	0.195073	0.203784
1208	0.196552	0.199346	0.196552	0.189814	0.197374	0.199018
1209	0.197374	0.197867	0.198853	0.188663	0.196717	0.200661
1210	0.201154	0.200661	0.198031	0.194087	0.197374	0.199346
1211	0.195237	0.19573	0.195073	0.188334	0.195566	0.201483
1212	0.199839	0.196552	0.199839	0.191786	0.194087	0.199839
1213	0.192279	0.19836	0.196059	0.194087	0.192772	0.199675
1214	0.199675	0.197045	0.193758	0.189978	0.196388	0.188499
1215	0.197867	0.199675	0.199018	0.188663	0.19458	0.199675
1216	0.197374	0.199182	0.198031	0.194416	0.196059	0.200004
1217	0.198524	0.197703	0.200661	0.189814	0.193429	0.194909
1218	0.196059	0.201483	0.197703	0.191786	0.19458	0.199675
1219	0.19458	0.199018	0.199839	0.18817	0.19573	0.199346
1220	0.194416	0.197538	0.203948	0.188499	0.197538	0.199675
1221	0.196388	0.20099	0.202469	0.191457	0.197374	0.199182
1222	0.194909	0.194744	0.197374	0.186198	0.197867	0.201154
1223	0.196881	0.196388	0.198196	0.187677	0.199182	0.201812
1224	0.193265	0.195566	0.198031	0.185212	0.196223	0.20099
1225	0.196552	0.197374	0.195895	0.190471	0.19721	0.190635
1226	0.192443	0.194909	0.196059	0.18817	0.196881	0.200168
1227	0.197374	0.198524	0.195566	0.188992	0.19836	0.199182
1228	0.198853	0.196717	0.196552	0.18932	0.192936	0.200332
1229	0.19195	0.197867	0.197703	0.187019	0.200497	0.201154
1230	0.196223	0.199511	0.195073	0.186526	0.197045	0.198689
1231	0.199346	0.19836	0.196881	0.187348	0.196059	0.198196
1232	0.197867	0.200332	0.193429	0.187184	0.197867	0.200332
1233	0.197374	0.197867	0.199018	0.18817	0.193265	0.200168
1234	0.196881	0.197703	0.197703	0.185376	0.195073	0.199018
1235	0.194909	0.197867	0.198853	0.186526	0.196223	0.198196
1236	0.194416	0.200332	0.196223	0.183404	0.200168	0.198031
1237	0.195073	0.193429	0.199018	0.186855	0.201154	0.198689
1238	0.196552	0.197374	0.199675	0.187184	0.19836	0.199018
1239	0.197045	0.189978	0.197538	0.187184	0.198524	0.200332
1240	0.195073	0.198853	0.200497	0.184718	0.199675	0.199018
1241	0.194087	0.198031	0.196223	0.184225	0.198524	0.202469
1242	0.19458	0.198196	0.197867	0.186855	0.20099	0.201319
1243	0.196881	0.201812	0.19836	0.184718	0.19836	0.201976
1244	0.20214	0.195566	0.199839	0.182746	0.196717	0.203455
1245	0.194744	0.201812	0.197703	0.182089	0.197045	0.196388
1246	0.195073	0.196717	0.198196	0.183239	0.199346	0.196388
1247	0.198853	0.198196	0.196552	0.183404	0.198524	0.199018
1248	0.200332	0.198031	0.198853	0.184225	0.199346	0.192772
1249	0.197867	0.202305	0.198689	0.18439	0.19195	0.196059
1250	0.186855	0.200004	0.199346	0.182911	0.193101	0.199346
1251	0.199839	0.199675	0.199511	0.184883	0.199511	0.198853
1252	0.201154	0.198031	0.198196	0.180938	0.199675	0.197867
1253	0.195895	0.201319	0.198853	0.182582	0.200332	0.19458
1254	0.195402	0.199511	0.199511	0.180938	0.197374	0.199018
1255	0.199675	0.197374	0.200497	0.18176	0.200168	0.197045
1256	0.195073	0.20214	0.19721	0.17535	0.193758	0.194744
1257	0.197374	0.198853	0.202798	0.178802	0.20362	0.191621
1258	0.196388	0.200004	0.195237	0.17913	0.200332	0.187841
1259	0.197374	0.198031	0.199346	0.176665	0.200497	0.183075
1260	0.199182	0.198524	0.197374	0.172063	0.202633	0.181267
1261	0.193265	0.199346	0.199675	0.178144	0.199675	0.176994
1262	0.197703	0.198524	0.19836	0.176829	0.199182	0.175843
1263	0.199346	0.197703	0.199346	0.177651	0.198196	0.171077
1264	0.198853	0.196881	0.197045	0.180281	0.196059	0.165817
1265	0.20099	0.185047	0.197703	0.17913	0.198031	0.162366
1266	0.198689	0.199675	0.198196	0.17535	0.19573	0.160887
1267	0.199182	0.195566	0.198689	0.180281	0.198853	0.161709
1268	0.20099	0.195237	0.19836	0.17798	0.200497	0.156613
1269	0.199511	0.19721	0.197867	0.171406	0.197538	0.157271
1270	0.200332	0.199346	0.20214	0.176008	0.199018	0.151518
1271	0.198689	0.197045	0.196881	0.170584	0.19721	0.152998
1272	0.198196	0.200332	0.198689	0.171241	0.199675	0.151683
1273	0.196552	0.199839	0.203455	0.170748	0.200004	0.14971
1274	0.200332	0.20099	0.201812	0.171406	0.199511	0.152505
1275	0.201647	0.199675	0.20099	0.168612	0.198031	0.147903
1276	0.198689	0.18932	0.199346	0.17157	0.199346	0.145108
1277	0.200661	0.195402	0.198031	0.16253	0.200004	0.147409
1278	0.201812	0.198853	0.198031	0.163845	0.200497	0.143794
1279	0.196059	0.196388	0.194416	0.166639	0.192936	0.142643
1280	0.202798	0.200661	0.196552	0.167625	0.199839	0.141493
1281	0.200168	0.200004	0.197867	0.168118	0.195895	0.139849
1282	0.20099	0.193429	0.196881	0.167625	0.195237	0.141657
1283	0.201976	0.203126	0.197045	0.170748	0.199839	0.139027
1284	0.198689	0.198031	0.198031	0.165489	0.19721	0.141164
1285	0.201647	0.198524	0.199182	0.165489	0.197703	0.13837
1286	0.197045	0.197045	0.197538	0.163845	0.19573	0.13837
1287	0.199182	0.197703	0.198031	0.166639	0.200825	0.135247
1288	0.199182	0.196388	0.195402	0.156449	0.197538	0.136562
1289	0.19836	0.197867	0.197374	0.160229	0.200661	0.133932
1290	0.19573	0.19721	0.197867	0.158421	0.198031	0.132782
1291	0.200497	0.199511	0.198196	0.156942	0.199346	0.129988
1292	0.200332	0.200332	0.200168	0.15497	0.197867	0.132617
1293	0.200661	0.200661	0.200825	0.15497	0.197538	0.129823
1294	0.200004	0.199839	0.200004	0.151518	0.200825	0.129823
1295	0.200497	0.198196	0.199018	0.152176	0.201483	0.118647
1296	0.19721	0.198524	0.197374	0.154806	0.199675	0.116839
1297	0.201812	0.199675	0.197538	0.150532	0.196388	0.11799
1298	0.201812	0.198196	0.196717	0.15119	0.196223	0.108786
1299	0.199182	0.195566	0.19721	0.14856	0.197045	0.111908
1300	0.208715	0.196223	0.199839	0.149546	0.202798	0.107799
1301	0.197867	0.197867	0.196388	0.152011	0.196059	0.105992
1302	0.202305	0.194087	0.198689	0.148067	0.197374	0.102211
1303	0.197045	0.196059	0.19836	0.142643	0.198524	0.102376
1304	0.204441	0.195566	0.19721	0.142807	0.199346	-0.000512
1305	0.198031	0.195073	0.198524	0.14478	0.198689	0.000639
1306	0.199675	0.20362	0.203948	0.148067	0.197703	-0.000347
1307	0.198524	0.198196	0.200332	0.142479	0.197867	0.001132
1308	0.20099	0.198689	0.203784	0.140506	0.198031	-1.9e-05
1309	0.199018	0.201154	0.198524	0.142972	0.200661	0.002282
1310	0.199839	0.197867	0.200497	0.13952	0.198689	0.001132
1311	0.201319	0.200497	0.201812	0.136562	0.199511	0.007377
1312	0.198031	0.196881	0.196717	0.138534	0.197867	0.011815
1313	0.202962	0.200004	0.203455	0.136891	0.202962	0.018554
1314	0.201647	0.197703	0.196059	0.134425	0.198524	0.028415
1315	0.20099	0.198031	0.197538	0.135247	0.203948	0.028251
1316	0.202469	0.196388	0.19836	0.136069	0.200332	0.01954
1317	0.204934	0.200004	0.204113	0.134754	0.19836	0.002282
1318	0.19836	0.197538	0.195073	0.132782	0.196388	0.003268
1319	0.203948	0.199675	0.198031	0.133768	0.200661	0.00294
1320	0.199839	0.198689	0.19836	0.132453	0.199018	0.008363
1321	0.201154	0.198031	0.195237	0.131796	0.199675	0.015924
1322	0.196717	0.198689	0.194416	0.131796	0.199182	0.024306
1323	0.199182	0.199182	0.198689	0.13196	0.196223	0.030059
1324	0.199182	0.199182	0.198853	0.128673	0.199018	0.035647
1325	0.201812	0.198196	0.204934	0.131631	0.196388	0.046001
1326	0.200497	0.199182	0.201319	0.13196	0.199346	0.046001
1327	0.20099	0.197867	0.200661	0.130809	0.19836	0.050439
1328	0.202633	0.201647	0.199839	0.13459	0.201319	0.056027
1329	0.200661	0.197703	0.196059	0.132782	0.196552	0.061451
1330	0.19836	0.202469	0.196881	0.134097	0.199018	0.064245
1331	0.198031	0.200004	0.197703	0.131631	0.196223	0.069504
1332	0.20099	0.200332	0.19836	0.136069	0.19721	0.074106
1333	0.200168	0.192443	0.197703	0.129001	0.196223	0.078544
1334	0.201812	0.198853	0.196552	0.129001	0.200661	0.083146
1335	0.200332	0.199346	0.196881	0.133932	0.199675	0.090706
1336	0.206249	0.19573	0.200661	0.133603	0.198196	0.097609
1337	0.195895	0.192443	0.197703	0.13574	0.198689	0.097609
1338	0.20099	0.199675	0.201647	0.140178	0.200332	0.100896
1339	0.201647	0.201647	0.191128	0.135576	0.198031	0.105663
1340	0.197538	0.19573	0.199511	0.138041	0.197867	0.108786
1341	0.196717	0.200825	0.199346	0.140835	0.197703	0.112237
1342	0.199839	0.198196	0.201154	0.138699	0.198689	0.11536
1343	0.199675	0.198853	0.198689	0.139192	0.199675	0.116346
1344	0.199346	0.194909	0.196881	0.144944	0.199511	0.120291
1345	0.198196	0.198853	0.200661	0.142643	0.199346	0.122098
1346	0.199018	0.199018	0.19721	0.14593	0.201154	0.124071
1347	0.206085	0.199675	0.201647	0.149053	0.203126	0.133603
1348	0.201483	0.199511	0.198031	0.150697	0.203455	0.134918
1349	0.201647	0.198689	0.199182	0.15234	0.203784	0.133275
1350	0.204113	0.196059	0.197374	0.155792	0.198689	0.137712
1351	0.202633	0.196059	0.197538	0.157764	0.198524	0.141493
1352	0.199018	0.192936	0.195895	0.158421	0.20099	0.141164
1353	0.199018	0.194251	0.199675	0.164667	0.201319	0.141657
1354	0.20214	0.198031	0.197867	0.164174	0.199675	0.146423
1355	0.204277	0.194909	0.198031	0.167132	0.198689	0.149217
1356	0.197045	0.19573	0.198689	0.164831	0.198031	0.145766
1357	0.201647	0.197374	0.197867	0.171241	0.197867	0.146423
1358	0.199675	0.197703	0.198031	0.174857	0.201154	0.151683
1359	0.19836	0.199018	0.202633	0.175186	0.198031	0.150697
1360	0.203126	0.200004	0.20099	0.183239	0.200168	0.149053
1361	0.19721	0.198031	0.201483	0.182089	0.199018	0.154806
1362	0.198853	0.198853	0.201319	0.186691	0.199346	0.155299
1363	0.197703	0.198196	0.201154	0.189156	0.199346	0.156942
1364	0.20099	0.200004	0.198689	0.192936	0.200004	0.158586
1365	0.199511	0.202962	0.197045	0.189814	0.199675	0.162202
1366	0.198524	0.19836	0.197538	0.196059	0.200004	0.160722
1367	0.200661	0.196223	0.19721	0.19721	0.20099	0.164831
1368	0.200825	0.19721	0.20099	0.200168	0.201483	0.164996
1369	0.197045	0.195073	0.19573	0.203291	0.199346	0.165653
1370	0.199675	0.194909	0.19721	0.205263	0.200332	0.163681
1371	0.198853	0.19721	0.19721	0.2074	0.197374	0.16516
1372	0.200004	0.197867	0.193758	0.208057	0.199511	0.165982
1373	0.198031	0.198689	0.19721	0.212824	0.199346	0.166968
1374	0.193922	0.197867	0.197703	0.212988	0.197045	0.167625
1375	0.19836	0.198853	0.201976	0.218412	0.200661	0.164503
1376	0.197045	0.199182	0.198031	0.219398	0.20099	0.167954
1377	0.197045	0.199018	0.199018	0.228766	0.198031	0.166968
1378	0.193594	0.19836	0.198853	0.223835	0.198524	0.169433
1379	0.200332	0.200825	0.19836	0.224657	0.203948	0.168612
1380	0.198524	0.198689	0.198031	0.228437	0.199346	0.173378
1381	0.196552	0.200497	0.200332	0.23156	0.200332	0.16779
1382	0.194909	0.199018	0.195237	0.231232	0.19836	0.17157
1383	0.197045	0.197867	0.197867	0.235834	0.203784	0.17272
1384	0.197045	0.198524	0.199839	0.233861	0.199511	0.172392
1385	0.198524	0.197703	0.20099	0.239285	0.200168	0.171406
1386	0.198031	0.200661	0.195073	0.242736	0.196552	0.173871
1387	0.199182	0.193429	0.198689	0.239121	0.198031	0.172063
1388	0.197374	0.194087	0.199182	0.240107	0.19836	0.171406
1389	0.198031	0.194416	0.196552	0.243558	0.198689	0.174364
1390	0.199018	0.202305	0.198853	0.245202	0.20099	0.171734
1391	0.195402	0.191128	0.197867	0.245695	0.19836	0.173542
1392	0.196717	0.195073	0.199675	0.251447	0.199675	0.17157
1393	0.195895	0.19836	0.199675	0.249639	0.19836	0.17272
1394	0.196881	0.20099	0.199839	0.253584	0.200168	0.169926
1395	0.193594	0.199511	0.201812	0.251776	0.19836	0.170748
1396	0.200825	0.204277	0.199346	0.255721	0.199675	0.169762
1397	0.20099	0.199018	0.197374	0.258679	0.202469	0.169598
1398	0.20099	0.199839	0.200168	0.256707	0.201319	0.173871
1399	0.19721	0.198031	0.197374	0.255556	0.199018	0.173049
1400	0.199182	0.197867	0.198196	0.260158	0.203455	0.173049
1401	0.198196	0.199182	0.199675	0.2572	0.204606	0.171077
1402	0.199018	0.197703	0.200497	0.258515	0.20099	0.167625
1403	0.201483	0.197045	0.19721	0.261638	0.201483	0.167297
1404	0.203291	0.198196	0.199182	0.261309	0.198524	0.168776
1405	0.19836	0.200497	0.19836	0.268212	0.202469	0.164831
1406	0.19721	0.19721	0.199839	0.262295	0.197374	0.164831
1407	0.202469	0.199675	0.198689	0.266075	0.199511	0.156613
1408	0.197703	0.19836	0.197538	0.266733	0.198524	0.166146
1409	0.200004	0.199018	0.199182	0.267226	0.200168	0.155956
1410	0.200661	0.200661	0.19836	0.266404	0.196717	0.155956
1411	0.201483	0.195566	0.200004	0.27117	0.202962	0.146423
1412	0.196552	0.202469	0.200004	0.267061	0.199018	0.153984
1413	0.20362	0.20099	0.205921	0.268541	0.200497	0.152833
1414	0.195402	0.197538	0.199675	0.269527	0.199018	0.149217
1415	0.203126	0.199675	0.20099	0.270184	0.200661	0.148724
1416	0.199018	0.200825	0.199675	0.270348	0.203455	0.152833
1417	0.199018	0.195895	0.201483	0.271499	0.200825	0.155299
1418	0.195895	0.197045	0.200168	0.269527	0.200497	0.153162
1419	0.198689	0.199346	0.199018	0.267061	0.196881	0.158914
1420	0.199839	0.199346	0.199182	0.267061	0.201319	0.158257
1421	0.199346	0.198196	0.198853	0.268047	0.196717	0.157107
1422	0.201319	0.197703	0.198196	0.268869	0.20214	0.155299
1423	0.204113	0.196552	0.200825	0.269855	0.199346	0.157764
1424	0.201812	0.19836	0.19836	0.27002	0.200332	0.155134
1425	0.197538	0.197045	0.199511	0.270184	0.199675	0.156942
1426	0.20362	0.198196	0.201319	0.271006	0.198524	0.156285
1427	0.198196	0.197045	0.198031	0.270184	0.207235	0.157107
1428	0.200661	0.202798	0.203784	0.269691	0.200004	0.154806
1429	0.201154	0.19721	0.197045	0.269034	0.197538	0.1576
1430	0.200497	0.19836	0.199346	0.268705	0.195402	0.158093
1431	0.19836	0.197045	0.19721	0.265418	0.196881	0.161544
1432	0.198689	0.196223	0.196552	0.269198	0.203291	0.158257
1433	0.198031	0.200004	0.199182	0.269034	0.200332	0.160887
1434	0.194416	0.198196	0.194087	0.262788	0.201647	0.162695
1435	0.198031	0.199018	0.199182	0.261966	0.199511	0.163845
1436	0.197867	0.195566	0.198689	0.262295	0.200497	0.164503
1437	0.200332	0.196881	0.200332	0.258679	0.200168	0.165653
1438	0.199346	0.197867	0.199675	0.261638	0.196059	0.165817
1439	0.19721	0.197538	0.201483	0.260158	0.199675	0.161215
1440	0.198853	0.196223	0.198689	0.2572	0.197538	0.167297
1441	0.202798	0.199346	0.199511	0.257693	0.201647	0.164338
1442	0.201976	0.197703	0.199675	0.255392	0.199182	0.169762
1443	0.203291	0.202633	0.200661	0.25835	0.201319	0.16779
1444	0.201483	0.201154	0.196388	0.253913	0.199511	0.168612
1445	0.201976	0.199675	0.202798	0.255063	0.201483	0.168283
1446	0.204934	0.199018	0.200004	0.24816	0.198853	0.170913
1447	0.205756	0.199018	0.199182	0.250297	0.197374	0.16894
1448	0.20099	0.198031	0.200661	0.247338	0.196059	0.172392
1449	0.199839	0.199675	0.201319	0.248982	0.186691	0.168776
1450	0.199675	0.200497	0.200497	0.245037	0.199675	0.167297
1451	0.198689	0.197867	0.199839	0.243887	0.196223	0.170913
1452	0.201154	0.201812	0.201483	0.242408	0.197045	0.174364
1453	0.199511	0.198689	0.200004	0.237641	0.198689	0.177651
1454	0.201319	0.198524	0.201647	0.237641	0.201154	0.178966
1455	0.19573	0.198524	0.199018	0.234847	0.199675	0.179623
1456	0.200332	0.199675	0.197045	0.240764	0.199675	0.176994
1457	0.202469	0.196881	0.198853	0.234683	0.203126	0.18439
1458	0.201976	0.197867	0.19836	0.237313	0.201812	0.181431
1459	0.199511	0.196552	0.19836	0.235012	0.203291	0.186033
1460	0.204606	0.199018	0.200497	0.235505	0.193922	0.186033
1461	0.199675	0.199346	0.197703	0.233533	0.199675	0.185869
1462	0.202305	0.200332	0.196881	0.227616	0.200497	0.183239
1463	0.201812	0.195895	0.196388	0.23682	0.19836	0.190964
1464	0.198689	0.190142	0.199511	0.229095	0.199182	0.185376
1465	0.20099	0.191457	0.199018	0.228602	0.201812	0.184061
1466	0.197703	0.202305	0.198853	0.229259	0.199511	0.191786
1467	0.201319	0.196388	0.198689	0.226958	0.201647	0.182253
1468	0.199018	0.198689	0.201154	0.224493	0.20099	0.18817
1469	0.201154	0.201812	0.200661	0.220877	0.200497	0.189978
1470	0.19721	0.197045	0.198524	0.22022	0.201483	0.189156
1471	0.197374	0.200168	0.199018	0.224657	0.199511	0.186855
1472	0.195895	0.199182	0.197703	0.220055	0.199346	0.188992
1473	0.201154	0.198196	0.19721	0.22137	0.205756	0.187841
1474	0.198196	0.198196	0.194744	0.224657	0.199675	0.195237
1475	0.203291	0.197538	0.196552	0.21874	0.202798	0.19458
1476	0.199018	0.198196	0.190635	0.218412	0.200004	0.1908
1477	0.200332	0.197538	0.196552	0.213645	0.202305	0.191786
1478	0.199839	0.198524	0.193594	0.217426	0.198689	0.190307
1479	0.205099	0.195237	0.191621	0.218576	0.201154	0.192115
1480	0.202469	0.198524	0.195566	0.215946	0.200497	0.191128
1481	0.19836	0.196388	0.195566	0.217919	0.194251	0.19195
1482	0.19836	0.200332	0.192279	0.218576	0.195895	0.191128
1483	0.197045	0.199839	0.196717	0.212824	0.201319	0.192443
1484	0.197374	0.201976	0.19721	0.210194	0.198524	0.192279
1485	0.19836	0.195566	0.198853	0.215618	0.199839	0.198689
1486	0.194909	0.200004	0.198031	0.216275	0.201319	0.197374
1487	0.193429	0.196388	0.197374	0.210029	0.201812	0.194909
1488	0.196388	0.19836	0.198689	0.21233	0.201483	0.191786
1489	0.196388	0.196717	0.193758	0.210523	0.200168	0.193922
1490	0.194251	0.195566	0.197045	0.211837	0.208057	0.193265
1491	0.19836	0.198853	0.196059	0.210687	0.201647	0.193265
1492	0.199839	0.198524	0.196059	0.210687	0.205099	0.192443
1493	0.198031	0.201976	0.194251	0.212166	0.204441	0.195073
1494	0.195237	0.19836	0.196717	0.210851	0.202633	0.19721
1495	0.199346	0.19721	0.193429	0.214303	0.202633	0.193429
1496	0.201319	0.196717	0.193429	0.208222	0.199675	0.197538
1497	0.200332	0.201647	0.195895	0.207728	0.20214	0.198853
1498	0.196717	0.195895	0.193758	0.212002	0.20362	0.193429
1499	0.199511	0.200004	0.198853	0.209043	0.203455	0.19458
1500	0.196552	0.198689	0.198031	0.207728	0.200497	0.195566
1501	0.196552	0.199839	0.197045	0.209208	0.205427	0.197045
1502	0.196717	0.197374	0.196223	0.207071	0.20362	0.197374
1503	0.197045	0.200004	0.199675	0.210194	0.208715	0.192608
1504	0.196388	0.200004	0.195402	0.205099	0.205921	0.195895
1505	0.194087	0.200825	0.201647	0.207071	0.204606	0.196552
1506	0.192443	0.198524	0.195073	0.205263	0.20362	0.198031
1507	0.198689	0.196717	0.198689	0.197045	0.20477	0.198689
1508	0.194416	0.201976	0.196717	0.202305	0.204277	0.201154
1509	0.196552	0.19458	0.195895	0.204277	0.207071	0.201319
1510	0.198196	0.200004	0.195237	0.206907	0.20477	0.200825
1511	0.199346	0.195566	0.194909	0.203126	0.203455	0.200497
1512	0.197703	0.199018	0.195237	0.205263	0.205099	0.198031
1513	0.19721	0.201647	0.091364	0.210029	0.202305	0.19721
1514	0.19721	0.202633	0.053726	0.202305	0.203948	0.196552
1515	0.198524	0.199346	0.061451	0.20477	0.203784	0.199018
1516	0.197374	0.201154	0.070819	0.207564	0.203291	0.197703
1517	0.197374	0.199511	0.071641	0.20214	0.202798	0.199346
1518	0.195895	0.199182	0.081831	0.193429	0.202633	0.196552
1519	0.195237	0.198196	0.085447	0.200004	0.201319	0.197867
1520	0.196717	0.207071	0.092021	0.202633	0.20362	0.193101
1521	0.192279	0.19836	0.094322	0.20099	0.203784	0.198689
1522	0.195566	0.196059	0.100403	0.203455	0.204277	0.197867
1523	0.192115	0.201319	0.104348	0.204934	0.204606	0.201812
1524	0.19573	0.197374	0.108457	0.205099	0.205427	0.200825
1525	0.194416	0.199182	0.112894	0.201483	0.207235	0.19836
1526	0.197703	0.199346	0.113881	0.201319	0.206249	0.199346
1527	0.197374	0.197703	0.113552	0.200168	0.205263	0.199346
1528	0.19721	0.197538	0.11799	0.202305	0.20214	0.20214
1529	0.197374	0.19721	0.117661	0.195237	0.200004	0.195073
1530	0.199018	0.19573	0.121112	0.20099	0.200332	0.199182
1531	0.199675	0.198524	0.125879	0.204113	0.199675	0.199018
1532	0.192279	0.19573	0.127029	0.200168	0.196717	0.200497
1533	0.199182	0.198031	0.129001	0.200168	0.201647	0.19836
1534	0.196717	0.197374	0.129495	0.202305	0.200168	0.201154
1535	0.199675	0.198196	0.006556	0.207071	0.201812	0.194416
1536	0.19573	0.199018	0.017896	0.205592	0.198196	0.19721
1537	0.196223	0.197538	0.029237	0.202798	0.20477	0.197374
1538	0.192608	0.199839	0.034989	0.204277	0.198853	0.197867
1539	0.196717	0.19721	0.041728	0.201483	0.201976	0.200004
1540	0.192608	0.199018	0.04748	0.195237	0.203455	0.196388
1541	0.193101	0.192115	0.054219	0.199511	0.203455	0.197538
1542	0.197045	0.198031	0.060958	0.199675	0.203291	0.200332
1543	0.197538	0.192608	0.063259	0.201647	0.202962	0.201319
1544	0.201154	0.200004	0.070326	0.202469	0.203291	0.197538
1545	0.197867	0.199346	0.077229	0.200825	0.206249	0.200168
1546	0.198031	0.19836	0.079037	0.202798	0.202633	0.195073
1547	0.203126	0.197703	0.086104	0.200332	0.206249	0.198689
1548	0.200332	0.201483	0.091364	0.200332	0.204606	0.198031
1549	0.195895	0.19721	0.093665	0.203126	0.199839	0.202305
1550	0.20099	0.197703	0.005898	0.201812	0.202633	0.196717
1551	0.194744	0.198853	0.012472	0.200825	0.198524	0.197867
1552	0.19836	0.199346	0.022498	0.203291	0.20477	0.19458
1553	0.197867	0.198689	0.027758	0.199511	0.196881	0.200661
1554	0.19836	0.196059	0.036797	0.205921	0.197703	0.199839
1555	0.199675	0.19836	0.040906	0.198031	0.199511	0.197867
1556	0.199182	0.200004	0.052904	0.199346	0.201647	0.199839
1557	0.198031	0.199018	0.053726	0.201812	0.201647	0.197538
1558	0.195566	0.19836	0.063259	0.200332	0.203784	0.199018
1559	0.197045	0.198196	0.067368	0.201976	0.203784	0.193922
1560	0.195895	0.199675	0.076079	0.202798	0.200168	0.199511
1561	0.196881	0.199839	0.07838	0.204113	0.203455	0.202469
1562	0.193594	0.19573	0.084296	0.199182	0.200004	0.201319
1563	0.198689	0.19721	0.08857	0.199346	0.200661	0.197703
1564	0.196552	0.19195	0.094322	0.19836	0.197703	0.202633
1565	0.20099	0.193265	0.097116	0.199839	0.201319	0.200332
1566	0.195895	0.193101	0.09613	0.200332	0.199675	0.199018
1567	0.200497	0.195073	0.108293	0.200004	0.199182	0.205592
1568	0.19721	0.199182	0.104841	0.197867	0.199018	0.196388
1569	0.198689	0.198524	0.109772	0.201154	0.198031	0.198031
1570	0.200168	0.200825	0.116346	0.196717	0.199675	0.196717
1571	0.195895	0.197538	0.118318	0.202962	0.199675	0.19721
1572	0.197045	0.199839	0.121277	0.199511	0.199511	0.196223
1573	0.195073	0.199182	0.12555	0.201647	0.199182	0.199182
1574	0.195073	0.201483	0.126865	0.201483	0.196388	0.197045
1575	0.196223	0.196059	0.130316	0.200661	0.200661	0.199675
1576	0.198031	0.198196	0.134261	0.197703	0.200004	0.199182
1577	0.194909	0.19836	0.131302	0.196552	0.202305	0.197703
1578	0.196552	0.200661	0.141986	0.202469	0.20362	0.20099
1579	0.195895	0.197538	0.140342	0.19573	0.197538	0.199018
1580	0.199839	0.199675	0.142643	0.203126	0.201319	0.197374
1581	0.196717	0.197538	0.140342	0.200661	0.201319	0.202305
1582	0.197703	0.199675	0.150204	0.199675	0.199018	0.199018
1583	0.196388	0.196881	0.149546	0.199839	0.195895	0.196717
1584	0.198689	0.197374	0.151683	0.204113	0.199018	0.20099
1585	0.196881	0.201154	0.151518	0.202305	0.197703	0.196059
1586	0.198524	0.195402	0.159243	0.202798	0.19836	0.19721
1587	0.197703	0.198853	0.152998	0.200497	0.201319	0.199839
1588	0.195895	0.199018	0.160722	0.201154	0.197867	0.195073
1589	0.194087	0.198524	0.162859	0.201483	0.199675	0.18439
1590	0.193429	0.19721	0.162695	0.199511	0.20099	0.199675
1591	0.198689	0.198031	0.165324	0.201647	0.200332	0.198853
1592	0.195895	0.193429	0.164996	0.202633	0.199839	0.200497
1593	0.19721	0.200004	0.171241	0.202798	0.198853	0.198196
1594	0.194909	0.188827	0.165817	0.201154	0.19836	0.200168
1595	0.195237	0.196552	0.170091	0.200661	0.201483	0.196223
1596	0.197374	0.199018	0.167625	0.198196	0.200004	0.19836
1597	0.202305	0.200168	0.171406	0.200497	0.203455	0.198031
1598	0.19836	0.196388	0.172227	0.198031	0.198689	0.198853
1599	0.198196	0.19836	0.176008	0.200332	0.198689	0.200497
1600	0.199839	0.197374	0.174364	0.198853	0.200004	0.195895
1601	0.200168	0.198196	0.174364	0.201976	0.198031	0.197867
1602	0.197867	0.199675	0.174693	0.195895	0.199182	0.198031
1603	0.202633	0.195073	0.17798	0.202633	0.199839	0.198524
1604	0.19721	0.199675	0.17913	0.201483	0.194909	0.199675
1605	0.200004	0.197538	0.177487	0.20099	0.200825	0.198031
1606	0.199346	0.19836	0.178637	0.203784	0.197867	0.200332
1607	0.203126	0.19721	0.182089	0.200332	0.196059	0.197374
1608	0.193758	0.199511	0.181596	0.200332	0.198853	0.196552
1609	0.193265	0.198031	0.180445	0.20099	0.198853	0.203126
1610	0.198853	0.202633	0.183239	0.202469	0.196717	0.201154
1611	0.195073	0.196059	0.182746	0.202962	0.198689	0.192936
1612	0.198689	0.197867	0.186855	0.200497	0.197045	0.199182
1613	0.197374	0.200825	0.183568	0.197045	0.196388	0.200004
1614	0.198031	0.198689	0.186362	0.199182	0.198031	0.196059
1615	0.197538	0.204934	0.188663	0.19836	0.198196	0.199675
1616	0.198853	0.200497	0.184883	0.200497	0.196223	0.197703
1617	0.200661	0.200497	0.187841	0.200825	0.197867	0.20099
1618	0.200004	0.195566	0.075421	0.200661	0.193922	0.198031
1619	0.201647	0.197703	0.004419	0.200004	0.195073	0.199346
1620	0.202962	0.196388	0.016746	0.20214	0.196223	0.199018
1621	0.197045	0.198689	0.024306	0.199511	0.194251	0.198031
1622	0.20099	0.19573	0.031045	0.200661	0.195566	0.201483
1623	0.20099	0.19573	0.040249	0.203126	0.199675	0.198524
1624	0.197045	0.194087	0.046987	0.199018	0.193758	0.197867
1625	0.195895	0.198524	0.052247	0.202469	0.194251	0.197867
1626	0.196881	0.197538	0.057013	0.195073	0.198196	0.200332
1627	0.198196	0.200497	0.064902	0.202962	0.193922	0.197703
1628	0.196059	0.200168	0.069176	0.200825	0.192115	0.198689
1629	0.199018	0.200825	0.078708	0.201647	0.193758	0.199675
1630	0.19836	0.199346	0.081667	0.198524	0.193758	0.199018
1631	0.196223	0.19721	0.089556	0.202305	0.197374	0.197703
1632	0.195895	0.199839	0.095801	0.200825	0.194909	0.200004
1633	0.199675	0.198196	0.098102	0.200004	0.196388	0.197703
1634	0.199018	0.197045	0.096788	0.197538	0.195566	0.19721
1635	0.200497	0.197374	0.104677	0.201319	0.192115	0.197703
1636	0.198524	0.195402	0.102211	0.197867	0.192279	0.198853
1637	0.199018	0.194744	0.107635	0.200004	0.19458	0.200332
1638	0.198031	0.199018	0.110922	0.202305	0.193594	0.203455
1639	0.195895	0.193265	0.112237	0.200004	0.193594	0.20214
1640	0.198689	0.197045	0.122098	0.205263	0.195237	0.192608
1641	0.195237	0.19836	0.124893	0.200825	0.192279	0.199018
1642	0.19836	0.200497	0.130316	0.204277	0.194251	0.199346
1643	0.193265	0.201319	0.132617	0.201154	0.190964	0.198196
1644	0.200332	0.203291	0.136233	0.199675	0.193758	0.198196
1645	0.196717	0.197703	0.137712	0.200332	0.19195	0.19836
1646	0.201154	0.199675	0.141493	0.199346	0.197867	0.195237
1647	0.199182	0.198689	0.141986	0.201976	0.19195	0.198524
1648	0.199675	0.196388	0.147903	0.200661	0.195237	0.196223
1649	0.198524	0.202305	0.146916	0.201483	0.19195	0.19836
1650	0.198031	0.199018	0.150039	0.199511	0.196059	0.199182
1651	0.199182	0.200332	0.150697	0.203948	0.193922	0.199018
1652	0.200332	0.196717	0.152669	0.197374	0.194251	0.20099
1653	0.200332	0.197538	0.153819	0.200332	0.194909	0.197538
1654	0.201647	0.199675	0.144451	0.199018	0.195073	0.20362
1655	0.201812	0.196552	0.149217	0.199182	0.200168	0.199182
1656	0.197703	0.196223	0.147903	0.199018	0.194087	0.200332
1657	0.199346	0.196223	0.151025	0.199182	0.197703	0.200168
1658	0.193758	0.19573	0.153655	0.200497	0.193429	0.200825
1659	0.195402	0.197867	0.1576	0.202633	0.19573	0.199018
1660	0.198196	0.199675	0.157928	0.201647	0.195402	0.200497
1661	0.199182	0.199839	0.131302	0.204113	0.192772	0.201647
1662	0.198196	0.202305	0.010336	0.201812	0.193922	0.200661
1663	0.198031	0.200004	0.019704	0.199675	0.194251	0.199018
1664	0.197703	0.203784	0.021512	0.199675	0.192115	0.19836
1665	0.197045	0.199182	0.034496	0.195895	0.196223	0.20099
1666	0.199511	0.192443	0.040249	0.198524	0.194744	0.199839
1667	0.199346	0.196388	0.047645	0.199346	0.19195	0.201154
1668	0.198196	0.199839	0.05537	0.193758	0.197538	0.199346
1669	0.197538	0.197538	0.059478	0.196059	0.196223	0.200661
1670	0.192936	0.197703	0.06556	0.201154	0.199675	0.199182
1671	0.199182	0.195895	0.070819	0.197703	0.195237	0.200825
1672	0.199346	0.198853	0.076079	0.198689	0.19721	0.199018
1673	0.19721	0.196059	0.080187	0.200332	0.198031	0.200168
1674	0.200168	0.195073	0.083968	0.19836	0.195895	0.200332
1675	0.195402	0.197867	0.090871	0.198689	0.194251	0.201976
1676	0.199018	0.19836	0.096459	0.199018	0.193265	0.198853
1677	0.199675	0.19836	0.097445	0.193758	0.192115	0.200497
1678	0.197867	0.199018	0.105005	0.198853	0.197867	0.197538
1679	0.200825	0.197867	0.107142	0.200332	0.193594	0.195895
1680	0.194909	0.199346	0.110593	0.200004	0.195237	0.198031
1681	0.193758	0.197867	0.11536	0.200497	0.195895	0.197045
1682	0.195402	0.198031	0.117003	0.198853	0.198689	0.19836
1683	0.196717	0.201976	0.11914	0.19836	0.197538	0.197867
1684	0.196717	0.199182	0.123742	0.203455	0.19573	0.198853
1685	0.196717	0.200168	0.124728	0.197538	0.197538	0.199675
1686	0.194909	0.194909	0.128508	0.196552	0.195895	0.20099
1687	0.199018	0.195073	0.138205	0.204113	0.197867	0.19573
1688	0.197045	0.195895	0.135904	0.200168	0.198853	0.198853
1689	0.19721	0.195237	0.137712	0.198196	0.199018	0.202798
1690	0.200168	0.190964	0.141657	0.201154	0.197045	0.197045
1691	0.199511	0.194251	0.144615	0.204934	0.197703	0.198853
1692	0.197703	0.198689	0.145273	0.197867	0.195895	0.198524
1693	0.201319	0.196717	0.147409	0.202469	0.197703	0.197374
1694	0.197703	0.201647	0.149053	0.199182	0.19573	0.198524
1695	0.198853	0.203948	0.151354	0.20362	0.197045	0.194909
1696	0.194744	0.199346	0.157435	0.199839	0.200004	0.199182
1697	0.199511	0.195402	0.156285	0.199346	0.196059	0.202962
1698	0.198031	0.201154	0.158586	0.199675	0.197374	0.194744
1699	0.198031	0.197374	0.158093	0.199839	0.199839	0.198689
1700	0.200332	0.199675	0.163023	0.200825	0.190635	0.199018
1701	0.197374	0.199182	0.160558	0.205592	0.192936	0.19573
1702	0.202305	0.197703	0.164667	0.200332	0.191128	0.19721
1703	0.195895	0.19721	0.166475	0.196881	0.176665	0.199839
1704	0.192772	0.19721	0.16516	0.202633	0.179788	0.199839
1705	0.197538	0.19721	0.166475	0.198196	0.174528	0.201319
1706	0.198689	0.19836	0.168283	0.199675	0.1742	0.199182
1707	0.196388	0.197045	0.168447	0.197703	0.175186	0.200825
1708	0.198689	0.199346	0.171899	0.199675	0.177815	0.201812
1709	0.200332	0.197374	0.171077	0.199182	0.176501	0.19836
1710	0.201483	0.194416	0.172556	0.205756	0.181267	0.197045
1711	0.203126	0.20477	0.176501	0.200004	0.17913	0.197045
1712	0.199018	0.197703	0.176829	0.20214	0.179952	0.200004
1713	0.20214	0.198689	0.179623	0.204113	0.182253	0.193429
1714	0.197867	0.198196	0.181267	0.200004	0.068847	0.198689
1715	0.19836	0.198853	0.174857	0.201483	0.00672	0.198031
1716	0.19458	0.194744	0.177158	0.195895	0.015595	0.198689
1717	0.200004	0.204441	0.18061	0.197045	0.023649	0.197867
1718	0.193922	0.197538	0.176665	0.197374	0.026443	0.202633
1719	0.194251	0.199182	0.183239	0.198689	0.032688	0.199675
1720	0.194087	0.198853	0.181924	0.192443	0.037619	0.199346
1721	0.19573	0.200661	0.181924	0.199675	0.043536	0.197867
1722	0.195073	0.197374	0.183239	0.196717	0.045508	0.202469
1723	0.196223	0.198031	0.184554	0.20477	0.055041	0.199839
1724	0.199018	0.19721	0.183568	0.201647	0.05915	0.199839
1725	0.196552	0.196717	0.19195	0.20099	0.067039	0.201319
1726	0.196059	0.200004	0.180281	0.199018	0.07049	0.200661
1727	0.20099	0.195566	0.18554	0.199675	0.078873	0.19836
1728	0.195402	0.202305	0.183404	0.197703	0.082324	0.195566
1729	0.196388	0.196881	0.18554	0.200332	0.086597	0.200168
1730	0.195073	0.19836	0.187184	0.199346	0.094815	0.197703
1731	0.193758	0.19836	0.187513	0.200332	0.097445	0.198524
1732	0.199182	0.200004	0.179459	0.201647	0.105498	0.196223
1733	0.195895	0.199839	0.184883	0.199346	0.10895	0.201154
1734	0.196552	0.199839	0.189814	0.203784	0.109936	0.197045
1735	0.185376	0.19721	0.188006	0.203126	0.114374	0.199839
1736	0.19195	0.199182	0.198524	0.202469	0.118483	0.199346
1737	0.19458	0.199182	0.188992	0.201483	0.119633	0.202469
1738	0.19195	0.199182	0.190471	0.203948	0.129001	0.199018
1739	0.194416	0.203784	0.191293	0.200004	0.129659	0.200661
1740	0.194251	0.197867	0.18817	0.198031	0.015102	0.203291
1741	0.194416	0.196223	0.190471	0.199346	0.021841	0.205427
1742	0.19836	0.197703	0.192608	0.199675	0.03088	0.200332
1743	0.19721	0.198689	0.192115	0.199346	0.038605	0.194416
1744	0.19836	0.195566	0.191786	0.199839	0.046001	0.199511
1745	0.198524	0.201647	0.192608	0.205756	0.051754	0.194909
1746	0.18554	0.199018	0.1908	0.201976	0.059807	0.197045
1747	0.19195	0.198853	0.196223	0.203126	0.06293	0.198689
1748	0.192772	0.200168	0.192443	0.198853	0.066381	0.197703
1749	0.197045	0.200825	0.192115	0.201812	0.077065	0.196717
1750	0.196717	0.20362	0.194909	0.19836	0.081009	0.199182
1751	0.197703	0.197374	0.194909	0.201647	0.086762	0.200825
1752	0.194744	0.19721	0.192115	0.198853	0.091692	0.202305
1753	0.195402	0.198853	0.19721	0.201154	0.100075	0.196717
1754	0.196388	0.199675	0.193429	0.198524	0.102211	0.203455
1755	0.196881	0.198031	0.196881	0.199182	0.105663	0.201319
1756	0.196552	0.199018	0.195566	0.197703	0.10517	0.199839
1757	0.199182	0.196717	0.193758	0.200168	0.116839	0.198689
1758	0.196552	0.202798	0.188827	0.199675	0.12177	0.193594
1759	0.201976	0.198689	0.191786	0.199018	0.117825	0.198524
1760	0.200661	0.202469	0.1908	0.203784	0.123578	0.196388
1761	0.196881	0.192279	0.193758	0.196717	0.127687	0.19721
1762	0.203126	0.195402	0.193429	0.198031	0.129001	0.195237
1763	0.199675	0.196388	0.192608	0.200497	0.132289	0.198031
1764	0.199346	0.197867	0.197703	0.200168	0.137219	0.197374
1765	0.199511	0.197374	0.192115	0.199182	0.139356	0.198524
1766	0.200168	0.201647	0.193429	0.200497	0.141657	0.199018
1767	0.20214	0.201154	0.192608	0.198031	0.141821	0.201976
1768	0.198853	0.197867	0.195895	0.198524	0.143794	0.198524
1769	0.195073	0.199346	0.182417	0.199346	0.148724	0.197703
1770	0.195566	0.199346	0.19573	0.199511	0.150532	0.198853
1771	0.19573	0.199346	0.194744	0.197867	0.151847	0.198524
1772	0.197045	0.185376	0.195895	0.199511	0.152505	0.200332
1773	0.197867	0.198196	0.197538	0.197703	0.15612	0.201319
1774	0.196717	0.196552	0.194909	0.199511	0.158257	0.199182
1775	0.198853	0.198689	0.19458	0.20214	0.164174	0.196059
1776	0.199675	0.19836	0.194909	0.199839	0.159901	0.198031
1777	0.200825	0.196717	0.195895	0.202798	0.163681	0.196881
1778	0.199346	0.198031	0.195402	0.200168	0.161051	0.198524
1779	0.199511	0.198031	0.195895	0.200168	0.163516	0.198031
1780	0.195895	0.197703	0.184225	0.204277	0.165982	0.197867
1781	0.199839	0.198689	0.190471	0.203784	0.00294	0.197867
1782	0.199839	0.196717	0.191293	0.200497	0.004255	0.199182
1783	0.202469	0.186526	0.193594	0.207235	0.016253	0.196552
1784	0.196881	0.196223	0.193429	0.203948	0.023649	0.199675
1785	0.199675	0.198196	0.198031	0.202798	0.031702	0.197538
1786	0.19573	0.198689	0.193758	0.20214	0.039756	0.198689
1787	0.196223	0.197045	0.194416	0.203455	0.048795	0.200168
1788	0.197045	0.196552	0.196223	0.203948	0.050439	0.199675
1789	0.197374	0.194251	0.196717	0.199182	0.057342	0.200168
1790	0.197045	0.198689	0.198853	0.197703	0.064902	0.200168
1791	0.196223	0.197703	0.189156	0.201483	0.06934	0.198689
1792	0.19836	0.196388	0.198524	0.201154	0.074764	0.200004
1793	0.196388	0.198196	0.194087	0.200661	0.073942	0.198853
1794	0.200497	0.195402	0.198031	0.202469	0.086269	0.196388
1795	0.199018	0.190471	0.196881	0.200332	0.086762	0.201154
1796	0.200661	0.19573	0.192936	0.200332	0.09613	0.195566
1797	0.201154	0.196881	0.195895	0.203455	0.100403	0.199018
1798	0.197867	0.19573	0.196552	0.201154	0.103033	0.198853
1799	0.201483	0.197374	0.19573	0.199346	0.103526	0.201647
1800	0.198689	0.197045	0.197374	0.201647	0.109607	0.196881
1801	0.198196	0.198031	0.195566	0.197867	0.111251	0.198853
1802	0.200661	0.200661	0.194416	0.203126	0.117003	0.195237
1803	0.198031	0.197867	0.198524	0.202798	0.116839	0.198524
1804	0.197538	0.198853	0.197374	0.199839	0.120784	0.205263
1805	0.198031	0.200004	0.198031	0.200168	0.1267	0.196059
1806	0.196717	0.197045	0.198031	0.199182	0.129001	0.200332
1807	0.198853	0.200661	0.198524	0.199182	0.137548	0.196881
1808	0.197538	0.195237	0.199018	0.200661	0.138863	0.199675
1809	0.203126	0.201812	0.201483	0.203291	0.139849	0.20099
1810	0.20099	0.196881	0.199346	0.19721	0.115031	0.201483
1811	0.198196	0.19573	0.199346	0.199839	0.121441	0.200004
1812	0.197703	0.194744	0.196059	0.196717	0.122263	0.201154
1813	0.203291	0.199346	0.19836	0.201319	0.126207	0.202798
1814	0.197703	0.194087	0.194087	0.201319	0.126536	0.201976
1815	0.202305	0.198689	0.202798	0.204606	0.12933	0.200661
1816	0.199839	0.197374	0.196552	0.20214	0.132453	0.199839
1817	0.203455	0.187184	0.19721	0.203948	0.136069	0.199346
1818	0.19836	0.197703	0.19836	0.202305	0.136891	0.198689
1819	0.195895	0.199182	0.197045	0.198689	0.143301	0.199675
1820	0.200825	0.196059	0.199182	0.200661	0.143794	0.199018
1821	0.196717	0.198196	0.199839	0.200004	0.146095	0.201154
1822	0.19836	0.199018	0.200497	0.198853	0.14856	0.198196
1823	0.198196	0.195402	0.195566	0.19458	0.15234	0.194744
1824	0.199839	0.20477	0.193758	0.201319	0.15119	0.198524
1825	0.196223	0.196388	0.189814	0.199675	0.154806	0.19836
1826	0.19573	0.20099	0.192936	0.205263	0.159079	0.197045
1827	0.197538	0.198031	0.192115	0.203291	0.155627	0.198196
1828	0.198689	0.19721	0.192936	0.203291	0.161051	0.196223
1829	0.197867	0.197703	0.192279	0.199182	0.157764	0.198853
1830	0.201154	0.196223	0.192279	0.20099	0.163845	0.197538
1831	0.200825	0.196059	0.189156	0.197538	0.164338	0.200168
1832	0.201319	0.197045	0.196552	0.201483	0.161709	0.198524
1833	0.199839	0.196388	0.194416	0.200661	0.163188	0.20099
1834	0.197867	0.195402	0.192279	0.200168	0.168447	0.199182
1835	0.198031	0.199839	0.192115	0.202469	0.16894	0.197538
1836	0.195073	0.195237	0.155134	0.20477	0.169269	0.196223
1837	0.197538	0.199018	0.160887	0.202305	0.172227	0.196223
1838	0.194251	0.198689	0.163845	0.19836	0.174364	0.196717
1839	0.195073	0.197703	0.164503	0.195237	0.176501	0.195895
1840	0.194744	0.195895	0.165324	0.197867	0.176336	0.19573
1841	0.199018	0.198196	0.169105	0.202305	0.17798	0.195073
1842	0.197867	0.195402	0.166311	0.200332	0.178144	0.19836
1843	0.197374	0.199346	0.171734	0.200332	0.182089	0.196717
1844	0.197538	0.199839	0.167461	0.199182	0.180116	0.195073
1845	0.199182	0.192772	0.179788	0.199018	0.185869	0.196881
1846	0.201483	0.198524	0.16779	0.199675	0.185047	0.200825
1847	0.203948	0.19573	0.172063	0.199346	0.190471	0.19836
1848	0.199511	0.197045	0.173542	0.202469	0.185869	0.196717
1849	0.19836	0.19573	0.176172	0.200004	0.18817	0.19836
1850	0.200168	0.200497	0.172227	0.199346	0.186198	0.199839
1851	0.199182	0.195566	0.175843	0.200168	0.186362	0.200497
1852	0.200168	0.198196	0.178473	0.198031	0.185869	0.200661
1853	0.200168	0.194251	0.176501	0.204113	0.184883	0.198853
1854	0.200332	0.19836	0.182253	0.198853	0.188499	0.197867
1855	0.198196	0.198853	0.180774	0.20099	0.18817	0.196223
1856	0.199346	0.197538	0.180774	0.199839	0.190964	0.196388
1857	0.200332	0.200168	0.181267	0.195895	0.19195	0.201319
1858	0.197045	0.200004	0.184883	0.20099	0.189485	0.198196
1859	0.196881	0.198689	0.181267	0.197703	0.189978	0.199018
1860	0.199182	0.196717	0.185705	0.20099	0.192772	0.20214
1861	0.189814	0.199182	0.183075	0.196388	0.189649	0.200004
1862	0.196059	0.198853	0.185376	0.199511	0.192936	0.197045
1863	0.194416	0.199511	0.183239	0.197703	0.193265	0.19721
1864	0.196552	0.197045	0.183404	0.197703	0.191128	0.193922
1865	0.199346	0.198689	0.187019	0.199182	0.193758	0.198196
1866	0.198031	0.197374	0.187677	0.199511	0.193758	0.199182
1867	0.201483	0.194416	0.186526	0.198524	0.191128	0.197867
1868	0.199511	0.203291	0.185705	0.199839	0.191786	0.198524
1869	0.199839	0.201483	0.188663	0.200825	0.19195	0.195895
1870	0.197703	0.199839	0.184061	0.199346	0.195237	0.198853
1871	0.200497	0.198853	0.187184	0.200168	0.193101	0.197867
1872	0.197045	0.197867	0.186691	0.196223	0.191457	0.200168
1873	0.197867	0.198689	0.188827	0.198524	0.194909	0.196552
1874	0.196717	0.199675	0.187513	0.197045	0.191786	0.198853
1875	0.199018	0.198853	0.188663	0.196552	0.188827	0.196223
1876	0.192443	0.199018	0.190142	0.193101	0.191293	0.196388
1877	0.199839	0.199182	0.190307	0.197374	0.194744	0.197374
1878	0.197374	0.195895	0.189814	0.199346	0.194251	0.196717
1879	0.198524	0.197374	0.189814	0.20099	0.195237	0.198853
1880	0.195566	0.199018	0.190471	0.196059	0.188663	0.197538
1881	0.195237	0.197703	0.187348	0.19836	0.188992	0.198196
1882	0.198689	0.199182	0.189485	0.196223	0.191621	0.201812
1883	0.19573	0.200004	0.188827	0.19573	0.189814	0.199839
1884	0.197538	0.199018	0.187841	0.197703	0.190635	0.199675
1885	0.197867	0.19458	0.187184	0.196717	0.191128	0.200332
1886	0.201319	0.195237	0.188827	0.197867	0.188006	0.197374
1887	0.19721	0.194909	0.191128	0.193101	0.188663	0.200497
1888	0.19836	0.200825	0.191786	0.198524	0.192279	0.194909
1889	0.194909	0.196059	0.18932	0.194416	0.194087	0.200825
1890	0.198524	0.19836	0.189156	0.201812	0.197374	0.195895
1891	0.19573	0.200825	0.194909	0.199018	0.18817	0.196223
1892	0.196552	0.199839	0.188992	0.197045	0.193758	0.192115
1893	0.196388	0.199675	0.189978	0.196059	0.19195	0.196717
1894	0.197867	0.201483	0.192936	0.197045	0.194087	0.198196
1895	0.197703	0.199839	0.191457	0.194087	0.194744	0.195073
1896	0.19836	0.19458	0.192115	0.198196	0.195237	0.196059
1897	0.19458	0.199018	0.191457	0.196059	0.193758	0.198853
1898	0.196552	0.19721	0.193922	0.199182	0.19721	0.198524
1899	0.200004	0.198689	0.189978	0.201319	0.195073	0.195895
1900	0.198689	0.201483	0.189814	0.195895	0.193101	0.198031
1901	0.199839	0.199511	0.192443	0.197703	0.198524	0.197703
1902	0.198689	0.199675	0.192772	0.195566	0.191621	0.198853
1903	0.203948	0.198031	0.194251	0.196552	0.193758	0.196717
1904	0.19721	0.196881	0.191786	0.19836	0.192608	0.199346
1905	0.20214	0.200825	0.197045	0.196388	0.194251	0.197374
1906	0.199018	0.198689	0.191786	0.195566	0.191457	0.200497
1907	0.199346	0.197045	0.190964	0.199018	0.19458	0.199346
1908	0.202305	0.199018	0.189649	0.195073	0.190964	0.19721
1909	0.200661	0.19836	0.193594	0.197867	0.18932	0.197374
1910	0.199675	0.197703	0.193429	0.200332	0.192936	0.197374
1911	0.196388	0.199346	0.193758	0.198031	0.192772	0.196552
1912	0.196059	0.20477	0.193758	0.197045	0.193758	0.198689
1913	0.200497	0.197538	0.19573	0.199018	0.193594	0.198853
1914	0.194744	0.201319	0.193265	0.197538	0.192279	0.197045
1915	0.192443	0.20099	0.194416	0.19721	0.192772	0.204277
1916	0.202469	0.199182	0.19721	0.195402	0.193922	0.200004
1917	0.198031	0.197703	0.193758	0.192936	0.191786	0.203455
1918	0.195566	0.199675	0.193922	0.195566	0.192608	0.197703
1919	0.200168	0.193429	0.192279	0.194087	0.192443	0.201154
1920	0.20214	0.196388	0.19721	0.194251	0.194416	0.196552
1921	0.198524	0.195895	0.192279	0.197703	0.193101	0.199018
1922	0.20214	0.197538	0.196717	0.19836	0.193101	0.19721
1923	0.199675	0.199839	0.194744	0.198524	0.19195	0.198031
1924	0.200497	0.197703	0.197867	0.202305	0.193758	0.197374
1925	0.199839	0.198689	0.193594	0.199182	0.190471	0.199675
1926	0.199839	0.197703	0.193758	0.199018	0.192443	0.193429
1927	0.20214	0.197045	0.195895	0.19573	0.191457	0.197703
1928	0.198524	0.19721	0.19721	0.19573	0.192772	0.199511
1929	0.193758	0.197538	0.194744	0.200004	0.194416	0.195566
1930	0.198689	0.197045	0.194416	0.196223	0.18932	0.200825
1931	0.200332	0.205592	0.202633	0.198196	0.194416	0.200332
1932	0.196881	0.19721	0.196223	0.197703	0.19573	0.199511
1933	0.199346	0.201483	0.194744	0.198853	0.193922	0.19836
1934	0.199839	0.201647	0.19836	0.197538	0.19721	0.198196
1935	0.200497	0.198853	0.197867	0.200497	0.192772	0.197703
1936	0.196881	0.196388	0.195402	0.196552	0.19195	0.196717
1937	0.20099	0.193101	0.197538	0.200661	0.195895	0.197374
1938	0.201483	0.194744	0.193594	0.197703	0.194744	0.196881
1939	0.200661	0.195566	0.193922	0.200661	0.194251	0.199182
1940	0.198689	0.193101	0.196881	0.201812	0.192936	0.199346
1941	0.202962	0.194744	0.196388	0.204606	0.19721	0.201647
1942	0.202962	0.198689	0.197703	0.197045	0.192608	0.197867
1943	0.201647	0.19458	0.197538	0.202798	0.194416	0.194087
1944	0.201319	0.203784	0.19721	0.200332	0.196388	0.199346
1945	0.20214	0.202305	0.19836	0.199346	0.193101	0.200168
1946	0.199675	0.200497	0.196717	0.201976	0.189814	0.196881
1947	0.199182	0.196388	0.197867	0.198031	0.193922	0.198524
1948	0.204277	0.201319	0.201647	0.20477	0.194251	0.198853
1949	0.196059	0.198689	0.195566	0.19836	0.193758	0.196223
1950	0.200497	0.198853	0.198524	0.200004	0.196552	0.197045
1951	0.200004	0.199018	0.196059	0.197045	0.194416	0.199346
1952	0.202962	0.197703	0.195402	0.200168	0.197538	0.197374
1953	0.202798	0.197703	0.200497	0.198031	0.195566	0.20099
1954	0.205263	0.196717	0.195073	0.19721	0.196223	0.19836
1955	0.202305	0.200004	0.197867	0.19836	0.197703	0.200168
1956	0.204113	0.20099	0.199675	0.203784	0.182417	0.199182
1957	0.204934	0.198853	0.198196	0.202305	0.194087	0.19836
1958	0.201976	0.196059	0.195402	0.201647	0.192608	0.195237
1959	0.203455	0.19721	0.192936	0.200332	0.188992	0.199182
1960	0.201319	0.197703	0.201319	0.200332	0.194416	0.196223
1961	0.201319	0.202798	0.196223	0.20099	0.193429	0.198031
1962	0.202798	0.199346	0.198196	0.199675	0.192115	0.200497
1963	0.202469	0.197374	0.193265	0.200497	0.196388	0.197703
1964	0.202962	0.199182	0.19721	0.198853	0.069669	0.205592
1965	0.203948	0.200004	0.197867	0.200168	0.031538	0.201976
1966	0.200168	0.198853	0.197703	0.198853	0.037619	0.197703
1967	0.200168	0.203455	0.200168	0.199346	0.038441	0.198524
1968	0.197045	0.197374	0.198031	0.19721	0.044029	0.19721
1969	0.201154	0.193594	0.200497	0.200168	0.057342	0.197045
1970	0.201154	0.198196	0.196388	0.18554	0.062437	0.201976
1971	0.200332	0.19721	0.19836	0.195895	0.068682	0.199182
1972	0.204606	0.196552	0.195895	0.200825	0.074928	0.201647
1973	0.202305	0.196552	0.197703	0.20099	0.079859	0.198524
1974	0.204934	0.199839	0.19573	0.200661	0.083803	0.202305
1975	0.203291	0.193265	0.199018	0.201483	0.091035	0.202962
1976	0.20477	0.199018	0.195073	0.201976	0.092679	0.197045
1977	0.201154	0.198689	0.196717	0.200168	0.097609	0.198853
1978	0.201976	0.196552	0.202798	0.204606	0.097281	0.198853
1979	0.202798	0.198853	0.197374	0.199018	0.099253	0.19721
1980	0.202798	0.200497	0.197703	0.201483	0.11158	0.197045
1981	0.201483	0.199511	0.199018	0.196881	0.111908	0.201319
1982	0.205592	0.199182	0.200825	0.199675	0.115524	0.197703
1983	0.200168	0.199018	0.194416	0.199839	0.119633	0.200168
1984	0.203455	0.199018	0.197538	0.199839	0.125386	0.195895
1985	0.202305	0.199346	0.199346	0.199839	0.12555	0.200661
1986	0.199182	0.200332	0.200825	0.200004	0.134261	0.199839
1987	0.19721	0.196059	0.201976	0.199346	0.131796	0.199018
1988	0.201319	0.193922	0.198031	0.200332	0.13459	0.204606
1989	0.205921	0.195566	0.199675	0.201976	0.137548	0.201812
1990	0.200825	0.195895	0.200332	0.203291	0.140506	0.201647
1991	0.196552	0.194909	0.197045	0.204934	0.141493	0.200497
1992	0.20362	0.195566	0.197374	0.199182	0.142807	0.20214
1993	0.200661	0.200825	0.199839	0.201154	0.147574	0.19721
1994	0.200168	0.198196	0.194087	0.201812	0.147738	0.197703
1995	0.205756	0.19836	0.199182	0.199839	0.15119	0.19836
1996	0.200004	0.198689	0.200497	0.196881	0.149875	0.201483
1997	0.202962	0.197374	0.199675	0.20099	0.155956	0.196388
1998	0.200661	0.201647	0.199346	0.197045	0.152669	0.197703
1999	0.200497	0.198853	0.201154	0.199346	0.155463	0.196717
2000	0.199182	0.197045	0.198853	0.200661	0.162037	0.196717
2001	0.197374	0.201319	0.200004	0.201319	0.162202	0.200332
2002	0.198196	0.199346	0.196717	0.198196	0.160722	0.19721
2003	0.203784	0.199511	0.202798	0.201154	0.166311	0.198196
2004	0.204441	0.202305	0.201647	0.199018	0.161873	0.051261
2005	0.200661	0.19721	0.193429	0.200661	0.17272	0.057506
2006	0.204277	0.198689	0.194744	0.199511	0.169598	0.063094
2007	0.203948	0.195237	0.20099	0.200168	0.169926	0.067203
2008	0.201319	0.199675	0.199346	0.202469	0.17535	0.070819
2009	0.197867	0.193758	0.199018	0.197703	0.173542	0.079366
2010	0.199675	0.200168	0.195895	0.19836	0.173214	0.082324
2011	0.196059	0.199018	0.197045	0.202633	0.175843	0.08972
2012	0.204277	0.197538	0.200168	0.201812	0.175679	0.093665
2013	0.19836	0.19836	0.196717	0.196881	0.174693	0.097938
2014	0.20099	0.200661	0.195402	0.204606	0.179459	0.100568
2015	0.198853	0.199018	0.195237	0.199511	0.176665	0.104841
2016	0.199675	0.199018	0.199839	0.20099	0.180938	0.10139
2017	0.200497	0.196223	0.198689	0.200004	0.181103	0.111415
2018	0.199182	0.199511	0.203784	0.197538	0.178966	0.115853
2019	0.196717	0.201154	0.200661	0.201154	0.182582	0.11914
2020	0.197538	0.200497	0.20362	0.198196	0.186033	0.122427
2021	0.197045	0.201647	0.19721	0.19836	0.184718	0.1267
2022	0.201647	0.193758	0.198524	0.196717	0.185869	0.129823
2023	0.196881	0.199511	0.199839	0.196059	0.188499	0.129495
2024	0.193922	0.197867	0.196717	0.199839	0.185869	0.138863
2025	0.194744	0.201319	0.197045	0.202469	0.188827	0.134918
2026	0.196552	0.194744	0.19836	0.201647	0.187019	0.138205
2027	0.197867	0.197867	0.197538	0.201976	0.189156	0.142807
2028	0.196552	0.196223	0.196388	0.203291	0.186691	0.145766
2029	0.200497	0.198689	0.201154	0.204113	0.187513	0.145108
2030	0.200825	0.197703	0.200497	0.200168	0.188006	0.14971
2031	0.19836	0.197538	0.200825	0.204441	0.189978	0.148231
2032	0.200661	0.200168	0.199346	0.200661	0.188499	0.150861
2033	0.200168	0.197374	0.198524	0.203126	0.189814	0.153162
2034	0.195895	0.195566	0.198031	0.203291	0.191621	0.156449
2035	0.195895	0.199346	0.200168	0.201319	0.193922	0.158093
2036	0.196552	0.203455	0.198196	0.201976	0.19573	0.159736
2037	0.19573	0.198853	0.199675	0.203455	0.194909	0.163352
2038	0.196223	0.196881	0.200825	0.199346	0.19573	0.16138
2039	0.19721	0.195402	0.196552	0.200004	0.195402	0.165817
2040	0.197867	0.198689	0.202305	0.202305	0.194087	0.167954
2041	0.196552	0.197045	0.198853	0.197703	0.198031	0.167954
2042	0.198031	0.197867	0.196717	0.195895	0.197703	0.171077
2043	0.198196	0.197374	0.196552	0.19836	0.195566	0.172556
2044	0.19836	0.198853	0.199018	0.200661	0.196881	0.169105
2045	0.198031	0.199511	0.195895	0.199511	0.200168	0.173378
2046	0.200332	0.19836	0.201154	0.199839	0.196388	0.172227
2047	0.198031	0.196717	0.197045	0.200004	0.197374	0.17157
2048	0.202305	0.200661	0.198196	0.204606	0.202305	0.170091
2049	0.199346	0.198524	0.199182	0.199018	0.19721	0.175186
2050	0.200332	0.197374	0.199511	0.202962	0.19836	0.173214
2051	0.196717	0.197703	0.203126	0.202633	0.198196	0.177158
2052	0.197045	0.198031	0.201647	0.202633	0.196552	0.176501
2053	0.193429	0.200004	0.199675	0.201154	0.202798	0.176994
2054	0.192772	0.199675	0.200497	0.199346	0.199346	0.180938
2055	0.199675	0.197703	0.201154	0.203126	0.201154	0.180445
2056	0.190471	0.199018	0.196552	0.200825	0.203291	0.181924
2057	0.197867	0.199018	0.198689	0.201976	0.201319	0.178637
2058	0.197538	0.199182	0.199346	0.199346	0.201647	0.183404
2059	0.196552	0.197045	0.198853	0.204441	0.199839	0.183732
2060	0.195895	0.198031	0.200168	0.199511	0.201812	0.184718
2061	0.197703	0.204441	0.201812	0.201976	0.205263	0.18439
2062	0.196717	0.198853	0.194416	0.202633	0.201319	0.187513
2063	0.199346	0.197374	0.199839	0.201976	0.200004	0.18554
2064	0.199839	0.199018	0.197045	0.201483	0.199346	0.184061
2065	0.200661	0.195073	0.200497	0.202962	0.201154	0.186033
2066	0.206578	0.201154	0.198689	0.203784	0.201154	0.184061
2067	0.191786	0.200661	0.201319	0.202962	0.204113	0.188006
2068	0.20099	0.198689	0.199511	0.203291	0.200825	0.187841
2069	0.198196	0.19836	0.199839	0.199839	0.200332	0.189156
2070	0.19836	0.200497	0.20099	0.201976	0.201812	0.187841
2071	0.197703	0.192936	0.200168	0.201812	0.199182	0.1908
2072	0.196717	0.19836	0.202305	0.200332	0.201154	0.188827
2073	0.192279	0.199839	0.200004	0.200661	0.201319	0.191293
2074	0.196223	0.197538	0.199839	0.20214	0.20099	0.190471
2075	0.200825	0.198031	0.20099	0.196223	0.198853	0.192443
2076	0.19836	0.199839	0.201812	0.203455	0.199182	0.192115
2077	0.200168	0.19836	0.197703	0.199839	0.199018	0.197867
2078	0.198853	0.199182	0.198853	0.197374	0.203126	0.18932
2079	0.199346	0.199511	0.197045	0.202305	0.197045	0.191457
2080	0.200004	0.198031	0.200004	0.201812	0.194909	0.191457
2081	0.199675	0.199511	0.203455	0.204113	0.195402	0.188499
2082	0.20099	0.191457	0.200497	0.203455	0.197538	0.190964
2083	0.199839	0.202798	0.199182	0.204441	0.195237	0.191621
2084	0.194416	0.194087	0.202469	0.201647	0.195073	0.194416
2085	0.197045	0.196059	0.201154	0.200825	0.199182	0.193758
2086	0.198689	0.195566	0.201647	0.202469	0.197374	0.189485
2087	0.200661	0.199018	0.20099	0.20214	0.198031	0.193429
2088	0.199182	0.194909	0.20099	0.201812	0.199182	0.19458
2089	0.195402	0.201483	0.204113	0.203291	0.198524	0.193265
2090	0.19836	0.198031	0.200168	0.20099	0.196717	0.194416
2091	0.200332	0.198196	0.200168	0.202469	0.199839	0.195073
2092	0.198853	0.198853	0.198196	0.194416	0.19458	0.200168
2093	0.198196	0.197703	0.202633	0.200332	0.199346	0.196881
2094	0.200497	0.200661	0.201812	0.201483	0.195566	0.198196
2095	0.198689	0.199675	0.201154	0.202962	0.197703	0.19458
2096	0.200661	0.200004	0.199018	0.201483	0.195073	0.198196
2097	0.20099	0.196552	0.201647	0.200825	0.196388	0.19573
2098	0.20099	0.197538	0.200825	0.202469	0.193922	0.191457
2099	0.207071	0.196881	0.201319	0.203455	0.198524	0.193101
2100	0.201154	0.201154	0.20214	0.202305	0.196388	0.19721
2101	0.199675	0.193594	0.197374	0.20214	0.194087	0.195073
2102	0.204277	0.19836	0.202798	0.202469	0.194744	0.196717
2103	0.202962	0.197703	0.201647	0.205263	0.192608	0.196388
2104	0.20362	0.197867	0.200332	0.201483	0.196388	0.195237
2105	0.197374	0.199018	0.206414	0.200004	0.195566	0.198689
2106	0.196223	0.200661	0.203291	0.203126	0.193594	0.19573
2107	0.201154	0.195237	0.195237	0.200168	0.192443	0.206414
2108	0.199675	0.201154	0.206907	0.204606	0.19836	0.192608
2109	0.200004	0.201154	0.203948	0.201647	0.193758	0.197045
2110	0.195402	0.200168	0.206085	0.201812	0.19836	0.197703
2111	0.19836	0.207893	0.20214	0.200168	0.197703	0.196717
2112	0.201319	0.199018	0.200332	0.199675	0.192279	0.196388
2113	0.20214	0.199675	0.200004	0.200661	0.193922	0.196552
2114	0.199675	0.200825	0.199346	0.200661	0.193101	0.196881
2115	0.201319	0.197867	0.199511	0.199675	0.192608	0.198196
2116	0.202469	0.196552	0.200497	0.201319	0.198196	0.200168
2117	0.200332	0.199675	0.198853	0.20099	0.193922	0.200825
2118	0.199675	0.197538	0.198031	0.19721	0.197867	0.195073
2119	0.201812	0.197538	0.202305	0.19836	0.196552	0.195237
2120	0.201319	0.196059	0.197538	0.197703	0.193594	0.199675
2121	0.188006	0.195237	0.202633	0.202798	0.196223	0.195566
2122	0.200497	0.196059	0.201812	0.197867	0.191128	0.198853
2123	0.205921	0.200497	0.200497	0.199839	0.195566	0.197045
2124	0.198853	0.197867	0.198853	0.202305	0.194251	0.197374
2125	0.198689	0.198524	0.202798	0.201976	0.196223	0.198524
2126	0.198689	0.199675	0.200497	0.199182	0.19458	0.197538
2127	0.199511	0.19836	0.200004	0.198689	0.195895	0.198689
2128	0.197374	0.200661	0.200004	0.196881	0.193101	0.19836
2129	0.199839	0.198031	0.196388	0.198031	0.198689	0.184554
2130	0.203948	0.200004	0.198524	0.198853	0.199675	0.197374
2131	0.200168	0.199182	0.199018	0.196552	0.195895	0.199511
2132	0.199182	0.199346	0.199182	0.204934	0.195895	0.192772
2133	0.199511	0.197374	0.200332	0.205099	0.193594	0.199839
2134	0.204113	0.194744	0.195402	0.200004	0.191786	0.198031
2135	0.201647	0.194909	0.194251	0.198853	0.194416	0.199675
2136	0.201154	0.195895	0.196717	0.204934	0.192772	0.197045
2137	0.200004	0.195402	0.197703	0.197867	0.191621	0.201647
2138	0.199839	0.195237	0.197374	0.200332	0.194087	0.19836
2139	0.198031	0.198689	0.197867	0.199511	0.19195	0.20099
2140	0.201154	0.195402	0.19836	0.197374	0.19458	0.192608
2141	0.200825	0.195073	0.199182	0.201319	0.194251	0.197374
2142	0.19836	0.199511	0.202798	0.194909	0.196717	0.200168
2143	0.197538	0.202798	0.202305	0.197538	0.194251	0.195402
2144	0.198689	0.197538	0.201976	0.198689	0.197374	0.197045
2145	0.202305	0.201812	0.200497	0.197703	0.194909	0.197867
2146	0.199346	0.196881	0.198524	0.198689	0.193922	0.19573
2147	0.202305	0.205427	0.199675	0.197045	0.193101	0.196552
2148	0.199839	0.197374	0.197867	0.196388	0.037948	0.200497
2149	0.201154	0.19836	0.197045	0.19721	0.042714	0.198524
2150	0.199675	0.196552	0.197538	0.197374	0.050274	0.201154
2151	0.203126	0.196223	0.197045	0.197867	0.059643	0.19836
2152	0.20099	0.196223	0.195895	0.196881	0.062437	0.199346
2153	0.201483	0.198031	0.195566	0.197045	0.072298	0.197538
2154	0.202305	0.198031	0.19721	0.202305	0.072463	0.19836
2155	0.200825	0.198196	0.200497	0.202633	0.081502	0.201647
2156	0.201154	0.200004	0.198196	0.19836	0.081502	0.199675
2157	0.20099	0.199182	0.199511	0.200004	0.087748	0.199839
2158	0.200497	0.201483	0.199675	0.200332	0.093007	0.195895
2159	0.200004	0.19721	0.19836	0.194744	0.096788	0.198853
2160	0.200661	0.201976	0.200497	0.197374	0.103033	0.195895
2161	0.195073	0.199675	0.200661	0.198689	0.104019	0.197703
2162	0.203784	0.205427	0.198689	0.196552	0.10632	0.200332
2163	0.200661	0.198689	0.197867	0.197374	0.108621	0.198031
2164	0.204441	0.204113	0.199346	0.194909	0.112894	0.194909
2165	0.199018	0.199182	0.197374	0.197374	0.113881	0.200661
2166	0.200004	0.198031	0.200661	0.200004	0.120619	0.196388
2167	0.202469	0.19721	0.194909	0.195566	0.121112	0.199675
2168	0.201154	0.197045	0.198689	0.195073	0.12818	0.197703
2169	0.200004	0.187348	0.196552	0.199018	0.130152	0.19458
2170	0.200004	0.194744	0.197538	0.197538	0.13196	0.200332
2171	0.198853	0.197045	0.196717	0.197867	0.131138	0.197867
2172	0.202305	0.193594	0.198031	0.198524	0.135083	0.197045
2173	0.203784	0.202798	0.197374	0.197374	0.139849	0.19836
2174	0.200661	0.196717	0.199346	0.199839	0.144451	0.196388
2175	0.205592	0.200168	0.196552	0.198689	0.141821	0.19721
2176	0.201976	0.199346	0.202305	0.199346	0.147574	0.198031
2177	0.205921	0.201812	0.204934	0.200661	0.151025	0.195402
2178	0.202798	0.197538	0.198689	0.199182	0.148889	0.197374
2179	0.201483	0.202798	0.197045	0.196388	0.150204	0.19573
2180	0.200825	0.1908	0.195073	0.197538	0.152011	0.198524
2181	0.203455	0.197045	0.195566	0.199182	0.154148	0.20099
2182	0.200661	0.200168	0.197374	0.194909	0.152505	0.201319
2183	0.20099	0.198689	0.197867	0.193594	0.157928	0.197867
2184	0.20099	0.195895	0.192936	0.196059	0.161051	0.20099
2185	0.202962	0.197538	0.198853	0.197703	0.163352	0.199346
2186	0.198853	0.197867	0.19721	0.193265	0.163188	0.196223
2187	0.200825	0.192936	0.201154	0.200661	0.162859	0.198031
2188	0.204113	0.197703	0.191457	0.197703	0.16516	0.199018
2189	0.201647	0.19721	0.194909	0.198031	0.165324	0.197374
2190	0.199182	0.197045	0.197703	0.19458	0.165817	0.199346
2191	0.19836	0.194416	0.194909	0.198031	0.167625	0.197703
2192	0.203948	0.197374	0.199675	0.196717	0.170091	0.195895
2193	0.199675	0.198689	0.200661	0.196717	0.170913	0.197703
2194	0.203455	0.199346	0.197538	0.196059	0.170584	0.198689
2195	0.202962	0.192115	0.199182	0.19458	0.175679	0.198524
2196	0.201647	0.205921	0.198031	0.199511	0.173214	0.196552
2197	0.201812	0.197374	0.197538	0.192443	0.174364	0.193265
2198	0.20099	0.200661	0.199182	0.199018	0.181267	0.196552
2199	0.203291	0.200497	0.18439	0.193594	0.180774	0.197867
2200	0.200661	0.197703	0.196223	0.196717	0.179952	0.196717
2201	0.200332	0.19836	0.196881	0.194416	0.177651	0.199839
2202	0.204934	0.196881	0.19836	0.194909	0.179952	0.197867
2203	0.202962	0.198196	0.193429	0.19458	0.178637	0.201483
2204	0.200825	0.198689	0.194909	0.193594	0.180116	0.200497
2205	0.206414	0.199182	0.196388	0.19195	0.178802	0.199182
2206	0.204441	0.197703	0.194087	0.193594	0.183239	0.200661
2207	0.204441	0.198853	0.196552	0.194744	0.18176	0.20362
2208	0.20214	0.196223	0.200168	0.192608	0.181267	0.197538
2209	0.203126	0.198689	0.199675	0.19721	0.183075	0.198689
2210	0.202798	0.197538	0.195402	0.193265	0.183404	0.199675
2211	0.202305	0.199346	0.196388	0.195895	0.185212	0.196552
2212	0.201647	0.199839	0.197045	0.195073	0.184061	0.20214
2213	0.202469	0.200332	0.199346	0.198196	0.186855	0.193594
2214	0.200825	0.199182	0.19573	0.193594	0.1908	0.201812
2215	0.201812	0.200332	0.202305	0.191293	0.189649	0.19836
2216	0.19836	0.199839	0.198689	0.194087	0.188827	0.199675
2217	0.201483	0.196059	0.198689	0.193429	0.194087	0.199346
2218	0.196717	0.19836	0.199346	0.191457	0.188992	0.198853
2219	0.199675	0.200661	0.199346	0.193101	0.186526	0.192936
2220	0.201319	0.197867	0.197867	0.194909	0.187841	0.199839
2221	0.201647	0.199675	0.198031	0.191786	0.187348	0.199182
2222	0.200825	0.20099	0.195237	0.194087	0.18554	0.197867
2223	0.195402	0.202305	0.198196	0.196223	0.184061	0.197538
2224	0.202305	0.200168	0.19836	0.196388	0.184225	0.194909
2225	0.200661	0.199511	0.196388	0.194416	0.182253	0.200004
2226	0.198524	0.200661	0.196059	0.197374	0.186855	0.19836
2227	0.198031	0.197538	0.198524	0.193922	0.187513	0.200004
2228	0.201976	0.198853	0.198524	0.19721	0.183568	0.196717
2229	0.199511	0.200168	0.197538	0.194744	0.188992	0.201812
2230	0.200332	0.199018	0.198031	0.19721	0.187841	0.200004
2231	0.202962	0.197538	0.192936	0.197867	0.188499	0.200004
2232	0.204277	0.203126	0.195237	0.195566	0.193594	0.197045
2233	0.198031	0.202633	0.196059	0.195073	0.189156	0.200168
2234	0.194744	0.198524	0.197867	0.195895	0.1908	0.199839
2235	0.197045	0.199182	0.19836	0.189649	0.192936	0.19721
2236	0.19836	0.20099	0.198689	0.192772	0.194909	0.200497
2237	0.199182	0.198031	0.197867	0.192608	0.188827	0.199182
2238	0.19836	0.196223	0.198853	0.196881	0.182253	0.199839
2239	0.200497	0.196717	0.197867	0.19573	0.177651	0.198524
2240	0.201319	0.197538	0.198689	0.195073	0.177651	0.202962
2241	0.202469	0.200004	0.199839	0.196552	0.176008	0.195237
2242	0.201647	0.197867	0.197538	0.198524	0.178144	0.196881
2243	0.205592	0.199511	0.200004	0.199346	0.181431	0.195895
2244	0.20099	0.197867	0.19458	0.194909	0.17272	0.196388
2245	0.199839	0.199675	0.198031	0.199511	0.179623	0.195895
2246	0.202633	0.200661	0.19721	0.196223	0.179459	0.198031
2247	0.200661	0.201319	0.198196	0.196717	0.180774	0.199839
2248	0.199182	0.199346	0.200004	0.197045	0.183239	0.19573
2249	0.19836	0.199182	0.197538	0.193429	0.187019	0.197703
2250	0.199182	0.199511	0.202305	0.196223	0.180774	0.198853
2251	0.193429	0.195895	0.200497	0.196881	0.18554	0.201812
2252	0.199675	0.200332	0.200661	0.195073	0.183897	0.198524
2253	0.196552	0.198689	0.198031	0.193594	0.184225	0.199675
2254	0.200497	0.199511	0.199018	0.194087	0.1908	0.198689
2255	0.193922	0.203126	0.203291	0.198689	0.186033	0.198524
2256	0.196059	0.200497	0.199182	0.197867	0.187348	0.194909
2257	0.199018	0.19573	0.198524	0.198524	0.187513	0.200497
2258	0.200004	0.20362	0.201319	0.19721	0.188006	0.202633
2259	0.197374	0.196223	0.199182	0.198196	0.185212	0.201812
2260	0.200332	0.197703	0.203126	0.197867	0.192936	0.198853
2261	0.199018	0.196059	0.196881	0.198031	0.186855	0.200497
2262	0.20214	0.194416	0.199511	0.198689	0.188992	0.197703
2263	0.200825	0.197703	0.201154	0.200168	0.187841	0.198524
2264	0.199675	0.19721	0.202633	0.202633	0.189156	0.195895
2265	0.199018	0.198853	0.204113	0.198524	0.19195	0.197703
2266	0.19836	0.199839	0.203948	0.199346	0.186198	0.197374
2267	0.198031	0.201154	0.20099	0.196717	0.187184	0.19836
2268	0.197703	0.199675	0.200825	0.196552	0.191128	0.199839
2269	0.19836	0.203126	0.201483	0.194416	0.192115	0.198853
2270	0.197867	0.196388	0.201483	0.195566	0.190635	0.199018
2271	0.195402	0.201154	0.202305	0.200661	0.194251	0.200004
2272	0.196059	0.201154	0.201319	0.194909	0.190471	0.203291
2273	0.202469	0.200332	0.201154	0.196388	0.191621	0.193922
2274	0.199346	0.195237	0.201483	0.199675	0.1908	0.203948
2275	0.199675	0.195895	0.202469	0.199839	0.192608	0.197703
2276	0.197538	0.199675	0.199839	0.199018	0.191128	0.198689
2277	0.204441	0.197045	0.202633	0.201319	0.190471	0.202305
2278	0.19573	0.198524	0.196717	0.199675	0.192115	0.195895
2279	0.203455	0.196881	0.197374	0.202305	0.193922	0.201154
2280	0.205263	0.200825	0.199511	0.198689	0.189814	0.200497
2281	0.200004	0.19573	0.198853	0.20214	0.192443	0.197538
2282	0.197703	0.20099	0.196881	0.201647	0.192936	0.199182
2283	0.200332	0.200004	0.200661	0.199182	0.190471	0.198689
2284	0.198196	0.200661	0.201812	0.20477	0.189814	0.199182
2285	0.194744	0.196717	0.205921	0.202798	0.196717	0.197374
2286	0.199346	0.199018	0.201647	0.198524	0.196717	0.19836
2287	0.199839	0.199018	0.199839	0.20099	0.195073	0.198853
2288	0.19836	0.199182	0.206414	0.201154	0.199839	0.196223
2289	0.195237	0.201154	0.200661	0.197867	0.193429	0.201647
2290	0.199346	0.19836	0.203291	0.201154	0.19836	0.199018
2291	0.20099	0.19836	0.201154	0.197867	0.19573	0.200332
2292	0.200825	0.19836	0.202633	0.198031	0.196388	0.200004
2293	0.199675	0.200004	0.199511	0.200661	0.196059	0.198196
2294	0.203455	0.200332	0.19573	0.202469	0.197703	0.200661
2295	0.202305	0.199182	0.197374	0.199675	0.195402	0.19721
2296	0.200332	0.196717	0.20099	0.205427	0.199839	0.197045
2297	0.202305	0.200332	0.200825	0.200168	0.196223	0.19721
2298	0.200004	0.199675	0.201812	0.203126	0.19573	0.195402
2299	0.201976	0.200004	0.204441	0.201483	0.195073	0.195566
2300	0.203784	0.198689	0.200825	0.201483	0.197374	0.197867
2301	0.202798	0.200168	0.203126	0.202962	0.197703	0.20214
2302	0.198689	0.19721	0.204113	0.196223	0.196552	0.20362
2303	0.202469	0.200497	0.205921	0.197538	0.199675	0.196881
2304	0.197538	0.200332	0.198689	0.199346	0.197538	0.198524
2305	0.205592	0.200004	0.200004	0.197867	0.199018	0.199182
2306	0.197703	0.199182	0.198524	0.197867	0.198196	0.200168
2307	0.199511	0.199839	0.204934	0.20214	0.20099	0.196881
2308	0.199511	0.20099	0.199839	0.197374	0.198689	0.195402
2309	0.200497	0.199182	0.199018	0.200661	0.201319	0.197867
2310	0.201647	0.19836	0.198524	0.201154	0.19836	0.200004
2311	0.199511	0.200332	0.198689	0.201319	0.201812	0.197045
2312	0.201812	0.196717	0.196552	0.205263	0.197867	0.202962
2313	0.200004	0.199675	0.199675	0.201812	0.198031	0.200661
2314	0.200332	0.200168	0.19573	0.202305	0.196388	0.198524
2315	0.199018	0.195237	0.196717	0.199675	0.198689	0.199346
2316	0.203291	0.200004	0.196881	0.200168	0.196717	0.197045
2317	0.200168	0.198689	0.200332	0.195895	0.197045	0.198689
2318	0.20477	0.200168	0.198031	0.201154	0.201483	0.19573
2319	0.199182	0.19836	0.198853	0.197867	0.198853	0.197538
2320	0.200332	0.200661	0.202798	0.200497	0.203784	0.197703
2321	0.198031	0.200004	0.197538	0.201319	0.200004	0.200497
2322	0.204277	0.200004	0.200661	0.200168	0.203126	0.198853
2323	0.201154	0.201647	0.197538	0.208715	0.201647	0.202305
2324	0.200332	0.197045	0.198689	0.199675	0.200004	0.198689
2325	0.201319	0.195566	0.196881	0.198524	0.193265	0.200661
2326	0.201647	0.197374	0.196223	0.202305	0.199839	0.197867
2327	0.203948	0.195237	0.193594	0.20099	0.19573	0.199018
2328	0.200004	0.196881	0.195237	0.201483	0.19721	0.191786
2329	0.19836	0.199182	0.192936	0.201154	0.197538	0.197538
2330	0.199182	0.195895	0.194416	0.201812	0.196881	0.198196
2331	0.203291	0.198689	0.197045	0.201483	0.196388	0.19721
2332	0.196717	0.196717	0.197703	0.202469	0.193922	0.197538
2333	0.201319	0.198524	0.198196	0.20362	0.196059	0.19721
2334	0.199675	0.197703	0.195402	0.20214	0.193594	0.199346
2335	0.200825	0.199675	0.198031	0.201812	0.198853	0.194416
2336	0.195895	0.197374	0.196223	0.202633	0.197374	0.200661
2337	0.199182	0.199018	0.197045	0.202962	0.200332	0.198031
2338	0.199182	0.199018	0.176829	0.202798	0.19836	0.197045
2339	0.197374	0.199675	0.172556	0.202798	0.200332	0.199182
2340	0.19573	0.200004	0.161051	0.198524	0.195566	0.200332
2341	0.196717	0.197703	0.162695	0.20099	0.202962	0.200168
2342	0.202469	0.199839	0.164174	0.201154	0.202469	0.20099
2343	0.198031	0.196223	0.166475	0.20214	0.198031	0.197538
2344	0.200004	0.201976	0.162366	0.202469	0.202798	0.19836
2345	0.199018	0.199675	0.000639	0.201319	0.200168	0.200661
2346	0.199018	0.199182	0.008857	0.203784	0.19721	0.196059
2347	0.198853	0.196059	0.01428	0.198853	0.032688	0.197703
2348	0.199839	0.200168	0.021019	0.202798	0.03992	0.200497
2349	0.197374	0.197045	0.027922	0.202469	0.045508	0.198853
2350	0.201812	0.198689	0.039098	0.203291	0.051425	0.197045
2351	0.199018	0.198853	0.043536	0.201647	0.058821	0.199018
2352	0.200168	0.197374	0.051754	0.204441	0.068354	0.194909
2353	0.201647	0.200661	0.055205	0.204277	0.073778	0.198689
2354	0.199839	0.201483	0.063752	0.202305	0.078051	0.197045
2355	0.202305	0.200825	0.030387	0.204113	0.081174	0.197045
2356	0.204441	0.200497	0.030387	0.19721	0.087748	0.200004
2357	0.196717	0.202633	0.037455	0.201319	0.093172	0.200825
2358	0.198689	0.197374	0.047316	0.200661	0.09613	0.202305
2359	0.197538	0.199675	0.049617	0.200004	0.10139	0.196223
2360	0.198196	0.198196	0.053397	0.198853	0.106649	0.199675
2361	0.200332	0.200825	-0.001169	0.200497	0.11158	0.200004
2362	0.196881	0.199675	-0.000512	0.202469	0.112073	0.200332
2363	0.198524	0.199839	0.001625	0.200497	0.11536	0.196388
2364	0.199018	0.201154	0.006227	0.201976	0.117496	0.200168
2365	0.198031	0.200332	-0.001169	0.201154	0.120455	0.197867
2366	0.197374	0.199346	0.003268	0.201812	0.124893	0.199018
2367	0.201319	0.197374	-1.9e-05	0.192115	0.1267	0.197374
2368	0.194087	0.200332	0.004748	0.200497	0.129988	0.19573
2369	0.198689	0.198524	0.011815	0.20362	0.135576	0.197045
2370	0.198853	0.20099	0.020855	0.200004	0.134918	0.201647
2371	0.201647	0.198196	0.027593	0.201976	0.138699	0.200168
2372	0.198031	0.198853	0.034496	0.203455	0.139685	0.198689
2373	0.196552	0.199675	0.044193	0.203784	0.142479	0.196552
2374	0.196388	0.195566	0.046166	0.199346	0.144944	0.199018
2375	0.197703	0.195237	0.053233	0.202798	0.152011	0.198853
2376	0.193922	0.201647	0.061451	0.20214	0.152998	0.199018
2377	0.191786	0.198196	0.064245	0.19836	0.155134	0.199018
2378	0.191293	0.199018	0.069997	0.194087	0.152998	0.194087
2379	0.194909	0.19836	0.074435	0.199018	0.152998	0.19721
2380	0.19836	0.196059	0.080516	0.202633	0.1576	0.19836
2381	0.197045	0.19573	0.083475	0.203126	0.157107	0.200497
2382	0.200497	0.196223	0.084296	0.20099	0.15875	0.196388
2383	0.197045	0.19721	0.093336	0.204277	0.160394	0.200168
2384	0.200004	0.196717	0.100568	0.203126	0.162202	0.195895
2385	0.196388	0.199346	0.09876	0.197867	0.16138	0.199182
2386	0.197703	0.196717	0.10517	0.205427	0.170584	0.194744
2387	0.196717	0.199346	0.109443	0.201319	0.164667	0.199511
2388	0.197538	0.198689	0.114045	0.204606	0.168447	0.197045
2389	0.193758	0.199182	0.116182	0.196552	0.167954	0.198689
2390	0.193265	0.193594	0.121934	0.201483	0.172556	0.196552
2391	0.195566	0.197374	0.123906	0.20477	0.170748	0.197374
2392	0.19573	0.198031	0.126865	0.201812	0.175021	0.200497
2393	0.198031	0.200497	0.129495	0.201647	0.174857	0.195402
2394	0.189814	0.19721	0.132946	0.202633	0.172392	0.197538
2395	0.200168	0.200332	0.139027	0.202633	0.178144	0.197867
2396	0.195073	0.195895	0.140178	0.198689	0.173542	0.19721
2397	0.195237	0.200332	0.142479	0.203455	0.186691	0.196717
2398	0.197538	0.198524	0.140835	0.203948	0.175021	0.200661
2399	0.19836	0.200332	0.141986	0.201812	0.181596	0.198031
2400	0.195895	0.199511	0.142807	0.200661	0.176008	0.198689
2401	0.19836	0.200825	0.151025	0.203455	0.181431	0.196223
2402	0.197703	0.194909	0.148067	0.198853	0.176829	0.199839
2403	0.197703	0.197867	0.155299	0.200004	0.179623	0.196223
2404	0.199182	0.201483	0.150861	0.200168	0.179788	0.199018
2405	0.198031	0.199018	0.157928	0.200661	0.187841	0.200497
2406	0.201154	0.199018	0.158421	0.199675	0.186691	0.196552
2407	0.199182	0.194251	0.16138	0.19721	0.185376	0.198196
2408	0.197374	0.201483	0.16401	0.203784	0.189156	0.198689
2409	0.197045	0.199675	0.163845	0.200825	0.187019	0.202962
2410	0.197374	0.201319	0.165324	0.201647	0.185869	0.199346
2411	0.194087	0.196059	0.164503	0.202633	0.187019	0.200825
2412	0.197374	0.196881	0.168118	0.197703	0.189485	0.197703
2413	0.196717	0.198524	0.168776	0.200332	0.185047	0.201812
2414	0.19721	0.199018	0.172227	0.205263	0.188499	0.197045
2415	0.196881	0.198196	0.172063	0.195566	0.188006	0.201976
2416	0.200497	0.199839	0.173049	0.202633	0.190635	0.195402
2417	0.200825	0.199182	0.170584	0.194909	0.189978	0.199511
2418	0.198689	0.195402	0.175515	0.199511	0.190307	0.200004
2419	0.200004	0.201976	0.172063	0.20362	0.181103	0.198853
2420	0.199346	0.198031	0.17798	0.200825	0.191786	0.198524
2421	0.195073	0.199839	0.176172	0.201976	0.188499	0.196552
2422	0.19458	0.197374	0.177487	0.198853	0.187841	0.198031
2423	0.196223	0.19721	0.178966	0.201812	0.194909	0.192279
2424	0.193758	0.19573	0.178637	0.201319	0.193101	0.19836
2425	0.196552	0.199346	0.181596	0.20362	0.193758	0.196388
2426	0.196223	0.199511	0.181103	0.200825	0.188992	0.201483
2427	0.199182	0.20362	0.184061	0.201154	0.192115	0.200332
2428	0.200661	0.203948	0.18176	0.201647	0.188499	0.196552
2429	0.199182	0.201976	0.183075	0.200168	0.192936	0.198689
2430	0.19836	0.202305	0.180938	0.19721	0.178966	0.200661
2431	0.197374	0.200332	0.186198	0.205263	0.19195	0.197538
2432	0.195566	0.199675	0.182253	0.197703	0.191786	0.200825
2433	0.194744	0.198524	0.18176	0.201319	0.194416	0.196881
2434	0.198853	0.198853	0.179952	0.202305	0.194416	0.198031
2435	0.197045	0.196552	0.185376	0.202962	0.196059	0.198196
2436	0.198853	0.194416	0.18439	0.201483	0.19458	0.196059
2437	0.197374	0.196717	0.184225	0.200497	0.19458	0.200004
2438	0.199018	0.196881	0.190142	0.202305	0.194251	0.199018
2439	0.197867	0.192608	0.188499	0.200825	0.194909	0.194087
2440	0.199346	0.20214	0.18932	0.201154	0.19721	0.195566
2441	0.198196	0.200332	0.18932	0.19836	0.18817	0.196717
2442	0.199511	0.203126	0.191128	0.20477	0.197538	0.196388
2443	0.199182	0.201812	0.190635	0.200004	0.194251	0.200661
2444	0.198196	0.201647	0.191621	0.200825	0.19458	0.195073
2445	0.197703	0.200497	0.191128	0.197867	0.196059	0.200332
2446	0.199182	0.19721	0.194251	0.201319	0.196552	0.197045
2447	0.19836	0.20099	0.193758	0.197374	0.195073	0.199018
2448	0.198031	0.197045	0.190471	0.200004	0.198689	0.195895
2449	0.204934	0.200825	0.190635	0.198689	0.19836	0.201154
2450	0.20214	0.198031	0.189485	0.199839	0.19573	0.194744
2451	0.199839	0.201812	0.189485	0.195895	0.195895	0.196552
2452	0.199182	0.201319	0.192936	0.197045	0.193101	0.199675
2453	0.200661	0.200332	0.188827	0.20477	0.195237	0.197867
2454	0.198689	0.197045	0.189814	0.200661	0.196059	0.198853
2455	0.198853	0.199511	0.192279	0.200168	0.188334	0.197867
2456	0.197538	0.198524	0.191786	0.201154	0.192443	0.197867
2457	0.199839	0.196552	0.198196	0.207893	0.195566	0.197867
2458	0.198853	0.198853	0.194909	0.201319	0.190964	0.195895
2459	0.199182	0.200332	0.197045	0.202633	0.194251	0.191786
2460	0.201483	0.199018	0.195237	0.201319	0.195402	0.201483
2461	0.198524	0.200825	0.196717	0.201319	0.194251	0.196388
2462	0.198853	0.205099	0.19458	0.201483	0.192772	0.195402
2463	0.200332	0.201647	0.196552	0.200825	0.196059	0.198031
2464	0.198689	0.201976	0.193101	0.200004	0.192443	0.197867
2465	0.199675	0.198853	0.196059	0.200004	0.193594	0.198524
2466	0.199182	0.201319	0.196059	0.200004	0.193758	0.198853
2467	0.201647	0.197045	0.194416	0.197703	0.197045	0.198196
2468	0.201647	0.200332	0.196552	0.198524	0.193265	0.199675
2469	0.196717	0.19836	0.192608	0.198689	0.195237	0.197538
2470	0.196388	0.196717	0.196717	0.198689	0.194087	0.199182
2471	0.200168	0.195895	0.197045	0.198689	0.195073	0.20477
2472	0.19721	0.198689	0.199018	0.200497	0.197374	0.193429
2473	0.19721	0.200497	0.197867	0.196717	0.196059	0.191621
2474	0.201154	0.19721	0.198853	0.204277	0.193594	0.19721
2475	0.201319	0.199182	0.198853	0.198689	0.189978	0.199675
2476	0.198853	0.200332	0.19573	0.203948	0.194087	0.197538
2477	0.20099	0.206414	0.195895	0.200168	0.194744	0.199839
2478	0.197045	0.203291	0.193922	0.202469	0.195237	0.196881
2479	0.196059	0.199675	0.197045	0.200661	0.190635	0.196388
2480	0.198689	0.200168	0.198689	0.196388	0.195566	0.197374
2481	0.19458	0.201154	0.19721	0.20214	0.193265	0.197538
2482	0.201319	0.197703	0.201154	0.202305	0.19458	0.199511
2483	0.198196	0.199018	0.199839	0.199511	0.192115	0.195073
2484	0.196552	0.196223	0.199182	0.201154	0.196223	0.197703
2485	0.20099	0.199675	0.199018	0.205099	0.196388	0.198689
2486	0.197538	0.196223	0.19721	0.203455	0.193429	0.196717
2487	0.199511	0.196881	0.193922	0.199018	0.194744	0.197538
2488	0.196552	0.200497	0.194416	0.198524	0.194909	0.197867
2489	0.200497	0.200332	0.19573	0.204606	0.195073	0.197703
2490	0.199182	0.201154	0.19721	0.199839	0.193265	0.200825
2491	0.20099	0.198196	0.198524	0.202962	0.194416	0.19836
2492	0.197374	0.199511	0.198524	0.199018	0.192772	0.200661
2493	0.202305	0.199675	0.201319	0.203126	0.196223	0.183239
2494	0.200661	0.199675	0.200825	0.200004	0.191457	0.196223
2495	0.200497	0.20099	0.201319	0.198524	0.195237	0.193594
2496	0.201976	0.198524	0.200168	0.206578	0.193922	0.192279
2497	0.197538	0.199018	0.202798	0.199182	0.194416	0.194416
2498	0.193922	0.202798	0.200004	0.20099	0.19458	0.194251
2499	0.198196	0.199018	0.200661	0.200004	0.196059	0.196223
