Ladekurvenmessung

Zeit: 2018_05_04 08.58.54

Info: FVA3, v = 0.272, T = 23, F = 20, h = 212.6

Ladewiderstand[Ohm]: 1012700

Störkapazität[pF]: 0.000000

Entladezeit[ms]: 200

Abtastrate[Hz]: 250000

Anzahl der Messwerte: 2500.000000

Verzögerung[ms]: 3

Ladespannung[V]: 0.200000


	Kurve_1	Kurve_2	Kurve_3	Kurve_4	Kurve_5
0	-0.001334	0.00146	-0.001991	0.006391	-0.000347
1	0.003104	0.000803	-0.001498	0.003761	-0.000347
2	0.000967	0.002447	-0.000183	0.003104	0.002447
3	0.003104	0.000639	-0.001334	0.003104	0.00294
4	0.003597	-0.001498	-1.9e-05	0.002282	0.003926
5	0.004419	0.002118	-0.001169	0.00294	0.004583
6	0.003761	0.005405	-1.9e-05	0.002447	0.003268
7	0.001954	0.001132	-1.9e-05	0.003926	0.002118
8	0.001789	-0.002155	0.002118	0.002611	0.001296
9	-1.9e-05	0.000474	-0.000347	0.000803	0.000474
10	-0.005443	-0.001334	0.000803	0.000803	0.000639
11	-0.001334	-0.002813	-0.000183	0.008528	-0.000841
12	0.002118	-0.003635	0.000474	-0.000183	-0.000841
13	-0.000183	-0.000347	0.000474	-0.000676	0.001789
14	0.003597	-0.003963	-0.001827	0.00146	-0.001662
15	0.001625	-0.003306	-0.000512	-0.000676	0.000639
16	-0.000841	-0.002648	-0.000841	0.00294	0.003926
17	0.003597	-0.002977	-0.000512	0.001954	0.000967
18	0.00146	-0.002977	-0.000347	0.006227	0.001296
19	0.003761	-0.003635	-0.000183	0.002447	0.001296
20	0.003268	-0.001827	-0.001498	0.002447	0.00146
21	-0.010045	-0.007086	0.000474	0.002282	0.006391
22	0.000639	-0.001169	-0.003799	0.001625	0.00146
23	-0.000676	-0.004621	-0.003635	0.000146	0.000967
24	-0.000183	-0.001991	-0.000347	0.000639	0.003433
25	0.000803	-0.004949	0.000803	0.000803	-0.001169
26	-0.002977	-0.005936	0.001954	-0.001169	0.002282
27	-0.001334	-0.005278	0.000146	0.00031	0.001625
28	-0.000512	-0.005443	0.002282	-0.001498	-0.00347
29	-1.9e-05	-0.005114	-0.001334	0.002775	-0.000676
30	-1.9e-05	-0.005278	0.002282	0.000639	0.001954
31	0.001954	-0.003635	0.000967	0.00146	-0.000512
32	-0.001662	-0.004292	0.000803	0.000967	0.001954
33	0.000803	-0.006593	-0.001662	0.001789	0.00294
34	0.00031	-0.005771	-0.000841	-0.001005	0.00031
35	0.004583	-0.002484	-0.001498	-0.000841	-0.000347
36	0.001625	-0.004456	-0.000347	0.00031	0.002118
37	0.001789	-0.00347	-0.000183	0.00294	0.00031
38	0.001296	-0.002813	0.000803	-0.001662	0.003926
39	0.001789	-0.000841	-0.001662	-0.004128	0.001625
40	0.000967	-0.002484	0.000146	0.002447	0.000474
41	-0.001334	0.000146	-0.001991	-0.000183	0.000639
42	0.001132	0.00031	0.000803	0.001132	-0.000183
43	0.003104	-0.000841	0.000639	0.000803	0.00146
44	-0.001991	-0.000183	-0.005443	0.000967	-0.000841
45	0.001954	-0.004949	-0.000676	-0.002484	0.000639
46	0.001132	-0.003306	0.000146	0.001132	0.001625
47	-0.00232	-0.002484	-0.001169	-0.000183	0.000639
48	-0.000347	-0.001827	0.001625	0.00146	0.000639
49	-0.001005	-1.9e-05	0.00294	0.001625	0.003104
50	0.00294	0.000146	0.000474	0.000474	0.001625
51	0.00146	-0.001498	0.00031	0.001789	-0.000676
52	0.000639	0.000803	-0.001169	0.001625	-0.003306
53	0.003104	-0.004621	0.001132	0.000803	-0.001005
54	0.007213	-0.004128	-0.00347	0.00294	0.002118
55	-0.000512	-0.004621	0.00146	0.003926	0.000474
56	-0.001169	-0.001991	-0.003799	0.000146	0.000803
57	0.000639	-0.001662	-0.002155	0.001132	0.00294
58	-0.001498	0.002118	-0.000512	-0.001169	0.001132
59	0.002118	0.000474	-0.002155	0.001132	0.000639
60	-0.003142	0.000639	0.000639	-0.000841	0.002118
61	0.000474	-0.004785	-0.001005	-0.000512	-0.000512
62	-0.000676	0.000639	0.001132	0.000474	-0.001169
63	-0.000183	0.003433	0.000639	0.001954	0.000803
64	-0.001005	-0.004128	0.000146	0.000967	0.001132
65	0.007542	-0.001005	0.000474	0.003104	0.002447
66	0.00146	0.000639	-0.000183	0.002282	0.006062
67	0.00294	-0.002155	-0.000347	0.001132	0.004583
68	0.00146	-0.001169	-0.000183	0.008528	0.000639
69	0.001789	0.00031	-0.000347	0.003104	0.001789
70	0.000803	0.000474	-0.000512	-0.001827	0.00031
71	-0.004949	-0.000841	-1.9e-05	0.002775	0.004748
72	0.00031	-0.001827	0.00031	-0.000841	-0.000676
73	0.000803	0.001296	0.000146	0.00146	-0.000183
74	-0.000512	0.000474	0.00031	-0.001662	0.000967
75	-0.002648	0.00146	0.000146	0.000146	0.000474
76	0.004255	-0.000512	-1.9e-05	-0.000347	0.000967
77	-0.003142	0.000803	-0.000183	-0.000183	0.000639
78	0.000803	-0.000841	-0.000183	0.001296	-0.003142
79	0.000474	-0.001334	-0.000183	-1.9e-05	-0.001169
80	-0.001005	0.003597	-0.000512	0.000639	-0.004456
81	-0.002813	0.000474	-0.000183	-0.001005	0.001132
82	0.000967	0.000803	-0.000347	0.00031	0.002118
83	0.00031	-0.00347	0.000146	-0.000512	0.001132
84	-0.003799	-0.001334	0.00031	0.00294	-0.000183
85	-0.001991	-0.003963	0.00031	0.002447	0.002775
86	-0.001498	-0.00347	0.000474	0.00146	0.001625
87	0.001954	-0.002813	-1.9e-05	-0.001334	0.001132
88	-0.003799	-1.9e-05	-0.000183	0.003597	0.00294
89	-0.000183	-0.000676	-0.000347	0.000639	-0.000512
90	-0.001005	-0.000183	-0.000512	-0.00347	0.003433
91	-0.000347	0.002282	-0.000512	-1.9e-05	0.000803
92	-0.001334	0.00409	-0.000183	-0.000347	0.001625
93	-0.000183	-0.000676	-1.9e-05	-0.000347	0.004255
94	0.00031	0.002118	0.000146	-0.001498	0.001789
95	0.001296	-0.000512	0.000474	-0.001498	0.000474
96	0.000639	-0.003142	0.00031	-0.000676	0.002775
97	0.001296	0.000474	0.00031	0.000803	0.001625
98	0.001296	0.001296	0.00031	-0.000676	0.003268
99	-0.001005	0.001132	-0.000512	-0.001991	0.000803
100	0.001625	-0.000183	-0.000347	-0.001498	0.003268
101	-0.00347	0.001132	-0.000676	-1.9e-05	0.001132
102	0.002775	0.001789	-0.000347	-1.9e-05	0.00146
103	-0.001005	0.001296	-0.000183	-0.000676	0.000967
104	-0.001334	-0.002977	0.00031	0.000639	0.000803
105	0.000146	-0.001827	-0.000512	-0.000841	0.002447
106	0.00146	-0.004456	0.000474	0.002611	0.005405
107	-0.000347	-0.003799	-1.9e-05	-0.001334	-0.001005
108	0.000803	0.002611	0.000639	0.001625	-0.001498
109	-1.9e-05	0.001296	0.000146	-0.001005	0.005734
110	-0.000676	0.000639	-1.9e-05	0.00146	0.000967
111	-0.003306	0.000146	-0.000347	-0.000183	0.003268
112	-0.002155	0.001954	-0.000676	-0.000512	0.003104
113	-0.001334	-0.000347	-0.000512	-0.001991	0.002118
114	-1.9e-05	-1.9e-05	-0.000676	-0.001991	0.003104
115	-0.003963	-0.000512	0.000146	0.001132	-0.000183
116	-0.002155	-0.003142	-0.000183	-0.000183	-0.000183
117	-0.000347	-0.001334	0.000474	0.000474	-0.000841
118	-0.00232	-0.00232	0.000146	-0.001827	0.001296
119	-0.000347	-0.004785	0.000803	0.002775	0.001132
120	-0.000512	0.002118	-0.000347	0.00146	0.003433
121	-0.001169	-0.001005	0.000146	0.003433	0.002611
122	-0.000347	-0.001498	-0.000512	-0.000841	0.001954
123	0.001625	-0.001498	0.000146	0.000803	0.001296
124	-0.000347	-0.000183	-0.000676	-0.001334	0.002447
125	0.000146	0.002118	-0.001169	0.00146	0.002118
126	-0.002648	-0.000512	0.000474	0.000146	0.001789
127	0.001954	0.001625	-0.000676	-0.001169	-0.002648
128	-0.008894	-1.9e-05	0.00031	0.001132	0.004255
129	0.002118	-0.000512	0.00031	-0.001169	0.000803
130	0.001132	-0.001827	0.001296	0.003268	0.00031
131	-0.005114	-0.000512	-0.000183	0.000474	0.000146
132	0.000639	0.00031	0.00031	0.001625	-0.002813
133	-0.001498	-0.000676	-0.000183	-0.001334	-0.006593
134	0.000803	-0.000841	-0.000183	-0.000512	-0.004456
135	0.001296	0.00146	-0.000676	0.002775	-0.003799
136	-0.000676	-0.001005	-0.000512	-0.002484	-0.004621
137	-0.000841	-0.002813	-0.000347	-0.000841	-0.00347
138	0.00031	-0.001334	0.000474	-0.001169	-0.004949
139	-0.000841	-0.001662	-0.000183	-0.002484	-0.001827
140	-0.000183	-0.001827	0.000146	-0.005114	-0.004128
141	-0.000512	-0.003635	0.000474	-0.001827	-0.003306
142	-0.000183	0.000967	-0.000676	0.001132	-0.001662
143	-0.001334	-0.001827	0.001625	-0.001498	0.00031
144	-0.000512	0.001132	-0.000347	-0.001498	-0.001005
145	-0.000676	0.000146	0.000803	0.000474	-1.9e-05
146	-0.000676	0.000639	-0.000676	0.000146	0.00146
147	-0.000347	0.001789	-0.001005	0.000146	0.001789
148	-0.000183	0.003761	0.000146	0.001954	0.000967
149	0.000474	0.00146	-0.000512	-0.001662	0.003268
150	0.001132	0.001954	0.001954	0.00031	-0.000841
151	-0.000512	-0.005114	-0.000183	0.002775	0.001789
152	-0.001169	-0.000512	0.000474	-0.000676	-0.000841
153	0.00031	-0.001169	0.002611	0.002447	-0.000512
154	-0.000841	-0.001498	0.002447	-0.000841	0.002118
155	0.000639	-0.000347	-0.000676	-0.001334	-0.001005
156	-0.000841	-0.002484	0.000474	0.00031	-1.9e-05
157	0.001132	0.00294	-0.001005	0.000474	0.002447
158	0.000967	0.000474	-0.000676	-0.000183	0.002447
159	0.000146	0.00031	-0.001662	0.00146	-0.000512
160	-0.001827	-0.000512	-0.000676	-1.9e-05	0.001789
161	-0.000183	-1.9e-05	-0.001662	0.001625	0.000803
162	-0.002813	-0.007086	0.000639	0.001132	0.00146
163	-0.001991	-0.001334	-0.001991	0.002282	0.001625
164	-0.001662	-0.000347	-0.001169	-0.000676	0.003104
165	-0.000841	0.001625	-0.001498	0.00031	0.001789
166	0.000146	-0.000676	-0.00232	0.000474	-0.002813
167	-0.000183	-0.000347	-0.001662	-0.002484	0.00294
168	0.000967	0.00146	-0.000512	-0.001005	-0.001827
169	-1.9e-05	-0.000841	0.001132	-0.003635	-0.006429
170	0.000639	-0.001662	-0.000183	-0.001334	-0.002813
171	-0.000841	0.000474	0.00031	-0.002977	0.000803
172	-1.9e-05	0.00031	-0.001169	-0.000347	-0.001827
173	-0.000512	-0.011031	0.000803	-0.000512	0.000967
174	-0.001005	-0.006264	-0.001169	0.000474	-0.001169
175	-0.000841	-0.001827	0.001625	-0.002813	0.001132
176	-0.000347	-1.9e-05	-0.000512	0.001789	0.002118
177	-0.000347	-0.002155	0.002447	0.000967	0.000146
178	-0.000183	0.000639	-0.001662	0.002118	-0.001498
179	0.000474	-0.001334	0.000146	0.000967	0.00031
180	-1.9e-05	0.001625	-0.001991	-0.000183	-0.009058
181	-1.9e-05	-0.002155	-0.001827	0.001296	-0.004292
182	0.000146	0.003104	-1.9e-05	-0.00232	0.001132
183	0.00031	-0.00232	-0.001005	0.004255	0.000146
184	-0.000676	-0.004456	0.001625	-0.001334	-0.000676
185	-0.000183	-0.000676	-1.9e-05	-0.005278	-0.001662
186	0.002118	-0.001169	0.002775	-0.001498	0.002611
187	0.00031	0.000639	0.002447	-0.001169	0.001296
188	-0.000512	0.000146	-0.000512	-0.004292	0.002447
189	0.000803	-0.000347	-0.001169	0.001132	-0.001662
190	-0.000347	-0.001334	0.001132	0.000639	0.003104
191	-1.9e-05	0.000474	-0.003306	0.000639	-0.007744
192	-0.001334	-0.001991	0.00146	-0.002813	-0.001991
193	0.000639	-0.002648	0.00409	0.002118	0.001296
194	-0.001169	-0.000676	0.002282	0.001625	-0.000347
195	-1.9e-05	0.002118	0.000639	0.002447	-0.000512
196	-0.001169	-0.002484	0.000639	0.002611	0.00146
197	0.000474	-0.000841	0.000474	0.001296	0.000474
198	0.000146	0.001296	-0.000347	0.003268	0.00294
199	-0.000512	0.003926	-1.9e-05	0.000803	0.001789
200	0.000639	0.001625	0.000639	0.000639	-0.001169
201	0.000146	0.000639	0.002118	-0.000347	0.001132
202	0.000639	0.001954	-0.001827	0.00031	-0.003799
203	-0.000676	-0.000841	0.00031	-0.000676	-0.001169
204	-1.9e-05	-0.000512	-0.001334	-0.001827	0.000639
205	-0.000183	0.000146	0.001625	-0.001662	0.003104
206	-0.000512	0.005076	-0.002155	0.000967	-0.001662
207	0.000639	-0.001005	0.004583	-0.000183	-0.003306
208	0.000474	0.001132	0.001954	0.000146	-0.002484
209	-0.000183	-0.002813	0.00031	0.00146	0.00409
210	-0.001005	-1.9e-05	-0.000841	0.000967	-0.003635
211	0.000639	-0.000512	0.002611	0.001789	-1.9e-05
212	0.00031	-0.001334	-0.005443	0.000146	0.000967
213	0.000146	-0.000841	-0.003635	0.000474	0.005734
214	-1.9e-05	0.000474	-0.003635	0.000967	-0.001169
215	0.000967	-0.001991	-0.005114	0.002118	-0.001991
216	-0.001169	0.00031	-0.000676	0.00146	0.00031
217	0.000146	0.00146	-0.003635	0.001296	-0.002484
218	-0.000841	-0.000347	0.001132	0.001296	0.000967
219	-0.000841	0.000803	-0.001827	-0.003306	-0.001827
220	-1.9e-05	0.000803	0.001132	-0.003142	0.000803
221	0.000474	-0.000347	0.002118	-0.000183	0.002611
222	-0.000183	0.000639	0.000803	-0.003142	-0.002977
223	0.000803	-0.000676	-0.008401	-0.001498	-0.001334
224	0.00031	-0.001005	0.001625	-1.9e-05	0.004255
225	0.000967	-0.001169	0.001296	-0.000841	-0.000841
226	0.000146	-1.9e-05	0.00146	-1.9e-05	-0.000347
227	-0.000841	-0.000183	0.003761	0.001625	-0.003635
228	-1.9e-05	-0.001169	0.002447	0.00294	-0.001498
229	-1.9e-05	-0.000183	-0.000676	0.000803	0.00294
230	-0.00232	-1.9e-05	0.001954	0.002282	-0.001662
231	-0.000676	0.000474	0.001789	-0.000347	0.00031
232	0.000146	-0.000512	-0.000347	0.001954	-0.002484
233	-0.000183	0.000639	0.00031	0.000146	0.00031
234	0.00031	-1.9e-05	-0.00725	-0.001169	-0.001334
235	-0.000183	-1.9e-05	0.00031	-0.00232	0.003104
236	-1.9e-05	-0.000347	-0.003142	-0.000841	-0.001169
237	0.00031	-0.000512	-0.001169	-0.004128	-0.000183
238	0.00031	-0.000676	-0.000841	-0.001498	-0.000512
239	-0.000183	-0.001334	-0.000512	-0.002648	-0.000183
240	0.001296	-0.000183	-0.001334	0.000474	0.000803
241	-0.000676	-1.9e-05	0.002118	0.004255	-0.002977
242	-1.9e-05	0.000146	0.004419	-0.005278	-0.000347
243	0.00031	0.000146	0.002775	0.000474	-0.001991
244	-1.9e-05	0.00031	0.004912	0.002611	0.001132
245	0.000146	0.000146	0.002447	-0.000183	-0.003963
246	-0.000512	-0.000183	0.000474	0.001132	0.002118
247	0.000146	-0.000347	-0.001498	0.00294	-0.002977
248	-1.9e-05	-0.000183	0.002118	-0.000841	0.00031
249	-0.000183	-0.000183	-0.000512	0.00294	-0.001991
250	-0.000841	-0.000512	0.000474	0.000639	-0.000676
251	-0.000183	-0.000183	-0.004456	0.001625	-0.001498
252	-0.000676	0.00031	-0.000841	0.00031	-0.000841
253	-0.000347	0.000146	-0.002484	0.002118	-0.000183
254	-0.000347	0.00031	-0.001169	-0.000841	-0.000183
255	0.000803	0.000146	-0.000183	0.000474	-0.000512
256	-1.9e-05	-0.000183	0.005734	-0.001005	0.00146
257	0.000803	-1.9e-05	-0.000512	-1.9e-05	0.000803
258	0.000146	-0.000183	0.002282	0.000803	-0.004128
259	-0.000183	-0.000512	-0.000512	-0.000183	-0.002484
260	0.00031	-0.000347	0.001954	0.002611	-0.001827
261	-0.000676	-0.000183	0.001789	0.00146	-0.000347
262	-0.000841	-0.000183	-0.001169	-0.003306	-0.001498
263	0.000146	0.000146	-0.000183	0.000639	-0.001005
264	-0.000347	0.000146	-1.9e-05	0.005569	-0.002155
265	-0.000347	-1.9e-05	-0.001005	0.000803	-0.002813
266	0.000474	0.000146	-0.002977	0.001296	0.001296
267	-0.001005	0.000146	0.003268	0.000146	0.000474
268	0.000474	-0.000347	-0.002813	0.004419	0.001789
269	-0.001005	-0.000347	-0.004621	0.00146	0.001789
270	-0.000347	-0.000183	-0.005114	-0.001334	-0.000512
271	-0.000183	-0.000512	-0.000841	0.000639	0.001789
272	-0.001334	-0.000183	-0.000512	0.000474	0.000639
273	0.000146	-0.000183	0.000146	-0.000841	0.000474
274	0.000146	0.00031	0.000639	-0.001498	-0.000841
275	0.000639	-1.9e-05	0.000474	0.001789	-0.002155
276	-0.000183	-1.9e-05	-0.000183	-0.001498	-0.003306
277	0.000474	-1.9e-05	0.002118	0.001789	-0.002155
278	-0.000512	0.000474	0.008363	0.000803	-0.001827
279	-1.9e-05	-0.000347	-0.00232	-0.000183	-0.005936
280	-0.000841	-0.000347	0.003926	-0.000347	-0.004128
281	-1.9e-05	-0.000512	-0.001005	0.000803	-0.003142
282	-1.9e-05	-0.000183	0.000803	-0.000676	-0.002155
283	-0.000676	-0.000676	-0.000183	0.00146	-1.9e-05
284	-0.001662	-1.9e-05	-0.000183	-0.000676	0.001789
285	-0.000841	-1.9e-05	-0.000676	0.002118	-0.001991
286	-0.001334	0.000146	0.00031	0.000639	0.002775
287	-1.9e-05	0.000146	-0.002155	-0.00232	0.001789
288	-1.9e-05	0.00031	0.000639	-1.9e-05	0.002118
289	-0.001169	0.00031	-0.000183	-0.002155	0.00146
290	0.000474	-1.9e-05	-0.002484	-0.001662	-0.000676
291	0.00031	-0.000183	0.000639	-0.003963	0.000146
292	0.000803	-0.000347	0.001954	0.000146	-0.000676
293	-0.000347	-0.000347	0.003104	0.000146	-0.000347
294	0.00031	-0.000676	-0.000512	0.00294	-0.000512
295	-0.000841	-1.9e-05	0.000967	-0.001991	-1.9e-05
296	-1.9e-05	0.000146	-0.000676	0.001132	-0.001498
297	-0.000183	-1.9e-05	0.002611	0.000967	0.000146
298	0.00031	-1.9e-05	0.000803	-0.00232	-0.000841
299	0.000639	0.00031	-0.000347	-1.9e-05	-1.9e-05
300	0.000803	0.000474	-0.000183	0.001625	-0.001991
301	0.000146	-0.000512	-0.004949	-1.9e-05	0.002118
302	-0.000183	-0.000183	-0.002648	0.000967	-0.001827
303	-0.000676	-0.000512	-0.000841	-0.000183	0.001296
304	-0.001169	-0.000183	-0.002484	-1.9e-05	0.002447
305	-0.000841	-0.000841	-0.000183	0.001296	0.001132
306	0.00031	-1.9e-05	-0.000676	0.000474	0.003104
307	-0.000347	0.00031	-1.9e-05	-0.000183	0.000146
308	0.000146	0.000146	0.000639	0.001132	0.005898
309	0.000146	-1.9e-05	-1.9e-05	0.000474	-0.000841
310	0.000146	0.00146	0.00146	-0.001498	0.00031
311	0.000474	0.00031	0.001789	0.003433	0.00031
312	-0.000347	0.000474	0.001132	-0.000512	-1.9e-05
313	0.000146	-0.000512	-0.000841	-0.000676	-0.003963
314	-0.000183	-0.000841	0.003761	-0.003142	-0.000347
315	-0.000183	0.000146	-0.001169	-0.000183	-0.003306
316	-0.000512	-0.004292	-0.003142	0.00031	-0.000512
317	-0.000183	0.000639	0.00146	-0.000183	-1.9e-05
318	-0.000183	-0.000841	-0.003306	0.001789	-0.000347
319	-1.9e-05	0.00146	-0.00725	0.005241	-0.000676
320	-0.000183	0.000474	-0.001169	0.001789	0.000967
321	0.000474	-0.002813	-0.003142	-0.000347	0.000967
322	0.000146	-0.000841	0.000803	0.000474	-0.001991
323	-1.9e-05	0.000967	-0.002155	-0.000841	0.000639
324	0.000146	0.001132	-0.005278	0.001954	0.000146
325	-0.000183	0.000803	0.002447	-0.002155	-0.004949
326	-1.9e-05	0.001625	-0.000676	0.00146	-0.001334
327	-0.000676	-0.001498	-0.000347	-0.001005	-1.9e-05
328	-0.000347	0.003104	0.001625	0.001625	-0.004128
329	-1.9e-05	-0.003963	0.004255	-0.001498	0.00031
330	0.000146	0.00146	0.002611	-0.000841	0.001132
331	0.000146	-0.000183	0.002118	-0.002484	-0.000347
332	-1.9e-05	-0.002648	0.000803	-0.001169	-0.000183
333	0.000474	-0.003799	0.002775	0.000146	-1.9e-05
334	-1.9e-05	0.003433	-0.001991	0.002447	-0.000512
335	-1.9e-05	-0.004785	-0.000183	0.003104	0.000146
336	-0.000347	-0.001334	-0.000183	-0.001991	0.000639
337	-0.000347	0.001954	-0.001991	0.000639	-0.000676
338	-0.000676	0.001132	-0.000676	-0.000347	0.000146
339	-0.000347	0.001132	-0.001169	0.000474	0.000967
340	-0.000347	0.000803	0.001296	-0.002155	-0.000183
341	-0.000183	-0.000183	-0.000841	-0.000347	0.000146
342	-1.9e-05	0.000474	0.002611	0.00031	0.003761
343	0.00031	-0.001334	-0.000183	0.003433	-0.001334
344	0.000146	-0.003963	0.000803	-0.000841	0.000474
345	-1.9e-05	0.002282	-0.000841	0.00146	-0.001169
346	-0.000183	-0.00347	0.000474	-0.004456	-1.9e-05
347	-1.9e-05	-0.001498	-0.000512	-0.002155	-0.001498
348	-0.000183	-0.003963	0.001132	-0.000183	-0.000841
349	-0.000183	-1.9e-05	-0.001005	-0.000512	-0.001005
350	-0.000512	-0.001334	-0.000676	-0.000183	-0.000347
351	-0.000676	-0.000512	-0.000347	0.000967	-0.001662
352	-1.9e-05	-0.001827	0.000639	0.000639	0.000146
353	-1.9e-05	-0.000347	0.004255	-0.000676	0.001132
354	0.000146	-0.001334	0.00031	0.000803	0.000474
355	-1.9e-05	-1.9e-05	0.000967	0.005241	-0.000183
356	0.00031	0.000639	-1.9e-05	0.000639	0.00294
357	-0.000183	-0.000347	0.000639	-0.001334	0.000146
358	-1.9e-05	-0.000841	0.000474	0.001132	-0.002813
359	-0.001169	-0.001498	-0.000676	-0.001005	0.003268
360	-1.9e-05	0.005076	0.00031	0.00294	-0.001005
361	0.00031	0.000146	-0.000676	-0.000676	0.00031
362	-0.000676	0.00146	0.000474	0.001625	-0.001991
363	-0.000347	0.001296	0.001132	0.000967	-0.001334
364	0.00146	0.002282	-0.001827	0.000803	-0.000841
365	0.000146	-0.001169	0.000967	0.000639	-0.000183
366	-1.9e-05	-0.000841	-0.002977	-0.000841	-0.000512
367	0.000803	-0.000183	-0.001991	0.001954	-0.000183
368	0.000146	0.001132	0.001625	0.000803	-0.000512
369	-0.000347	-0.00347	-0.001498	-0.000676	-0.001498
370	-0.000512	0.000803	-0.000676	0.002282	0.000803
371	-0.000347	-0.000841	-0.001827	0.002282	0.000146
372	-0.000676	-0.002813	0.000967	0.000146	-1.9e-05
373	-0.000183	-0.00232	0.003761	0.005405	-0.003799
374	-0.000841	-0.002155	0.00031	0.000967	0.006227
375	0.00031	-0.000347	-0.002813	0.000474	0.000803
376	-0.000183	-0.000512	0.00146	0.001789	0.00294
377	0.00031	-0.001827	0.000639	0.00031	-0.002648
378	-0.000183	-0.001498	0.00031	-0.001334	0.001296
379	0.000803	0.000146	-0.000183	0.00031	-0.002484
380	0.000146	0.001789	-0.000183	-0.003306	-0.007744
381	0.000639	-0.001498	-0.002155	-0.001334	-0.00347
382	0.000146	0.000474	-0.000512	0.00031	-0.004292
383	-0.000512	-0.000347	-0.001827	0.001625	-0.003142
384	-0.000676	0.000803	0.000146	0.003268	-0.004292
385	0.000146	-0.002484	0.002611	0.002775	0.000967
386	0.000474	0.002611	-0.000676	0.000146	-0.001498
387	0.000967	0.002447	0.000474	-0.000183	0.001954
388	-0.000183	-0.000676	0.000474	0.002118	-0.001169
389	-0.001169	0.001789	-0.000676	-0.001498	0.000474
390	0.000146	0.003926	-0.000841	-0.00232	-1.9e-05
391	-0.001005	-0.002977	0.000474	-0.002977	0.000803
392	0.000639	0.000967	-0.000676	0.000639	-0.001169
393	-0.00232	-0.001662	0.001789	0.000474	0.000803
394	-0.001498	-0.000512	-0.00347	-0.005936	0.000146
395	0.00031	0.000474	-0.000676	-0.001334	-0.000512
396	-0.001169	0.000146	-0.001334	0.001625	0.00146
397	0.000967	-0.000512	-0.001005	-0.002484	0.000146
398	0.001296	0.00031	-0.000347	-0.001005	-1.9e-05
399	-0.000841	0.00031	0.002775	-1.9e-05	-0.001169
400	0.000474	0.000474	-0.001991	-0.001334	0.000803
401	0.000967	0.001625	-0.001169	0.003104	-0.000512
402	0.001132	0.000146	0.000803	-0.001991	-1.9e-05
403	0.00031	0.000639	0.000803	0.002447	-0.000183
404	0.000474	0.002282	-0.000183	-0.001169	0.003761
405	0.001789	0.000146	-0.001498	0.001789	0.002447
406	0.003104	-0.001005	0.003926	0.000803	-0.001662
407	0.001296	0.001625	-0.001498	0.004583	0.002611
408	-0.004292	-1.9e-05	0.000967	0.000474	-0.000676
409	0.00031	0.000146	0.000639	-0.002484	-0.003142
410	0.000803	0.002282	0.00294	-0.001334	0.00031
411	-0.001005	0.004583	-0.001334	-0.001169	0.002282
412	-0.001334	-0.000347	-0.001169	0.001789	-0.001498
413	0.000967	0.001625	-0.003306	-0.001991	0.001789
414	0.003926	0.000474	-0.001827	-0.001005	0.000146
415	-0.001498	0.002447	0.00031	0.000474	0.000967
416	0.002611	-1.9e-05	-0.001334	0.001625	0.000967
417	0.000803	0.000474	-0.000183	-0.000512	0.000146
418	0.00031	0.000639	-0.001334	0.002611	0.001132
419	-0.000183	-0.000347	0.00409	-0.001827	0.002118
420	0.000474	0.003761	0.002447	0.000967	-0.000183
421	0.000146	-0.001662	0.00409	0.000803	0.001954
422	0.001296	0.000803	0.000967	0.000474	0.002611
423	0.001296	-0.001005	0.002611	-0.000841	0.001296
424	0.000803	0.00031	0.002447	0.000967	-0.001169
425	-0.000841	-0.000676	0.000639	0.000967	0.001296
426	-0.002813	-0.000183	0.00031	0.001789	-0.002648
427	-0.002648	-0.002648	-0.001662	0.001296	-0.000841
428	-0.001991	-0.001334	-0.001169	-0.000347	-0.002977
429	-0.002648	-0.000183	0.004748	0.003597	0.00031
430	-0.001827	-0.001334	-0.000347	-0.001662	-0.000512
431	-0.000183	-0.002977	0.001789	0.000474	0.000639
432	-0.000183	-0.000676	0.003433	-0.000347	0.001132
433	-0.001005	0.003761	0.00146	0.003433	0.002282
434	-0.001662	-0.001005	-0.001005	0.000474	0.002282
435	0.00146	0.000146	-0.001334	-0.002155	0.000146
436	-0.001991	-0.001334	0.001789	-0.001334	0.002282
437	0.000474	-0.000183	-0.002155	-0.000512	-0.005936
438	0.000967	-0.003142	0.003268	-0.001662	-0.000841
439	0.000639	-0.002484	0.000803	-0.001827	-0.001827
440	0.003104	-0.002484	0.000967	0.002447	-0.001991
441	-0.003142	-0.001498	-0.001498	0.00146	0.001132
442	-0.003963	-0.002155	0.002447	-0.000512	0.000803
443	0.000803	-0.002648	0.001132	-0.002813	-0.000512
444	0.001132	-0.000512	-0.002977	0.00031	0.000967
445	-0.001498	-0.003963	-0.003306	0.000639	-0.000841
446	0.002447	-0.001662	-0.00347	0.000474	0.001625
447	-0.00232	0.000803	-0.002155	-0.000183	0.000967
448	-0.001827	0.001132	-0.003799	0.00146	-0.00232
449	-0.000676	-0.000676	-0.002484	-0.000183	0.000639
450	0.000803	-1.9e-05	-0.002648	0.000639	-0.002977
451	-0.002155	-0.001005	-0.001498	0.00146	0.001132
452	-1.9e-05	-0.000841	-0.001169	0.00031	-0.001005
453	-0.000512	-0.00232	-0.00232	-0.001005	-0.001334
454	-0.001005	-0.001662	-0.005443	-0.001827	-0.000512
455	0.000146	-0.000512	0.000146	0.00031	-1.9e-05
456	-0.000183	0.00031	-0.001991	-0.000676	-0.001498
457	0.000474	-0.001169	-0.00232	-0.001169	-0.002648
458	-0.001991	0.000474	0.000803	0.001132	0.001625
459	0.002282	-0.001334	-0.001498	0.001132	-0.000512
460	-0.001991	-0.001498	-0.002484	-0.001005	0.000803
461	-1.9e-05	-0.000512	-0.004785	0.000146	-0.001827
462	-0.002813	-0.001662	-0.001169	-0.002813	-0.001005
463	-0.001334	-0.001498	-0.00232	-0.002155	0.000639
464	-0.0061	-0.000676	-0.003635	0.00031	-0.000512
465	-0.003635	-0.001662	-0.001498	-0.001827	-0.003635
466	-0.002484	0.00146	-0.001334	-0.002813	0.001625
467	-0.000676	-0.000347	-0.005936	-0.00347	-1.9e-05
468	-0.002813	0.001296	-0.00725	-0.001169	-0.001498
469	-0.000183	-0.000347	-0.005114	-0.00232	0.001625
470	0.000146	0.001132	0.001789	0.000967	-1.9e-05
471	-0.000676	-0.001005	-0.00347	-0.001662	-0.001827
472	0.001296	0.000146	0.001296	-0.001169	-0.000676
473	-0.001334	-0.000183	0.000474	-0.000183	-0.00232
474	0.000146	-0.001334	-0.000512	-0.001005	-0.001991
475	-0.002813	-0.000347	-0.001005	-0.001662	-0.00725
476	-0.001991	-0.000841	-0.001005	-0.001169	-0.002648
477	-0.004621	-0.002813	0.00031	-0.001827	0.000146
478	0.00031	-0.00347	0.002282	0.000474	-0.005114
479	-0.001498	-0.000512	-0.001005	0.001132	-0.001991
480	-0.001169	-0.001334	-0.001334	-0.000183	-0.001827
481	-0.003963	0.00294	0.003104	-0.001169	0.003761
482	-1.9e-05	0.001132	-0.001169	-0.000841	-0.000183
483	0.000639	-0.001005	0.000146	0.004255	0.00031
484	-0.001169	0.001132	-0.001169	-0.001991	0.001954
485	-0.001005	-0.002484	0.001132	-0.001498	0.000639
486	-0.000676	-0.000183	-0.000347	-0.004128	0.000146
487	0.001954	-0.003635	-1.9e-05	-0.00347	0.000639
488	-0.002977	-0.002155	-0.000512	-0.001827	0.00031
489	-0.001005	-0.001334	0.00146	-0.002813	-0.000841
490	-1.9e-05	-0.000841	0.000474	-0.001169	-0.001334
491	-0.001334	-0.001991	0.003268	0.001789	-0.000512
492	-0.004785	-0.001005	0.00146	-0.000512	-0.001169
493	0.000146	-0.002813	0.000474	-0.000347	0.000803
494	0.00031	-0.006429	0.002775	0.003433	-0.003963
495	-0.000183	-0.003306	-0.000676	0.002282	-1.9e-05
496	0.000639	-0.003635	0.000639	0.000474	-0.000183
497	-0.000512	-0.002648	-0.002648	0.00146	-1.9e-05
498	0.00031	-0.002648	-0.002484	0.000803	0.000967
499	0.001625	-1.9e-05	-0.001991	0.000639	0.000639
500	-1.9e-05	0.001789	0.00031	0.001296	-0.000347
501	-0.000347	0.00031	-0.003142	0.00294	-0.002155
502	-0.001005	-0.001169	-0.001169	0.000146	0.001954
503	-0.001498	-0.000841	-0.001498	0.00031	-0.003963
504	0.000639	-0.005443	-0.00232	-0.000841	-0.002813
505	0.000474	0.00031	0.001625	-0.000347	-0.003635
506	-0.003306	0.000967	0.001954	-0.002484	-0.001827
507	-0.000347	-0.003306	-1.9e-05	-0.003142	-0.002484
508	0.00031	-0.001991	-0.000512	0.000639	-0.001827
509	-0.004621	-0.002484	-1.9e-05	0.000146	0.003433
510	-0.000183	-0.001005	-0.003306	0.00031	-0.00232
511	-0.000183	-0.00232	-0.000512	0.001954	-0.001991
512	-0.002813	-0.002155	-0.003142	0.002775	-0.00347
513	-0.000512	-0.002648	-0.001169	0.000803	-0.002648
514	-0.00232	-0.000512	-0.001991	0.003761	-0.001662
515	0.000803	-0.003799	-0.003635	-0.000676	0.00031
516	0.00146	-0.001827	-0.001991	0.002282	-0.00232
517	-0.001991	-0.001991	-0.004128	-0.001662	-0.000841
518	-0.001662	-0.002813	-0.004621	0.000639	-0.002155
519	0.000146	-0.003142	-0.002977	-0.001827	0.00031
520	-0.00347	-0.000841	-0.001991	-0.000512	-0.000512
521	-0.000512	-0.001005	-0.002155	-0.001005	0.00031
522	-0.001334	0.001296	-0.000512	-0.000512	-0.004456
523	0.000146	0.001789	-0.001827	-1.9e-05	-0.000841
524	-0.001991	-1.9e-05	-0.001827	-0.003635	-0.004292
525	-0.001827	-1.9e-05	-0.001991	0.000967	-0.005936
526	-0.001498	-0.002155	-0.002155	-0.00232	-0.001498
527	-0.000841	-0.000347	-0.001005	-0.002977	-0.004785
528	-0.004128	-0.003635	0.004419	-0.001169	-0.001662
529	-0.001169	-0.000347	-0.001827	-0.001662	-0.003306
530	-0.001662	-0.002977	-0.000183	-0.000841	-0.001827
531	-0.005278	0.000146	-0.000183	0.000639	-0.001991
532	0.000146	-0.002648	-0.001005	-0.000512	-0.004949
533	0.000146	-0.003799	-0.001827	0.000146	0.001625
534	-0.002484	-0.002813	-0.001827	0.002447	0.00031
535	-0.001334	0.000639	-0.002977	0.001132	-0.001827
536	0.000803	-0.001498	-0.001498	-0.002648	0.000803
537	-0.001498	0.002447	-0.001827	-0.002648	-0.001005
538	0.001132	-0.001991	-0.001827	-0.005114	-0.00347
539	-0.002484	-0.00232	0.000146	-0.005771	0.00031
540	-0.001498	-0.001991	-0.000347	-0.005114	-0.000676
541	-0.001662	-0.00232	-0.001005	-0.002155	-0.000347
542	0.002611	-0.003142	0.000146	-0.00232	-0.001169
543	-0.000183	-0.003306	0.002118	-0.001498	-0.000183
544	0.003433	-0.004128	0.001625	0.003926	-0.001169
545	0.000474	-0.003142	0.000474	0.002447	0.00146
546	-0.001005	-0.004128	-0.001005	0.002282	-0.001827
547	0.002611	-0.001991	0.001625	-0.001005	-0.001827
548	-0.001498	-1.9e-05	-0.002813	0.001954	0.000474
549	-0.001334	-0.004292	0.000146	-0.008401	-0.001991
550	0.000146	-0.004456	-0.001005	-0.001334	0.000803
551	-0.000841	-0.001991	-0.000841	-1.9e-05	0.000967
552	-0.002813	-0.001991	-0.000512	-0.000676	0.001954
553	-0.003142	-0.002484	-0.000841	-0.000512	0.001625
554	-0.000512	0.00031	-0.004621	-0.002484	-1.9e-05
555	0.001296	-0.000183	0.00031	0.000146	-0.001827
556	-0.003963	-0.00232	0.002118	0.00031	0.000474
557	0.001296	0.000639	-0.001991	-0.001169	-0.001991
558	-0.002813	0.00031	-1.9e-05	-0.001991	0.000474
559	-0.004128	-0.002813	-0.003306	0.000146	-0.001498
560	-0.001005	-0.000512	0.000474	-0.010045	-0.001169
561	-0.000512	-0.001169	-0.001334	-0.002484	-0.001827
562	0.000474	-0.005771	0.000639	-0.000347	-0.000512
563	-0.001827	0.000967	-0.002813	0.000146	-0.002155
564	0.000639	-0.000512	-0.000183	-1.9e-05	-0.001169
565	0.002447	-0.001334	-0.000512	0.000146	-0.004621
566	0.000967	-0.000676	-0.001498	0.00409	-0.000676
567	-0.000841	-0.003142	-0.001827	0.001132	-0.002155
568	-0.001662	-0.005114	-0.000841	0.002118	-0.002977
569	-1.9e-05	-0.000841	-0.002155	-1.9e-05	-0.001334
570	-0.002813	-0.002648	-0.002813	0.002118	-1.9e-05
571	-0.00347	-0.001991	-0.000676	-0.0061	-0.001991
572	0.00031	-0.000512	-0.002813	-0.001827	-0.003635
573	-0.001827	-0.001005	-0.001662	0.001789	-0.001334
574	-0.001005	0.000803	-0.002813	-0.001334	-0.002977
575	-0.001005	0.000639	-0.001498	-0.002155	-0.001169
576	-0.00232	0.000146	-0.000841	0.000639	-0.001662
577	-0.000183	-0.001498	0.000474	-0.000841	-0.003142
578	-0.002648	-1.9e-05	0.000639	-0.000347	-0.003306
579	-0.001991	-0.003142	0.000146	-0.001827	-0.003306
580	-0.000841	-0.002155	-0.001827	0.000474	-0.004128
581	-0.002155	-0.005771	-0.003142	0.001132	-0.004128
582	-0.005278	-0.00347	-0.000512	0.001296	-1.9e-05
583	-0.001662	-0.002484	-0.001498	-0.004456	0.00031
584	-0.00232	-0.002484	-0.001498	0.002775	0.000803
585	0.000474	-0.000347	-0.001005	-0.001662	0.000803
586	-0.002813	-0.002484	-0.001334	-0.001662	-0.001005
587	-0.001005	0.00031	-0.002813	-0.002813	-0.001498
588	-0.001498	-0.001334	-0.001662	-0.001169	-0.001005
589	-0.001498	0.000967	-0.003799	-0.002155	-0.001334
590	-0.001991	0.000474	-0.001005	-0.004785	-0.001005
591	-0.003142	-1.9e-05	-0.002813	-0.002484	-0.000676
592	0.002282	-0.003799	-0.003799	-0.002484	-0.000347
593	0.000639	-0.002155	-0.003799	0.005569	-0.001991
594	0.001132	-0.001827	0.00409	-0.003306	-0.000676
595	0.001625	-0.001169	0.000474	-0.00232	-0.001169
596	0.001132	-0.001498	-0.000183	-0.00347	0.000639
597	0.001296	-0.003306	0.000639	-0.004292	0.000474
598	0.00294	-0.002484	-0.000183	-1.9e-05	0.000146
599	0.002611	-0.000841	-0.002484	0.000803	-0.000347
600	0.002447	-0.002813	-0.000676	-0.001991	-0.003306
601	0.00031	-0.004292	-0.000676	0.000146	-0.001991
602	0.001625	0.000146	-0.003799	-0.000183	-0.001991
603	0.000967	-0.001498	0.000474	-0.004128	0.00031
604	0.000474	-0.000183	-0.005114	0.00409	0.002611
605	0.001132	-0.001662	0.000639	-0.00232	-1.9e-05
606	0.000967	0.00146	0.002118	0.000474	0.001625
607	-0.000347	0.000474	-0.00232	-0.004128	0.001954
608	-0.003635	0.001132	-0.001827	-0.003142	-0.001827
609	0.002282	0.001954	-0.001991	-0.002155	-0.001334
610	0.001132	0.003268	-0.000841	-0.001169	0.001789
611	0.002118	0.00146	0.000803	-0.001498	-0.001005
612	-0.000512	0.000967	-1.9e-05	-0.000512	-0.001991
613	0.001296	0.003268	0.002611	0.00031	-0.000183
614	-0.001005	0.00146	0.001132	-0.001498	-0.001005
615	-0.001662	0.000967	0.002775	0.000967	-0.002155
616	-0.005607	0.002118	0.001954	0.00146	-0.001169
617	-0.000347	-0.000183	-0.001005	0.00031	-0.001827
618	-0.001169	-0.000676	0.001789	-1.9e-05	-1.9e-05
619	-0.000841	-0.003142	-0.001169	0.00409	-0.001005
620	0.00146	-0.000512	-0.002484	0.000803	0.001954
621	0.000803	0.000639	-0.002155	0.000803	-0.001169
622	0.000146	-1.9e-05	0.001296	0.002447	-0.000183
623	0.000639	0.001625	-0.001169	0.003433	-0.00232
624	-1.9e-05	-1.9e-05	-0.000183	0.002447	0.003104
625	-0.008401	-0.000347	-0.000347	0.002282	0.002282
626	-0.00347	-0.001498	0.000146	0.002282	0.00294
627	-0.000347	0.000146	-0.000512	-0.001169	0.000967
628	0.00031	-0.002155	-0.001827	-0.000676	0.003104
629	-0.001662	-0.000512	-0.001334	0.000639	-0.00347
630	0.000803	-0.000183	0.000803	0.002447	0.001132
631	0.00146	-1.9e-05	-0.001334	0.000639	0.001296
632	0.002611	-0.001169	0.001789	-0.000676	0.000639
633	0.000474	-0.001169	-0.001169	0.002118	-1.9e-05
634	0.002611	-0.002155	-0.001991	-0.001169	-0.003963
635	0.003597	-1.9e-05	-0.001169	0.00294	-0.001498
636	-0.0061	-0.001827	-0.005443	-0.000676	-0.000512
637	0.001132	-0.002155	-1.9e-05	-0.002813	-0.000676
638	0.000474	-0.001005	-0.002155	-0.001662	0.000639
639	0.001625	-0.003306	-0.001169	-0.001827	0.001132
640	-0.001498	0.002447	-0.00232	-0.001498	-0.001334
641	0.002611	0.004583	-1.9e-05	-0.004292	0.000967
642	0.002118	0.002611	-0.001991	0.000474	0.000803
643	0.005734	-0.001827	-0.002155	-0.002648	-0.000183
644	0.000639	0.001132	-0.004785	0.001132	0.000639
645	0.001296	-1.9e-05	-0.002484	-0.000676	-0.001662
646	-0.000347	-1.9e-05	-0.001498	-0.003142	-0.000347
647	-0.008237	-0.001169	-0.001991	-0.003635	-0.00232
648	-0.004785	-0.000841	0.000146	0.000474	-0.000347
649	0.00146	0.000803	-0.000676	-1.9e-05	-0.002155
650	-0.001334	-0.001005	0.001132	-0.004456	-0.000512
651	-0.000676	0.00146	-0.001334	-0.000841	-0.004292
652	0.001132	0.002118	0.001625	-0.001662	-0.001334
653	-1.9e-05	0.000967	-0.001991	-1.9e-05	-0.00232
654	0.002282	0.002775	-0.000676	-0.002155	-0.00232
655	-0.000347	0.005241	-1.9e-05	0.003926	-0.001005
656	-0.000183	0.001789	-0.001498	0.00146	0.000146
657	-1.9e-05	0.001132	-0.005607	-0.001334	0.00031
658	-0.005114	0.000146	-0.001991	-0.002484	-1.9e-05
659	-0.002155	0.001132	0.00031	0.002775	-0.001334
660	0.000803	0.000639	-0.001827	-0.001498	-0.000347
661	-0.001498	0.000474	-0.002813	-0.001662	0.002775
662	-0.000183	-0.000676	-0.001169	-0.000347	0.000639
663	-0.002484	0.002118	0.000639	-1.9e-05	0.00031
664	-0.000512	-1.9e-05	-0.003306	-0.001334	0.002282
665	-0.002484	-1.9e-05	-0.003306	-0.002977	-0.001005
666	0.001954	-1.9e-05	-0.001498	0.002611	-0.003799
667	0.004748	-0.001005	-0.002977	-0.001498	0.001132
668	0.004255	0.000474	-0.001662	0.00031	-0.000347
669	0.003433	-0.001662	0.000146	-0.001498	0.00146
670	0.001954	-0.000183	-0.001169	0.001789	0.001132
671	0.002118	-0.002484	0.000639	-0.002155	0.00146
672	0.002775	-0.000841	0.000474	-0.001991	0.000146
673	0.000474	-0.000183	0.00031	-0.000512	-0.000183
674	-0.000512	0.003268	0.000639	0.000639	0.000146
675	-0.000841	-0.002813	-0.000347	-0.000183	0.00409
676	-0.001991	-0.001005	-0.003142	-0.001991	0.001789
677	0.000639	-0.001005	-0.002813	0.001789	-0.001662
678	-0.000841	0.001132	-0.001827	-0.000183	0.000639
679	-0.001005	-0.001827	0.001296	-0.000512	-0.000841
680	0.002775	-0.00347	0.001954	0.000474	0.002118
681	-0.00232	-0.001334	0.002118	0.002447	0.001954
682	-0.001334	-0.002648	0.00146	-0.001169	0.001132
683	0.002447	-0.001005	0.000639	-0.002648	-0.001334
684	0.002118	-0.001169	-0.000347	-0.005443	-0.00232
685	0.002611	0.000803	0.000803	-0.005278	-0.000512
686	0.002282	-0.001827	0.000474	-0.001169	0.001789
687	0.003926	-0.001005	-0.000676	-0.003799	-0.003306
688	0.001625	-0.002484	0.000639	-0.001827	-0.000512
689	0.002282	0.000474	-0.000347	0.00031	-0.000183
690	0.001625	-0.001005	0.000474	0.000639	-0.000676
691	0.003433	-0.002648	0.000967	0.002775	0.002611
692	0.00146	-0.000512	0.002775	0.001296	0.002118
693	0.003104	-0.002648	0.000803	-0.000347	-0.000512
694	0.003268	-0.003963	0.002118	0.000639	0.002118
695	0.000474	-0.001169	-0.001169	0.000146	0.000967
696	0.001954	-0.000676	-0.001662	0.000146	-0.000183
697	0.001789	-0.003306	-0.000347	-0.000183	-1.9e-05
698	0.000639	-0.001991	-0.001827	-0.000512	-0.001662
699	0.001789	-0.001991	-0.002813	0.002611	0.001132
700	0.001954	0.001132	-0.002648	-0.003799	0.002447
701	0.000803	-0.002155	0.000146	-0.000512	-0.000347
702	0.002282	0.000474	-0.001169	0.002282	-0.000512
703	0.00031	-0.001169	-0.000183	-0.001827	0.001789
704	0.002118	0.00031	-0.000676	0.00031	-0.002484
705	0.000639	-0.004456	0.000639	0.000639	-0.001991
706	0.000803	-0.000183	-0.000183	0.005076	0.002118
707	0.003268	-0.001005	-0.002813	-1.9e-05	-0.001334
708	-0.003635	-0.002484	-0.00347	0.000146	-0.002155
709	0.003268	-0.002977	-0.002648	0.001132	-0.005771
710	0.002282	-0.000183	-0.001827	0.000146	0.000639
711	0.000146	-0.001005	-0.002977	0.002118	0.00031
712	-0.000841	-0.002977	0.000967	-0.00232	-0.001498
713	0.000474	-0.001334	-0.003306	0.001954	-0.00232
714	-0.00232	-0.001498	-0.003142	0.000146	0.002118
715	-0.000676	-0.000183	-0.002813	-0.002977	-0.001991
716	0.002282	-0.001991	-0.005936	-0.001498	-0.00232
717	0.001132	0.002282	-0.004456	-0.000676	-1.9e-05
718	0.001789	-0.001334	-0.000676	-0.004292	0.000146
719	-0.002813	0.000639	-0.004785	-0.005114	-0.00232
720	0.001954	-0.000676	0.001625	-0.002813	-0.002155
721	0.00031	0.001132	-0.002484	-0.001334	-0.001662
722	0.003104	-0.001991	-0.000841	-0.001169	-0.001827
723	0.002118	-0.001334	0.003104	-0.001827	0.003268
724	0.002447	-0.001662	-0.001005	-0.000512	-0.005771
725	-0.000347	-0.004949	0.000639	0.000967	0.003433
726	-0.000841	0.000639	-0.000676	-0.000841	0.000967
727	-0.003142	-0.001498	0.001954	-0.002155	-0.002484
728	0.000803	-0.000676	-0.000512	0.00146	-0.000676
729	-0.00232	0.000474	0.001954	-0.000841	-1.9e-05
730	-0.002813	0.001296	0.000474	-0.001334	-0.001169
731	-0.00232	-0.000183	0.000803	-0.00232	0.000474
732	0.000639	0.000474	-0.004621	-0.001005	0.001132
733	-0.000183	0.00031	-0.000676	-0.001827	0.00031
734	-0.000183	-0.001169	-0.001334	0.001296	-0.002155
735	0.002447	0.001625	0.002282	-0.001169	0.000967
736	0.003433	-0.000347	0.000146	-0.001169	0.003268
737	0.00294	0.001296	0.001296	-0.005771	0.000146
738	0.00031	0.000146	0.000967	-0.000841	-0.000676
739	0.003597	-0.000841	-0.000841	-0.001827	-1.9e-05
740	0.002118	0.000639	0.002118	-0.003963	0.002447
741	0.00146	-0.002155	-0.001005	0.001789	-0.001991
742	0.002282	-0.002977	0.001132	-0.000841	0.002118
743	0.003597	0.001132	-0.001662	0.001625	-0.001334
744	0.002447	-0.000841	0.000639	-0.000183	0.000803
745	0.00146	-0.000512	0.003268	0.001789	-0.001334
746	0.002775	0.000146	0.002282	0.000146	0.001132
747	0.00146	0.001132	-0.001169	0.002447	0.000146
748	-1.9e-05	0.00031	-0.000676	0.001296	0.003104
749	-1.9e-05	0.000146	-0.001827	0.002775	0.001789
750	0.000639	0.000146	-0.001169	-0.000841	0.00146
751	0.004255	0.005405	0.002611	0.004912	0.006556
752	0.013787	0.00409	0.0105	0.011158	0.014116
753	0.018225	0.009678	0.018882	0.018225	0.018389
754	0.029894	0.010336	0.026114	0.028086	0.026114
755	0.035318	0.016253	0.034989	0.033017	0.034661
756	0.043371	0.010336	0.041399	0.044522	0.04255
757	0.049781	0.017732	0.049124	0.045672	0.046823
758	0.052082	0.028251	0.052247	0.057177	0.054219
759	0.0603	0.033017	0.06293	0.058821	0.058821
760	0.06556	0.040249	0.066875	0.066053	0.065724
761	0.069176	0.046494	0.070162	0.070983	0.069833
762	0.074764	0.056027	0.077065	0.076079	0.074764
763	0.076572	0.059643	0.077065	0.081667	0.080352
764	0.083803	0.06671	0.079037	0.084789	0.085447
765	0.08972	0.071805	0.088241	0.091199	0.093172
766	0.094158	0.077065	0.089227	0.09498	0.094487
767	0.099089	0.081338	0.095801	0.098924	0.098431
768	0.095308	0.087912	0.103362	0.102376	0.104677
769	0.105663	0.089885	0.106649	0.107306	0.108293
770	0.108128	0.097938	0.109936	0.108293	0.111251
771	0.113388	0.100568	0.115524	0.11536	0.113552
772	0.116017	0.103526	0.119469	0.116839	0.120619
773	0.118647	0.108457	0.119304	0.12177	0.118154
774	0.11914	0.111908	0.12555	0.122427	0.116675
775	0.126043	0.083968	0.128837	0.126043	0.115031
776	0.123742	0.024635	0.130316	0.131631	0.12292
777	0.130974	0.029237	0.131302	0.132782	0.124728
778	0.13196	0.037455	0.137219	0.135083	0.127851
779	0.132782	0.046001	0.138205	0.13837	0.13196
780	0.139192	0.049781	0.139685	0.142479	0.131631
781	0.139192	0.059807	0.141	0.141657	0.141164
782	0.142643	0.065888	0.144122	0.144451	0.142972
783	0.146259	0.071477	0.146423	0.14478	0.144451
784	0.146588	0.0769	0.145437	0.148396	0.142972
785	0.147081	0.082488	0.150697	0.148396	0.149382
786	0.152505	0.086269	0.153162	0.152998	0.153819
787	0.151518	0.089391	0.15497	0.153326	0.15612
788	0.153326	0.091364	0.155627	0.156942	0.153819
789	0.156449	0.093993	0.159079	0.153162	0.159243
790	0.159079	0.067368	0.162859	0.158586	0.157435
791	0.156285	0.057999	0.161873	0.163516	0.160229
792	0.165324	0.047809	0.163023	0.161544	0.159572
793	0.162859	0.027265	0.168612	0.164667	0.162366
794	0.164174	0.024964	0.166475	0.163845	0.16253
795	0.166311	0.030552	0.162859	0.16516	0.155956
796	0.16516	0.038276	0.167132	0.169762	0.167297
797	0.168118	0.044358	0.167954	0.168776	0.166146
798	0.167461	0.051918	0.169762	0.173378	0.168447
799	0.170091	0.050439	0.170255	0.174528	0.168283
800	0.173871	0.061615	0.173049	0.171406	0.173871
801	0.174035	0.070326	0.173707	0.17535	0.172885
802	0.170913	0.074764	0.175515	0.176172	0.17535
803	0.174857	0.079694	0.175021	0.173378	0.174857
804	0.173871	0.084789	0.178309	0.175515	0.177158
805	0.176172	0.046166	0.177322	0.17798	0.176008
806	0.174857	0.024306	0.178966	0.179788	0.170913
807	0.176665	0.030223	0.17913	0.179623	0.176501
808	0.175186	0.035154	0.182746	0.181431	0.177815
809	0.177815	0.042878	0.183075	0.183404	0.178802
810	0.178473	0.040906	0.187019	0.181267	0.181596
811	0.179459	0.055041	0.187184	0.184225	0.178802
812	0.183404	0.0603	0.186198	0.184554	0.179952
813	0.179623	0.067696	0.183239	0.186526	0.182417
814	0.182417	0.07197	0.18176	0.184225	0.183239
815	0.181924	0.076736	0.18439	0.186855	0.182746
816	0.182417	0.080681	0.18176	0.188992	0.185705
817	0.183568	0.088241	0.182746	0.186198	0.182582
818	0.181103	0.093007	0.185376	0.190142	0.183732
819	0.18439	0.097938	0.187348	0.186855	0.186033
820	0.18932	0.102376	0.185705	0.187348	0.184554
821	0.184883	0.09991	0.189485	0.188827	0.183732
822	0.187184	0.107799	0.187348	0.188992	0.188827
823	0.188334	0.110922	0.191457	0.187841	0.18554
824	0.185212	0.117332	0.190142	0.190964	0.189156
825	0.188827	0.122098	0.188992	0.187841	0.183239
826	0.187841	0.123413	0.187677	0.187841	0.182089
827	0.188992	0.12818	0.188006	0.1908	0.185212
828	0.184883	0.129988	0.192443	0.1908	0.187184
829	0.189485	0.126043	0.192115	0.192443	0.186033
830	0.187184	0.132453	0.190142	0.189485	0.187513
831	0.187019	0.137219	0.191786	0.194251	0.18817
832	0.188006	0.140013	0.1908	0.191786	0.190471
833	0.193922	0.140506	0.190471	0.190964	0.190142
834	0.192772	0.142807	0.195895	0.192608	0.189485
835	0.191293	0.147409	0.192443	0.193429	0.192936
836	0.1908	0.146752	0.19458	0.185869	0.195566
837	0.19195	0.150204	0.193922	0.190307	0.186033
838	0.190142	0.147738	0.186855	0.192608	0.192608
839	0.191128	0.154312	0.191293	0.194909	0.19836
840	0.191128	0.154641	0.194251	0.195566	0.189814
841	0.192115	0.1576	0.192608	0.193922	0.192115
842	0.193922	0.157271	0.195566	0.191621	0.192115
843	0.194909	0.163188	0.194909	0.19458	0.190964
844	0.193922	0.159408	0.192443	0.195895	0.192772
845	0.193101	0.162366	0.19573	0.194251	0.1908
846	0.197374	0.161709	0.194744	0.196881	0.193758
847	0.193429	0.162695	0.196881	0.195073	0.194087
848	0.195402	0.16401	0.193429	0.196881	0.190964
849	0.192936	0.169269	0.187348	0.195566	0.194416
850	0.196223	0.171734	0.194087	0.199018	0.194909
851	0.191786	0.169269	0.19721	0.193922	0.19195
852	0.19458	0.173871	0.196223	0.196223	0.192608
853	0.194909	0.172392	0.197045	0.194251	0.200825
854	0.194744	0.180774	0.196717	0.194416	0.193922
855	0.192772	0.174693	0.194087	0.196059	0.195237
856	0.194251	0.178802	0.195402	0.196388	0.193101
857	0.194087	0.180116	0.197045	0.196552	0.197045
858	0.19195	0.179623	0.197538	0.195566	0.196552
859	0.190471	0.177158	0.195073	0.19458	0.195566
860	0.193101	0.180774	0.190635	0.194251	0.193758
861	0.194087	0.180774	0.196717	0.19721	0.193594
862	0.192936	0.180938	0.195073	0.195073	0.192115
863	0.196059	0.180938	0.19721	0.197045	0.194744
864	0.200497	0.181924	0.197374	0.196881	0.194744
865	0.197538	0.185212	0.196552	0.19836	0.190964
866	0.194744	0.179295	0.195895	0.197538	0.19458
867	0.199018	0.185705	0.194744	0.195237	0.192279
868	0.193594	0.181431	0.197045	0.195895	0.194909
869	0.198853	0.185705	0.196059	0.196388	0.193758
870	0.19836	0.184718	0.194744	0.196717	0.194416
871	0.19721	0.184225	0.192608	0.199346	0.19458
872	0.195073	0.186855	0.196223	0.195895	0.196881
873	0.195073	0.188499	0.195237	0.197538	0.192279
874	0.196388	0.187184	0.195566	0.197045	0.194909
875	0.194251	0.187841	0.199018	0.198031	0.196059
876	0.19573	0.188827	0.196881	0.19721	0.188827
877	0.193101	0.184883	0.196881	0.197045	0.192772
878	0.194087	0.184883	0.199839	0.199346	0.190307
879	0.195237	0.186855	0.198196	0.196223	0.191128
880	0.195402	0.188499	0.198031	0.19836	0.191293
881	0.196388	0.186691	0.198853	0.198196	0.193265
882	0.199675	0.180281	0.20362	0.197538	0.194087
883	0.198853	0.183732	0.198196	0.19836	0.197703
884	0.196552	0.183239	0.197045	0.200004	0.194087
885	0.199346	0.182417	0.201812	0.196388	0.1908
886	0.197703	0.181431	0.195566	0.200497	0.196717
887	0.197045	0.183239	0.200332	0.197374	0.192279
888	0.199511	0.184718	0.196223	0.200004	0.193594
889	0.196059	0.185212	0.197703	0.198524	0.193594
890	0.195073	0.186691	0.199018	0.198196	0.194744
891	0.197703	0.18439	0.197374	0.197867	0.195237
892	0.198031	0.183404	0.198689	0.198524	0.140835
893	0.196223	0.172392	0.20099	0.199182	0.131138
894	0.193922	0.175515	0.197538	0.197703	0.048138
895	0.196717	0.17798	0.19721	0.199018	0.00031
896	0.195237	0.175843	0.198031	0.197538	0.000146
897	0.19836	0.173378	0.19721	0.201483	0.000146
898	0.197703	0.179788	0.199018	0.197703	0.000146
899	0.200168	0.176994	0.19721	0.197867	0.000146
900	0.198031	0.17913	0.197045	0.200004	-1.9e-05
901	0.197703	0.178802	0.195073	0.199675	0.000474
902	0.200332	0.178144	0.198196	0.198196	-0.000183
903	0.196881	0.176994	0.200168	0.200168	-0.000347
904	0.197538	0.178966	0.199839	0.199182	0.000146
905	0.196388	0.183568	0.196223	0.198689	-1.9e-05
906	0.193429	0.176008	0.19721	0.19836	-1.9e-05
907	0.159736	0.008528	0.197045	0.197867	0.00031
908	0.157764	0.01691	0.19721	0.198524	0.000146
909	0.160887	0.024306	0.198031	0.198196	0.00031
910	0.160229	0.030223	0.196059	0.198689	0.001132
911	0.161709	0.038112	0.199018	0.19836	0.007706
912	0.16401	0.045837	0.197703	0.198689	0.006062
913	0.165817	0.05011	0.19836	0.19836	0.000639
914	0.169105	0.057835	0.197045	0.200004	-0.000183
915	0.169433	0.061122	0.200168	0.197703	-0.000347
916	0.170913	0.069504	0.196059	0.199182	-0.000512
917	0.171406	0.07312	0.198524	0.198524	-0.000183
918	0.174693	0.078544	0.196717	0.200004	0.00031
919	0.176829	0.082653	0.19573	0.200497	0.000146
920	0.174693	0.089556	0.19721	0.200332	0.00031
921	0.177322	0.090213	0.199018	0.199018	0.000146
922	0.176665	0.096294	0.199346	0.19836	0.000146
923	0.176501	0.102211	0.197703	0.199346	-1.9e-05
924	0.176665	0.103526	0.197374	0.197538	-1.9e-05
925	0.178966	0.099582	0.198196	0.19721	-0.000347
926	0.176008	0.104841	0.19836	0.195237	-0.000512
927	0.180445	0.108786	0.196223	0.19836	-0.000347
928	0.179623	0.112566	0.199346	0.198524	0.000146
929	0.180116	0.118154	0.197867	0.200332	-1.9e-05
930	0.178802	0.120291	0.19836	0.197045	-1.9e-05
931	0.181267	0.124893	0.199018	0.200497	0.00031
932	0.183239	0.12292	0.199182	0.197867	0.000146
933	0.188499	0.12555	0.199346	0.197538	0.000803
934	0.184883	0.127358	0.199675	0.197374	-0.000676
935	0.184883	0.130974	0.198689	0.197045	-0.000183
936	0.186198	0.132782	0.200168	0.197867	-0.000183
937	0.187348	0.13459	0.200168	0.195402	-0.000183
938	0.193758	0.137877	0.197538	0.196881	-0.000183
939	0.182582	0.141493	0.201319	0.197703	0.00031
940	0.190471	0.141986	0.198031	0.196223	0.00031
941	0.189814	0.142314	0.196552	0.19836	0.000146
942	0.188334	0.146423	0.196223	0.201154	0.00031
943	0.185869	0.148396	0.197867	0.200168	0.00031
944	0.190307	0.141657	0.196717	0.200825	0.000474
945	0.188992	0.144615	0.199675	0.200168	-0.000183
946	0.188334	0.147574	0.197538	0.198853	-0.000183
947	0.1908	0.148067	0.198031	0.196717	-0.000512
948	0.189649	0.15119	0.197045	0.199675	-0.000347
949	0.191621	0.146588	0.194744	0.197538	-0.000183
950	0.191786	0.139849	0.197374	0.19836	0.000146
951	0.192608	0.129988	0.199839	0.19721	0.000146
952	0.192443	0.129988	0.196552	0.199182	0.00031
953	0.19195	0.130645	0.198196	0.200168	0.000146
954	0.192279	0.116675	0.198853	0.198524	0.00031
955	0.194909	0.111744	0.198689	0.197703	-0.001498
956	0.191457	0.113881	0.197867	0.199182	-0.000183
957	0.195566	0.112237	0.197538	0.198853	-1.9e-05
958	0.192443	0.117332	0.197703	0.198689	0.001296
959	0.190471	0.120455	0.201483	0.200004	0.000639
960	0.186855	0.120948	0.196059	0.196717	0.000146
961	0.187019	0.109279	0.196223	0.201976	-0.000183
962	0.189156	0.114702	0.197045	0.201812	-1.9e-05
963	0.189814	0.10895	0.194251	0.199675	0.00031
964	0.189649	0.101718	0.196059	0.198196	-1.9e-05
965	0.189978	0.106649	0.196223	0.200004	0.00031
966	0.19195	0.103526	0.197538	0.19721	0.000146
967	0.189485	0.106813	0.196717	0.197374	-0.000347
968	0.191786	0.109114	0.199511	0.199839	-0.000183
969	0.191293	0.110593	0.199346	0.19836	-0.000512
970	0.192936	0.106156	0.198853	0.197374	-0.000347
971	0.190142	0.109607	0.196388	0.197867	0.003761
972	0.190471	0.106978	0.196881	0.199182	0.005569
973	0.1908	0.109279	0.199511	0.196388	0.003104
974	0.190142	0.109936	0.197703	0.198524	0.001625
975	0.191786	0.116017	0.197867	0.197703	0.000146
976	0.193429	0.115689	0.196552	0.201319	0.000639
977	0.189978	0.110429	0.199511	0.198196	0.001625
978	0.190964	0.103033	0.196881	0.201154	0.007049
979	0.191786	0.10254	0.197867	0.19836	0.015431
980	0.193265	0.099417	0.19721	0.19836	0.00935
981	0.192115	0.086762	0.200168	0.198524	0.01428
982	0.193922	0.073778	0.197538	0.198031	0.018718
983	0.194087	0.056191	0.198031	0.197703	0.021512
984	0.193922	0.046166	0.199346	0.195895	0.027593
985	0.194744	0.035975	0.200168	0.196059	0.031209
986	0.194087	0.035482	0.198689	0.198689	0.038769
987	0.196059	0.035318	0.198196	0.197703	0.043371
988	0.195566	0.035975	0.20099	0.195402	0.047316
989	0.193594	0.041564	0.197867	0.200825	0.058164
990	0.188663	0.044686	0.200168	0.196223	0.06293
991	0.194251	0.044193	0.198031	0.198853	0.063094
992	0.194909	0.042878	0.199182	0.191128	0.070326
993	0.189649	0.04633	0.197867	0.200825	0.07575
994	0.190307	0.039263	0.194744	0.199511	0.080023
995	0.197045	0.040084	0.195073	0.194416	0.081995
996	0.191621	0.036633	0.200332	0.201647	0.090542
997	0.193101	0.034661	0.19573	0.200004	0.093993
998	0.195566	0.030716	0.200168	0.198689	0.098924
999	0.193758	0.030387	0.198689	0.198689	0.102376
1000	0.193101	0.026443	0.199346	0.201976	0.105498
1001	0.188992	0.028908	0.200825	0.197867	0.110593
1002	0.194744	0.028908	0.202305	0.197867	0.112073
1003	0.193429	0.026607	0.199018	0.197045	0.116839
1004	0.194909	0.026443	0.197538	0.198524	0.11914
1005	0.193758	0.025457	0.20099	0.197703	0.122098
1006	0.196059	0.022663	0.196059	0.19836	0.123578
1007	0.195895	0.022169	0.200004	0.19836	0.130316
1008	0.193594	0.020526	0.198689	0.200168	0.131138
1009	0.19573	0.022005	0.198689	0.198031	0.135247
1010	0.197703	0.022169	0.199346	0.200332	0.136069
1011	0.196059	0.018554	0.199018	0.19836	0.141821
1012	0.196552	0.021183	0.197703	0.197703	0.140178
1013	0.195895	0.02069	0.196388	0.195073	0.141821
1014	0.193265	0.021512	0.19721	0.199018	0.147903
1015	0.196059	0.0271	0.196717	0.198196	0.147574
1016	0.192772	0.028908	0.196717	0.199675	0.150368
1017	0.197374	0.026443	0.19573	0.195566	0.149217
1018	0.195402	0.026114	0.198689	0.197867	0.154477
1019	0.197045	0.023649	0.199839	0.199018	0.15497
1020	0.196388	0.019868	0.202305	0.196552	0.154148
1021	0.192608	0.027758	0.200497	0.199182	0.156778
1022	0.195237	0.032195	0.204277	0.197867	0.159079
1023	0.196223	0.032195	0.199182	0.19836	0.158586
1024	0.193922	0.031538	0.200497	0.197374	0.161709
1025	0.195237	0.027593	0.201319	0.200004	0.158421
1026	0.19721	0.029237	0.19836	0.199018	0.164831
1027	0.193758	0.030059	0.196223	0.199675	0.162859
1028	0.19458	0.023977	0.200661	0.198031	0.16516
1029	0.197045	0.025292	0.197867	0.200168	0.16516
1030	0.200661	0.028086	0.197538	0.199675	0.167954
1031	0.195073	0.029894	0.197703	0.200332	0.170584
1032	0.199346	0.034332	0.198689	0.19836	0.171077
1033	0.196059	0.038441	0.199675	0.19721	0.17535
1034	0.196552	0.037948	0.197867	0.195073	0.173871
1035	0.195895	0.034989	0.200332	0.195895	0.174857
1036	0.196388	0.030059	0.199018	0.196388	0.17535
1037	0.196717	0.030716	0.197374	0.194744	0.17913
1038	0.197538	0.032524	0.198031	0.199839	0.18061
1039	0.198524	0.02973	0.199675	0.196717	0.17913
1040	0.19836	0.029401	0.19836	0.198196	0.177815
1041	0.200004	0.02595	0.199182	0.201647	0.178966
1042	0.199675	0.024142	0.198524	0.202305	0.180116
1043	0.200825	0.022334	0.200004	0.200168	0.179952
1044	0.197703	0.027265	0.199675	0.203948	0.180445
1045	0.200004	0.031209	0.199182	0.198031	0.180774
1046	0.193594	0.037126	0.197538	0.197867	0.185376
1047	0.199018	0.042057	0.196059	0.199675	0.184225
1048	0.195402	0.050768	0.198524	0.200168	0.184554
1049	0.195895	0.054876	0.195402	0.198689	0.183568
1050	0.198853	0.057671	0.201319	0.200004	0.185212
1051	0.199839	0.061122	0.19573	0.200661	0.18554
1052	0.195566	0.061286	0.199018	0.19573	0.186362
1053	0.198031	0.063094	0.199182	0.199182	0.186691
1054	0.197045	0.06556	0.196059	0.197867	0.187019
1055	0.199675	0.069176	0.200004	0.201154	0.187513
1056	0.199346	0.075257	0.200004	0.19721	0.188992
1057	0.19721	0.078215	0.197867	0.197703	0.188006
1058	0.19721	0.07049	0.200661	0.198853	0.187184
1059	0.192608	0.075421	0.199346	0.199182	0.188827
1060	0.182582	0.075585	0.199346	0.198031	0.187348
1061	0.184225	0.077886	0.199346	0.199675	0.18932
1062	0.187841	0.079037	0.19721	0.205427	0.189156
1063	0.184718	0.080681	0.199675	0.199839	0.190471
1064	0.187184	0.073449	0.197538	0.200661	0.1908
1065	0.188663	0.073613	0.197867	0.19836	0.191293
1066	0.186691	0.022498	0.197867	0.203784	0.191293
1067	0.185705	0.003433	0.197374	0.196388	0.192443
1068	0.188334	0.010007	0.19458	0.197045	0.192443
1069	0.188827	0.014938	0.19836	0.198689	0.194416
1070	0.188992	0.02447	0.196223	0.197538	0.189978
1071	0.187019	0.02447	0.19573	0.197045	0.193594
1072	0.19195	0.032853	0.197538	0.200332	0.192608
1073	0.192608	0.002611	0.195402	0.199346	0.189978
1074	0.192608	-0.002155	0.196881	0.198196	0.192608
1075	0.192115	-0.000676	0.199675	0.19836	0.191293
1076	0.193101	0.006062	0.198853	0.199675	0.193594
1077	0.189978	0.0105	0.200497	0.198853	0.19195
1078	0.190635	0.004419	0.199839	0.199346	0.195895
1079	0.191293	0.00031	0.198689	0.198689	0.194744
1080	0.192772	-0.000183	0.201812	0.199346	0.19573
1081	0.191786	0.00935	0.19836	0.200497	0.193594
1082	0.190635	0.001625	0.201319	0.19836	0.195566
1083	0.192772	0.00787	0.198853	0.198689	0.196059
1084	0.192115	0.010007	0.198196	0.195566	0.19573
1085	0.193265	0.00935	0.198196	0.198524	0.194416
1086	0.192443	0.016417	0.19721	0.197045	0.197703
1087	0.194744	0.025128	0.19721	0.19721	0.194744
1088	0.189485	0.020197	0.199511	0.196388	0.196881
1089	0.192608	0.028086	0.198031	0.199018	0.197374
1090	0.193594	0.029072	0.199346	0.198689	0.198524
1091	0.194909	0.026607	0.199839	0.194087	0.194416
1092	0.19836	0.023156	0.199839	0.200004	0.195402
1093	0.194744	0.026278	0.198524	0.202305	0.196223
1094	0.196223	0.003104	0.199018	0.201647	0.193265
1095	0.194744	0.005241	0.20099	0.198689	0.19573
1096	0.195237	0.009185	0.198031	0.201483	0.195402
1097	0.194744	0.016746	0.19721	0.19836	0.195895
1098	0.198031	0.026278	0.198689	0.199346	0.193429
1099	0.194909	0.027758	0.19836	0.199675	0.197045
1100	0.193594	0.032031	0.197374	0.198031	0.197538
1101	0.193101	0.028415	0.197045	0.200825	0.197045
1102	0.194416	0.030716	0.194087	0.195402	0.198689
1103	0.195402	0.029894	0.194744	0.201812	0.200004
1104	0.195073	0.032031	0.197045	0.20099	0.195895
1105	0.195237	0.028744	0.198689	0.197374	0.197538
1106	0.17913	0.031045	0.199839	0.201647	0.196059
1107	0.183897	0.030552	0.198689	0.197538	0.19721
1108	0.180445	0.02595	0.196388	0.19836	0.196881
1109	0.181924	0.023156	0.200168	0.197374	0.195073
1110	0.181924	0.02595	0.200168	0.195566	0.197538
1111	0.181431	0.02332	0.19721	0.203126	0.195402
1112	0.184225	0.018225	0.201319	0.197703	0.19721
1113	0.18439	0.021183	0.199346	0.196223	0.194416
1114	0.184554	0.024964	0.199018	0.197045	0.200497
1115	0.187348	0.018718	0.197703	0.201483	0.195402
1116	0.187513	0.018061	0.198524	0.197867	0.19458
1117	0.18554	0.018389	0.196059	0.198524	0.196717
1118	0.186198	0.017567	0.194251	0.197867	0.197703
1119	0.187184	0.015102	0.191293	0.198031	0.197538
1120	0.1908	0.018225	0.19836	0.196717	0.196552
1121	0.187348	0.021348	0.196717	0.19721	0.198689
1122	0.190307	0.023156	0.193922	0.195402	0.198031
1123	0.191293	0.033346	0.203784	0.197538	0.198196
1124	0.192279	0.031209	0.196881	0.197867	0.19721
1125	0.189649	0.034332	0.20099	0.196717	0.196388
1126	0.189649	0.04107	0.200332	0.199839	0.193429
1127	0.187677	0.04255	0.198196	0.196388	0.194087
1128	0.187841	0.0437	0.198196	0.200168	0.195402
1129	0.187184	0.03614	0.199839	0.195566	0.19458
1130	0.192279	0.026936	0.196388	0.198196	0.194744
1131	0.190964	0.02332	0.200661	0.197374	0.194087
1132	0.192443	0.02447	0.197867	0.197045	0.197538
1133	0.192443	0.026607	0.199675	0.197374	0.198196
1134	0.192115	0.025621	0.198196	0.199511	0.197538
1135	0.192936	0.028908	0.199675	0.198196	0.19721
1136	0.192936	0.034168	0.196388	0.198196	0.198031
1137	0.194416	0.031045	0.198524	0.197374	0.199018
1138	0.192772	0.033181	0.196717	0.198524	0.196223
1139	0.194416	0.029401	0.199018	0.196223	0.197538
1140	0.193922	0.027265	0.197703	0.19721	0.199839
1141	0.195895	0.023484	0.195895	0.196388	0.19458
1142	0.19195	0.027265	0.200825	0.193758	0.197867
1143	0.191457	0.031867	0.19721	0.194416	0.154312
1144	0.194416	0.03088	0.198689	0.196552	0.153655
1145	0.193594	0.026443	0.197867	0.198689	0.153162
1146	0.193922	0.029401	0.200332	0.197374	0.156613
1147	0.195402	0.029072	0.197045	0.19836	0.155956
1148	0.196059	0.02447	0.200825	0.198524	0.158093
1149	0.194909	0.024306	0.198853	0.199018	0.159079
1150	0.19573	0.013952	0.197867	0.198853	0.161709
1151	0.196881	0.019704	0.200497	0.200661	0.163516
1152	0.192608	0.016581	0.198031	0.197045	0.166146
1153	0.195237	0.017732	0.197374	0.195237	0.166475
1154	0.195237	0.016253	0.19836	0.199182	0.167954
1155	0.195402	0.022498	0.197703	0.198031	0.169433
1156	0.196388	0.020197	0.196059	0.198689	0.171241
1157	0.193922	0.026443	0.199839	0.197045	0.174857
1158	0.195237	0.031867	0.19573	0.200497	0.174528
1159	0.195895	0.035318	0.197867	0.201647	0.175679
1160	0.19721	0.030387	0.196717	0.199675	0.172885
1161	0.194251	0.030552	0.19836	0.196881	0.176501
1162	0.195402	0.031209	0.196223	0.196552	0.175021
1163	0.195566	0.035975	0.196059	0.200168	0.1742
1164	0.193594	0.029237	0.195073	0.191457	0.177158
1165	0.196717	0.027593	0.197867	0.196223	0.178802
1166	0.196717	0.027758	0.196059	0.197538	0.176829
1167	0.196717	0.019375	0.196223	0.197703	0.17535
1168	0.192608	0.003268	0.20099	0.197867	0.18061
1169	0.196881	0.003926	0.200168	0.198031	0.182253
1170	0.197045	0.008692	0.199346	0.198196	0.181924
1171	0.195566	0.009185	0.198196	0.199839	0.183404
1172	0.195402	0.013952	0.199675	0.197374	0.182911
1173	0.194744	0.008363	0.197703	0.199675	0.184718
1174	0.195895	0.00031	0.194744	0.197538	0.184061
1175	0.19195	0.00031	0.195895	0.190635	0.181596
1176	0.191293	0.000474	0.197045	0.196059	0.187677
1177	0.189978	0.00031	0.19836	0.197867	0.183568
1178	0.192772	0.000146	0.19836	0.195402	0.185212
1179	0.194416	0.000146	0.199839	0.20099	0.184061
1180	0.19721	-0.000183	0.198196	0.19573	0.189156
1181	0.196223	-0.000512	0.199511	0.198689	0.187841
1182	0.197538	-0.000512	0.19836	0.198196	0.191621
1183	0.197045	-0.000347	0.199346	0.199346	0.187184
1184	0.198853	-0.000183	0.198689	0.196223	0.190964
1185	0.199018	0.000146	0.198031	0.197374	0.188006
1186	0.196388	0.000146	0.200332	0.196059	0.189649
1187	0.196881	0.00031	0.199182	0.195566	0.191786
1188	0.196552	0.00031	0.198689	0.197867	0.190471
1189	0.196388	0.000474	0.199018	0.197045	0.191621
1190	0.196223	0.000146	0.198524	0.199018	0.191457
1191	0.192279	-0.000183	0.197703	0.197538	0.192608
1192	0.199511	-0.000183	0.199346	0.200332	0.188499
1193	0.197045	-0.000512	0.198853	0.201812	0.193429
1194	0.195237	-0.000347	0.193922	0.19721	0.193101
1195	0.198196	-0.000183	0.198524	0.196881	0.190471
1196	0.196223	-0.000183	0.196223	0.198689	0.192279
1197	0.196717	0.000146	0.195073	0.200497	0.191786
1198	0.199182	-1.9e-05	0.196881	0.19836	0.19195
1199	0.195566	0.00031	0.196552	0.199182	0.19195
1200	0.198031	0.000474	0.198031	0.197867	0.148724
1201	0.198524	0.000146	0.197045	0.199511	0.147574
1202	0.197045	-0.000183	0.200004	0.199839	0.146752
1203	0.200825	-0.000512	0.198031	0.199346	0.147738
1204	0.19721	-0.000347	0.199675	0.200497	0.156778
1205	0.199839	-0.000347	0.198853	0.20099	0.152176
1206	0.196059	-0.000183	0.198853	0.19836	0.157764
1207	0.197374	0.000146	0.197703	0.198689	0.157435
1208	0.193429	0.000146	0.199346	0.204277	0.160558
1209	0.196059	0.00031	0.196388	0.195237	0.159408
1210	0.192608	0.000146	0.199511	0.196059	0.153491
1211	0.195566	0.00031	0.196388	0.197538	0.004912
1212	0.195566	0.000146	0.197703	0.197538	0.00146
1213	0.195402	-1.9e-05	0.195237	0.196223	0.007706
1214	0.198524	-0.000183	0.192936	0.193922	0.013787
1215	0.193758	-0.000347	0.197045	0.197045	0.023649
1216	0.19195	-0.000512	0.194744	0.201319	0.027429
1217	0.194251	-0.000347	0.195402	0.194416	0.037455
1218	0.188992	-1.9e-05	0.200497	0.19836	0.0437
1219	0.191293	-1.9e-05	0.199182	0.202798	0.048467
1220	0.19458	0.00031	0.197703	0.196717	0.054876
1221	0.192443	0.000474	0.197867	0.198853	0.06293
1222	0.193429	0.00031	0.196881	0.19836	0.064245
1223	0.194087	-1.9e-05	0.198031	0.198031	0.070819
1224	0.190142	-0.000183	0.194744	0.20099	0.074271
1225	0.19195	-0.000347	0.200168	0.19458	0.079366
1226	0.193101	-0.000183	0.196881	0.199346	0.084132
1227	0.191786	-0.000512	0.198031	0.198031	0.089556
1228	0.192115	-0.000347	0.197045	0.198196	0.092843
1229	0.18439	0.000146	0.196717	0.197374	0.099253
1230	0.192443	-1.9e-05	0.199675	0.199018	0.103526
1231	0.194744	0.00031	0.198031	0.195566	0.109443
1232	0.179295	0.00031	0.199839	0.194087	0.106485
1233	0.124399	0.000146	0.198524	0.195237	0.113059
1234	0.115853	-1.9e-05	0.198196	0.194416	0.117003
1235	0.10139	-0.000183	0.198853	0.197374	0.010336
1236	0.094651	-0.000347	0.197045	0.193265	0.008857
1237	0.095801	-0.000512	0.198689	0.195895	0.001954
1238	0.09498	-0.000512	0.201812	0.201976	0.001296
1239	0.095308	-0.000183	0.19836	0.200332	0.002118
1240	0.093007	0.000146	0.200168	0.19721	0.010171
1241	0.068354	-1.9e-05	0.19836	0.201483	0.018225
1242	0.040906	0.000146	0.200168	0.197867	0.028415
1243	0.042057	-1.9e-05	0.199839	0.200661	0.033017
1244	0.046823	0.000146	0.197045	0.200497	0.042057
1245	0.054055	0.00031	0.199346	0.198524	0.046166
1246	0.059643	-0.000183	0.199839	0.199346	0.056356
1247	0.064902	-0.000183	0.200825	0.197045	0.061122
1248	0.073613	-0.000183	0.198853	0.197374	0.062437
1249	0.077886	-0.000512	0.198853	0.197538	0.069833
1250	0.068354	-0.000183	0.201154	0.199018	0.076079
1251	0.071148	0.000146	0.196881	0.197703	0.084296
1252	0.076572	0.000146	0.197374	0.200168	0.08709
1253	0.081995	0.000146	0.200497	0.199182	0.090378
1254	0.089063	0.00031	0.200004	0.200168	0.093665
1255	0.093829	0.00031	0.20099	0.197374	0.099746
1256	0.094487	-1.9e-05	0.200497	0.201154	0.100896
1257	0.10139	-0.000183	0.199675	0.198689	0.10895
1258	0.103855	-0.000347	0.199675	0.199018	0.108786
1259	0.108293	-0.000347	0.198196	0.200825	0.112894
1260	0.111744	-0.000512	0.197867	0.202798	0.117168
1261	0.113388	-0.000183	0.199018	0.20214	0.121441
1262	0.121277	-1.9e-05	0.197703	0.199018	0.124071
1263	0.117825	0.000146	0.198853	0.201154	0.126865
1264	0.124564	0.00031	0.195237	0.200332	0.13196
1265	0.131631	0.000146	0.196059	0.204113	0.132617
1266	0.133603	0.00031	0.198031	0.199346	0.136562
1267	0.134754	-1.9e-05	0.196059	0.200004	0.136562
1268	0.13459	-0.000183	0.194744	0.19836	0.143136
1269	0.141164	-0.000512	0.19458	0.196388	0.140835
1270	0.141	-0.000676	0.198853	0.196223	0.145108
1271	0.145437	-0.000183	0.198524	0.202798	0.14593
1272	0.146095	-0.000347	0.199511	0.196059	0.146588
1273	0.151354	-1.9e-05	0.198031	0.203126	0.148067
1274	0.149053	-1.9e-05	0.201812	0.201483	0.152505
1275	0.149217	0.000146	0.198689	0.198853	0.15234
1276	0.153162	0.000146	0.195895	0.198853	0.154312
1277	0.152998	0.000474	0.196717	0.199839	0.158093
1278	0.155792	0.000146	0.199018	0.200825	0.159572
1279	0.15234	-0.000183	0.19458	0.199018	0.163023
1280	0.159736	-0.000183	0.19573	0.198196	0.160722
1281	0.16138	-0.000512	0.195566	0.199346	0.166968
1282	0.165653	-0.000347	0.195073	0.19721	0.167625
1283	0.164174	-0.000512	0.197867	0.196388	0.169433
1284	0.166311	-1.9e-05	0.193922	0.198689	0.169433
1285	0.166639	-1.9e-05	0.195895	0.198031	0.171734
1286	0.170748	0.000146	0.194744	0.196388	0.171406
1287	0.171899	0.000146	0.19721	0.196059	0.171899
1288	0.173049	0.000474	0.195895	0.195073	0.171734
1289	0.173214	0.000146	0.19721	0.200332	0.174528
1290	0.173049	-0.000183	0.195895	0.198524	0.174693
1291	0.175843	-0.000183	0.194416	0.19573	0.174857
1292	0.174857	-0.000512	0.195237	0.201812	0.175679
1293	0.175679	-0.000347	0.195895	0.197045	0.176665
1294	0.176501	-0.000183	0.19573	0.201812	0.179623
1295	0.178473	0.000146	0.191786	0.200332	0.179459
1296	0.176172	0.000146	0.192772	0.200004	0.182253
1297	0.179295	0.000146	0.193265	0.199182	0.180445
1298	0.176665	0.00031	0.193758	0.197703	0.183732
1299	0.179623	0.000146	0.193758	0.199346	0.182746
1300	0.18061	-1.9e-05	0.198031	0.19836	0.184554
1301	0.181103	-0.000183	0.19195	0.198853	0.184883
1302	0.182911	-0.000183	0.193101	0.195895	0.183239
1303	0.181924	-0.000512	0.187677	0.199511	0.185376
1304	0.185869	-0.000347	0.191786	0.19836	0.187348
1305	0.186526	-0.000183	0.195237	0.198196	0.184225
1306	0.183732	0.000146	0.194909	0.198031	0.18817
1307	0.184554	0.000146	0.194416	0.196881	0.187841
1308	0.186691	0.000146	0.195402	0.199346	0.186033
1309	0.184554	0.000146	0.193758	0.199182	0.187184
1310	0.188499	0.00031	0.195895	0.201154	0.187677
1311	0.18554	-0.000183	0.195237	0.198853	0.191128
1312	0.1908	-1.9e-05	0.191293	0.198196	0.189649
1313	0.187184	-0.000183	0.193758	0.197045	0.189649
1314	0.189156	-0.000183	0.189156	0.202305	0.189978
1315	0.192608	-0.000347	0.189978	0.197045	0.190964
1316	0.189156	-0.000183	0.190635	0.198196	0.1908
1317	0.19195	0.000146	0.189814	0.197045	0.193922
1318	0.189649	0.00031	0.190635	0.19836	0.193922
1319	0.188334	0.000474	0.188499	0.19458	0.193101
1320	0.190307	0.00031	0.193429	0.199839	0.193101
1321	0.191786	0.000146	0.191128	0.197703	0.192279
1322	0.192115	0.000146	0.19195	0.19721	0.188334
1323	0.191786	-0.000183	0.1908	0.199182	0.189814
1324	0.194087	-0.000183	0.188006	0.198524	0.191293
1325	0.193758	-0.000512	0.187513	0.200825	0.189649
1326	0.191128	-0.000512	0.185376	0.198524	0.191457
1327	0.194416	-0.000183	0.186691	0.201319	0.1908
1328	0.191457	-1.9e-05	0.188827	0.199839	0.19573
1329	0.191457	-1.9e-05	0.184061	0.200004	0.197703
1330	0.192443	0.00031	0.185376	0.197045	0.195566
1331	0.192608	0.00031	0.182582	0.201483	0.195402
1332	0.191293	0.00031	0.17913	0.196881	0.192936
1333	0.192936	0.001296	0.17535	0.19836	0.194251
1334	0.190471	0.000803	0.170748	0.198689	0.19721
1335	0.192115	0.000474	0.165982	0.197703	0.194087
1336	0.191786	-0.000183	0.162202	0.19836	0.198031
1337	0.189814	-0.000347	0.156778	0.197374	0.19573
1338	0.194087	-0.001498	0.155956	0.19836	0.193922
1339	0.196717	0.001132	0.151025	0.200661	0.19573
1340	0.19458	0.006391	0.147409	0.20214	0.19573
1341	0.193758	0.005076	0.143301	0.199346	0.194909
1342	0.19836	0.005569	0.142643	0.199018	0.194909
1343	0.195402	0.010993	0.141328	0.196881	0.195402
1344	0.194744	0.017239	0.137219	0.197703	0.194251
1345	0.194416	0.024635	0.13574	0.199018	0.195073
1346	0.19721	0.032195	0.129495	0.200497	0.193922
1347	0.197045	0.035811	0.129495	0.197867	0.19458
1348	0.19573	0.044193	0.1267	0.205592	0.194251
1349	0.193101	0.04748	0.127029	0.19836	0.197045
1350	0.194909	0.056027	0.120948	0.19836	0.196552
1351	0.193594	0.059972	0.12177	0.203126	0.196388
1352	0.194087	0.067861	0.121934	0.198524	0.198524
1353	0.194909	0.07049	0.117496	0.197045	0.19458
1354	0.193429	0.073613	0.117496	0.199018	0.195895
1355	0.194416	0.079201	0.118154	0.197703	0.197538
1356	0.194087	0.084954	0.094815	0.198031	0.194416
1357	0.195237	0.089227	0.086104	0.196388	0.191621
1358	0.194909	0.089227	0.084789	0.199511	0.194416
1359	0.197703	0.090378	0.08594	0.200004	0.195895
1360	0.19573	0.091528	0.091857	0.195237	0.195237
1361	0.195073	0.097116	0.08857	0.196223	0.197045
1362	0.195237	0.100239	0.069669	0.199675	0.199018
1363	0.195566	0.105498	0.065888	0.198031	0.195073
1364	0.195073	0.106813	0.070655	0.19721	0.196717
1365	0.196552	0.113716	0.069504	0.199511	0.198524
1366	0.194744	0.115853	0.072627	0.197045	0.19836
1367	0.193758	0.117661	0.070819	0.20099	0.195237
1368	0.197867	0.120126	0.071805	0.19721	0.198196
1369	0.195073	0.121934	0.076407	0.197703	0.004583
1370	0.197703	0.12292	0.07838	0.197703	0.00787
1371	0.195237	0.122427	0.081831	0.197538	0.01691
1372	0.196881	0.126536	0.085283	0.195895	0.023156
1373	0.192936	0.12818	0.08594	0.19836	0.032688
1374	0.194087	0.128837	0.089227	0.198031	0.037126
1375	0.195073	0.132289	0.0935	0.195895	0.045344
1376	0.196717	0.135576	0.095637	0.199018	0.047809
1377	0.196059	0.134754	0.101883	0.196552	0.058164
1378	0.196059	0.13459	0.101718	0.198689	0.060136
1379	0.198689	0.136069	0.10517	0.19721	0.066381
1380	0.199182	0.095801	0.107799	0.197538	0.066875
1381	0.198524	0.00031	0.11158	0.199675	0.077558
1382	0.198524	0.005898	0.113223	0.199511	0.083475
1383	0.201154	0.014445	0.117332	0.19721	0.084625
1384	0.196059	0.017732	0.117003	0.200168	0.090706
1385	0.199346	0.020197	0.122427	0.197045	0.099417
1386	0.200332	0.027593	0.122756	0.195073	0.103197
1387	0.204277	0.031867	0.124399	0.196388	0.106649
1388	0.19836	0.023977	0.128344	0.197045	0.109443
1389	0.199182	0.00787	0.128837	0.198524	0.112073
1390	0.198689	0.004255	0.132617	0.19573	0.116675
1391	0.19836	0.001789	0.133768	0.199675	0.118647
1392	0.198853	-1.9e-05	0.138041	0.19721	0.122592
1393	0.197703	0.001789	0.140342	0.200497	0.125057
1394	0.201812	0.004419	0.146259	0.194909	0.12933
1395	0.201812	0.006227	0.145766	0.198689	0.128837
1396	0.196881	0.00031	0.148231	0.197703	0.134754
1397	0.199346	0.005898	0.147245	0.199018	0.132782
1398	0.19836	-0.005771	0.150861	0.198524	0.139356
1399	0.19721	-1.9e-05	0.152011	0.201154	0.140178
1400	0.197538	0.00146	0.152669	0.198689	0.143465
1401	0.197045	0.00294	0.153984	0.197867	0.145766
1402	0.19836	0.003433	0.154806	0.201812	0.146259
1403	0.196552	0.004255	0.157928	0.198031	0.149875
1404	0.197538	-0.000347	0.157435	0.198853	0.156942
1405	0.198031	0.00031	0.162037	0.195895	0.152833
1406	0.197045	0.002447	0.159408	0.201319	0.154806
1407	0.195073	0.002611	0.166639	0.197374	0.158421
1408	0.195237	0.001954	0.163023	0.198689	0.155627
1409	0.196717	0.000146	0.166639	0.194416	0.159079
1410	0.198196	0.004748	0.168283	0.196881	0.157928
1411	0.196059	-1.9e-05	0.169762	0.196388	0.161709
1412	0.197374	0.001296	0.170091	0.197374	0.164174
1413	0.197867	0.000146	0.171077	0.198689	0.163845
1414	0.199511	0.000639	0.172556	0.198853	0.165489
1415	0.195237	0.000146	0.174693	0.199182	0.166804
1416	0.198524	0.000967	0.178144	0.202962	0.16779
1417	0.198031	0.000146	0.175186	0.200004	0.170419
1418	0.198031	0.004419	0.175679	0.197703	0.173049
1419	0.19721	0.000639	0.177651	0.199182	0.170419
1420	0.200004	0.00031	0.180445	0.197374	0.175186
1421	0.197045	0.006884	0.178309	0.199346	0.168447
1422	0.194087	0.000474	0.180774	0.197045	0.17535
1423	0.193758	0.002118	0.179788	0.198689	0.175021
1424	0.194251	0.002282	0.182417	0.19836	0.176665
1425	0.197045	0.001789	0.181267	0.199346	0.174364
1426	0.194909	0.001789	0.184883	0.19721	0.177651
1427	0.194909	0.010007	0.184883	0.198853	0.174693
1428	0.196388	0.007706	0.184883	0.197703	0.180774
1429	0.198524	0.012965	0.183732	0.196552	0.183075
1430	0.197045	0.019211	0.188499	0.197538	0.181924
1431	0.198853	0.020362	0.183897	0.196388	0.179295
1432	0.198853	0.012637	0.188006	0.194744	0.177487
1433	0.196059	0.000967	0.189649	0.195402	0.182089
1434	0.200332	0.00787	0.186526	0.195895	0.18176
1435	0.196552	0.010829	0.188827	0.196388	0.184061
1436	0.200004	0.011486	0.186855	0.194744	0.185047
1437	0.196881	0.021348	0.189649	0.195402	0.184554
1438	0.197045	0.002282	0.188663	0.199675	0.180774
1439	0.194744	0.006556	0.189978	0.197867	0.189485
1440	0.199675	0.010171	0.189485	0.197703	0.186198
1441	0.196881	0.014609	0.192279	0.199182	0.191293
1442	0.197703	0.02332	0.190635	0.199675	0.186691
1443	0.197045	0.029894	0.188663	0.196717	0.182417
1444	0.197374	0.033346	0.192115	0.200168	0.185869
1445	0.199511	0.03992	0.192115	0.197374	0.186855
1446	0.19836	0.046987	0.192443	0.198524	0.186691
1447	0.199511	0.046987	0.194087	0.198031	0.188499
1448	0.199346	0.05537	0.193758	0.197045	0.187348
1449	0.201812	0.061286	0.192936	0.198524	0.186362
1450	0.196388	0.066053	0.194087	0.200004	0.187348
1451	0.198689	0.070162	0.192772	0.197867	0.185047
1452	0.201812	0.074271	0.194744	0.196388	0.189649
1453	0.197867	0.077558	0.190471	0.201319	0.188827
1454	0.198196	0.08594	0.191293	0.196717	0.188992
1455	0.19836	0.090706	0.193922	0.200004	0.186198
1456	0.197867	0.093336	0.193101	0.198524	0.189156
1457	0.19836	0.099582	0.191128	0.199511	0.187513
1458	0.19721	0.093665	0.19573	0.198524	0.190142
1459	0.197703	0.104184	0.193101	0.198689	0.188992
1460	0.198196	0.107306	0.195402	0.195566	0.188663
1461	0.196717	0.111908	0.194744	0.198853	0.186526
1462	0.197867	0.113388	0.194251	0.198031	0.182746
1463	0.196881	0.118154	0.19721	0.197045	0.177322
1464	0.199839	0.11914	0.190307	0.199018	0.175679
1465	0.199018	0.123249	0.193429	0.198196	0.178966
1466	0.196881	0.124893	0.193758	0.198196	0.17535
1467	0.196223	0.12555	0.194744	0.193429	0.174364
1468	0.19721	0.131467	0.191457	0.196223	0.162859
1469	0.200497	0.130481	0.198524	0.197867	0.146752
1470	0.198031	0.135576	0.195237	0.198689	0.099746
1471	0.198524	0.138205	0.197538	0.19836	0.017074
1472	0.196223	0.138699	0.195073	0.201319	0.005734
1473	0.196388	0.142314	0.19721	0.198031	0.006227
1474	0.194744	0.144944	0.193101	0.198853	0.006391
1475	0.197703	0.143629	0.188499	0.199182	0.003761
1476	0.195566	0.147738	0.194416	0.198196	0.005898
1477	0.196059	0.148889	0.192279	0.197703	0.002282
1478	0.194416	0.150532	0.194251	0.197703	0.008199
1479	0.195402	0.150532	0.193758	0.199018	0.00672
1480	0.199018	0.155463	0.196552	0.197538	0.014609
1481	0.197703	0.155134	0.194251	0.19573	0.007049
1482	0.197703	0.155299	0.197538	0.195237	0.000474
1483	0.198689	0.157271	0.196552	0.198689	0.000639
1484	0.199182	0.156613	0.199182	0.196881	-0.000347
1485	0.201976	0.105334	0.197045	0.196552	-0.000183
1486	0.199839	0.095801	0.189156	0.196388	0.000146
1487	0.199018	0.099417	0.195073	0.19836	0.005241
1488	0.202469	0.102376	0.197867	0.19721	0.001954
1489	0.199675	0.107306	0.196717	0.20099	0.003268
1490	0.199346	0.110429	0.196881	0.199018	0.009843
1491	0.199018	0.115853	0.196388	0.202798	0.012801
1492	0.19721	0.112073	0.195895	0.199182	0.015924
1493	0.196717	0.119633	0.195073	0.19836	0.014609
1494	0.198031	0.121112	0.195237	0.200661	0.022663
1495	0.196717	0.122098	0.19573	0.195073	0.023484
1496	0.19721	0.125057	0.195895	0.196388	0.022663
1497	0.196717	0.059643	0.192936	0.199018	0.011815
1498	0.196717	0.059643	0.196059	0.197045	0.01428
1499	0.19721	0.061122	0.197374	0.195073	0.019868
1500	0.20099	0.064902	0.19721	0.198524	0.025128
1501	0.198524	0.066217	0.19721	0.197538	0.032031
1502	0.200661	0.074271	0.195895	0.200661	0.036962
1503	0.198196	0.074271	0.195237	0.197703	0.045344
1504	0.203948	0.079859	0.197538	0.19836	0.050439
1505	0.200497	0.082817	0.198689	0.196881	0.056191
1506	0.197374	0.08709	0.19721	0.200332	0.059314
1507	0.199346	0.089556	0.198853	0.200497	0.063587
1508	0.195895	0.092514	0.197867	0.196881	0.069669
1509	0.200825	0.099746	0.19721	0.197867	0.077229
1510	0.197374	0.103362	0.19721	0.196552	0.077229
1511	0.197867	0.104841	0.196388	0.198853	0.083639
1512	0.19721	0.112237	0.197374	0.197703	0.087748
1513	0.200332	0.115524	0.196059	0.200168	0.092021
1514	0.19458	0.114045	0.196223	0.198853	0.099253
1515	0.199346	0.118483	0.195402	0.199018	0.099582
1516	0.197867	0.118154	0.19721	0.196223	0.104841
1517	0.197867	0.123413	0.195237	0.196552	0.109607
1518	0.195566	0.123742	0.195237	0.196059	0.113388
1519	0.200168	0.128015	0.201812	0.201154	0.115031
1520	0.198196	0.128344	0.199511	0.197374	0.122263
1521	0.19836	0.016417	0.198031	0.200004	0.119797
1522	0.201154	0.017896	0.202305	0.198031	0.12292
1523	0.199839	0.029237	0.199182	0.200661	0.126043
1524	0.197374	0.035482	0.19458	0.198853	0.129988
1525	0.197703	0.040577	0.198853	0.199839	0.132124
1526	0.197867	0.043371	0.199346	0.201812	0.134261
1527	0.196552	0.049946	0.196717	0.199018	0.138205
1528	0.19573	0.057835	0.197374	0.199018	0.141986
1529	0.194416	0.0603	0.199675	0.197538	0.142972
1530	0.199018	0.067368	0.199182	0.198031	0.145602
1531	0.195566	0.070326	0.198031	0.198689	0.150039
1532	0.198196	0.07049	0.196388	0.197703	0.148067
1533	0.200168	0.07312	0.198196	0.1908	0.151025
1534	0.197703	0.079694	0.196881	0.200497	0.154641
1535	0.194416	0.083968	0.198689	0.197703	0.155956
1536	0.196881	0.084789	0.19721	0.198031	0.155627
1537	0.199839	0.082817	0.199346	0.197045	0.15497
1538	0.195402	0.086597	0.198196	0.199346	0.1576
1539	0.197374	0.083968	0.19836	0.200004	0.003268
1540	0.195402	0.092679	0.200168	0.201154	0.009021
1541	0.19836	0.083968	0.20214	0.199018	0.016417
1542	0.19721	0.083146	0.19721	0.198031	0.027429
1543	0.199839	0.077065	0.197703	0.201483	0.030059
1544	0.196717	0.075421	0.195895	0.197045	0.037948
1545	0.199182	0.038934	0.197045	0.198196	0.044193
1546	0.196223	0.046166	0.199346	0.199018	0.053233
1547	0.199182	0.049781	0.193429	0.197045	0.057013
1548	0.197703	0.05011	0.19836	0.199346	0.064574
1549	0.195237	0.058492	0.193758	0.199839	0.067203
1550	0.19721	0.046823	0.197045	0.195895	0.074928
1551	0.198524	0.049453	0.196717	0.199182	0.06556
1552	0.199839	0.052411	0.197867	0.195566	0.06408
1553	0.198031	0.052575	0.193429	0.195566	0.068682
1554	0.198196	0.00935	0.195237	0.19836	0.073284
1555	0.199511	0.018718	0.198031	0.195073	0.077886
1556	0.198031	0.021676	0.198689	0.199182	0.080681
1557	0.197538	0.031538	0.199839	0.199018	0.08857
1558	0.199839	0.03729	0.197374	0.193922	0.093172
1559	0.197867	0.042714	0.197703	0.197374	0.094322
1560	0.198196	0.05011	0.198689	0.197538	0.099253
1561	0.196388	0.057177	0.200168	0.199018	0.104841
1562	0.200168	0.061615	0.196552	0.198853	0.108786
1563	0.197374	0.06408	0.197867	0.196881	0.103197
1564	0.198524	0.074928	0.195237	0.197703	0.016581
1565	0.19721	0.07575	0.197374	0.197045	0.013787
1566	0.200661	0.084296	0.193758	0.197045	0.017567
1567	0.201976	0.084461	0.192608	0.196059	0.024799
1568	0.199839	0.091528	0.19458	0.197867	0.031867
1569	0.200661	0.086762	0.197374	0.201976	0.037948
1570	0.198853	0.003104	0.199839	0.199675	0.04255
1571	0.198524	0.010829	0.199182	0.197538	0.052411
1572	0.199018	0.016581	0.200332	0.198031	0.056684
1573	0.200168	0.021019	0.200004	0.198689	0.059807
1574	0.197374	0.026607	0.200825	0.197538	0.06408
1575	0.200004	0.038605	0.197867	0.197867	0.072134
1576	0.195895	0.04255	0.20099	0.19836	0.077229
1577	0.198853	0.048795	0.196717	0.199346	0.083146
1578	0.197045	0.055205	0.199839	0.199018	0.087584
1579	0.194909	0.064738	0.20362	0.200332	0.092843
1580	0.198031	0.063916	0.201483	0.197703	0.096459
1581	0.199182	0.071312	0.194909	0.200825	0.099746
1582	0.19836	0.076407	0.202633	0.198524	0.107799
1583	0.195566	0.082982	0.19836	0.194744	0.105827
1584	0.196717	0.079694	0.19721	0.193758	0.041728
1585	0.195895	0.086762	0.200661	0.19721	0.003926
1586	0.203126	0.052082	0.196552	0.196223	-0.000347
1587	0.19573	0.047645	0.200332	0.19458	0.000474
1588	0.199675	0.052575	0.199018	0.197703	0.00146
1589	0.200168	0.053233	0.198689	0.198689	0.00787
1590	0.204113	0.060136	0.198689	0.199675	0.017732
1591	0.199346	0.065067	0.20214	0.198196	0.017239
1592	0.201976	0.069997	0.20099	0.199346	0.006391
1593	0.199182	0.076572	0.20099	0.200168	0.014445
1594	0.20099	0.079694	0.199018	0.197045	0.022991
1595	0.199675	0.085118	0.201483	0.19721	0.02973
1596	0.198196	0.091199	0.202305	0.200661	0.035975
1597	0.199018	0.094651	0.196717	0.19721	0.044686
1598	0.197374	0.100075	0.194909	0.19721	0.049124
1599	0.20099	0.003926	0.196881	0.200825	0.057342
1600	0.195895	0.012308	0.196552	0.20099	0.019868
1601	0.199675	0.018389	0.196717	0.198853	0.000639
1602	0.196881	0.028251	0.193922	0.19836	0.008857
1603	0.200004	0.032524	0.197045	0.198524	0.014609
1604	0.198524	0.040906	0.199346	0.200168	0.000146
1605	0.198853	0.047152	0.199018	0.198689	-0.000183
1606	0.197538	0.055205	0.199839	0.197703	-0.000347
1607	0.199346	0.05915	0.199675	0.199675	0.000474
1608	0.197538	0.06556	0.199675	0.196388	0.007213
1609	0.197703	0.070162	0.19721	0.19721	0.007049
1610	0.198031	0.07575	0.199839	0.195895	0.013623
1611	0.197538	0.081009	0.197538	0.19836	0.015102
1612	0.196552	0.084132	0.198196	0.196552	0.022169
1613	0.197045	0.090049	0.198196	0.201154	0.028908
1614	0.199675	0.093007	0.199018	0.202305	0.031373
1615	0.197703	0.097116	0.196717	0.197538	0.040084
1616	0.197045	0.102869	0.195237	0.199018	0.048467
1617	0.200004	0.107142	0.194087	0.199182	0.053397
1618	0.201154	0.109772	0.194251	0.198524	0.0603
1619	0.198031	0.000474	0.191621	0.195895	0.068682
1620	0.198524	-0.000676	0.194251	0.195073	0.069504
1621	0.196552	-0.000347	0.196388	0.197045	0.078215
1622	0.197045	-0.000347	0.196388	0.197703	0.080516
1623	0.193922	-0.000183	0.19836	0.195237	0.084954
1624	0.200004	-0.000347	0.198196	0.199675	0.090213
1625	0.198853	-1.9e-05	0.199511	0.19836	0.093007
1626	0.196388	-1.9e-05	0.19836	0.19836	0.095801
1627	0.197374	0.000474	0.200661	0.197374	0.101718
1628	0.198689	0.00031	0.19721	0.198689	0.103362
1629	0.199675	0.000146	0.200825	0.197867	0.110265
1630	0.199018	-0.000183	0.197538	0.197538	0.112401
1631	0.197374	-0.000512	0.19721	0.20099	0.115524
1632	0.201154	-0.000183	0.198031	0.19836	0.120948
1633	0.20099	-0.000347	0.198689	0.196881	0.124893
1634	0.192936	-0.000183	0.197045	0.195073	0.124564
1635	0.201154	0.000146	0.194416	0.193922	0.130974
1636	0.199511	-1.9e-05	0.201483	0.196388	0.134425
1637	0.201812	0.000146	0.198031	0.198689	0.134754
1638	0.197374	0.000146	0.196881	0.195895	0.140506
1639	0.200332	0.000146	0.198196	0.196881	0.141493
1640	0.197374	-1.9e-05	0.196223	0.197538	0.143136
1641	0.19573	-0.000183	0.198853	0.199839	0.147903
1642	0.199511	-0.000183	0.202469	0.197045	0.146423
1643	0.199346	-0.000183	0.198031	0.198524	0.071641
1644	0.19836	-0.000512	0.198689	0.196059	0.035811
1645	0.200004	-0.000512	0.200168	0.199346	0.000967
1646	0.199346	-0.000183	0.19836	0.199182	-0.000676
1647	0.201483	-1.9e-05	0.199018	0.199675	0.005898
1648	0.198031	0.000146	0.19836	0.199511	0.001132
1649	0.198524	0.00031	0.197867	0.198524	0.00672
1650	0.197867	0.000146	0.19721	0.200332	0.01428
1651	0.197374	0.00031	0.198196	0.198853	0.018225
1652	0.198689	-0.000347	0.197538	0.197538	0.025128
1653	0.197045	-0.000347	0.199018	0.198031	0.027593
1654	0.200332	-0.000183	0.19721	0.201647	0.037948
1655	0.19573	-0.000512	0.200332	0.197867	0.043043
1656	0.197867	-0.000347	0.198853	0.199346	0.049781
1657	0.197867	-1.9e-05	0.197538	0.198689	0.057835
1658	0.198853	0.000146	0.199675	0.200332	0.052904
1659	0.19721	-1.9e-05	0.200168	0.198196	0.054712
1660	0.19836	0.000146	0.198689	0.19721	0.05274
1661	0.199511	0.000146	0.198853	0.197045	0.059972
1662	0.198031	0.00031	0.201154	0.19836	0.063423
1663	0.197374	-0.000347	0.199346	0.198689	0.072463
1664	0.19458	-0.000512	0.196552	0.200004	0.014938
1665	0.200168	-0.000512	0.19573	0.201154	0.012472
1666	0.195895	-0.000183	0.197867	0.199182	0.02332
1667	0.199675	-0.000347	0.19721	0.199018	0.030387
1668	0.200332	-1.9e-05	0.19836	0.199511	0.038934
1669	0.201154	-0.000183	0.193429	0.19836	0.041235
1670	0.196388	0.00031	0.198853	0.197538	0.051918
1671	0.19836	0.000146	0.196388	0.197045	0.056027
1672	0.196717	0.000146	0.198689	0.198689	0.061451
1673	0.194744	0.00031	0.19721	0.196388	0.066875
1674	0.197867	-0.000183	0.19573	0.196552	0.073613
1675	0.196552	-0.000512	0.197538	0.200497	0.03236
1676	0.198524	-0.000676	0.198689	0.199346	0.014445
1677	0.195073	-0.000347	0.199839	0.196717	0.003268
1678	0.198031	-0.000347	0.19836	0.196717	0.007377
1679	0.198689	-1.9e-05	0.198524	0.199182	0.017074
1680	0.204277	-1.9e-05	0.197867	0.198031	0.023649
1681	0.195402	0.00031	0.197374	0.199182	0.035154
1682	0.200332	-1.9e-05	0.19573	0.193429	0.009021
1683	0.198031	0.000146	0.198689	0.197867	-0.000676
1684	0.20099	0.000146	0.195895	0.196717	-0.001005
1685	0.201319	-0.000183	0.199839	0.196059	0.011158
1686	0.19836	-0.000347	0.198031	0.198853	0.003926
1687	0.198524	-0.000347	0.196059	0.200168	0.012965
1688	0.200332	-0.000676	0.197538	0.200497	0.019211
1689	0.192443	-0.000183	0.196881	0.199182	0.031209
1690	0.197374	-0.000347	0.194251	0.197374	0.032524
1691	0.198853	0.00031	0.19721	0.197867	0.042385
1692	0.196717	0.000146	0.199346	0.200168	0.049781
1693	0.19836	0.00031	0.197538	0.194251	0.05389
1694	0.19721	-1.9e-05	0.201483	0.199675	0.061286
1695	0.199675	-0.000183	0.200661	0.199511	0.065395
1696	0.20099	-0.000347	0.196223	0.197867	0.072134
1697	0.202305	-0.000347	0.198853	0.201812	0.074106
1698	0.197703	-0.000347	0.199346	0.201154	0.079201
1699	0.199839	-0.000512	0.197045	0.201812	0.087748
1700	0.199675	-0.000347	0.199675	0.198853	0.090378
1701	0.199018	-1.9e-05	0.198031	0.200497	0.041399
1702	0.200004	-1.9e-05	0.200004	0.19836	0.033346
1703	0.197045	-1.9e-05	0.197703	0.198853	0.038934
1704	0.196717	0.000146	0.19836	0.198689	0.044686
1705	0.199182	0.00031	0.19836	0.200004	0.052904
1706	0.196059	-1.9e-05	0.199839	0.199018	0.059807
1707	0.198196	-0.000183	0.196059	0.199018	0.06671
1708	0.198853	-0.000183	0.199182	0.197374	0.067696
1709	0.196717	-0.000347	0.195895	0.202962	0.071641
1710	0.197538	-0.000512	0.197867	0.200825	0.074106
1711	0.200661	-0.000183	0.200168	0.19836	0.064245
1712	0.198524	-0.000183	0.197045	0.200332	0.053726
1713	0.197374	-1.9e-05	0.200168	0.196552	0.058328
1714	0.200332	-1.9e-05	0.199675	0.198524	0.065724
1715	0.198689	0.000146	0.197703	0.198524	0.071641
1716	0.199182	0.000146	0.195073	0.198524	0.07312
1717	0.198031	0.000146	0.20099	0.198853	0.078051
1718	0.202962	-0.000347	0.19721	0.199675	0.085776
1719	0.201812	-0.000347	0.200825	0.199839	0.086926
1720	0.197703	-0.000347	0.198689	0.201319	0.093172
1721	0.199675	-0.000347	0.19836	0.197374	0.089063
1722	0.199018	-0.000347	0.198524	0.200497	0.091528
1723	0.197703	-0.000183	0.198031	0.20099	0.096294
1724	0.195566	-1.9e-05	0.199182	0.199018	0.101718
1725	0.197538	0.000146	0.199018	0.197045	0.105827
1726	0.195566	0.000146	0.196388	0.199182	0.107799
1727	0.196552	-1.9e-05	0.197374	0.197374	0.112894
1728	0.194416	0.000146	0.20099	0.198196	0.116839
1729	0.199839	-0.000183	0.197703	0.199018	0.119962
1730	0.20099	-0.000347	0.195895	0.198853	0.120455
1731	0.200168	-0.000347	0.199018	0.201812	0.126207
1732	0.199182	-0.000183	0.199346	0.19721	0.127522
1733	0.20099	-0.000347	0.198853	0.19836	0.128673
1734	0.20362	-1.9e-05	0.197703	0.200661	0.130645
1735	0.200004	-1.9e-05	0.199511	0.19573	0.132617
1736	0.199675	-1.9e-05	0.199839	0.195402	0.137219
1737	0.198196	0.00031	0.198853	0.199675	0.138863
1738	0.20099	-1.9e-05	0.198853	0.197867	0.141657
1739	0.197045	0.000146	0.198689	0.188992	0.145108
1740	0.199511	-0.000183	0.195566	0.19195	0.148724
1741	0.204113	-0.000183	0.19836	0.1908	0.148231
1742	0.201154	-0.000512	0.196388	0.193758	0.150861
1743	0.200004	-0.000512	0.199182	0.193594	0.153162
1744	0.200332	-0.000347	0.197045	0.194416	0.152833
1745	0.199675	0.000146	0.198689	0.192608	0.1576
1746	0.197374	0.000146	0.198031	0.190471	0.155956
1747	0.199182	0.00031	0.201319	0.192443	0.160887
1748	0.199346	-1.9e-05	0.197703	0.192443	0.160229
1749	0.198853	0.00031	0.199346	0.192279	0.168118
1750	0.199018	0.000146	0.198689	0.192443	0.16253
1751	0.199839	-0.000347	0.19836	0.193758	0.166146
1752	0.200004	-0.000183	0.196881	0.194744	0.164338
1753	0.200497	-0.000347	0.196552	0.195566	0.166146
1754	0.199182	-0.000183	0.198853	0.196552	0.16894
1755	0.198196	-0.000347	0.198031	0.193922	0.170091
1756	0.197538	-0.000183	0.196552	0.196059	0.170255
1757	0.196552	0.00031	0.199018	0.194087	0.173049
1758	0.197703	0.000146	0.197538	0.193101	0.173049
1759	0.195237	-1.9e-05	0.196552	0.196552	0.168612
1760	0.196059	0.000474	0.19836	0.196717	0.174693
1761	0.199346	-1.9e-05	0.19721	0.196223	0.175515
1762	0.196059	0.00031	0.199182	0.19721	0.179623
1763	0.197703	0.003268	0.196881	0.196552	0.176665
1764	0.197538	0.011486	0.19573	0.194744	0.179623
1765	0.201483	0.020197	0.194416	0.19573	0.177651
1766	0.200004	0.024142	0.198853	0.196388	0.182089
1767	0.197538	0.031045	0.194909	0.193265	0.178637
1768	0.199182	0.038276	0.198524	0.1908	0.181103
1769	0.200661	0.04255	0.197045	0.19573	0.18176
1770	0.19836	0.046823	0.201483	0.194744	0.182089
1771	0.197374	0.053069	0.200004	0.19836	0.183568
1772	0.198031	0.054712	0.199675	0.200661	0.183732
1773	0.198196	0.039591	0.198524	0.198853	0.182746
1774	0.199675	0.039263	0.198196	0.199018	0.182582
1775	0.195895	0.030716	0.196717	0.197867	0.188006
1776	0.195073	0.033674	0.199346	0.19836	0.186691
1777	0.196552	0.028415	0.199675	0.19573	0.185212
1778	0.195566	0.003926	0.19721	0.197703	0.18439
1779	0.19573	0.000474	0.200661	0.188334	0.192279
1780	0.19721	0.004419	0.197703	0.195566	0.189156
1781	0.198524	0.00146	0.200825	0.197374	0.187513
1782	0.197703	0.007377	0.198031	0.19573	0.191621
1783	0.200004	0.009514	0.204277	0.193265	0.188499
1784	0.204441	0.008692	0.19836	0.196717	0.185705
1785	0.199839	0.014609	0.199839	0.194744	0.187184
1786	0.198689	0.022827	0.200661	0.19573	0.189485
1787	0.201647	0.026443	0.201319	0.197045	0.189156
1788	0.198196	0.033674	0.200661	0.19836	0.191293
1789	0.191128	0.036304	0.197045	0.197045	0.189978
1790	0.197374	0.0437	0.198853	0.18932	0.191293
1791	0.201154	0.052411	0.19836	0.198689	0.191621
1792	0.194087	0.054055	0.19836	0.199346	0.192443
1793	0.197538	0.057835	0.199182	0.19836	0.192936
1794	0.197538	0.03351	0.200332	0.196223	0.18817
1795	0.200825	0.035318	0.196552	0.19836	-0.000183
1796	0.196223	0.039427	0.199346	0.195073	0.000146
1797	0.199182	0.04748	0.199018	0.199182	0.000146
1798	0.197045	0.051589	0.196223	0.196717	0.00031
1799	0.20477	0.059314	0.19721	0.19836	0.003104
1800	0.188006	0.055698	0.197867	0.199675	0.012637
1801	0.196717	0.063094	0.200332	0.194744	0.01691
1802	0.201812	0.064738	0.197374	0.193594	0.023156
1803	0.197538	0.069833	0.199346	0.19721	0.030552
1804	0.20099	0.073449	0.196881	0.197703	0.035154
1805	0.197703	0.073449	0.201319	0.197374	0.041728
1806	0.197703	0.059314	0.197703	0.198031	0.047973
1807	0.198031	0.026771	0.19836	0.19573	0.055041
1808	0.200168	0.033839	0.197045	0.200004	0.059807
1809	0.199675	0.037455	0.201647	0.196881	0.065231
1810	0.19721	0.042714	0.198689	0.197374	0.073284
1811	0.193101	0.028086	0.19721	0.198689	0.079859
1812	0.197538	0.000474	0.19721	0.20362	0.078708
1813	0.197538	0.000146	0.198031	0.196388	0.092843
1814	0.198524	0.000146	0.19573	0.198524	0.091857
1815	0.198031	0.000146	0.194909	0.197045	0.095637
1816	0.196881	0.000146	0.197374	0.197867	0.080845
1817	0.198524	0.00146	0.195566	0.193265	0.039427
1818	0.200825	-0.000183	0.198689	0.195073	0.046823
1819	0.198196	-0.000183	0.19573	0.199018	0.053069
1820	0.199675	0.000639	0.195566	0.196552	0.058492
1821	0.200332	-0.000512	0.196059	0.197538	0.063423
1822	0.204606	0.000146	0.201483	0.200825	0.073778
1823	0.198689	-1.9e-05	0.199018	0.206907	0.07312
1824	0.199675	0.002611	0.200497	0.198031	0.0769
1825	0.200168	-0.000347	0.197867	0.19836	0.081174
1826	0.195566	0.000474	0.19836	0.19836	0.090378
1827	0.198524	0.00031	0.197703	0.199346	0.090871
1828	0.195895	-1.9e-05	0.198853	0.198196	0.098102
1829	0.196717	-0.000347	0.195895	0.197045	0.102869
1830	0.198031	-1.9e-05	0.197703	0.194744	0.108293
1831	0.19836	-0.000183	0.19721	0.195895	0.1101
1832	0.198031	-0.000347	0.197867	0.197703	0.114702
1833	0.203948	-1.9e-05	0.201647	0.19573	0.078873
1834	0.202469	0.000146	0.200661	0.198196	0.002282
1835	0.198031	-1.9e-05	0.201154	0.195237	0.011815
1836	0.198031	-1.9e-05	0.199675	0.19836	0.014609
1837	0.199511	0.00031	0.201154	0.197045	0.022663
1838	0.198689	-1.9e-05	0.202633	0.200004	0.028744
1839	0.197703	-0.000183	0.200004	0.198524	0.037948
1840	0.201647	-0.000347	0.19836	0.197867	0.04107
1841	0.197374	-0.000183	0.199839	0.199839	0.049453
1842	0.199346	-0.000347	0.198524	0.199675	0.054712
1843	0.196059	-0.000512	0.200661	0.195237	0.061122
1844	0.200661	-0.000183	0.19721	0.200661	0.069011
1845	0.196717	0.000146	0.200004	0.199182	0.069669
1846	0.198524	0.000146	0.19721	0.199675	0.079201
1847	0.199018	0.00031	0.198853	0.199346	0.084132
1848	0.197538	0.00031	0.198031	0.197538	0.088898
1849	0.197867	-1.9e-05	0.197867	0.202798	0.093993
1850	0.196552	-0.000347	0.200168	0.197867	0.103033
1851	0.199346	-0.000347	0.197538	0.194251	0.098431
1852	0.199675	-0.000347	0.199018	0.199675	0.106156
1853	0.201319	-0.000347	0.19836	0.202305	0.108786
1854	0.197538	-1.9e-05	0.198524	0.196059	0.113388
1855	0.200332	0.001132	0.199018	0.200332	0.114867
1856	0.197045	0.000967	0.19836	0.194909	0.121441
1857	0.198853	-1.9e-05	0.196717	0.199839	0.120455
1858	0.201647	0.000474	0.202962	0.197703	0.126372
1859	0.200661	0.002118	0.196059	0.200004	0.129823
1860	0.201647	0.001296	0.200004	0.195566	0.131138
1861	0.197538	-0.000347	0.198689	0.197538	0.134425
1862	0.200497	-0.000512	0.198031	0.195402	0.13574
1863	0.199839	0.001954	0.197538	0.199182	0.140178
1864	0.197538	-0.000183	0.197538	0.198524	0.140835
1865	0.198689	0.000639	0.19836	0.19721	0.143465
1866	0.198853	0.002611	0.195073	0.19836	0.146752
1867	0.193429	0.000146	0.200168	0.19721	0.150697
1868	0.199839	-1.9e-05	0.19573	0.196881	0.150039
1869	0.19721	0.001296	0.199839	0.196223	0.153491
1870	0.198196	0.002447	0.199839	0.197374	0.152505
1871	0.19836	0.002282	0.198031	0.197538	0.155299
1872	0.197867	0.007542	0.197374	0.201483	0.156449
1873	0.198031	0.007213	0.200661	0.192936	0.158257
1874	0.19836	0.017567	0.199018	0.198031	0.158586
1875	0.196223	0.009185	0.199511	0.197374	0.159243
1876	0.196881	0.019211	0.199182	0.199675	0.161709
1877	0.199346	0.022169	0.199839	0.196552	0.165324
1878	0.196552	0.030552	0.201319	0.20214	0.166475
1879	0.197374	0.034989	0.196388	0.197703	0.164174
1880	0.197703	0.043371	0.200332	0.196388	0.170091
1881	0.198031	0.051918	0.198196	0.199675	0.171077
1882	0.199182	0.057835	0.198689	0.196388	0.171734
1883	0.197867	0.061944	0.200168	0.195237	0.171734
1884	0.202305	0.067696	0.196223	0.194251	0.1742
1885	0.200661	0.071148	0.195895	0.198196	0.173214
1886	0.196881	0.074435	0.194087	0.196388	0.177487
1887	0.199018	0.065231	0.199839	0.197045	0.176336
1888	0.202469	0.063587	0.198689	0.196223	0.179459
1889	0.19836	0.004583	0.197538	0.201976	0.176172
1890	0.198689	0.001789	0.199839	0.197538	0.181596
1891	0.198853	0.000639	0.19836	0.198031	0.178637
1892	0.199675	0.000146	0.199511	0.19836	0.182253
1893	0.198689	0.000639	0.199182	0.200825	0.180445
1894	0.201154	0.003104	0.198524	0.200332	0.183404
1895	0.199346	0.011815	0.198031	0.197374	0.18176
1896	0.200497	0.017732	0.198853	0.201976	0.182417
1897	0.198853	0.029566	0.19836	0.199182	0.184061
1898	0.199018	0.03614	0.198031	0.199675	0.183732
1899	0.20099	0.040084	0.197538	0.198031	0.186033
1900	0.197867	0.043371	0.197045	0.201319	0.18932
1901	0.197538	0.049946	0.194416	0.197703	0.189978
1902	0.19836	0.056356	0.194909	0.198689	0.186033
1903	0.197703	0.062108	0.19836	0.197703	0.190142
1904	0.197045	0.070983	0.197374	0.198689	0.187677
1905	0.197538	0.074106	0.197867	0.196717	0.189649
1906	0.199675	0.079694	0.197538	0.199182	0.18817
1907	0.194416	0.083475	0.198524	0.19836	0.190471
1908	0.199675	0.089556	0.200168	0.196223	0.186526
1909	0.201647	0.091528	0.200332	0.199675	0.189156
1910	0.199511	0.095473	0.200004	0.202305	0.18817
1911	0.199346	0.097774	0.199182	0.201483	0.188334
1912	0.199346	0.103691	0.201319	0.20214	0.189649
1913	0.197703	0.104841	0.197374	0.197045	0.188334
1914	0.196223	0.109114	0.198524	0.198524	0.191457
1915	0.200332	0.114209	0.200825	0.198853	0.189649
1916	0.197045	0.114045	0.196059	0.197703	0.192772
1917	0.197538	0.121277	0.194744	0.198524	0.191293
1918	0.198524	0.124071	0.197374	0.198196	0.192443
1919	0.200168	0.126043	0.192772	0.199675	0.191293
1920	0.19573	0.128837	0.195402	0.19836	0.193594
1921	0.19836	0.130152	0.197703	0.199346	0.193265
1922	0.197374	0.131467	0.197867	0.195895	0.194251
1923	0.196552	0.135576	0.199346	0.195566	0.194251
1924	0.196223	0.136562	0.195566	0.19458	0.192608
1925	0.199675	0.138699	0.200004	0.196717	0.191621
1926	0.19836	0.141821	0.201319	0.197867	0.192115
1927	0.195895	0.141986	0.198031	0.198524	0.194416
1928	0.19836	0.14478	0.200825	0.199018	0.192936
1929	0.195073	0.148396	0.198853	0.200004	0.19458
1930	0.201812	0.145602	0.200004	0.197045	0.190635
1931	0.198853	0.152505	0.199511	0.19458	0.195402
1932	0.198524	0.153162	0.199511	0.199675	0.193922
1933	0.199346	0.153326	0.201154	0.19573	0.196552
1934	0.202962	0.155956	0.197703	0.197374	0.197538
1935	0.198524	0.15612	0.197538	0.193594	0.197703
1936	0.197703	0.1576	0.191293	0.198689	0.196388
1937	0.199182	0.160394	0.198689	0.197703	0.197867
1938	0.196881	0.160558	0.195895	0.199182	0.197374
1939	0.19721	0.157928	0.196552	0.197703	0.197045
1940	0.199018	0.161544	0.198689	0.199018	0.196552
1941	0.199839	0.160558	0.197867	0.199018	0.199675
1942	0.198196	0.162695	0.198689	0.198689	0.197538
1943	0.201976	0.162695	0.198689	0.198689	0.195237
1944	0.20099	0.161051	0.197867	0.199018	0.198031
1945	0.200168	0.004255	0.197703	0.19836	0.191621
1946	0.198031	0.00031	0.201812	0.198031	0.197703
1947	0.199511	0.000146	0.199511	0.198031	0.19458
1948	0.197538	-1.9e-05	0.200332	0.19836	0.196552
1949	0.199839	-0.000347	0.197538	0.200004	0.196717
1950	0.196388	0.00146	0.198524	0.196223	0.192608
1951	0.200497	-0.000676	0.197538	0.201154	0.200004
1952	0.20099	0.002611	0.197374	0.198853	0.197867
1953	0.199839	0.005241	0.197045	0.199839	0.198196
1954	0.199346	0.011322	0.198689	0.198196	0.199346
1955	0.197703	0.021512	0.198031	0.200661	0.198689
1956	0.197045	0.026771	0.197538	0.197045	0.197867
1957	0.195566	0.034332	0.198031	0.197867	0.199018
1958	0.195895	0.03992	0.198031	0.197374	0.196223
1959	0.197374	0.047809	0.198689	0.197374	0.197703
1960	0.19458	0.05389	0.19721	0.198689	0.19573
1961	0.196552	0.057342	0.19836	0.19458	0.19458
1962	0.199346	0.063094	0.197867	0.200661	0.195237
1963	0.19721	0.068518	0.199839	0.195402	0.199018
1964	0.196552	0.073284	0.195237	0.199675	0.196059
1965	0.201319	0.078708	0.199182	0.199675	0.197374
1966	0.198196	0.083803	0.197867	0.200825	0.19836
1967	0.199182	0.086762	0.195566	0.195895	0.199675
1968	0.200168	0.097609	0.195073	0.197867	0.196881
1969	0.195895	0.096459	0.196881	0.197538	0.198031
1970	0.196223	0.101554	0.199018	0.198689	0.19836
1971	0.198524	0.105005	0.19836	0.199675	0.19721
1972	0.19458	0.108621	0.196717	0.196552	0.200004
1973	0.196059	0.113223	0.197867	0.19721	0.194416
1974	0.193594	0.114702	0.19573	0.197867	0.198853
1975	0.196552	0.117825	0.194416	0.195237	0.196388
1976	0.19573	0.120784	0.197703	0.196552	0.196223
1977	0.196881	0.12177	0.197045	0.200661	0.19573
1978	0.196388	0.123085	0.198853	0.198196	0.197374
1979	0.198689	0.128015	0.197538	0.199018	0.19836
1980	0.200168	0.127687	0.196717	0.192279	0.19836
1981	0.198689	0.132453	0.198524	0.170748	0.196717
1982	0.197538	0.133932	0.199839	0.000146	0.198031
1983	0.199675	0.139027	0.19721	0.000474	0.198031
1984	0.20099	0.138041	0.19836	-1.9e-05	0.200332
1985	0.199675	0.142807	0.201812	-0.000183	0.198196
1986	0.198031	0.141493	0.195073	0.009185	0.199182
1987	0.198524	0.145108	0.197538	0.020526	0.199675
1988	0.196223	0.147081	0.199675	0.009514	0.196717
1989	0.198853	0.147409	0.197538	0.014116	0.200004
1990	0.196881	0.149546	0.197703	0.022169	0.200168
1991	0.193758	0.153162	0.197867	0.02973	0.197703
1992	0.196223	0.155299	0.198031	0.033017	0.19721
1993	0.194909	0.157271	0.198031	0.041892	0.196059
1994	0.193101	0.159079	0.198524	0.049124	0.197374
1995	0.193922	0.158093	0.200661	0.054383	0.198196
1996	0.195566	0.160229	0.197703	0.06293	0.197374
1997	0.196223	0.158914	0.196717	0.06671	0.198196
1998	0.198524	0.166146	0.200332	0.072298	0.195895
1999	0.193429	0.163845	0.199511	0.077229	0.199511
2000	0.197045	0.16401	0.197374	0.081995	0.195895
2001	0.199511	0.164503	0.19836	0.087912	0.197867
2002	0.196223	0.168118	0.199511	0.093336	0.197374
2003	0.196717	0.164174	0.197703	0.096294	0.199346
2004	0.194416	0.166968	0.197374	0.101061	0.19836
2005	0.200661	0.166968	0.197867	0.105827	0.200497
2006	0.197045	0.170419	0.198689	0.10895	0.19721
2007	0.197867	0.166804	0.197703	0.11273	0.197867
2008	0.193594	0.170419	0.198689	0.115524	0.198853
2009	0.197703	0.172885	0.199018	0.120784	0.198031
2010	0.192608	0.173378	0.200661	0.121277	0.199839
2011	0.193922	0.174528	0.197703	0.122756	0.197703
2012	0.196552	0.173707	0.198031	0.123085	0.200004
2013	0.19836	0.176172	0.197374	0.130645	0.201647
2014	0.195566	0.175843	0.196059	0.131796	0.199839
2015	0.197538	0.175515	0.196059	0.135247	0.197867
2016	0.199675	0.174857	0.199018	0.137712	0.198524
2017	0.200661	0.177158	0.197867	0.141328	0.196388
2018	0.200661	0.169269	0.197703	0.143794	0.198196
2019	0.19836	0.000146	0.196223	0.146916	0.197374
2020	0.199839	-0.000676	0.20362	0.147903	0.196717
2021	0.195895	0.000146	0.198196	0.158093	0.196552
2022	0.195895	0.005734	0.199018	0.151518	0.200825
2023	0.192936	0.01313	0.199346	0.151025	0.196223
2024	0.198524	0.021348	0.196717	0.159736	0.196059
2025	0.192772	0.031702	0.20099	0.15612	0.199839
2026	0.195895	0.035811	0.198853	0.164338	0.195237
2027	0.193265	0.045344	0.199675	0.157764	0.19721
2028	0.195895	0.05274	0.196717	0.161709	0.193758
2029	0.19721	0.048138	0.198196	0.159572	0.200497
2030	0.19836	0.064409	0.197538	0.162202	0.19836
2031	0.198031	0.069504	0.199346	0.163516	0.19836
2032	0.196717	0.071148	0.19836	0.166639	0.20099
2033	0.196881	0.0769	0.201483	0.165982	0.200661
2034	0.196388	0.081831	0.200004	0.170255	0.199346
2035	0.200497	0.085118	0.199839	0.173049	0.196881
2036	0.195895	0.092679	0.198196	0.174693	0.199182
2037	0.197703	0.094322	0.200004	0.178802	0.193594
2038	0.196717	0.09876	0.199346	0.177487	0.199839
2039	0.196717	0.09498	0.196059	0.179459	0.197703
2040	0.195237	0.095473	0.200332	0.179952	0.196881
2041	0.194744	0.101883	0.194744	0.178802	0.19721
2042	0.193758	0.10517	0.199675	0.176501	0.197538
2043	0.194416	0.110265	0.197867	0.179623	0.197867
2044	0.191457	0.111908	0.197045	0.182582	0.200332
2045	0.192936	0.118811	0.195073	0.18061	0.200004
2046	0.192443	0.118811	0.19836	0.179788	0.196552
2047	0.193594	0.127194	0.196881	0.18176	0.199675
2048	0.189649	0.127029	0.196552	0.181596	0.197374
2049	0.19195	0.129659	0.197867	0.182582	0.196717
2050	0.192936	0.130645	0.197867	0.183897	0.195402
2051	0.189814	0.141	0.198031	0.185047	0.196717
2052	0.189814	0.132782	0.197703	0.18554	0.19721
2053	0.188006	0.141821	0.199675	0.185047	0.197538
2054	0.186033	0.141	0.195402	0.185869	0.194744
2055	0.172063	0.14478	0.199346	0.186033	0.199018
2056	0.140013	0.149053	0.198196	0.188663	0.195566
2057	0.143465	0.144944	0.195566	0.185705	0.198196
2058	0.141986	0.152669	0.197374	0.188992	0.196388
2059	0.141986	0.151025	0.19836	0.188006	0.197867
2060	0.147738	0.154148	0.196059	0.187677	0.196223
2061	0.146752	0.155299	0.19721	0.18932	0.200168
2062	-1.9e-05	0.162202	0.195895	0.189156	0.199839
2063	0.007542	0.15875	0.196881	0.187348	0.202633
2064	0.016088	0.160887	0.19836	0.187841	0.198524
2065	0.024306	0.161709	0.196717	0.190964	0.198689
2066	0.031373	0.164503	0.195895	0.193429	0.199839
2067	0.041892	0.165817	0.196552	0.19195	0.197538
2068	0.045179	0.164174	0.191293	0.18932	0.197867
2069	0.053233	0.166639	0.194909	0.192772	0.196552
2070	0.053726	0.167954	0.197867	0.191786	0.198196
2071	0.035811	0.168612	0.196388	0.191621	0.192443
2072	-0.000183	0.169105	0.200004	0.191621	0.197374
2073	0.003926	0.173871	0.200168	0.194251	0.195566
2074	-0.000347	0.169433	0.199675	0.191786	0.19721
2075	0.000639	0.1742	0.199839	0.195237	0.193101
2076	0.009678	0.170091	0.198689	0.195237	0.201647
2077	0.017403	0.172556	0.197867	0.194416	0.201154
2078	0.000474	0.1742	0.199675	0.189814	0.199839
2079	0.00031	0.176665	0.191293	0.193922	0.199346
2080	0.005569	0.177322	0.197045	0.188663	0.192936
2081	0.013294	0.18061	0.198853	0.192279	0.199675
2082	0.024964	0.182746	0.198524	0.191786	0.197374
2083	0.003433	0.180938	0.201154	0.192608	0.198853
2084	0.001296	0.181924	0.19836	0.192443	0.196881
2085	0.004419	0.180116	0.198524	0.196388	0.198853
2086	0.012308	0.180116	0.199839	0.197538	0.197045
2087	0.01428	0.18176	0.200497	0.194744	0.198524
2088	0.012965	0.181596	0.200168	0.197703	0.19573
2089	0.018718	0.18061	0.201812	0.196881	0.198524
2090	0.027593	0.180445	0.194416	0.196388	0.19836
2091	0.034003	0.181267	0.19836	0.195895	0.189649
2092	0.007213	0.184883	0.198196	0.198196	0.195895
2093	0.012801	0.181924	0.198031	0.195402	0.198853
2094	0.014445	0.183897	0.19836	0.198853	0.199675
2095	0.010336	0.18439	0.200168	0.19721	0.199346
2096	0.021183	0.186691	0.196223	0.197045	0.200168
2097	0.027429	0.187677	0.195895	0.197867	0.19836
2098	0.020033	0.184554	0.196388	0.19721	0.199675
2099	0.000146	0.176994	0.199182	0.196059	0.198689
2100	0.000967	0.169105	0.198853	0.198031	0.201154
2101	0.000803	0.16894	0.200004	0.197867	0.196881
2102	0.010336	0.169926	0.19721	0.195073	0.19721
2103	0.013623	0.173378	0.19721	0.197867	0.194416
2104	0.002282	0.176008	0.197867	0.195237	0.198524
2105	0.001789	0.172392	0.196388	0.19721	0.19458
2106	0.00146	0.175021	0.20099	0.19721	0.197045
2107	0.00672	0.174693	0.195566	0.198031	0.195566
2108	0.012472	0.175843	0.200661	0.197538	0.192936
2109	0.002282	0.174857	0.200004	0.199675	0.200168
2110	0.008363	0.178637	0.197703	0.197538	0.196881
2111	0.010007	0.179952	0.197374	0.200168	0.198031
2112	0.016088	0.176665	0.201976	0.197703	0.199839
2113	0.024964	0.18554	0.195402	0.197703	0.197538
2114	0.024799	0.181431	0.196717	0.197867	0.194744
2115	0.026771	0.182417	0.197867	0.196388	0.198524
2116	0.034003	0.183239	0.196059	0.194744	0.197045
2117	0.037619	0.186855	0.197374	0.19721	0.198031
2118	0.042878	0.184554	0.194744	0.199511	0.19836
2119	0.042714	0.183732	0.198031	0.195073	0.199346
2120	0.048467	0.186855	0.197045	0.199346	0.199182
2121	0.044522	0.183897	0.197374	0.195237	0.197045
2122	0.002447	0.186855	0.19573	0.19836	0.19458
2123	0.001625	0.185705	0.199839	0.196881	0.194744
2124	0.012308	0.188006	0.192772	0.196717	0.201483
2125	0.022169	0.186033	0.198853	0.196223	0.194909
2126	0.027758	0.188827	0.196552	0.196552	0.198031
2127	0.034989	0.188006	0.19458	0.196881	0.195566
2128	0.005734	0.188663	0.197374	0.197703	0.195566
2129	0.000967	0.187348	0.196881	0.197538	0.196881
2130	0.000146	0.18817	0.197045	0.195237	0.197703
2131	-1.9e-05	0.189485	0.197703	0.194744	0.199346
2132	0.000146	0.126372	0.198524	0.194909	0.200168
2133	-1.9e-05	0.120784	0.195237	0.195237	0.198524
2134	0.000146	0.12177	0.201483	0.194744	0.200004
2135	0.000639	0.129823	0.195895	0.193101	0.203291
2136	0.000146	0.127851	0.197867	0.191786	0.198524
2137	-0.000183	0.132124	0.197703	0.190964	0.199182
2138	-0.000183	0.131302	0.199511	0.194251	0.200168
2139	-0.000347	0.135411	0.197703	0.197045	0.199182
2140	0.002611	0.138205	0.199675	0.196388	0.198853
2141	0.014938	0.140013	0.198031	0.198031	0.19721
2142	0.021183	0.141164	0.198853	0.197867	0.197867
2143	0.024635	0.145437	0.204113	0.19836	0.20099
2144	0.035318	0.147245	0.200497	0.197867	0.200332
2145	0.038112	0.148396	0.201483	0.198196	0.199675
2146	0.045344	0.152505	0.201154	0.199346	0.200497
2147	0.049946	0.152011	0.200825	0.195402	0.19836
2148	0.057013	0.159243	0.198524	0.197703	0.19836
2149	0.059643	0.159079	0.197703	0.198689	0.200168
2150	0.068354	0.160558	0.199675	0.197867	0.199511
2151	0.070819	0.160229	0.194087	0.195895	0.207071
2152	0.077722	0.163845	0.196059	0.19721	0.199018
2153	0.081995	0.165324	0.199839	0.197374	0.201154
2154	0.08331	0.161544	0.197538	0.199346	0.200332
2155	0.091199	0.165324	0.200004	0.194909	0.198689
2156	0.095144	0.168283	0.201483	0.199675	0.197538
2157	0.097445	0.169762	0.198689	0.198689	0.200497
2158	0.101718	0.169433	0.200825	0.197867	0.196881
2159	0.108621	0.170748	0.199182	0.198196	0.19836
2160	0.106978	0.174364	0.199675	0.199511	0.196717
2161	0.114702	0.17272	0.197045	0.201647	0.195566
2162	0.116346	0.172392	0.200332	0.199346	0.20099
2163	0.120455	0.1742	0.199018	0.20099	0.190635
2164	0.121112	0.174528	0.200004	0.197703	0.199675
2165	0.126865	0.176994	0.196223	0.199346	0.193922
2166	0.123413	0.177322	0.196717	0.194744	0.201319
2167	0.125057	0.180116	0.196388	0.196059	0.195237
2168	0.119797	0.178473	0.196881	0.196388	0.20214
2169	0.119469	0.181103	0.19458	0.198853	0.200497
2170	0.103855	0.173707	0.198196	0.195073	0.199018
2171	0.000639	0.126536	0.198196	0.199839	0.197538
2172	-1.9e-05	0.125386	0.199182	0.198031	0.196881
2173	0.005405	0.127029	0.199346	0.197538	0.196388
2174	0.00672	0.00031	0.199511	0.199839	0.196388
2175	0.005569	0.004255	0.199346	0.200168	0.197374
2176	0.014609	0.00031	0.201812	0.199182	0.194909
2177	0.024142	0.004583	0.202798	0.198524	0.196717
2178	0.032524	0.003104	0.200332	0.199675	0.195566
2179	0.039756	0.000474	0.198196	0.199839	0.201976
2180	0.043536	-0.000512	0.197703	0.200168	0.196059
2181	0.051096	0.003104	0.19836	0.195237	0.198031
2182	0.054383	0.001954	0.199839	0.19836	0.199182
2183	0.061615	0.010171	0.199511	0.19836	0.199018
2184	0.063916	0.017732	0.194416	0.196388	0.201319
2185	0.067368	0.024306	0.200004	0.195073	0.199511
2186	0.068518	0.034989	0.197538	0.203784	0.200497
2187	0.067532	0.003597	0.198524	0.198853	0.19836
2188	0.062766	0.007706	0.198524	0.199839	0.19836
2189	0.068189	0.013294	0.198031	0.195895	0.19721
2190	0.072463	0.026771	0.19721	0.197045	0.202962
2191	0.071148	0.03088	0.19836	0.198031	0.196881
2192	0.077722	0.036633	0.196059	0.194744	0.198196
2193	0.083475	0.045015	0.197867	0.19836	0.198196
2194	0.089063	0.051754	0.197045	0.200332	0.200497
2195	0.094487	0.05652	0.195566	0.198031	0.197045
2196	0.09876	0.061779	0.200497	0.198031	0.198524
2197	0.098267	0.069833	0.196717	0.202962	0.200661
2198	0.101883	0.074435	0.195073	0.197703	0.198196
2199	0.10517	0.081174	0.195073	0.200004	0.19836
2200	0.108786	0.084461	0.197867	0.19836	0.199346
2201	0.110922	0.089227	0.199511	0.199839	0.19836
2202	0.11273	0.092514	0.197538	0.198196	0.200497
2203	0.118811	0.097774	0.196223	0.197374	0.201154
2204	0.120291	0.106156	0.19721	0.197374	0.200004
2205	0.121441	0.107799	0.19836	0.198524	0.200332
2206	0.123413	0.109279	0.195895	0.19836	0.198031
2207	0.125221	0.11158	0.200661	0.197538	0.199182
2208	0.129001	0.117003	0.199675	0.200004	0.198031
2209	0.129166	0.118318	0.199346	0.198524	0.199839
2210	0.131302	0.121605	0.198689	0.199675	0.198524
2211	0.133439	0.122427	0.200004	0.198524	0.198689
2212	0.135247	0.126865	0.198524	0.198031	0.199018
2213	0.131138	0.129001	0.200168	0.197867	0.199839
2214	0.134261	0.133768	0.19836	0.198524	0.199182
2215	0.135904	0.133932	0.197703	0.197374	0.193265
2216	0.130316	0.138863	0.197703	0.202305	0.199839
2217	0.058164	0.13459	0.196552	0.201976	0.198524
2218	0.046823	0.143465	0.19721	0.20099	0.194744
2219	0.050439	0.142972	0.197538	0.201483	0.201483
2220	0.04896	0.146423	0.196388	0.198031	0.199839
2221	0.049781	0.148396	0.197045	0.198524	0.199182
2222	0.047316	0.149875	0.198524	0.198196	0.200332
2223	0.058985	0.152669	0.196717	0.199346	0.196881
2224	0.057013	0.153655	0.199018	0.198853	0.197867
2225	0.063752	0.156778	0.197867	0.198031	0.197703
2226	0.06671	0.152505	0.200497	0.198689	0.199018
2227	0.068354	0.156449	0.196881	0.200004	0.196388
2228	0.072463	0.156285	0.201154	0.197045	0.197045
2229	0.077886	0.160558	0.200168	0.197703	0.193758
2230	0.077229	0.160229	0.201976	0.198853	0.200825
2231	0.078708	0.163516	0.200825	0.199182	0.197703
2232	0.079366	0.159736	0.200825	0.194087	0.200004
2233	0.076079	0.163516	0.200332	0.197867	0.196388
2234	0.0769	0.163516	0.199839	0.200661	0.197703
2235	0.07575	0.166804	0.197538	0.201812	0.198196
2236	0.069669	0.166146	0.19721	0.200825	0.198196
2237	0.067039	0.168447	0.196881	0.197867	0.198689
2238	0.059972	0.170255	0.198196	0.199675	0.20099
2239	0.007706	0.170913	0.19721	0.200168	0.200332
2240	0.016088	0.170748	0.197374	0.200004	0.194744
2241	0.018389	0.172392	0.198031	0.201319	0.20099
2242	0.026278	0.172063	0.197703	0.20099	0.199346
2243	0.034168	0.169926	0.19573	0.195402	0.198524
2244	0.040413	0.172392	0.202798	0.198689	0.201154
2245	0.047645	0.166475	0.200168	0.199018	0.200661
2246	0.053562	0.165653	0.196881	0.197538	0.194909
2247	0.058328	0.163188	0.200004	0.199511	0.197703
2248	0.06408	0.163352	0.201154	0.200825	0.19573
2249	0.06934	0.16138	0.20099	0.199182	0.196717
2250	0.080187	0.163516	0.199511	0.19836	0.199346
2251	0.082653	0.162366	0.199182	0.19721	0.195402
2252	0.085776	0.160887	0.19721	0.201976	0.196388
2253	0.092186	0.159408	0.19836	0.198196	0.197374
2254	0.091857	0.161051	0.198031	0.19836	0.19836
2255	0.095637	0.161544	0.19573	0.199675	0.19721
2256	0.101718	0.159736	0.19836	0.199346	0.199182
2257	0.102211	0.162202	0.196881	0.198031	0.19836
2258	0.104019	0.164667	0.200825	0.198196	0.198031
2259	0.10895	0.164174	0.196223	0.200004	0.197867
2260	0.113059	0.163188	0.197867	0.196223	0.19836
2261	0.116346	0.168612	0.19836	0.200661	0.200497
2262	0.121277	0.16401	0.200332	0.197045	0.198196
2263	0.122098	0.168118	0.198524	0.20099	0.197867
2264	0.12555	0.167132	0.199511	0.198524	0.199839
2265	0.129659	0.167954	0.199839	0.196552	0.197867
2266	0.131796	0.16516	0.196552	0.196717	0.201154
2267	0.133932	0.170255	0.199511	0.200004	0.206085
2268	0.136069	0.168447	0.199346	0.201154	0.19721
2269	0.137219	0.170913	0.197045	0.20099	0.198031
2270	0.140835	0.171241	0.192115	0.201319	0.198524
2271	0.141493	0.170255	0.19836	0.199675	0.19573
2272	0.144944	0.17157	0.199675	0.200168	0.198031
2273	0.146259	0.169269	0.19836	0.199511	0.199346
2274	0.145602	0.172556	0.196223	0.200497	0.197867
2275	0.148396	0.175679	0.199018	0.19836	0.198853
2276	0.145602	0.17535	0.198524	0.198689	0.197045
2277	0.152669	0.17272	0.200332	0.196717	0.199675
2278	0.154312	0.176008	0.195237	0.199182	0.200168
2279	0.1576	0.172556	0.197703	0.196552	0.199182
2280	0.158586	0.175679	0.198853	0.198196	0.197703
2281	0.159901	0.175186	0.199182	0.19836	0.198196
2282	0.160558	0.178802	0.199839	0.196388	0.199018
2283	0.164667	0.174693	0.199018	0.196552	0.19836
2284	0.163188	0.175843	0.199511	0.198031	0.19836
2285	0.16516	0.172392	0.19721	0.198689	0.197867
2286	0.170255	0.169269	0.200332	0.197538	0.201319
2287	0.16779	0.115195	0.19836	0.200168	0.199182
2288	0.168447	0.114538	0.200497	0.199346	0.199511
2289	0.170419	0.120619	0.196552	0.203291	0.200168
2290	0.170419	0.092514	0.199511	0.199346	0.199675
2291	0.171077	0.001132	0.196552	0.201483	0.199018
2292	0.170748	0.008035	0.197703	0.200168	0.200497
2293	0.174528	0.018225	0.202305	0.199675	0.198031
2294	0.173049	0.023484	0.197703	0.198031	0.204113
2295	0.173542	0.034332	0.197703	0.200004	0.198853
2296	0.175515	0.038769	0.190142	0.196717	0.199346
2297	0.175679	0.040906	0.167625	0.199018	0.199018
2298	0.177322	0.043536	0.164338	0.197867	0.197538
2299	0.176336	-0.001334	0.148396	0.200661	0.19836
2300	0.183897	0.003597	0.127851	0.197703	0.197703
2301	0.178473	0.011322	0.135247	0.20099	0.19836
2302	0.177651	0.018389	0.120126	0.200661	0.199839
2303	0.181267	0.027922	0.112237	0.200332	0.19836
2304	0.180938	0.035482	0.094322	0.202305	0.197867
2305	0.180281	0.038276	0.098102	0.199675	0.198524
2306	0.179295	0.045672	0.099089	0.20099	0.201812
2307	0.175679	0.052411	0.09876	0.200661	0.202633
2308	0.173871	0.058492	0.097281	0.200661	0.199511
2309	0.175515	0.065724	0.097445	0.198196	0.201483
2310	0.174364	0.069011	0.026443	0.199511	0.198031
2311	0.173049	0.075585	0.032853	0.197045	0.19836
2312	0.175843	0.081995	0.031702	0.200332	0.20099
2313	0.178144	0.084789	0.038769	0.199018	0.198689
2314	0.175843	0.090213	0.039098	0.196881	0.19836
2315	0.177322	0.09876	0.042385	0.199511	0.197538
2316	0.175186	0.095473	0.039756	0.196552	0.198853
2317	0.174693	0.102704	0.037126	0.196552	0.197045
2318	0.175186	0.105992	0.03614	0.195566	0.200004
2319	0.054876	0.109936	0.027429	0.197374	0.197045
2320	0.058164	0.113552	0.010993	0.199182	0.199511
2321	0.064409	0.104184	0.006556	0.200497	0.195402
2322	0.06556	0.107635	0.011322	0.197045	0.196552
2323	0.066875	0.113223	0.006556	0.200004	0.197045
2324	0.07049	0.052904	0.003597	0.200004	0.198524
2325	0.06934	0.062108	0.004419	0.200004	0.19721
2326	0.072463	0.067861	0.002282	0.199182	0.199346
2327	0.079037	0.072956	0.00409	0.198853	0.201647
2328	0.083146	0.078708	-0.001991	0.19836	0.200825
2329	0.083803	0.086433	0.002447	0.19721	0.203455
2330	0.092843	0.087584	0.002282	0.195895	0.199182
2331	0.097609	0.093993	0.002282	0.196881	0.20362
2332	0.102376	0.100403	0.00294	0.197045	0.19836
2333	0.10632	0.102211	0.002775	0.195237	0.199346
2334	0.110429	0.105827	-0.000183	0.196388	0.200004
2335	0.111744	0.108128	0.003268	0.195237	0.199675
2336	0.120948	0.114209	0.001954	0.200004	0.198853
2337	0.121934	0.111744	0.003761	0.199182	0.199511
2338	0.123906	0.115853	0.001625	0.200332	0.19836
2339	0.126865	0.119797	0.001954	0.196059	0.198853
2340	0.129495	0.124893	0.00146	0.196552	0.199182
2341	0.133439	0.123413	0.001296	0.19836	0.200004
2342	0.134097	0.128015	0.002447	0.200168	0.200661
2343	0.13574	0.130152	0.003597	0.198689	0.199018
2344	0.140013	0.136562	0.001954	0.199839	0.201319
2345	0.143301	0.138863	0.000146	0.199511	0.199511
2346	0.142314	0.141657	0.00146	0.200825	0.20099
2347	0.14856	0.144615	-1.9e-05	0.199839	0.200004
2348	0.147574	0.149546	0.00146	0.198031	0.200661
2349	0.145273	0.14593	-0.000183	0.19836	0.200332
2350	0.151518	0.147903	0.004255	0.196717	0.197867
2351	0.152833	0.15234	0.002447	0.200168	0.20099
2352	0.15497	0.152176	0.00146	0.196388	0.200004
2353	0.1576	0.154477	0.00146	0.200825	0.199018
2354	0.157928	0.154148	0.002447	0.201483	0.199839
2355	0.162037	0.158421	0.002447	0.200497	0.199018
2356	0.162695	0.158093	0.00146	0.200661	0.200497
2357	0.162695	0.161709	-0.001005	0.20099	0.194251
2358	0.166146	0.164174	0.001625	0.202633	0.202305
2359	0.163845	0.163681	0.000146	0.201319	0.198524
2360	0.158586	0.16516	0.000474	0.199675	0.199675
2361	0.163845	0.16516	0.000146	0.192443	0.198196
2362	0.16516	0.166804	0.000146	0.197867	0.200332
2363	0.166804	0.168447	0.001132	0.195566	0.200168
2364	0.169598	0.167297	-0.000183	0.194416	0.198196
2365	0.112401	0.17272	0.000639	0.197703	0.200332
2366	0.079037	0.173378	0.000803	0.200168	0.198031
2367	0.084132	0.174035	0.000146	0.196223	0.200168
2368	0.085447	0.175679	-0.000347	0.198853	0.197045
2369	0.093993	0.17535	0.001954	0.197538	0.199511
2370	0.097281	0.179788	-0.000676	0.199018	0.197703
2371	0.092843	0.174693	0.001296	0.196717	0.200004
2372	0.100403	0.176008	0.000474	0.191621	0.19721
2373	0.110429	0.174528	0.000967	0.198524	0.19573
2374	0.107635	0.17535	-0.000347	0.199839	0.19836
2375	0.114538	0.176008	-1.9e-05	0.199675	0.19721
2376	0.118318	0.177322	-0.000676	0.20099	0.199675
2377	0.123085	0.127194	0.000639	0.200661	0.19573
2378	0.126536	0.121441	-0.001169	0.199018	0.196059
2379	0.128508	0.12555	-0.000347	0.199182	0.195402
2380	0.130481	0.128015	0.00031	0.197867	0.19836
2381	0.133275	0.131467	0.000146	0.199675	0.198853
2382	0.133603	0.135411	-0.000676	0.198196	0.200661
2383	0.136726	0.136891	-0.000347	0.191621	0.198524
2384	0.140835	0.135411	0.002282	0.193922	0.200661
2385	0.140178	0.143958	-0.001005	0.201483	0.200168
2386	0.149217	0.141657	0.001132	0.198853	0.198031
2387	0.147081	0.142807	-0.001498	0.196388	0.200661
2388	0.149875	0.146752	0.002118	0.196552	0.199675
2389	0.152998	0.147738	0.000803	0.198689	0.201483
2390	0.153326	0.148231	0.001132	0.202798	0.196717
2391	0.153162	0.151683	0.000639	0.203784	0.199018
2392	0.157435	0.152669	-1.9e-05	0.200004	0.198196
2393	0.161215	0.155792	0.000146	0.200661	0.200661
2394	0.158257	0.159243	0.00031	0.202798	0.198853
2395	0.162202	0.159572	-0.000183	0.19573	0.199839
2396	0.16253	0.162037	-0.000347	0.199018	0.199511
2397	0.16401	0.164338	-0.000512	0.199018	0.199839
2398	0.165489	0.16516	-0.000183	0.200004	0.201812
2399	0.16779	0.166146	0.002447	0.198524	0.202962
2400	0.172556	0.164503	-0.000676	0.199182	0.199675
2401	0.170255	0.168447	0.00031	0.199018	0.202962
2402	0.169433	0.169926	0.000639	0.20099	0.200004
2403	0.1742	0.172227	0.000639	0.196881	0.199182
2404	0.176665	0.171899	0.000474	0.199182	0.201154
2405	0.170913	0.170913	0.000803	0.205099	0.200497
2406	0.174693	0.17272	0.000146	0.196552	0.202633
2407	0.174364	0.173378	-0.000347	0.197538	0.196059
2408	0.176665	0.177322	0.002611	0.201812	0.196223
2409	0.178637	0.171899	0.000639	0.200497	0.19836
2410	0.176829	0.175515	0.000639	0.199675	0.198196
2411	0.183897	0.17535	0.001789	0.197045	0.196388
2412	0.184883	0.176008	0.000146	0.202469	0.200004
2413	0.182417	0.179459	0.00146	0.201319	0.200004
2414	0.181924	0.179788	0.001132	0.198524	0.198689
2415	0.184225	0.178966	0.000639	0.201319	0.200825
2416	0.179952	0.178802	0.00146	0.203948	0.201154
2417	0.183897	0.182253	-0.000676	0.197045	0.201154
2418	0.184718	0.181924	0.001296	0.199675	0.201647
2419	0.181431	0.184061	0.000146	0.199839	0.201319
2420	0.186033	0.185376	0.003104	0.198196	0.199346
2421	0.182089	0.182253	0.001954	0.200004	0.196717
2422	0.185047	0.184883	0.002611	0.196552	0.200332
2423	0.184883	0.183239	0.003926	0.197703	0.195073
2424	0.18554	0.183897	0.002775	0.199018	0.197045
2425	0.184554	0.184883	0.003761	0.201154	0.197703
2426	0.188006	0.183075	0.003433	0.199675	0.193101
2427	0.187348	0.185212	0.003926	0.202469	0.198196
2428	0.192279	0.186033	0.006556	0.197045	0.197374
2429	0.187184	0.185705	0.004583	0.19573	0.198689
2430	0.188499	0.187513	0.002282	0.199346	0.197045
2431	0.189156	0.18817	0.004748	0.197045	0.200168
2432	0.186855	0.191293	0.003761	0.196552	0.198689
2433	0.191457	0.186526	0.005405	0.197045	0.20214
2434	0.189156	0.190142	0.002118	0.203784	0.199346
2435	0.1908	0.188992	0.004419	0.19836	0.199675
2436	0.187677	0.193101	0.003926	0.203126	0.202305
2437	0.192608	0.189156	0.001789	0.200004	0.196881
2438	0.188334	0.190635	0.004912	0.199346	0.200168
2439	0.189814	0.191293	0.002775	0.198853	0.199346
2440	0.191293	0.191293	0.001296	0.197538	0.199675
2441	0.195895	0.192772	0.003761	0.202633	0.199675
2442	0.190142	0.187348	0.000803	0.195566	0.197703
2443	0.192772	0.19195	0.00409	0.19836	0.198689
2444	0.190471	0.192608	0.003268	0.197538	0.199675
2445	0.190964	0.194087	0.00146	0.201154	0.196388
2446	0.191621	0.192608	0.003433	0.19836	0.200168
2447	0.190471	0.196881	0.00409	0.201319	0.200004
2448	0.193429	0.194251	0.00409	0.199346	0.199018
2449	0.190307	0.195566	0.002611	0.200825	0.199675
2450	0.191293	0.194909	0.002282	0.198196	0.201154
2451	0.18932	0.196223	0.002447	0.199018	0.201812
2452	0.193265	0.195895	0.000639	0.19721	0.199346
2453	0.188499	0.194909	0.005241	0.198524	0.203126
2454	0.001132	0.194251	0.005076	0.19836	0.199346
2455	-1.9e-05	0.196881	0.007542	0.196388	0.199018
2456	-0.000347	0.196388	0.003761	0.200004	0.197538
2457	-0.000183	0.192443	0.006227	0.196552	0.20099
2458	0.000639	0.197538	0.003597	0.200661	0.197703
2459	0.008528	0.190307	0.007542	0.199182	0.199346
2460	0.01428	0.195402	0.008035	0.199675	0.197867
2461	0.024635	0.19573	0.009843	0.197538	0.199839
2462	0.027265	0.195402	0.007542	0.19836	0.197867
2463	0.036797	0.19573	0.006556	0.19836	0.19836
2464	0.044851	0.196881	0.008692	0.197703	0.199675
2465	0.048631	0.19573	0.005405	0.199018	0.200497
2466	0.05652	0.196059	0.003268	0.197045	0.20099
2467	0.062437	0.195895	0.008199	0.19573	0.199839
2468	0.066217	0.196881	0.009185	0.19836	0.200168
2469	0.073284	0.197374	0.006556	0.198853	0.202305
2470	0.079201	0.197045	0.010007	0.186691	0.201319
2471	0.081338	0.196552	0.0105	0.171899	0.19721
2472	0.084296	0.198196	0.012637	0.1101	0.199675
2473	0.087912	0.199346	0.011158	0.084625	0.197045
2474	0.095144	0.196881	0.011158	0.068518	0.199018
2475	0.09991	0.198853	0.013952	0.073449	0.192443
2476	0.100403	0.200004	0.01428	0.074271	0.200661
2477	0.109279	0.199018	0.011651	0.080023	0.198853
2478	0.113881	0.195402	0.012965	0.081009	0.198853
2479	0.116346	0.199018	0.011815	0.079366	0.193758
2480	0.121112	0.195895	0.011815	0.077886	0.197867
2481	0.123085	0.201483	0.012801	0.082817	0.199511
2482	0.126207	0.1908	0.005569	0.085118	0.198524
2483	0.128015	0.195566	0.005241	0.057835	0.200825
2484	0.131631	0.195402	0.005898	0.043865	0.200497
2485	0.135247	0.197374	0.00672	0.022663	0.197867
2486	0.138534	0.198031	0.008199	0.011651	0.202962
2487	0.135247	0.198524	0.005076	0.007377	0.201319
2488	0.142972	0.198524	0.000803	0.004255	0.199346
2489	0.141164	0.195895	0.002118	0.004748	0.199675
2490	0.144451	0.197538	0.002282	0.003104	0.200004
2491	0.143301	0.196059	0.002282	-0.001334	0.198196
2492	0.149875	0.197374	0.000146	0.004419	0.200497
2493	0.151354	0.19573	0.000967	-0.001005	0.197867
2494	0.153162	0.197703	-0.000183	0.001789	0.199346
2495	0.158586	0.200004	-0.000183	0.001132	0.199346
2496	0.152998	0.200825	0.000474	0.002447	0.197867
2497	0.160229	0.195073	0.004583	0.001625	0.199675
2498	0.159243	0.20099	-0.001334	0.00294	0.199839
2499	0.16253	0.198196	-0.000347	0.00146	0.196881
