Ladekurvenmessung

Zeit: 2018_05_04 09.04.50

Info: FVA3, v = 1.05, T = 23, F = 20, h = 518.2

Ladewiderstand[Ohm]: 1012700

Störkapazität[pF]: 0.000000

Entladezeit[ms]: 200

Abtastrate[Hz]: 250000

Anzahl der Messwerte: 2500.000000

Verzögerung[ms]: 3

Ladespannung[V]: 0.200000


	Kurve_1	Kurve_2	Kurve_3	Kurve_4	Kurve_5
0	-0.006429	-0.004292	-0.001991	0.000967	0.002447
1	-0.006593	-0.000347	0.000967	0.000639	0.003926
2	-0.005936	0.002447	0.001625	0.00146	0.006227
3	-0.007744	-0.000512	-0.002813	-0.000512	0.000474
4	-0.005278	0.001296	0.002282	0.00294	0.003761
5	-0.008401	0.000803	0.001789	0.000803	0.001296
6	-0.004456	0.001625	0.000967	0.000474	0.001789
7	-0.010373	0.000474	0.000146	0.000803	-0.000347
8	-0.008894	0.001132	0.002775	0.002775	0.004912
9	-0.00873	-0.000841	0.000474	0.00031	0.002775
10	-0.010866	0.002447	0.001954	0.000803	0.000639
11	-0.008565	0.000146	-0.000841	0.00146	0.001789
12	-0.010045	0.001132	-1.9e-05	0.000474	0.000967
13	-0.00873	0.001132	0.001132	0.004255	0.000803
14	-0.007579	-0.002813	0.000803	0.000639	0.005241
15	-0.007415	-0.000841	-0.000183	0.002118	0.003761
16	-0.007086	-0.001498	0.002447	0.002775	0.003433
17	-0.010702	-0.000512	0.00146	-0.000841	0.003104
18	-0.011359	0.000146	0.000146	0.00031	-0.000183
19	-0.00988	0.000146	0.001296	-0.001498	0.005076
20	-0.010538	0.000639	-0.000183	-0.000676	0.002775
21	-0.010373	0.001296	-0.001498	0.000967	0.001954
22	-0.010045	0.000146	-1.9e-05	-0.000347	0.001954
23	-0.010209	-0.000841	-0.000841	-0.001005	0.006391
24	-0.013496	0.001625	-0.002484	0.003104	0.001954
25	-0.012017	0.000639	-0.000512	0.000474	0.001625
26	-0.008894	-0.002648	-0.001334	0.003597	-0.000512
27	-0.012839	0.00031	0.002447	0.00031	-1.9e-05
28	-0.009223	-0.000183	0.001132	0.002775	0.000146
29	-0.013825	0.000803	-0.000676	-0.001827	0.000474
30	-0.010702	0.002282	0.001789	0.00146	0.002775
31	-0.013167	0.005241	0.001296	0.000474	0.003926
32	-0.013167	0.000803	0.00031	0.000474	0.003433
33	-0.012674	0.00146	-0.001169	0.001789	0.00031
34	-0.011688	0.000146	-0.002155	-0.001662	0.002775
35	-0.012181	0.001132	-0.00232	0.000474	0.002447
36	-0.011524	0.001296	-0.001498	0.003268	-0.001005
37	-0.015633	-0.001005	-0.001005	-0.001334	-0.001334
38	-0.01514	0.001625	0.002118	0.000803	0.001625
39	-0.013496	-0.000183	-0.004621	-0.000347	-1.9e-05
40	-0.019577	0.000474	-0.000676	-0.001498	-0.000512
41	-0.019413	0.000639	-0.000676	0.001296	0.001954
42	-0.018591	-1.9e-05	0.001296	-0.001334	0.003761
43	-0.017605	0.003268	0.00146	-0.001498	0.000474
44	-0.017934	0.002611	0.001954	-0.001169	0.00146
45	-0.017605	0.001789	0.002611	-0.001334	0.001296
46	-0.01892	0.001789	0.000639	-0.001991	0.001296
47	-0.019577	0.002775	0.00146	-0.000841	0.00146
48	-0.020399	-0.002155	0.000967	-0.000841	0.00031
49	-0.020563	0.001625	0.00031	0.002282	0.000146
50	-0.02007	-0.003142	-1.9e-05	-0.000183	0.000967
51	-0.023029	-0.001498	0.000967	0.000639	-0.000347
52	-0.023029	-0.001991	0.002118	0.000639	0.004748
53	-0.022864	0.000639	0.005076	-0.002484	0.008528
54	-0.024179	-0.001169	-0.001334	0.002282	0.003761
55	-0.025658	0.001625	0.000803	-0.001991	0.005734
56	-0.021056	-0.000183	0.002282	-0.000183	-0.000841
57	-0.026152	0.001954	-0.000183	-0.00232	0.002282
58	-0.025658	-0.001334	-0.00232	0.004419	0.000474
59	-0.028124	0.000474	0.000146	-0.002484	0.000146
60	-0.030425	-0.000183	0.00031	0.000639	-0.000512
61	-0.026645	-1.9e-05	0.003104	-0.002155	-0.000512
62	-0.03174	-0.000841	-0.001827	-0.000512	-1.9e-05
63	-0.033548	-0.004292	0.00409	0.001132	0.00409
64	-0.032726	0.001296	0.000967	0.001296	0.003433
65	-0.040451	-0.001169	-0.000183	-0.001334	0.000967
66	-0.032726	0.00031	0.001132	-1.9e-05	0.002118
67	-0.030918	-0.001005	-0.000841	-0.001334	0.001132
68	-0.033219	0.002282	-0.000512	-1.9e-05	0.00409
69	-0.037821	-0.002813	-0.000183	-0.000347	0.00031
70	-0.034534	0.000146	0.001132	-0.000676	0.002282
71	-0.039464	-0.000183	-0.003306	0.002282	-0.000512
72	-0.036342	0.000146	-0.001334	-0.002155	0.002447
73	-0.038643	-0.004128	-0.002648	-0.000841	-0.005771
74	-0.042258	-0.000512	-0.001498	-0.002813	0.003104
75	-0.041108	-1.9e-05	-0.002648	-0.002155	0.002118
76	-0.040451	-0.00232	-0.001827	-0.000676	0.000639
77	-0.041601	0.000146	-0.000347	-0.004128	0.000803
78	-0.040286	-0.001498	-0.000183	-0.003306	-0.000183
79	-0.042587	0.001625	0.001296	-0.001334	0.002611
80	-0.04571	-0.000676	0.000146	-0.001662	-0.001662
81	-0.040944	0.003433	-1.9e-05	0.000146	0.001789
82	-0.047025	-0.002977	-0.001498	0.000803	-0.000347
83	-0.044888	-0.000347	0.000803	-0.000512	0.001296
84	-0.049161	-0.000347	0.001789	-0.003142	-0.000676
85	-0.049655	-0.001169	-0.000841	-0.002155	0.003268
86	-0.047847	0.00146	0.002611	-0.000347	0.002611
87	-0.045053	0.000474	0.000146	-0.004456	0.004583
88	-0.046039	-0.002155	-0.001498	0.000803	0.001954
89	-0.046696	0.000967	-0.001498	-0.004949	0.001625
90	-0.047847	-0.001005	-0.000841	-1.9e-05	0.001296
91	-0.05327	-0.000512	-0.000512	-0.001005	0.00031
92	-0.04686	-0.000512	-0.000676	-0.001827	0.001132
93	-0.05327	0.003433	-1.9e-05	-0.001169	-0.001827
94	-0.049326	0.001625	0.003433	-0.00347	-0.000183
95	-0.053435	0.000146	0.001296	-0.002977	-0.000512
96	-0.051298	-0.000347	0.000474	-0.001827	0.003268
97	-0.054421	0.000639	0.001132	-0.00232	0.001625
98	-0.051627	0.000474	0.00146	-0.001827	0.002118
99	-0.054914	0.001132	-0.001169	-0.000347	0.000967
100	-0.052613	0.000803	0.003926	-0.001827	0.000639
101	-0.051298	0.000146	-0.000347	0.002282	0.002775
102	-0.054585	0.00146	0.001625	0.000146	-0.000676
103	-0.054421	-0.00347	-0.000841	0.000803	-0.002648
104	-0.053435	-0.000676	0.00146	0.00031	-1.9e-05
105	-0.051462	-0.000676	-1.9e-05	0.00031	-0.002648
106	-0.05475	-0.001498	0.00031	0.00146	0.000474
107	-0.053599	-0.002648	-0.000183	-0.004785	0.001954
108	-0.055736	-0.000676	-0.001005	-0.002484	0.001789
109	-0.05212	-0.000512	-0.000347	-0.003142	0.000803
110	-0.054914	-0.002813	-0.000676	-0.001498	0.000146
111	-0.053928	-0.000676	-0.000512	-0.00347	0.001789
112	-0.048504	0.00146	0.003926	-1.9e-05	0.003268
113	-0.05212	0.000639	0.00031	-1.9e-05	-0.000347
114	-0.052613	0.000146	-0.001005	0.001625	-0.001169
115	-0.045546	0.000967	0.00294	0.000146	0.003597
116	-0.050805	-0.001334	0.00031	-0.001827	-1.9e-05
117	-0.056064	0.000146	0.005405	0.000803	0.003433
118	-0.049983	-0.001498	-0.001662	0.000474	-0.002484
119	-0.048833	0.001625	-0.000676	-0.000841	0.002447
120	-0.046039	-0.000183	0.000967	0.001625	0.001789
121	-0.046203	-0.001005	0.002282	0.000146	0.000967
122	-0.042423	-0.00232	-0.000676	-0.001991	-0.001334
123	-0.0393	0.00031	0.001132	0.000803	0.005076
124	-0.037492	0.000474	-0.000676	0.000967	0.005405
125	-0.035027	-0.003799	-0.001334	-0.001827	-0.000183
126	-0.028946	-0.002813	-0.003635	-0.000676	0.00146
127	-0.028617	-0.005114	-0.001334	-0.004128	0.00031
128	-0.026152	-0.001827	-1.9e-05	-0.001662	-0.000183
129	-0.023522	-0.0061	-0.001991	-0.001827	-0.002155
130	-0.020563	-0.002648	0.000639	-0.001662	0.003433
131	-0.01629	-0.004128	0.000146	0.001625	-1.9e-05
132	-0.014647	-1.9e-05	0.001132	-0.001498	0.001625
133	-0.012674	-0.001662	-0.000347	0.000639	0.000146
134	-0.006593	0.005569	0.002118	-0.000347	0.000146
135	-0.005607	-0.002813	0.000146	0.002282	0.001625
136	-0.003142	-0.000183	0.00409	0.000967	0.000146
137	0.000146	0.000639	0.006227	0.003104	-0.001498
138	0.002775	-0.002155	0.003268	-0.000183	-0.001498
139	0.002282	-0.001662	0.003597	0.003104	-0.000347
140	0.006556	-0.00232	-0.000512	-0.002813	-0.000841
141	0.014116	-0.001169	-0.000347	0.00031	0.003268
142	0.013787	0.000146	-0.000841	-0.004949	-0.002155
143	0.018882	0.001789	-0.000183	-0.004785	0.002611
144	0.019868	-0.000183	-0.001005	-0.003963	0.001789
145	0.024142	0.001789	0.00031	-0.002977	0.002611
146	0.022005	-0.003963	-0.000676	-0.003635	0.000967
147	0.023484	-0.001169	0.003104	-0.003635	0.001296
148	0.021512	0.002118	0.000803	-0.000841	-0.000841
149	0.025457	0.002447	0.000639	-0.003306	0.002611
150	0.023813	-0.001334	0.001954	-0.001662	-0.000347
151	0.02332	0.001296	0.001789	-0.002155	-1.9e-05
152	0.023484	0.001296	0.002282	-0.001005	0.003761
153	0.02332	0.000803	0.003104	-0.001498	0.003104
154	0.025457	0.000967	-0.000183	-1.9e-05	0.000474
155	0.024142	0.000474	-0.001005	-0.002813	0.000803
156	0.026278	0.000639	-0.001169	0.001954	0.000967
157	0.02595	-0.001498	0.000803	0.001296	-0.001334
158	0.023813	-0.002484	-0.002648	-0.001169	0.001296
159	0.022005	0.000146	-1.9e-05	0.002611	0.000474
160	0.026607	-0.002484	0.001625	-0.00232	-1.9e-05
161	0.020855	-0.000841	-0.002484	-0.002813	0.000146
162	0.021348	0.001132	0.001132	-0.000676	0.001954
163	0.020362	-0.001169	0.001789	-0.00347	0.000967
164	0.015595	-0.001334	-0.001334	-0.00232	0.001789
165	0.017896	-0.001169	-0.000841	-0.001498	0.001954
166	0.017732	0.000474	0.000474	-0.004949	-0.001662
167	0.022498	0.001296	0.000146	-0.001169	0.003104
168	0.012801	0.000146	0.00146	-0.000676	0.001625
169	0.018061	0.00031	-0.000512	-0.000512	0.000146
170	0.013787	0.00031	0.003433	-0.001827	0.00031
171	0.017732	0.00031	-0.000841	-0.001498	0.000146
172	0.012637	-0.001005	-0.001662	-0.004456	0.002447
173	0.01313	-0.00232	-0.000347	-0.001005	-0.001334
174	0.015924	0.000474	-0.003142	-0.000676	0.001954
175	0.014938	-0.000676	-0.001169	-0.002648	0.002611
176	0.015924	-0.001005	0.002118	-0.002484	0.000803
177	0.01691	-0.000347	-0.000841	-0.004621	0.003926
178	0.018554	-0.003306	-0.00347	-0.001827	0.001789
179	0.015266	0.000639	-0.000183	-0.002484	0.002775
180	0.019868	-0.00232	-0.003306	-0.001662	0.001132
181	0.014938	-0.002977	-0.000183	-0.002648	0.00146
182	0.016253	-0.000512	0.001789	-0.002155	0.00031
183	0.017732	-1.9e-05	0.000639	-0.003799	0.002118
184	0.020197	-0.000183	-0.000676	-0.001334	-0.001662
185	0.016417	0.002611	0.004255	-0.004621	-0.001498
186	0.016253	0.002282	0.00031	-0.001498	-0.001005
187	0.016088	0.002775	0.000803	-0.002648	-0.001827
188	0.024142	0.002611	0.00031	-0.003799	-1.9e-05
189	0.020197	0.000639	0.001296	-0.000347	-0.001169
190	0.018554	0.000967	0.000474	-0.001005	-0.000512
191	0.021183	-0.000347	-0.000841	0.000639	0.000146
192	0.021841	0.003597	0.002447	-0.005443	0.002118
193	0.022991	0.000146	-1.9e-05	-0.002155	0.000639
194	0.022005	-0.001662	0.000474	-0.004456	0.004912
195	0.022169	-0.004292	-0.001662	-0.005771	-0.002648
196	0.023813	-1.9e-05	0.002775	-0.003963	0.002611
197	0.021841	-0.001827	0.002118	-0.001334	0.002611
198	0.022005	0.001789	0.002447	-0.003799	0.000967
199	0.026771	0.001954	0.001789	-0.000676	0.001954
200	0.024142	-0.000347	0.002282	-0.003306	0.001954
201	0.023649	0.002118	0.00031	-0.00232	-0.003142
202	0.022991	0.003268	0.000803	-0.002155	-0.001827
203	0.026443	0.000474	0.001296	0.000146	0.001625
204	0.025785	-1.9e-05	0.002118	-0.002648	0.003104
205	0.023649	0.003268	0.001789	0.000967	0.00031
206	0.024142	-0.001498	0.00031	-0.001169	-0.001498
207	0.026278	0.001625	0.004748	-0.004292	0.002447
208	0.026114	-0.000347	-0.00232	-0.002484	0.000146
209	0.02595	0.001625	0.000146	-0.003635	0.001954
210	0.028908	-0.000676	0.000474	-0.005443	0.001625
211	0.028086	-0.000676	-0.003799	-0.001005	0.00409
212	0.02973	-0.004785	-0.000183	0.000803	0.001296
213	0.028744	-0.000183	-0.001169	-0.000183	0.000639
214	0.028086	-0.001334	-0.000676	0.003761	0.001789
215	0.029072	-0.00347	0.000639	-0.003306	-0.000347
216	0.03088	-0.001005	0.000967	0.00146	0.002775
217	0.031867	-0.001662	-0.000347	-0.001498	0.00409
218	0.032195	0.000967	0.001625	0.00031	0.000967
219	0.02973	0.000639	-0.000183	-0.001827	-0.000512
220	0.028908	-1.9e-05	0.001789	0.000803	0.000803
221	0.029072	0.000639	-1.9e-05	0.001296	-0.000512
222	0.034332	0.00146	0.000639	0.001296	0.005241
223	0.028251	-0.001005	-0.001827	0.001625	-0.008072
224	0.028415	0.001789	-0.000512	-0.001005	0.004583
225	0.031373	-0.002155	-0.002813	-0.011524	0.003433
226	0.033674	-0.001827	-0.000676	-0.023029	-0.000183
227	0.029894	-0.002813	-0.004785	-0.016948	0.000803
228	0.032853	-0.002813	-0.00347	-0.017769	0.00146
229	0.034496	-0.005278	-0.003799	-0.015961	0.002447
230	0.034825	-0.001827	-0.000183	-0.014975	0.000474
231	0.036797	0.002775	-0.000512	-0.000841	0.003433
232	0.036469	-0.000183	-0.005443	-0.009223	0.001625
233	0.042057	0.000803	0.000146	-0.004949	0.002118
234	0.034661	-0.001498	-0.001005	-0.005278	-0.001005
235	0.036304	0.004912	0.000639	-0.00347	-0.001827
236	0.037126	-0.001827	0.000474	-0.002155	-0.001827
237	0.036304	0.000803	0.000967	0.001789	-0.000676
238	0.034496	0.001132	-1.9e-05	-0.000347	-0.001991
239	0.034661	0.000803	0.001954	-0.002648	-0.001169
240	0.031702	-0.001005	-0.000183	0.001789	-0.000183
241	0.033017	0.003268	0.001954	0.001789	0.00031
242	0.034661	-0.000347	-1.9e-05	0.00146	0.00146
243	0.034989	0.000639	0.001296	-0.002484	0.000967
244	0.03614	-0.000841	0.000146	0.002282	0.002118
245	0.033346	-0.002813	-1.9e-05	0.001296	0.001625
246	0.033839	-0.005114	-0.001334	0.005076	0.001132
247	0.032853	-0.001991	0.001954	0.007213	0.00294
248	0.03351	-0.003635	-0.006593	0.000146	0.00409
249	0.030059	-0.002155	-0.002484	0.001954	-0.000676
250	0.032031	-0.001662	0.000146	0.000146	0.000639
251	0.030223	-0.001005	-0.003306	0.004419	0.00146
252	0.029072	-1.9e-05	-0.000347	-0.005771	0.00409
253	0.030552	-0.000347	0.000146	0.000803	0.001625
254	0.028744	-1.9e-05	-0.000183	0.004748	0.000967
255	0.027593	0.001789	0.00031	-0.000512	0.003268
256	0.028744	0.002118	0.000803	0.001954	0.000639
257	0.024964	0.00294	-0.001827	0.002282	0.00031
258	0.02595	0.000803	0.003104	0.0105	0.000967
259	0.022827	0.001625	-0.001169	0.003104	0.000474
260	0.022498	0.000474	0.000803	0.008363	0.000639
261	0.026443	-0.000676	0.00146	0.001625	0.000639
262	0.022005	-0.000676	-0.001005	-0.000676	0.001789
263	0.025292	-0.001334	-0.001991	0.000803	0.00146
264	0.025457	-0.001169	-0.001334	0.004255	0.001296
265	0.026278	-0.002155	-0.005607	-0.005278	0.002611
266	0.024142	-0.000841	0.000146	-0.000183	0.002447
267	0.027265	-0.001662	0.00031	0.001789	0.002775
268	0.026278	-0.002484	-0.001991	0.000803	-0.000347
269	0.02595	-0.001005	0.001954	-0.025494	0.001132
270	0.022663	-0.000347	-0.002155	-0.001827	-0.001005
271	0.021676	-0.000183	-0.000183	0.002611	0.001625
272	0.022169	-0.002484	0.001789	0.003597	-0.007415
273	0.019047	0.000639	-0.001662	0.004255	0.00146
274	0.02069	0.000146	-0.001334	0.00031	-0.000841
275	0.018718	0.000146	0.000146	-0.001991	-0.0061
276	0.022169	-0.00232	-0.001662	-0.000512	-0.002977
277	0.017403	-0.001005	0.006227	-0.001169	0.001625
278	0.021841	-0.000841	-0.002648	0.000474	-0.000183
279	0.019047	-0.001991	-0.001827	0.000639	0.000474
280	0.019047	-0.00232	0.00146	0.001789	0.001954
281	0.018882	-0.002484	-0.000841	-0.001662	-0.002813
282	0.018225	-0.001005	0.00031	-0.002813	0.001625
283	0.016581	-0.00232	-0.001334	-0.002648	-0.000841
284	0.016088	0.000146	-0.000676	-0.004621	0.003104
285	0.014938	-0.001827	-0.002648	-0.001334	0.000967
286	0.017732	-0.004456	-0.000347	-0.001498	-0.000347
287	0.014445	-0.003142	0.000146	-0.001498	-0.001169
288	0.012637	0.000474	0.000639	0.00146	0.000146
289	0.012144	-0.000841	-0.003142	0.004912	-0.002155
290	0.014116	-0.004456	-0.001169	-0.001334	-0.001005
291	0.012308	0.00146	0.001296	0.001625	-0.003142
292	0.014445	-1.9e-05	0.001954	-0.000676	0.00409
293	0.010664	-0.001334	0.000474	-0.000841	0.000803
294	0.011815	-0.000183	0.000639	-0.000512	-0.001498
295	0.012144	0.000803	0.002447	0.004419	0.003433
296	0.011979	0.002118	-0.001169	0.003104	0.000803
297	0.011815	0.00031	0.002447	0.002447	0.001789
298	0.011322	-0.001827	0.00031	0.001296	0.000967
299	0.012472	0.00146	0.002775	0.003268	0.006062
300	0.010664	-0.001827	-0.000841	0.002447	-0.003799
301	0.011651	-0.000512	-0.000676	0.002775	0.000146
302	0.009514	-0.002977	-0.001169	0.002447	0.000474
303	0.011815	0.000803	0.002118	-0.001662	-0.000347
304	0.009185	-0.001498	-0.001662	0.002118	-0.000347
305	0.00787	0.002282	0.000639	0.002611	-0.001991
306	0.008857	-1.9e-05	-0.002484	0.008199	-0.000347
307	0.008199	-0.003799	-0.000347	-0.001005	-1.9e-05
308	0.007542	0.000474	-1.9e-05	0.003104	-1.9e-05
309	0.006556	0.000474	-1.9e-05	0.00409	0.002447
310	0.008199	0.000803	-0.000676	0.000639	0.001132
311	0.005076	-0.001827	-0.001005	-0.001498	-0.001662
312	0.002611	-1.9e-05	0.00031	0.003597	0.001625
313	0.004255	-0.003306	-0.002648	0.003597	-0.000183
314	0.00672	-0.001169	0.002447	0.000639	-1.9e-05
315	0.00146	-0.001005	0.000803	0.000967	0.000474
316	0.004912	-0.001498	-0.002648	0.001789	0.001132
317	0.003104	-0.000841	-0.000347	0.00146	0.000639
318	0.004419	-0.000347	-0.001662	0.000639	0.003433
319	0.004255	-0.002155	-0.002813	0.000967	0.000474
320	0.004419	-0.000676	-0.00347	0.000474	0.002118
321	0.005241	-0.000676	-0.002648	0.003761	-0.000183
322	0.00146	-0.00232	-0.002155	0.000639	0.000474
323	0.003926	-0.000841	-0.001169	0.003104	0.000803
324	0.001296	-0.000841	-0.000512	0.000639	0.000639
325	0.00146	-0.001498	-0.003963	0.000474	0.002118
326	0.000639	-0.003142	-0.005278	-0.000676	0.001132
327	0.001625	-0.002484	-0.001991	0.002447	0.004255
328	-0.001005	-0.002484	-0.004456	0.000146	-0.000183
329	0.002447	-0.000512	-0.001498	0.00146	0.006062
330	0.00031	-0.002813	-0.001005	0.001296	-1.9e-05
331	0.000967	-0.000841	-0.00232	0.003268	0.001296
332	0.000146	-0.000347	-0.004292	0.002775	0.003104
333	0.003104	-0.002977	-0.002155	0.002118	0.000967
334	-0.000676	-0.002813	0.000639	0.00146	0.000803
335	0.00146	0.001789	0.00031	0.000639	0.002282
336	0.001789	-0.002155	-0.001991	-0.000347	0.000474
337	-0.000183	-0.000841	0.000474	-0.001334	0.00146
338	-0.001662	-0.004128	-0.005936	0.00031	0.004255
339	-0.001498	-0.000512	-0.002813	0.00146	0.000474
340	0.004583	-0.001827	-0.001169	0.005241	-0.000183
341	-0.003142	-1.9e-05	-0.000841	0.000639	-0.004128
342	0.000474	-0.000676	-0.000841	-0.000183	0.000967
343	0.00146	0.001954	-1.9e-05	0.001132	-0.000347
344	0.000967	0.00146	-0.001169	-0.000183	-0.001169
345	-0.000676	-0.004949	-0.000183	-0.001827	-0.001662
346	0.002118	0.002447	-0.003306	0.004583	0.002118
347	-0.000841	-0.000183	-0.004785	0.001954	0.000474
348	-0.001662	0.001296	0.002775	0.002282	-0.000347
349	0.003104	-0.002648	-0.012181	0.003433	0.001954
350	-0.001169	0.002775	-0.003799	0.000967	0.005405
351	0.000474	0.000146	-0.002155	0.003926	0.001954
352	0.001132	-0.000676	-0.001334	0.00294	0.003104
353	0.003104	-0.000512	-0.001662	0.004748	0.002775
354	0.001954	0.000803	0.00031	0.001132	0.005241
355	0.002447	-0.001662	0.000146	0.005898	-0.000183
356	0.000474	-0.000512	-0.001991	-0.000347	-0.00232
357	0.001625	-0.001498	0.000146	0.002118	0.00409
358	0.00031	0.00031	-0.000841	-0.000512	-0.001662
359	-0.000347	0.000639	-1.9e-05	0.001132	0.002611
360	0.000803	-0.002155	-0.008237	0.001296	-1.9e-05
361	0.003104	-0.001991	-0.001991	0.004583	0.00146
362	0.001132	0.000639	-0.000841	0.000803	-0.001662
363	0.000639	0.001296	0.001789	0.007706	0.00294
364	0.003104	-0.003635	-0.000183	0.004748	-0.001169
365	0.00146	0.00146	0.00031	0.001789	0.001296
366	0.00146	-0.003963	0.000803	0.002775	-0.000512
367	-0.001827	0.003433	-0.00232	0.003761	0.001625
368	0.000146	0.00031	0.000474	0.003268	0.00146
369	-0.001169	-0.001334	0.000803	0.000967	0.001789
370	0.000967	-0.000676	-0.000512	0.002282	0.000639
371	-0.00232	-0.001169	-0.011031	0.003433	0.003597
372	-1.9e-05	-1.9e-05	-0.002813	0.001132	0.004912
373	-0.000347	-0.001498	-0.002484	0.000474	0.00146
374	0.001132	-1.9e-05	-0.001334	0.003761	0.003926
375	0.001132	-0.001498	0.000803	0.002447	0.002118
376	0.003926	0.002775	-0.004456	-1.9e-05	0.003761
377	-0.000512	-0.00232	-0.004621	-1.9e-05	-0.002155
378	0.000803	-0.003963	0.002611	0.001789	-0.001005
379	0.001625	-0.003142	0.00146	0.00146	-0.001662
380	0.000803	0.000146	0.001296	-0.001005	-0.000183
381	0.00031	-0.001991	0.001296	-0.000512	-0.001498
382	-0.001169	-0.004621	-0.006429	0.000639	0.000639
383	-0.000183	-0.001169	-0.002813	0.004255	0.000639
384	0.00146	0.003268	0.000803	0.002775	-0.000512
385	0.003104	-0.000512	0.000967	0.006062	0.001954
386	-0.000183	-0.000183	-0.001169	0.003104	-0.000347
387	-0.000512	0.003433	-0.000841	0.001625	0.000967
388	0.00146	-0.000347	-0.000512	0.001296	-0.001005
389	-0.001005	-0.001169	-0.001827	-0.001005	-0.002155
390	-0.002813	-0.001005	-0.001005	0.000639	0.001132
391	0.001132	0.00031	0.00031	-0.001334	0.001789
392	-0.001169	-0.00232	-0.001991	-0.003799	-0.000512
393	0.00146	-0.001334	-0.007579	-0.002155	0.000967
394	0.000146	-0.001169	-0.003142	-0.001498	-0.000841
395	-0.000676	0.00031	-0.003963	-0.003799	0.000146
396	0.001954	-0.000347	-0.002155	0.003597	0.003926
397	0.002282	0.00031	0.000639	0.001625	0.00031
398	0.002611	0.000146	-0.002648	0.001132	-0.003963
399	0.00031	0.00146	0.00294	0.000474	0.000474
400	0.001625	-0.000183	0.001954	0.002447	-1.9e-05
401	-1.9e-05	-0.001169	0.00146	0.001625	0.000146
402	0.002775	0.003597	0.001296	-0.000512	0.001132
403	-0.001827	-0.002484	0.001132	0.000474	0.00031
404	0.000803	-0.000512	-0.009058	0.002282	0.003104
405	-0.001169	-0.003306	0.001954	-0.001991	0.004255
406	0.002611	-0.000841	-0.001498	-0.002977	0.003104
407	-0.000183	-0.001005	-0.001334	0.000639	0.001132
408	0.004748	-0.005771	-0.002155	0.00146	0.003268
409	0.002282	-0.000347	-0.00347	0.00031	0.000967
410	-0.001005	-0.000841	0.000146	0.00031	0.002282
411	0.002447	-0.004128	-0.003142	0.002775	-0.001005
412	-0.000183	-0.00232	0.000474	-0.002155	0.000639
413	0.002282	-0.002648	-0.00232	-0.001169	-0.000512
414	0.001132	-0.000347	0.000146	-0.001334	0.002118
415	0.002282	-0.003635	-0.003799	0.00031	-0.001662
416	0.000639	0.002611	-0.000512	-0.000676	0.001954
417	-0.000676	-1.9e-05	0.000146	0.001625	0.001625
418	-0.005443	-0.000183	0.000146	0.002775	-0.001827
419	0.000803	0.000146	-0.000676	0.002611	0.003433
420	-0.001662	0.00294	-0.000512	0.002611	0.001789
421	-0.00232	-0.001827	0.00031	0.002118	0.003104
422	-0.002484	-0.001498	-0.001005	0.003104	0.00031
423	0.000474	0.000146	-0.003799	0.00146	0.000146
424	-1.9e-05	0.000146	-0.006922	-0.001169	0.00031
425	0.000146	-0.003142	-0.002155	-0.001334	0.001296
426	-0.001991	-0.006757	-0.007744	-0.001169	-0.001005
427	0.00146	-0.001991	-0.005443	-0.001827	0.000474
428	0.001625	-0.001991	-0.005114	-0.001005	0.003268
429	-1.9e-05	-0.002155	-0.001662	-0.001334	0.00294
430	0.002611	-0.004621	-0.001662	0.002118	0.001296
431	0.000803	0.000474	-0.000347	-0.002155	0.001954
432	0.000803	-0.000676	0.000967	-0.001334	0.001132
433	0.000639	-0.000347	-0.001991	-0.002484	0.00031
434	0.005734	0.001132	0.00031	0.002611	-0.000347
435	-0.000841	0.002447	0.002118	-0.000841	-0.002977
436	-0.001662	0.003268	0.001296	-0.000347	0.000146
437	-0.001991	-0.002813	-0.001991	-0.001662	-0.001334
438	-0.001498	0.002282	-0.000676	0.001296	-0.001498
439	-0.001991	0.00031	-0.002484	0.002611	0.000803
440	-0.001827	0.001132	0.00031	-0.002977	0.002775
441	-0.000347	-0.000841	-0.001498	0.003104	0.002611
442	0.003597	-0.000183	-0.000183	0.001296	0.00409
443	-1.9e-05	-0.003799	-0.001991	-0.002155	0.001789
444	0.00294	-0.000347	-0.003306	-0.001662	0.005241
445	0.001625	-0.002484	-0.000676	-0.024179	0.000639
446	-0.000347	-0.000841	0.00294	-0.0227	0.00031
447	0.00031	-0.001991	0.001625	-0.007908	0.002118
448	-0.000183	-0.00347	-0.002977	-0.007908	-0.000183
449	0.000967	0.000474	-0.001827	-0.000183	-0.000841
450	-0.002648	-0.000512	0.000803	0.000639	-0.000512
451	0.000803	0.000146	-0.00232	0.003597	0.00031
452	-0.001169	-0.000676	-0.001005	0.004748	-0.002155
453	0.001789	0.000639	0.000639	0.003268	0.002282
454	-0.000183	-0.004128	-0.001334	-0.004785	0.001296
455	-0.000676	0.003761	0.001296	-0.001827	0.001625
456	-0.001334	0.001625	-0.001334	0.001789	-0.001827
457	-0.002484	0.003104	0.000803	0.00031	0.002611
458	0.000474	0.000803	-0.001662	0.002447	0.002611
459	-0.001169	0.00031	-0.002155	-0.000512	0.001625
460	-0.001991	-0.001169	-0.003306	-0.001498	0.001296
461	-0.00347	0.000146	-0.002484	-0.004785	0.002611
462	0.00146	-0.000183	-0.001498	-0.001005	0.003104
463	-0.000512	-0.002813	-0.002155	-0.001498	-1.9e-05
464	0.001132	-0.000676	-0.001498	0.001954	0.004419
465	-0.000676	-0.001827	-0.000347	-0.001827	-0.000183
466	0.002611	-0.001169	-0.000347	0.001954	0.000639
467	0.000639	-0.001169	-0.001991	0.001954	-0.001498
468	-0.001991	-0.000841	0.001789	-0.000676	0.001789
469	-0.003142	-0.000512	0.000474	0.002282	-0.001334
470	-0.00232	-0.001005	-0.000183	0.000639	0.000474
471	-0.002977	-0.000676	-0.002977	0.002118	0.000967
472	-0.00232	0.001132	0.001625	0.001625	-0.001662
473	-1.9e-05	0.000474	-0.000347	0.004912	-0.001334
474	-0.000347	-0.001005	0.001625	-0.001005	0.00031
475	0.001789	-0.00347	-0.000512	-0.001169	0.004255
476	0.000803	-0.00232	-0.000183	0.000146	0.00294
477	0.000803	-0.003963	-0.002155	0.000639	0.002118
478	0.000967	-0.001498	-0.005278	0.002118	0.003104
479	0.00294	-0.004128	-0.005114	-0.003142	0.001296
480	-0.000183	-0.005607	-0.000676	-0.002484	-0.000183
481	0.00146	-0.000183	-0.001498	-0.000183	-0.000347
482	0.001625	0.000639	-0.002813	-0.001005	0.000474
483	0.005076	0.000146	0.000474	-0.002977	0.001954
484	0.004255	-0.00232	0.000967	-0.000347	0.000967
485	0.003268	-0.003142	-0.000676	-0.000676	-0.000183
486	0.001625	-0.004949	0.001625	0.00146	-0.000841
487	-0.000841	-0.002648	0.000967	0.000474	0.000967
488	-0.001498	-0.004456	-0.003306	0.000639	-0.001991
489	-0.000676	0.001296	0.00294	-0.000347	-0.001005
490	0.000803	-0.001662	0.000474	0.000474	-0.001334
491	-1.9e-05	0.000146	0.000639	-0.003306	0.000146
492	0.00409	-0.001005	-0.001169	-0.001169	0.001132
493	0.00146	0.000639	-0.00232	-0.00725	0.001132
494	0.001789	-0.000676	0.001132	-0.004292	0.002118
495	0.001789	-0.001005	0.00146	-0.001169	0.001296
496	0.004748	-0.000347	0.000474	0.000639	0.00294
497	0.004419	-0.002813	-0.000841	-0.003142	0.00672
498	0.006227	-0.000841	0.000967	-0.00232	0.001789
499	0.000474	-0.001827	-0.001498	-0.002813	0.002282
500	0.00294	-0.001334	-0.001991	-0.001005	0.001132
501	0.003761	-0.001662	-0.000676	-0.001169	0.001132
502	0.00146	-0.000841	0.001296	0.000474	0.001296
503	0.002775	-0.001827	-0.001169	-0.001827	-0.000676
504	0.00031	0.001625	0.000474	0.000474	0.000803
505	0.001296	0.001296	-0.000512	-0.001991	-0.001498
506	0.003104	-1.9e-05	-1.9e-05	0.002118	-1.9e-05
507	0.001954	-0.000841	-0.000512	0.001954	-0.001169
508	0.003268	-0.001169	0.00031	0.000803	-0.000183
509	0.005405	-0.004128	-0.000841	0.001132	0.002611
510	0.001625	-0.004456	-0.002155	-0.001991	0.000967
511	0.003104	-0.001334	-0.000676	-0.000183	-0.002155
512	0.002775	-0.002813	-0.000841	-0.001827	0.004419
513	0.00146	-0.004949	-0.001827	0.001625	0.000803
514	0.000967	-0.000512	0.00031	-0.000512	-0.000512
515	0.003433	-0.000183	-0.000676	-0.000347	0.004419
516	0.002118	-0.003142	-0.001662	-0.000183	0.002447
517	0.000639	0.000967	0.001132	-0.001005	0.003268
518	0.005241	-0.001991	-0.001827	-0.000676	0.000639
519	0.000474	-0.003635	0.000474	-0.000183	0.003926
520	0.001132	-0.000841	-0.003142	0.001296	-0.001991
521	0.00031	0.000803	-0.000841	-1.9e-05	-0.003799
522	0.000146	-0.001334	-0.001169	0.00031	-0.001169
523	0.001296	-0.000347	0.000146	0.00031	-0.00232
524	0.001296	-0.001005	-0.001005	-0.000183	-0.00232
525	-0.001498	-0.000512	0.000474	-0.002648	-0.000347
526	0.003433	-0.000841	-0.004128	0.000967	0.000967
527	-0.000183	-0.002484	-0.000841	-0.001334	0.001789
528	0.001954	-0.002484	0.000474	0.000639	-0.000347
529	0.00146	-1.9e-05	-0.004292	-0.000512	-0.002648
530	0.002611	-0.007086	-0.001169	0.000639	0.004583
531	0.002611	-0.002977	-0.001005	0.00031	-0.000841
532	0.00409	0.000474	-0.000347	0.001625	0.001789
533	0.005241	-0.001169	-0.000512	-0.00347	0.000146
534	0.005076	0.00409	0.003433	-0.000841	0.001296
535	0.001132	-0.001334	-0.001827	-0.001498	-0.000347
536	-0.001498	-0.000183	0.003761	-1.9e-05	-0.002155
537	0.002611	0.002775	-0.000841	-0.000512	-0.001498
538	-0.001991	-0.004292	-0.000347	-1.9e-05	-0.000676
539	0.003104	-1.9e-05	0.001625	-0.000676	-0.00347
540	0.003761	0.001132	0.002775	0.001625	-0.002977
541	0.002611	-0.002484	-0.001334	-0.003963	0.00146
542	-0.000512	0.000474	0.00031	-0.004621	0.00031
543	-0.000347	0.00031	0.000803	0.000474	-0.000347
544	-0.000347	-0.000841	0.001954	-0.000841	-0.001169
545	0.002118	0.00031	0.003926	-0.001498	0.000639
546	0.001625	-0.000183	0.000146	0.000639	0.000474
547	0.001132	-0.002155	0.005405	-0.001334	-0.000841
548	0.002282	-0.000841	-0.001662	-0.000347	-0.001005
549	0.002447	0.002447	-0.000676	0.00031	0.002611
550	0.002118	-0.001827	-0.000183	0.000803	0.000474
551	0.003597	0.00031	0.001954	-0.001498	0.001954
552	0.005569	-0.001169	0.001954	0.001296	0.003761
553	0.000474	-0.001334	0.00031	-0.000347	0.00031
554	0.002775	-0.000347	-0.000183	0.002611	-0.003799
555	0.000639	-0.003799	0.002447	0.000803	-0.001662
556	0.003104	-0.002155	0.000474	0.002118	-0.001827
557	0.000803	0.000803	0.001625	0.000146	0.001296
558	0.001954	-0.003963	0.007377	0.001625	-0.002484
559	0.002447	0.001296	-0.002648	0.001789	-0.001662
560	0.001625	0.002611	0.000967	0.002775	0.002775
561	0.001132	-0.000347	-0.001827	0.002775	-0.000841
562	0.001132	-0.002648	0.000803	0.003268	0.000146
563	0.00146	-0.001991	-0.000676	0.007213	0.002118
564	0.001789	0.00294	0.000803	0.002447	0.004255
565	0.002611	-0.003635	-0.001498	0.001132	-0.001334
566	0.003433	-0.001498	0.00146	0.003926	0.001296
567	0.00031	-0.00232	0.000146	0.000474	0.000474
568	-0.001662	0.000146	0.000803	-0.000512	0.000803
569	0.000803	-0.00347	0.002118	0.003104	0.001789
570	-0.001334	-0.001169	-0.002648	-0.000676	-0.001498
571	0.001789	-0.000183	0.00031	0.004255	-0.00347
572	0.000146	-0.001005	0.001954	0.000474	-0.000347
573	0.002118	-0.0061	-0.005278	0.003268	-0.000512
574	0.004583	-0.001662	-0.004292	0.00146	-0.000841
575	-0.001498	0.00031	-0.001991	0.000803	0.000639
576	-0.000347	0.00031	0.001296	0.000803	-0.000676
577	0.000967	0.000146	0.001789	0.00294	0.000967
578	-0.000512	-0.001991	0.002282	-0.000676	-0.003142
579	-0.001827	0.000803	0.001132	0.001625	0.003597
580	0.000639	-0.004785	0.001296	0.000967	-1.9e-05
581	-1.9e-05	-0.000512	-0.000347	0.001132	0.003433
582	0.00031	-0.002155	0.001296	0.001625	0.001789
583	0.002611	-0.00232	-0.000512	0.00146	0.003433
584	0.003926	-0.012017	-0.000347	0.002775	0.001789
585	0.001132	-0.003799	0.001132	0.000639	0.002447
586	0.001132	-0.002155	-0.001498	0.00146	-0.000512
587	-0.000841	0.000639	-0.000512	-0.000183	-0.002155
588	0.00031	0.003597	0.001132	-0.000841	-0.001662
589	-0.002648	0.000146	0.000639	-1.9e-05	-0.001827
590	-0.003306	0.000803	0.002118	0.00031	-0.001498
591	-0.004456	-0.001498	0.003761	-0.000512	-0.003635
592	-0.003142	0.000474	0.000639	-0.002648	0.001132
593	-0.004785	-0.000512	-0.001005	-0.002648	-0.000676
594	-0.001334	0.003597	0.002447	0.001954	0.002775
595	-0.001827	-0.013003	0.005569	0.000474	-0.001005
596	0.00031	-0.000512	0.003268	0.000967	0.001296
597	-0.000841	0.000639	0.003761	0.00146	-0.000841
598	-0.001991	0.000639	0.004255	0.000146	-0.000183
599	-0.00232	-0.000183	0.000639	0.001625	0.000967
600	-0.003963	0.001132	0.00031	0.001296	0.001789
601	-0.002977	-0.001827	-0.001169	0.001954	-0.000347
602	-0.003635	-0.004292	0.00031	0.000474	-0.000676
603	-0.001662	0.000146	-0.004785	0.001789	0.001954
604	-0.003963	-0.001662	-0.002648	-0.001005	0.00031
605	-0.00232	-0.000183	0.000639	0.000146	-0.000841
606	-0.002813	-0.010702	-0.00232	0.002775	-0.001334
607	-0.005443	-0.000183	0.001132	0.002775	-0.001005
608	-0.005443	-0.000676	-0.000512	-0.001334	-0.000841
609	-0.005771	-0.000512	-0.000512	0.001296	0.00031
610	-0.006264	0.000803	-0.002155	-0.000183	-0.002484
611	-0.007415	-0.000841	-0.001662	0.000146	0.001954
612	-0.005278	-0.001334	-0.002813	-1.9e-05	-0.001498
613	-0.005607	-1.9e-05	0.000474	0.003268	-0.000183
614	-0.00347	-0.000841	-0.003142	-0.000183	0.002282
615	-0.008894	0.000474	-0.000512	-0.003306	0.000474
616	-0.003963	-1.9e-05	-0.002977	0.002447	-0.000676
617	-0.005278	-0.008237	-0.001005	-0.000512	0.003268
618	-0.003799	-0.000347	-0.002648	0.000639	-0.002155
619	-0.006264	0.001789	-0.002813	0.002118	-0.000841
620	-0.004292	-0.00347	-0.001991	-0.001005	0.000474
621	-0.004456	-0.001827	0.000474	-0.001169	-0.005771
622	-0.003306	-0.000676	0.004583	0.000146	0.000146
623	-0.004292	-0.002977	-0.003142	-0.000183	-0.001498
624	-0.001827	0.001954	0.00146	-0.000512	-1.9e-05
625	-0.003142	-0.002813	-0.002977	-0.000512	-0.000841
626	-0.00347	-0.001169	-0.001005	-0.000512	0.002447
627	-0.001498	-0.002484	-0.001498	0.000639	-0.000512
628	-0.005771	-0.006757	0.001132	0.001296	0.000146
629	-0.001827	-0.004621	0.003433	-0.000347	0.000474
630	-0.00347	0.000474	0.003597	-0.001334	0.000803
631	-0.002484	0.000474	0.00031	0.000146	0.00031
632	-0.001662	0.001954	-0.002155	-0.000347	-0.000347
633	0.001132	0.000474	-0.003799	0.000967	0.000639
634	0.00031	-0.000183	-0.002977	-0.000841	-0.001991
635	-0.001662	-0.001827	-0.00347	0.001296	-0.001991
636	-0.00347	-0.001991	-0.005114	-0.001334	-0.001498
637	-0.001662	-0.000183	-0.004621	-0.000347	0.001296
638	-0.001827	-0.001169	-0.00347	0.000639	-0.002977
639	-0.002484	0.002447	-0.001827	0.002282	0.00146
640	-0.001005	-0.004128	-0.00347	-0.001498	-0.004128
641	-0.000512	0.001625	-0.002484	-0.001662	0.000146
642	0.001296	-0.001169	-0.003799	0.00146	0.001789
643	-0.000183	-0.001334	-0.002155	-1.9e-05	0.00031
644	0.004748	-1.9e-05	-0.002484	-0.001169	-0.000512
645	-0.001334	0.001296	-0.002155	0.000146	0.00031
646	0.000146	-0.001169	-0.000512	-0.001827	0.001132
647	0.001625	0.001296	0.011486	-0.002155	0.001625
648	-0.001169	0.000639	0.008857	0.001625	0.000803
649	-0.001662	0.001296	0.010171	-0.001827	0.001132
650	-0.002813	0.003104	0.015102	0.000639	-0.000841
651	-0.000512	-0.001827	0.010336	0.001132	-0.001498
652	0.00031	0.002282	0.006884	-0.000676	-1.9e-05
653	-0.000512	-0.005114	0.006556	0.001296	0.002118
654	-0.000676	0.00031	0.006391	0.000474	0.001789
655	0.000967	0.00294	0.00935	-0.003963	-0.002648
656	0.002118	0.002447	0.007377	0.002611	-0.000512
657	0.002118	-0.002155	0.007377	-1.9e-05	-0.000512
658	0.000474	0.00409	0.004419	0.000146	0.000967
659	0.000639	-0.000512	0.002447	0.00031	-1.9e-05
660	-0.000676	-0.004292	0.005405	-0.002155	-0.000676
661	-0.00232	0.003433	0.00294	0.002775	-0.005114
662	-0.000183	-1.9e-05	0.004419	0.001132	-0.000347
663	0.003268	-0.001498	0.003268	0.000967	-0.000512
664	0.00031	0.000474	0.004912	0.000474	-0.000347
665	-0.001334	-0.000183	0.004748	-0.000512	0.00146
666	-0.000183	0.00031	-0.001498	0.001954	-0.001827
667	0.000146	0.000146	0.001132	0.002611	0.000967
668	-0.005278	-0.002155	-0.001169	0.000474	-0.002155
669	-0.000183	0.000967	-0.001991	0.002775	0.000474
670	-0.001827	-0.001005	-0.002155	-1.9e-05	-0.002484
671	-0.000183	-0.000841	-0.003963	0.00031	-0.003306
672	-0.001334	0.003104	-0.001662	-0.000841	-0.00725
673	0.000639	-0.000512	-0.000512	-0.000512	-1.9e-05
674	0.000639	-0.002484	-0.004785	-0.000183	0.000474
675	0.000639	-0.001991	-0.000512	-0.000841	0.000146
676	0.003268	-0.00232	-0.002484	-0.000347	0.001132
677	0.000146	-0.003306	-0.003306	-0.001991	-1.9e-05
678	0.000803	-0.001498	-0.001991	0.002282	-1.9e-05
679	-0.000347	-0.00232	0.001954	0.000146	-0.000841
680	0.000474	0.000474	-0.001498	-0.001169	0.000803
681	0.002775	0.000803	-0.000183	-0.000512	-0.002484
682	0.00031	-0.000347	0.001132	0.002447	-0.000512
683	-0.000183	0.007377	-0.000676	0.000639	-0.013332
684	0.007049	0.000639	-0.002155	0.000803	-0.00232
685	-1.9e-05	-0.000347	-0.000183	-1.9e-05	-0.003142
686	0.001296	0.000639	-0.001991	0.001132	-0.000347
687	0.000967	-0.00232	0.000146	0.00146	0.000146
688	-0.002813	-0.001169	0.001296	-0.000183	-0.001991
689	0.000639	-0.000676	-0.000183	-0.000512	-0.001991
690	-0.001169	-0.000183	0.000803	-0.004785	0.001954
691	-0.002484	-0.001334	-0.0061	-0.001498	0.000146
692	-0.000512	0.001132	0.002282	-0.002484	0.002118
693	0.003268	-0.001498	-0.001662	-0.000183	0.001789
694	0.000474	0.00409	-0.001005	-0.00232	-0.009058
695	0.00146	-0.001498	-0.004621	0.000967	-0.001991
696	-1.9e-05	-0.000841	-0.001827	-0.003142	0.000146
697	0.001789	-0.000512	-0.000841	-0.004456	0.002118
698	-0.000676	-1.9e-05	-0.000183	-0.000183	-0.001662
699	0.001789	0.000803	-0.000347	0.001296	0.001132
700	0.000146	0.001132	0.001296	-0.000347	-0.001498
701	0.003597	-0.000676	0.003104	0.001789	0.000474
702	0.000146	0.000474	-1.9e-05	-0.000347	0.000146
703	-0.000183	0.003926	0.003268	0.000146	0.000474
704	0.002118	0.001954	0.002118	0.000639	-0.001827
705	-0.001334	0.009678	0.005076	0.002611	-0.007744
706	0.00409	-0.000347	-1.9e-05	-0.001169	-0.002484
707	0.002447	0.002775	0.00294	0.000146	0.000639
708	0.002447	-0.001005	-0.002155	0.003268	-0.001005
709	-1.9e-05	0.000639	-0.001498	0.001789	0.000803
710	0.001789	0.00146	0.001132	-0.001662	0.00146
711	0.001296	-0.001169	-0.003635	-0.000676	0.00031
712	0.00031	0.002447	0.000803	0.000803	0.00031
713	-0.000512	0.002282	-0.00232	-0.001334	0.00031
714	0.001954	-0.001005	0.00031	-1.9e-05	-1.9e-05
715	0.00031	-0.001169	-0.000841	-0.000347	-0.000841
716	-0.002155	0.005898	-0.000841	0.007706	-0.005607
717	0.000803	-1.9e-05	0.000803	0.001789	-0.002484
718	0.000474	0.002611	0.001954	0.003104	-0.000347
719	-0.001005	-0.001334	-0.001498	0.000474	-0.00232
720	-0.001169	0.001954	0.001296	0.000967	-0.001498
721	-0.000676	-0.001005	-0.002484	0.00294	-0.002155
722	-0.003799	-0.000347	0.000146	0.000146	-0.001169
723	-0.000183	-0.001169	0.000474	0.001296	-0.001662
724	-0.00347	0.001789	-0.001005	-0.00347	0.002775
725	-0.001005	-0.001005	-0.004292	0.000803	-0.000841
726	-0.001169	-0.001662	-0.001498	0.001132	0.00146
727	-0.002648	0.003104	-0.002484	0.000146	-0.000512
728	-0.000512	-0.004621	-0.001662	0.001132	0.000474
729	0.001625	-0.000676	-0.000841	0.003104	-1.9e-05
730	-0.001498	-0.004128	-0.001005	-0.000512	-0.001169
731	0.000146	-0.002648	0.001954	0.001625	-0.002484
732	0.00031	-0.004621	0.00294	-0.000512	0.00031
733	-0.001498	-0.001498	0.000639	-0.001662	0.001132
734	0.000639	-0.001662	0.000146	-0.000512	-0.003635
735	-0.002813	0.001625	0.000639	-0.000183	0.000639
736	-0.004292	-0.001991	-0.001827	0.00146	-0.003963
737	-0.002484	0.003926	0.001296	0.000803	-0.00232
738	-0.004456	0.003268	0.000803	0.00146	-0.001991
739	-0.005443	-0.003635	-0.000841	-0.002155	-0.003142
740	-0.000841	-0.003306	0.001296	0.001296	-0.000347
741	-0.002648	-0.001169	-0.002648	-0.001005	-0.002648
742	-0.001827	-0.001169	0.000803	-0.001334	0.001625
743	-0.00232	-0.001498	-0.001005	-0.001991	0.002118
744	0.000146	-0.001498	-0.001005	0.000146	-0.000347
745	-0.003635	-0.003799	-0.003963	-0.003963	-0.002484
746	-0.002977	-0.000676	-0.003306	-0.000347	0.002282
747	-0.001498	-0.00232	-0.000347	-0.001827	-0.002977
748	-0.001334	-0.000512	-0.002648	0.001132	0.00031
749	-0.001498	0.005076	-0.00232	0.000967	0.001789
750	0.000639	-0.003799	0.000474	0.00031	-0.000183
751	0.005734	0.00031	0.004255	0.007049	0.002447
752	0.010664	0.010993	0.010664	0.008363	0.011815
753	0.020526	0.01954	0.019868	0.022005	0.018554
754	0.028251	0.029894	0.028086	0.028251	0.024635
755	0.031209	0.031538	0.032524	0.032524	0.031538
756	0.038769	0.042714	0.044193	0.040906	0.040413
757	0.046166	0.049781	0.04748	0.050439	0.050439
758	0.054055	0.051754	0.05274	0.05389	0.054219
759	0.061944	0.059972	0.059314	0.063587	0.062108
760	0.064245	0.067532	0.067368	0.069997	0.070326
761	0.075257	0.069504	0.069997	0.074764	0.072134
762	0.074928	0.07049	0.076736	0.077065	0.0769
763	0.085118	0.080023	0.080845	0.08709	0.085283
764	0.090706	0.080681	0.084625	0.088241	0.087584
765	0.093336	0.088898	0.094158	0.090213	0.093007
766	0.099417	0.093829	0.094158	0.100239	0.096788
767	0.100896	0.099746	0.101718	0.100075	0.101554
768	0.107471	0.100568	0.103526	0.106978	0.104348
769	0.113881	0.109279	0.109936	0.111087	0.109279
770	0.114867	0.11158	0.116675	0.114867	0.111744
771	0.11273	0.118811	0.117496	0.121441	0.122098
772	0.122756	0.118483	0.11914	0.12292	0.117332
773	0.120948	0.123249	0.12177	0.126207	0.121112
774	0.129988	0.1267	0.096788	0.12933	0.127358
775	0.129659	0.1267	0.10139	0.132453	0.128344
776	0.134425	0.132453	0.106485	0.135411	0.132289
777	0.135904	0.13196	0.109607	0.133603	0.134754
778	0.139027	0.132946	0.113881	0.141	0.138534
779	0.143794	0.136891	0.120784	0.089391	0.141493
780	0.144122	0.141657	0.123742	0.093172	0.144451
781	0.146588	0.143958	0.123742	0.096788	0.143794
782	0.148889	0.150532	0.131302	0.102047	0.1576
783	0.154477	0.143629	0.130809	0.106156	0.147409
784	0.151847	0.150368	0.132289	0.109114	0.151683
785	0.155792	0.152998	0.135904	0.114209	0.152505
786	0.155299	0.155299	0.141164	0.11651	0.153162
787	0.159243	0.157764	0.143136	0.120784	0.154806
788	0.157764	0.160722	0.147081	0.122427	0.156285
789	0.159408	0.158914	0.148396	0.129659	0.161215
790	0.159243	0.161051	0.14971	0.131467	0.162695
791	0.165653	0.164667	0.144615	0.135247	0.166146
792	0.163845	0.163845	0.146095	0.134425	0.165489
793	0.166804	0.169269	0.149546	0.140506	0.175515
794	0.170091	0.164996	0.150697	0.141821	0.167461
795	0.169762	0.168118	0.151847	0.141164	0.170255
796	0.169269	0.169269	0.148889	0.143136	0.170584
797	0.173871	0.171241	0.000474	0.149053	0.175679
798	0.174693	0.169105	0.003104	0.149053	0.172885
799	0.174693	0.174364	0.015266	0.151025	0.175021
800	0.175186	0.172885	0.024306	0.153162	0.175515
801	0.178637	0.17535	0.029566	0.155134	0.176172
802	0.177815	0.176829	0.037948	0.158914	0.17913
803	0.176994	0.17798	0.046001	0.159572	0.174364
804	0.178144	0.18176	0.05011	0.163681	0.185047
805	0.176336	0.178309	0.031538	0.163845	0.178144
806	0.180116	0.180116	0.000474	0.162695	0.182089
807	0.179623	0.18176	0.003597	0.161873	0.181431
808	0.18061	0.181596	0.005898	0.169598	0.183732
809	0.180938	0.181267	-0.000183	0.165489	0.180774
810	0.18176	0.183404	-0.000676	0.168776	0.184554
811	0.183075	0.182417	0.001789	0.169598	0.183732
812	0.182582	0.182417	0.008363	0.172063	0.186526
813	0.18439	0.184883	-1.9e-05	0.172063	0.18554
814	0.186362	0.185869	-1.9e-05	0.171899	0.187348
815	0.184883	0.186855	0.001132	0.175021	0.193101
816	0.186198	0.186691	0.012308	0.177322	0.186691
817	0.1908	0.185212	0.004583	0.173378	0.188006
818	0.18817	0.186526	0.002611	0.173214	0.186855
819	0.192443	0.187513	0.01428	0.179623	0.188334
820	0.188006	0.187513	0.02447	0.175843	0.190307
821	0.18932	0.189978	0.029894	0.17798	0.190635
822	0.188499	0.187184	0.039427	0.181924	0.191621
823	0.189156	0.190471	0.041892	0.183568	0.191293
824	0.189814	0.191621	0.046987	0.181596	0.191786
825	0.187348	0.19195	0.057177	0.183404	0.19195
826	0.192936	0.192772	0.060136	0.182746	0.194744
827	0.187513	0.18817	0.070162	0.182417	0.189978
828	0.192608	0.189814	0.073942	0.183239	0.191457
829	0.188499	0.190635	0.08216	0.183897	0.192772
830	0.192936	0.189156	0.085611	0.186855	0.193265
831	0.193429	0.18932	0.091364	0.183732	0.193594
832	0.192115	0.189156	0.095637	0.184554	0.196388
833	0.188499	0.191128	0.102376	0.186198	0.19721
834	0.192772	0.193594	0.101883	0.187841	0.194416
835	0.188827	0.193101	0.106485	0.184883	0.194251
836	0.194909	0.194744	0.113059	0.190635	0.194087
837	0.191621	0.193922	0.115031	0.188334	0.19573
838	0.194087	0.196881	0.122263	0.191786	0.191293
839	0.191621	0.195566	0.123085	0.1908	0.194909
840	0.192115	0.195073	0.125879	0.189649	0.1908
841	0.192608	0.194744	0.126865	0.192115	0.192772
842	0.191293	0.195566	0.135411	0.190635	0.19721
843	0.191457	0.194416	0.135083	0.187513	0.19721
844	0.193101	0.19721	0.141493	0.188827	0.196881
845	0.194087	0.194087	0.138534	0.191128	0.19721
846	0.193265	0.196717	0.141	0.188663	0.19836
847	0.199675	0.195566	0.145273	0.190471	0.197703
848	0.193265	0.198196	0.146095	0.192279	0.201319
849	0.197045	0.194087	0.149546	0.193429	0.196717
850	0.195237	0.196881	0.152505	0.191457	0.198524
851	0.196059	0.195566	0.151847	0.193101	0.19836
852	0.195073	0.196059	0.154477	0.193429	0.196552
853	0.19721	0.19573	0.159079	0.194744	0.19836
854	0.197045	0.195402	0.155627	0.191128	0.199182
855	0.195237	0.195073	0.167132	0.19458	0.201812
856	0.197538	0.196881	0.162695	0.199675	0.197538
857	0.19721	0.196717	0.165653	0.194909	0.200168
858	0.196059	0.19573	0.164503	0.196223	0.195402
859	0.195237	0.200497	0.168447	0.19721	0.20362
860	0.19836	0.1576	0.16779	0.195237	0.19573
861	0.197374	0.112073	0.172063	0.199018	0.196552
862	0.19836	0.117332	0.16779	0.195402	0.198031
863	0.197374	0.122427	0.172556	0.195566	0.198524
864	0.198853	0.128015	0.170748	0.194416	0.200497
865	0.196388	0.127358	0.175843	0.194744	0.200497
866	0.200332	0.131138	0.176336	0.195566	0.198853
867	0.200168	0.133932	0.1742	0.190471	0.199675
868	0.200497	0.135576	0.176008	0.194251	0.199182
869	0.196388	0.137384	0.173378	0.193429	0.198524
870	0.199182	0.143465	0.176829	0.197045	0.203291
871	0.197867	0.140013	0.178144	0.194744	0.195237
872	0.19836	0.145108	0.180774	0.195402	0.201154
873	0.199511	0.146916	0.178637	0.198031	0.199018
874	0.20099	0.149217	0.179623	0.19836	0.199018
875	0.197703	0.148889	0.182253	0.19573	0.198524
876	0.197045	0.153326	0.181267	0.195073	0.199018
877	0.199346	0.153326	0.183568	0.194251	0.197045
878	0.19836	0.157271	0.183732	0.195237	0.198853
879	0.199839	0.1576	0.18439	0.195402	0.200004
880	0.196223	0.157271	0.186362	0.19721	0.198689
881	0.200004	0.162695	0.187019	0.197867	0.201647
882	0.197045	0.166146	0.187019	0.198853	0.19836
883	0.196388	0.163023	0.186526	0.197538	0.197703
884	0.199346	0.16516	0.185376	0.198689	0.198196
885	0.196552	0.168118	0.187677	0.200332	0.197045
886	0.197045	0.166311	0.186855	0.196388	0.19836
887	0.198196	0.17272	0.187184	0.19836	0.198524
888	0.193758	0.172063	0.189485	0.197538	0.194251
889	0.198524	0.175186	0.187677	0.19458	0.201319
890	0.195895	0.1742	0.188992	0.195566	0.199182
891	0.196552	0.174364	0.187513	0.200497	0.199346
892	0.197703	0.177651	0.189814	0.197374	0.19836
893	0.199346	0.176829	0.190142	0.19836	0.200168
894	0.197538	0.177322	0.189978	0.197538	0.199839
895	0.197538	0.17798	0.194416	0.197703	0.198196
896	0.19721	0.17913	0.188827	0.200004	0.200661
897	0.200497	0.182253	0.193429	0.195237	0.199511
898	0.198689	0.178802	0.190471	0.198689	0.200661
899	0.195895	0.180445	0.193101	0.196223	0.200168
900	0.196552	0.183732	0.192115	0.197867	0.201319
901	0.196388	0.181267	0.190307	0.198689	0.199675
902	0.198689	0.184554	0.042714	0.199346	0.201647
903	0.199182	0.185376	0.00294	0.199346	0.201812
904	0.200497	0.185705	0.004912	0.200004	0.203126
905	0.197538	0.181103	0.014938	0.198031	0.197045
906	0.198524	0.185212	0.024142	0.195895	0.19836
907	0.200004	0.186033	0.025457	0.202798	0.200004
908	0.196717	0.185705	0.034168	0.197374	0.198689
909	0.196717	0.186691	0.039756	0.200004	0.199182
910	0.199182	0.187677	0.052247	0.197538	0.199346
911	0.197374	0.188334	0.053397	0.199511	0.200004
912	0.196059	0.189649	0.060629	0.198031	0.200661
913	0.197374	0.187019	0.066217	0.199675	0.199675
914	0.194251	0.195237	0.072791	0.199182	0.199182
915	0.197045	0.188334	0.07953	0.204113	0.201647
916	0.19458	0.189978	0.083803	0.197867	0.196388
917	0.191128	0.189814	0.090871	0.199839	0.202633
918	0.19458	0.188827	0.091364	0.203126	0.198524
919	0.195895	0.19195	0.094487	0.198196	0.202633
920	0.194744	0.188663	0.100732	0.200661	0.199839
921	0.195237	0.191457	0.104019	0.199839	0.199018
922	0.194744	0.191786	0.105334	0.198853	0.195237
923	0.196388	0.192772	0.112401	0.200825	0.20099
924	0.198031	0.191621	0.114209	0.199511	0.200004
925	0.193594	0.19458	0.114045	0.199346	0.200332
926	0.198196	0.188827	0.120619	0.200004	0.19836
927	0.196552	0.191128	0.125879	0.196717	0.199839
928	0.196059	0.193758	0.129988	0.198031	0.199018
929	0.197703	0.195402	0.132289	0.199182	0.199346
930	0.197538	0.189649	0.133439	0.19836	0.200497
931	0.195402	0.194909	0.134918	0.196881	0.198031
932	0.194416	0.194744	0.144122	0.199182	0.200661
933	0.194087	0.194744	0.139356	0.19836	0.199018
934	0.196717	0.19836	0.144122	0.200168	0.200497
935	0.196552	0.194744	0.146588	0.19721	0.193101
936	0.194251	0.199675	0.149217	0.199346	0.198689
937	0.196059	0.193758	0.149546	0.198853	0.19721
938	0.193922	0.198689	0.154148	0.197703	0.196059
939	0.194087	0.194909	0.154477	0.199182	0.19721
940	0.191786	0.197703	0.158257	0.200332	0.197374
941	0.199511	0.192772	0.1576	0.197045	0.199839
942	0.196223	0.196059	0.158257	0.19458	0.19836
943	0.195402	0.194744	0.162859	0.200332	0.201647
944	0.194909	0.196223	0.162859	0.19458	0.200332
945	0.197538	0.196388	0.168118	0.197374	0.199839
946	0.194744	0.197703	0.166146	0.193758	0.200497
947	0.19573	0.201154	0.166475	0.200661	0.202305
948	0.192936	0.196059	0.168283	0.199675	0.196388
949	0.193265	0.198196	0.172227	0.20099	0.201647
950	0.193265	0.196223	0.17272	0.197867	0.199018
951	0.191621	0.19836	0.173049	0.202305	0.200332
952	0.197538	0.194909	0.172063	0.199675	0.20099
953	0.196223	0.200004	0.175515	0.199511	0.198031
954	0.19836	0.199346	0.179952	0.199675	0.198031
955	0.193922	0.197703	0.17535	0.19836	0.200661
956	0.196223	0.194909	0.174693	0.196881	0.200332
957	0.19573	0.198689	0.173871	0.191293	0.199346
958	0.195237	0.198196	0.175021	0.199675	0.201319
959	0.196223	0.195237	0.177651	0.197374	0.197538
960	0.198031	0.196388	0.179788	0.199346	0.198853
961	0.196059	0.194087	0.182089	0.198196	0.198031
962	0.196059	0.197374	0.183568	0.201647	0.201154
963	0.195895	0.196552	0.183239	0.198524	0.198689
964	0.195566	0.194744	0.183075	0.200004	0.200168
965	0.191786	0.192443	0.185869	0.199018	0.200168
966	0.195895	0.199675	0.184718	0.20099	0.203126
967	0.197374	0.199018	0.18554	0.199182	0.199346
968	0.195566	0.198524	0.188334	0.197374	0.19836
969	0.194909	0.202305	0.185705	0.204113	0.203455
970	0.194416	0.196223	0.188006	0.200332	0.197045
971	0.196717	0.197538	0.188663	0.202305	0.199675
972	0.194087	0.198853	0.189156	0.199182	0.202469
973	0.196717	0.197538	0.185869	0.202962	0.199346
974	0.19721	0.197703	0.186198	0.20099	0.201647
975	0.194416	0.197045	0.187513	0.201154	0.197538
976	0.196881	0.19458	0.187513	0.198853	0.200332
977	0.19836	0.199182	0.187184	0.199346	0.201647
978	0.194909	0.19573	0.185869	0.197538	0.199675
979	0.196881	0.200825	0.191128	0.197374	0.201319
980	0.19573	0.199346	0.191786	0.202469	0.200825
981	0.195895	0.195402	0.190635	0.200004	0.198853
982	0.19458	0.19721	0.192936	0.200168	0.197703
983	0.196059	0.199346	0.193265	0.200661	0.197703
984	0.194251	0.200661	0.192279	0.202305	0.197374
985	0.1908	0.200497	0.194087	0.20099	0.196552
986	0.19573	0.195566	0.192936	0.20099	0.199182
987	0.191786	0.199018	0.195073	0.199511	0.198524
988	0.19458	0.200168	0.192115	0.202305	0.199839
989	0.193594	0.197703	0.192772	0.200168	0.201812
990	0.193265	0.197045	0.193758	0.199182	0.201483
991	0.193758	0.200497	0.192608	0.199182	0.199675
992	0.19721	0.197703	0.193429	0.200332	0.200332
993	0.196059	0.196223	0.195402	0.197374	0.198524
994	0.195402	0.199675	0.194909	0.196223	0.201647
995	0.195237	0.19721	0.195566	0.199346	0.199018
996	0.19721	0.199182	0.197045	0.196881	0.200661
997	0.196388	0.200332	0.194744	0.199675	0.200661
998	0.192279	0.197538	0.197538	0.200168	0.197703
999	0.194251	0.200004	0.193265	0.201319	0.198853
1000	0.192279	0.198524	0.193922	0.198853	0.199675
1001	0.188663	0.199346	0.19458	0.200332	0.196881
1002	0.191293	0.204441	0.196717	0.199675	0.201976
1003	0.196881	0.200661	0.195237	0.201483	0.199511
1004	0.193922	0.201647	0.197703	0.198689	0.200661
1005	0.19721	0.201483	0.197374	0.201154	0.202469
1006	0.195073	0.197703	0.196388	0.20362	0.199839
1007	0.194416	0.200661	0.19195	0.199675	0.201154
1008	0.195895	0.196881	0.194087	0.198524	0.199839
1009	0.196881	0.195402	0.19721	0.200497	0.200332
1010	0.196223	0.197374	0.195566	0.198196	0.197374
1011	0.197045	0.198524	0.19458	0.199675	0.201976
1012	0.196223	0.197538	0.19458	0.196881	0.200332
1013	0.196059	0.202633	0.196223	0.199675	0.201647
1014	0.198689	0.194416	0.194251	0.200825	0.199839
1015	0.196552	0.198031	0.197703	0.199182	0.200332
1016	0.199839	0.200661	0.194909	0.201976	0.199018
1017	0.195073	0.056684	0.198524	0.201154	0.199182
1018	0.197374	0.058492	0.196881	0.200168	0.198524
1019	0.196388	0.068518	0.196717	0.199018	0.19836
1020	0.196388	0.072791	0.199839	0.203455	0.198524
1021	0.193265	0.078544	0.195895	0.199675	0.197374
1022	0.197374	0.010336	0.199018	0.200004	0.202633
1023	0.19721	0.016088	0.192936	0.196388	0.200168
1024	0.19573	0.029072	0.19573	0.201319	0.204441
1025	0.197538	0.028744	0.19458	0.20214	0.198196
1026	0.199511	0.03614	0.19721	0.199182	0.202633
1027	0.19836	0.044358	0.19721	0.197867	0.201647
1028	0.199018	0.050768	0.194744	0.20099	0.200497
1029	0.203455	0.056356	0.192936	0.19721	0.19721
1030	0.198524	0.064409	0.198524	0.197703	0.20099
1031	0.199182	0.06934	0.196059	0.201647	0.199839
1032	0.199511	0.0769	0.196388	0.198689	0.201647
1033	0.199675	0.082488	0.196881	0.200004	0.196552
1034	0.200497	0.08594	0.19836	0.198853	0.197045
1035	0.200825	0.095966	0.199839	0.200497	0.199675
1036	0.193429	0.095801	0.196388	0.199675	0.198031
1037	0.19573	0.102704	0.200332	0.19836	0.200661
1038	0.198031	0.100732	0.198524	0.199346	0.198689
1039	0.19721	0.107635	0.200332	0.200825	0.204113
1040	0.197045	0.11158	0.19721	0.199018	0.201319
1041	0.196552	0.113223	0.199839	0.199018	0.201154
1042	0.197538	0.119469	0.197867	0.197045	0.200168
1043	0.198689	0.123413	0.200168	0.198031	0.201812
1044	0.199839	0.127029	0.196717	0.19836	0.199675
1045	0.199182	0.12933	0.197045	0.197538	0.202962
1046	0.199182	0.136562	0.197538	0.197867	0.202305
1047	0.200004	0.134754	0.199839	0.196881	0.199511
1048	0.201319	0.136562	0.19836	0.200004	0.199839
1049	0.200004	0.139356	0.197045	0.199839	0.199511
1050	0.202305	0.142479	0.19836	0.201812	0.200661
1051	0.209865	0.144944	0.198031	0.198689	0.198524
1052	0.201483	0.146423	0.198689	0.195402	0.199018
1053	0.201319	0.146752	0.199018	0.20099	0.198524
1054	0.202633	0.153984	0.198196	0.201154	0.199346
1055	0.199511	0.160722	0.198853	0.199346	0.198196
1056	0.201812	0.157107	0.19836	0.200004	0.199839
1057	0.199511	0.162202	0.19573	0.201812	0.199182
1058	0.200661	0.160394	0.200825	0.202633	0.19836
1059	0.199018	0.160722	0.20099	0.200004	0.199675
1060	0.20099	0.163188	0.200004	0.200661	0.201483
1061	0.200168	0.162859	0.199675	0.201483	0.198853
1062	0.19836	0.165489	0.199675	0.20099	0.201154
1063	0.199182	0.165324	0.196388	0.199182	0.199839
1064	0.199839	0.167954	0.196881	0.199018	0.199018
1065	0.202633	0.170584	0.19573	0.199346	0.201812
1066	0.202305	0.17157	0.194416	0.198031	0.199018
1067	0.202633	0.172885	0.196059	0.199346	0.198689
1068	0.201812	0.177815	0.197045	0.198689	0.201319
1069	0.203948	0.176501	0.198196	0.198853	0.196881
1070	0.201319	0.173707	0.200661	0.200661	0.19836
1071	0.201647	0.175021	0.197867	0.199018	0.199018
1072	0.201154	0.176336	0.19836	0.195566	0.19721
1073	0.203126	0.178966	0.201647	0.195073	0.194087
1074	0.200168	0.175843	0.196388	0.195402	0.197703
1075	0.200168	0.176994	0.201319	0.198031	0.196717
1076	0.202798	0.177322	0.19458	0.200004	0.198196
1077	0.201319	0.180445	0.196881	0.197703	0.20362
1078	0.202469	0.180281	0.19458	0.198196	0.199018
1079	0.198853	0.186033	0.198031	0.199675	0.202962
1080	0.203126	0.180116	0.196388	0.198196	0.199675
1081	0.201319	0.181431	0.197374	0.198524	0.200332
1082	0.204606	0.180938	0.196717	0.200497	0.20099
1083	0.203455	0.183404	0.199018	0.203126	0.197538
1084	0.203291	0.186526	0.200004	0.200332	0.201647
1085	0.20214	0.18554	0.198196	0.201154	0.198196
1086	0.203948	0.18554	0.201483	0.199675	0.200661
1087	0.201319	0.185212	0.198524	0.198196	0.19573
1088	0.200497	0.187019	0.200332	0.196059	0.198853
1089	0.201647	0.187841	0.19836	0.199182	0.199018
1090	0.200004	0.195566	0.200661	0.200168	0.199346
1091	0.201154	0.186362	0.199346	0.200004	0.195566
1092	0.199675	0.191621	0.202469	0.198689	0.198853
1093	0.199511	0.18932	0.20099	0.197867	0.199346
1094	0.197374	0.192115	0.199182	0.197538	0.200825
1095	0.201976	0.190307	0.200004	0.198031	0.200825
1096	0.199839	0.192115	0.194087	0.196881	0.201154
1097	0.199511	0.186526	0.197867	0.19721	0.199511
1098	0.19721	0.191786	0.195237	0.197045	0.199675
1099	0.201976	0.189649	0.19836	0.199346	0.201483
1100	0.199018	0.189156	0.19721	0.196059	0.200661
1101	0.201154	0.193429	0.19836	0.200004	0.201483
1102	0.200497	0.188499	0.198196	0.196881	0.197045
1103	0.201154	0.191621	0.200168	0.19836	0.198196
1104	0.200661	0.187513	0.197867	0.198689	0.200497
1105	0.199182	0.189978	0.201319	0.200332	0.200661
1106	0.20214	0.192608	0.198853	0.198196	0.198853
1107	0.197703	0.194744	0.200661	0.200004	0.201647
1108	0.199182	0.192279	0.20214	0.199675	0.196717
1109	0.198524	0.196717	0.201976	0.200497	0.200661
1110	0.195566	0.192115	0.199839	0.20214	0.199182
1111	0.199511	0.196223	0.197703	0.200332	0.200004
1112	0.201154	0.196552	0.200004	0.197867	0.202798
1113	0.200168	0.193101	0.198196	0.194416	0.199839
1114	0.199839	0.192772	0.200661	0.199018	0.19836
1115	0.200825	0.192443	0.196881	0.19836	0.199511
1116	0.198031	0.194251	0.197703	0.200004	0.200168
1117	0.201319	0.196552	0.198689	0.19458	0.198524
1118	0.19836	0.193265	0.196388	0.20099	0.201976
1119	0.200168	0.19573	0.197867	0.198524	0.198524
1120	0.199346	0.195566	0.200168	0.197374	0.201154
1121	0.200168	0.195073	0.196881	0.199675	0.199018
1122	0.196223	0.195566	0.199346	0.197374	0.200661
1123	0.198853	0.199346	0.199839	0.200497	0.199182
1124	0.199018	0.196388	0.200004	0.199346	0.200168
1125	0.199346	0.197374	0.197703	0.200661	0.198031
1126	0.197374	0.194744	0.197374	0.200661	0.199182
1127	0.198853	0.195073	0.200332	0.201976	0.197374
1128	0.199018	0.196388	0.200661	0.198196	0.195566
1129	0.199675	0.195566	0.198853	0.200497	0.200497
1130	0.196717	0.195402	0.19573	0.198689	0.197703
1131	0.200004	0.195566	0.20099	0.199018	0.199018
1132	0.19836	0.196059	0.197703	0.199346	0.200661
1133	0.199675	0.196881	0.199018	0.195073	0.201647
1134	0.200825	0.199346	0.199018	0.197538	0.200497
1135	0.19721	0.195566	0.199839	0.198689	0.197703
1136	0.197703	0.195237	0.198524	0.197703	0.198853
1137	0.199511	0.198689	0.200004	0.199346	0.200168
1138	0.197867	0.197538	0.199018	0.199839	0.197538
1139	0.197538	0.199675	0.198031	0.198853	0.198853
1140	0.200661	0.198689	0.19836	0.197703	0.20099
1141	0.197538	0.199675	0.202305	0.19836	0.199675
1142	0.203784	0.198196	0.198524	0.198524	0.201154
1143	0.199346	0.198853	0.199675	0.19836	0.197867
1144	0.201154	0.197703	0.199018	0.198196	0.20099
1145	0.196223	0.200332	0.202305	0.197703	0.20099
1146	0.201812	0.197374	0.201319	0.202798	0.198853
1147	0.199018	0.199182	0.200661	0.199675	0.197374
1148	0.198689	0.19721	0.198524	0.201154	0.196552
1149	0.199511	0.196388	0.199018	0.201483	0.196388
1150	0.200004	0.197045	0.200661	0.199511	0.203291
1151	0.201154	0.19836	0.198196	0.199346	0.200332
1152	0.199018	0.204277	0.202633	0.199839	0.201976
1153	0.200332	0.194744	0.197703	0.199675	0.200661
1154	0.201319	0.199018	0.199346	0.197867	0.20214
1155	0.20099	0.195566	0.198689	0.198853	0.201812
1156	0.197867	0.196717	0.199675	0.200004	0.200168
1157	0.202305	0.196059	0.199182	0.200825	0.199839
1158	0.20099	0.19836	0.200332	0.200661	0.200497
1159	0.202469	0.198689	0.198524	0.201319	0.199018
1160	0.201319	0.199511	0.201319	0.200825	0.199346
1161	0.204441	0.19836	0.196388	0.199839	0.200332
1162	0.196223	0.198689	0.199182	0.19836	0.200825
1163	0.199839	0.200332	0.203126	0.206414	0.201976
1164	0.199675	0.19836	0.199675	0.200004	0.199018
1165	0.198196	0.199182	0.200332	0.205263	0.201647
1166	0.201647	0.198031	0.199182	0.196717	0.200332
1167	0.199675	0.198689	0.199839	0.199839	0.201483
1168	0.201647	0.192608	0.198031	0.199346	0.198524
1169	0.201812	0.197045	0.200332	0.199346	0.20099
1170	0.200825	0.199511	0.19836	0.198689	0.199839
1171	0.20099	0.202469	0.200825	0.200168	0.200497
1172	0.202962	0.196223	0.198196	0.198689	0.203126
1173	0.197703	0.198853	0.196717	0.19836	0.199346
1174	0.20362	0.201647	0.196223	0.199839	0.201319
1175	0.200168	0.202962	0.199018	0.197538	0.201154
1176	0.201154	0.200825	0.197538	0.199511	0.201154
1177	0.201976	0.198689	0.19836	0.197045	0.199675
1178	0.199839	0.198853	0.197703	0.200661	0.201976
1179	0.20214	0.197538	0.197867	0.199839	0.199346
1180	0.201154	0.197703	0.201483	0.199839	0.203126
1181	0.201647	0.196223	0.197538	0.197867	0.19836
1182	0.201812	0.198689	0.202962	0.201319	0.200825
1183	0.202305	0.197538	0.197045	0.201812	0.197703
1184	0.200661	0.201154	0.201976	0.200661	0.198853
1185	0.199839	0.200825	0.200168	0.199511	0.200497
1186	0.198689	0.200661	0.19836	0.200497	0.200332
1187	0.200497	0.199018	0.19721	0.197538	0.199346
1188	0.199511	0.200661	0.200332	0.198031	0.201154
1189	0.201319	0.199018	0.196717	0.200661	0.202798
1190	0.202798	0.197374	0.198524	0.197045	0.199182
1191	0.200661	0.198196	0.199511	0.197374	0.200004
1192	0.197867	0.198031	0.198196	0.196717	0.199675
1193	0.203455	0.198524	0.199839	0.20099	0.202469
1194	0.197538	0.198196	0.198853	0.195237	0.199839
1195	0.202305	0.201319	0.199839	0.198196	0.201154
1196	0.201647	0.199511	0.200497	0.19836	0.199018
1197	0.202798	0.200661	0.201976	0.201647	0.203455
1198	0.203126	0.197374	0.199675	0.196881	0.198524
1199	0.199511	0.201319	0.200168	0.200332	0.200004
1200	0.200332	0.199346	0.199018	0.200332	0.204277
1201	0.202305	0.198524	0.199346	0.200497	0.199675
1202	0.204113	0.199018	0.201154	0.200004	0.198689
1203	0.201812	0.200661	0.199511	0.199018	0.202305
1204	0.201483	0.198524	0.199675	0.201483	0.200825
1205	0.200004	0.200168	0.20214	0.198853	0.200497
1206	0.20214	0.201647	0.199346	0.200332	0.202962
1207	0.201154	0.202962	0.200004	0.198689	0.201976
1208	0.202469	0.200332	0.199182	0.200332	0.201976
1209	0.201812	0.196223	0.196552	0.19836	0.200004
1210	0.202962	0.200004	0.199018	0.198853	0.200004
1211	0.197703	0.198689	0.193922	0.201154	0.201154
1212	0.201647	0.198196	0.198196	0.199346	0.201154
1213	0.202305	0.199018	0.199018	0.197045	0.198196
1214	0.203455	0.199839	0.20099	0.200825	0.201154
1215	0.200825	0.198031	0.200825	0.202469	0.199839
1216	0.201154	0.199839	0.201154	0.198524	0.198031
1217	0.201154	0.199675	0.199675	0.200004	0.201154
1218	0.199182	0.197538	0.200332	0.199675	0.201647
1219	0.200661	0.199346	0.200004	0.200661	0.201154
1220	0.198853	0.199839	0.199675	0.19836	0.20099
1221	0.200332	0.198196	0.199346	0.199346	0.199511
1222	0.198853	0.199675	0.19836	0.19836	0.203126
1223	0.200332	0.201647	0.196223	0.198031	0.200168
1224	0.200168	0.19836	0.196388	0.199182	0.199839
1225	0.200497	0.194744	0.19836	0.200168	0.199839
1226	0.200497	0.199675	0.195566	0.201319	0.197703
1227	0.199511	0.198689	0.198031	0.196717	0.200825
1228	0.200825	0.198031	0.195895	0.198853	0.200004
1229	0.199839	0.196223	0.200661	0.19721	0.202469
1230	0.198196	0.198524	0.199346	0.196881	0.197374
1231	0.197867	0.200825	0.19836	0.201647	0.200497
1232	0.201154	0.198524	0.200332	0.201483	0.197867
1233	0.197703	0.201319	0.201154	0.199346	0.199839
1234	0.200661	0.199182	0.199182	0.198196	0.196717
1235	0.19573	0.199675	0.20214	0.198031	0.197867
1236	0.197867	0.199182	0.199018	0.201647	0.198689
1237	0.197045	0.197045	0.196881	0.200661	0.200332
1238	0.19573	0.198031	0.196717	0.199675	0.200168
1239	0.19573	0.201319	0.197374	0.199018	0.201976
1240	0.198689	0.197374	0.200168	0.200825	0.204277
1241	0.200661	0.196881	0.197374	0.196881	0.199346
1242	0.197703	0.19836	0.20214	0.194744	0.201812
1243	0.198524	0.199018	0.196881	0.197374	0.199182
1244	0.199018	0.201154	0.199018	0.197867	0.205099
1245	0.199346	0.197045	0.199182	0.197374	0.199675
1246	0.199018	0.198689	0.199839	0.196552	0.199675
1247	0.201483	0.198031	0.198689	0.19836	0.199182
1248	0.197045	0.199511	0.200332	0.199675	0.201976
1249	0.196388	0.199675	0.199839	0.199511	0.19721
1250	0.195895	0.201647	0.201483	0.197867	0.203455
1251	0.199018	0.199839	0.199182	0.200332	0.202469
1252	0.195402	0.200332	0.200168	0.196881	0.19836
1253	0.197374	0.199839	0.202962	0.198196	0.201812
1254	0.197867	0.19836	0.199346	0.200168	0.200661
1255	0.196059	0.196881	0.201647	0.199675	0.205592
1256	0.199346	0.198031	0.201812	0.198031	0.200497
1257	0.197045	0.200004	0.200168	0.199018	0.201812
1258	0.19836	0.197374	0.19836	0.197703	0.196717
1259	0.19573	0.200332	0.200168	0.199839	0.20214
1260	0.191786	0.194744	0.19721	0.193758	0.200004
1261	0.196717	0.198853	0.198853	0.19573	0.201976
1262	0.19836	0.199675	0.197374	0.19721	0.20362
1263	0.198524	0.199018	0.197867	0.198524	0.200332
1264	0.199018	0.201483	0.201154	0.19573	0.200661
1265	0.196717	0.19836	0.201483	0.19573	0.199346
1266	0.198853	0.199018	0.197538	0.199346	0.204277
1267	0.196552	0.199839	0.200332	0.196223	0.197538
1268	0.196881	0.197045	0.201483	0.198689	0.199018
1269	0.196881	0.201483	0.199018	0.19836	0.199346
1270	0.191621	0.20214	0.201976	0.201483	0.200332
1271	0.194251	0.200497	0.197045	0.196552	0.200168
1272	0.19573	0.199018	0.196059	0.199182	0.199839
1273	0.19721	0.195402	0.201319	0.198524	0.200661
1274	0.197538	0.199346	0.197703	0.197374	0.201154
1275	0.198196	0.195073	0.19721	0.19573	0.198853
1276	0.199182	0.195895	0.199511	0.19721	0.203455
1277	0.198689	0.19721	0.197538	0.196552	0.205427
1278	0.199346	0.197538	0.197045	0.194744	0.200497
1279	0.200332	0.195566	0.196059	0.19721	0.196552
1280	0.197867	0.196881	0.199018	0.197374	0.199839
1281	0.192279	0.196223	0.199511	0.199839	0.199182
1282	0.197703	0.203455	0.201154	0.19573	0.198853
1283	0.199675	0.200168	0.201319	0.200004	0.199018
1284	0.197703	0.199182	0.200497	0.200332	0.198689
1285	0.19836	0.197538	0.200168	0.196059	0.199018
1286	0.195895	0.201976	0.199839	0.198031	0.197867
1287	0.194744	0.201647	0.20099	0.200661	0.200332
1288	0.192443	0.199839	0.197703	0.198689	0.202305
1289	0.199182	0.200332	0.200004	0.198031	0.198853
1290	0.195402	0.198524	0.201319	0.198853	0.199182
1291	0.195566	0.199018	0.198524	0.198524	0.20099
1292	0.19458	0.199018	0.199346	0.197867	0.20099
1293	0.198524	0.19836	0.198196	0.194416	0.20214
1294	0.200004	0.198524	0.198524	0.195402	0.20099
1295	0.198853	0.19836	0.198853	0.196059	0.202798
1296	0.200168	0.196881	0.19721	0.195237	0.199018
1297	0.198689	0.197374	0.201319	0.194251	0.199182
1298	0.199018	0.198524	0.199675	0.197374	0.20099
1299	0.197867	0.199182	0.19836	0.198196	0.204606
1300	0.199675	0.199018	0.201483	0.199182	0.19721
1301	0.199182	0.19836	0.202469	0.197045	0.199346
1302	0.199511	0.19836	0.198524	0.199839	0.201154
1303	0.191293	0.199511	0.199675	0.199675	0.197538
1304	0.199839	0.199182	0.200168	0.200004	0.201154
1305	0.196223	0.197703	0.199675	0.198689	0.200168
1306	0.196881	0.200332	0.20099	0.199346	0.198853
1307	0.19836	0.197703	0.199675	0.198689	0.198689
1308	0.19721	0.197703	0.199839	0.197538	0.203455
1309	0.195073	0.196552	0.200168	0.198689	0.198524
1310	0.200168	0.198196	0.198689	0.197867	0.202962
1311	0.201483	0.195237	0.199346	0.200497	0.199346
1312	0.198196	0.19721	0.198524	0.198524	0.201483
1313	0.197867	0.194744	0.199839	0.199346	0.199018
1314	0.197867	0.196717	0.199511	0.204113	0.202633
1315	0.198196	0.197045	0.201154	0.198853	0.199675
1316	0.19836	0.199346	0.198689	0.19836	0.200332
1317	0.198524	0.196388	0.201319	0.199018	0.199182
1318	0.197867	0.199675	0.199346	0.19836	0.197867
1319	0.196717	0.199675	0.199346	0.199675	0.201319
1320	0.19721	0.20099	0.199675	0.198524	0.197538
1321	0.197703	0.204606	0.202962	0.201647	0.20099
1322	0.197045	0.193265	0.202633	0.199018	0.19721
1323	0.197703	0.198031	0.199511	0.199839	0.199675
1324	0.197045	0.193758	0.198853	0.200332	0.200004
1325	0.200004	0.198196	0.199346	0.199839	0.199675
1326	0.197703	0.194416	0.19836	0.198196	0.199182
1327	0.196717	0.196059	0.198524	0.195566	0.200497
1328	0.197867	0.195237	0.199675	0.197538	0.20214
1329	0.197045	0.197374	0.199182	0.196881	0.201154
1330	0.19836	0.196223	0.198196	0.196717	0.20214
1331	0.196881	0.196388	0.196881	0.192115	0.200004
1332	0.197703	0.197538	0.19836	0.200004	0.202305
1333	0.197538	0.195237	0.199182	0.200332	0.19836
1334	0.198853	0.196223	0.201319	0.196717	0.199511
1335	0.197374	0.196717	0.200825	0.196881	0.199346
1336	0.20214	0.199346	0.201154	0.200332	0.198689
1337	0.194744	0.196223	0.200497	0.199182	0.196717
1338	0.196059	0.198689	0.200168	0.197538	0.198689
1339	0.196717	0.197374	0.200825	0.201319	0.198196
1340	0.19458	0.198524	0.201483	0.199675	0.197045
1341	0.19458	0.195237	0.199839	0.196552	0.197867
1342	0.192772	0.19721	0.200004	0.196059	0.199018
1343	0.197374	0.199675	0.199839	0.198689	0.200332
1344	0.197374	0.197867	0.200168	0.196552	0.200661
1345	0.194744	0.196717	0.200661	0.196881	0.200497
1346	0.197867	0.198853	0.201483	0.199018	0.200497
1347	0.202469	0.199018	0.201319	0.201154	0.205756
1348	0.193101	0.196717	0.196717	0.197867	0.200332
1349	0.197703	0.198524	0.199675	0.200825	0.202962
1350	0.19573	0.196388	0.197538	0.19836	0.200661
1351	0.196717	0.199346	0.200332	0.200332	0.203455
1352	0.196881	0.197867	0.201319	0.198524	0.199839
1353	0.195237	0.199182	0.199511	0.19836	0.201319
1354	0.19721	0.197045	0.199839	0.202305	0.200497
1355	0.195895	0.199511	0.201319	0.199839	0.200168
1356	0.197045	0.196388	0.200825	0.200661	0.197703
1357	0.195402	0.201154	0.204606	0.19836	0.199182
1358	0.202633	0.19573	0.201483	0.201647	0.198689
1359	0.192608	0.198031	0.20099	0.198031	0.199018
1360	0.197538	0.199346	0.200497	0.199018	0.200661
1361	0.195237	0.193594	0.199839	0.19836	0.20099
1362	0.194087	0.195073	0.199675	0.200004	0.203784
1363	0.19721	0.195237	0.199675	0.197867	0.196552
1364	0.197538	0.197045	0.197703	0.197703	0.20362
1365	0.191786	0.196552	0.200332	0.199839	0.20214
1366	0.195237	0.197374	0.201647	0.203126	0.199675
1367	0.195402	0.196388	0.200332	0.198689	0.199182
1368	0.192936	0.196881	0.202469	0.200661	0.200168
1369	0.200332	0.189649	0.199839	0.201976	0.199839
1370	0.191786	0.190142	0.201976	0.199346	0.201154
1371	0.194087	0.18817	0.201647	0.200825	0.194744
1372	0.192279	0.007542	0.198853	0.199018	0.20099
1373	0.193758	0.015266	0.199346	0.200004	0.201319
1374	0.193265	0.018554	0.201154	0.200497	0.195895
1375	0.193594	0.026936	0.200497	0.200004	0.200168
1376	0.191457	0.027593	0.200497	0.198031	0.203291
1377	0.193594	0.033346	0.200661	0.20214	0.200004
1378	0.192443	0.039098	0.201647	0.198524	0.198689
1379	0.192936	0.048467	0.206578	0.19836	0.199675
1380	0.192115	0.05389	0.201647	0.198524	0.202798
1381	0.192936	0.0603	0.201647	0.201976	0.200332
1382	0.192772	0.065395	0.201976	0.200004	0.197045
1383	0.192443	0.070819	0.20214	0.197538	0.200332
1384	0.192772	0.07838	0.199018	0.200825	0.201154
1385	0.190471	0.083639	0.202305	0.200661	0.198196
1386	0.193429	0.086926	0.200168	0.201319	0.196717
1387	0.18932	0.096788	0.201812	0.199675	0.200825
1388	0.192279	0.095308	0.201319	0.201647	0.197703
1389	0.191786	0.101718	0.203784	0.201647	0.197703
1390	0.192279	0.104677	0.202962	0.198524	0.200168
1391	0.19195	0.111251	0.203126	0.201976	0.19836
1392	0.189156	0.112237	0.202633	0.201647	0.200004
1393	0.18817	0.118154	0.202962	0.198853	0.198853
1394	0.192608	0.123085	0.202798	0.199018	0.201647
1395	0.190142	0.123413	0.202305	0.197703	0.200825
1396	0.191128	0.127851	0.202633	0.197703	0.199839
1397	0.193429	0.130481	0.201483	0.198196	0.197538
1398	0.191457	0.135411	0.202469	0.197867	0.200168
1399	0.195895	0.135247	0.201154	0.199511	0.199839
1400	0.195402	0.053397	0.205427	0.200332	0.202962
1401	0.195237	0.010829	0.203291	0.199346	0.196059
1402	0.197703	0.020033	0.205921	0.199839	0.199346
1403	0.194416	0.025292	0.205427	0.200004	0.199839
1404	0.194744	0.034989	0.202469	0.199018	0.199346
1405	0.19721	0.042057	0.202633	0.199839	0.197867
1406	0.196388	0.048631	0.204441	0.201319	0.199018
1407	0.198524	0.056356	0.202798	0.200004	0.198689
1408	0.197538	0.059643	0.203126	0.198524	0.197703
1409	0.199018	0.067532	0.203455	0.202305	0.199018
1410	0.194744	0.073449	0.20362	0.196388	0.197538
1411	0.196881	0.077886	0.205099	0.201319	0.200004
1412	0.196223	0.084625	0.204277	0.199346	0.198524
1413	0.194251	0.088077	0.204113	0.202305	0.199675
1414	0.196717	0.092186	0.202633	0.196388	0.198689
1415	0.19195	0.098431	0.203126	0.198196	0.200497
1416	0.199511	0.003926	0.201976	0.196881	0.198689
1417	0.198196	0.01428	0.202469	0.200004	0.199511
1418	0.197867	0.020855	0.200825	0.198853	0.199675
1419	0.19721	0.029894	0.202469	0.199675	0.200661
1420	0.198196	0.034661	0.19836	0.20099	0.200661
1421	0.198689	0.041564	0.199839	0.196388	0.197045
1422	0.198853	0.049124	0.203784	0.199182	0.197538
1423	0.198031	0.056027	0.19836	0.198524	0.198853
1424	0.200168	0.061944	0.19836	0.198196	0.198031
1425	0.198689	0.064574	0.20214	0.197538	0.195073
1426	0.199346	0.070326	0.20099	0.199839	0.195402
1427	0.197867	0.078708	0.199511	0.199511	0.19721
1428	0.198689	0.083146	0.202962	0.200168	0.200661
1429	0.198689	0.085283	0.202469	0.198196	0.197867
1430	0.19836	0.093665	0.205592	0.201319	0.194909
1431	0.199675	0.09498	0.200497	0.204113	0.200332
1432	0.198853	0.088734	0.205099	0.201319	0.196552
1433	0.199839	0.022334	0.205099	0.200332	0.19573
1434	0.19836	0.027593	0.20477	0.200661	0.198689
1435	0.200168	0.03351	0.202469	0.198689	0.198196
1436	0.194909	0.043536	0.202798	0.198196	0.198031
1437	0.201319	0.047645	0.204277	0.197538	0.200004
1438	0.19836	0.053562	0.201319	0.197703	0.198689
1439	0.199018	0.061122	0.202633	0.199675	0.198853
1440	0.195895	0.066546	0.202633	0.19836	0.198689
1441	0.200661	0.07312	0.20362	0.198689	0.200661
1442	0.200332	0.079201	0.201483	0.198524	0.201483
1443	0.198689	0.083146	0.20362	0.199675	0.201483
1444	0.197703	0.087748	0.204277	0.200004	0.199018
1445	0.198031	0.093007	0.205427	0.200825	0.19721
1446	0.199018	0.095308	0.202469	0.199346	0.197538
1447	0.196388	0.103362	0.202962	0.201647	0.19836
1448	0.199182	0.104677	0.201154	0.201647	0.200825
1449	0.19721	0.111744	0.20099	0.201154	0.199675
1450	0.200168	0.11158	0.200332	0.20214	0.198689
1451	0.198689	0.116346	0.200332	0.202633	0.198689
1452	0.199346	0.118976	0.198031	0.201976	0.200332
1453	0.196223	0.123906	0.20099	0.201812	0.20214
1454	0.200332	0.12555	0.199839	0.201483	0.200004
1455	0.199675	0.127687	0.201976	0.201483	0.199018
1456	0.201154	0.134754	0.202305	0.203455	0.200332
1457	0.200825	0.132782	0.196223	0.200497	0.19836
1458	0.19836	0.136891	0.201483	0.202305	0.200332
1459	0.19721	0.141821	0.200825	0.203948	0.199675
1460	0.198689	0.143465	0.199511	0.204934	0.197867
1461	0.197045	0.143136	0.197374	0.203291	0.200825
1462	0.197045	0.149546	0.199675	0.204441	0.200497
1463	0.19721	0.148889	0.198853	0.202305	0.19836
1464	0.19721	0.155134	0.198524	0.205263	0.198689
1465	0.201319	0.151847	0.197538	0.201483	0.197538
1466	0.200004	0.155627	0.198689	0.200825	0.198853
1467	0.199839	0.15875	0.19836	0.201483	0.19721
1468	0.200004	0.158586	0.198524	0.201647	0.199182
1469	0.199182	0.160722	0.195566	0.201483	0.199018
1470	0.196552	0.161544	0.196388	0.202798	0.199675
1471	0.199018	0.164338	0.192936	0.202633	0.199675
1472	0.200497	0.165653	0.196717	0.200332	0.199018
1473	0.199182	0.167461	0.196388	0.202305	0.202798
1474	0.198031	0.16779	0.19195	0.199511	0.200004
1475	0.199675	0.170091	0.197703	0.201647	0.200661
1476	0.200168	0.168118	0.193429	0.201319	0.200332
1477	0.19836	0.171406	0.197374	0.201483	0.198853
1478	0.196717	0.169762	0.195237	0.20099	0.200332
1479	0.199511	0.175515	0.194909	0.206085	0.199511
1480	0.196388	0.173871	0.19573	0.202469	0.198853
1481	0.198524	0.177487	0.196388	0.203126	0.197703
1482	0.199346	0.179952	0.194251	0.20214	0.198196
1483	0.196388	0.176501	0.19458	0.201976	0.19573
1484	0.198689	0.17913	0.19458	0.203784	0.199182
1485	0.194909	0.177815	0.194416	0.19836	0.199675
1486	0.196388	0.0437	0.193594	0.199511	0.197045
1487	0.195566	0.049124	0.193594	0.199675	0.196881
1488	0.199182	0.052247	0.196059	0.200332	0.201647
1489	0.197867	0.061779	0.195402	0.200168	0.19836
1490	0.198031	0.066381	0.195566	0.200332	0.200661
1491	0.196059	0.072463	0.192772	0.19836	0.199018
1492	0.198689	0.080187	0.196552	0.198853	0.202469
1493	0.20099	0.085283	0.192608	0.197374	0.200168
1494	0.198196	0.089391	0.196059	0.199839	0.199346
1495	0.198524	0.093336	0.194087	0.199346	0.198524
1496	0.197045	0.097774	0.194087	0.196881	0.200497
1497	0.197374	0.103197	0.19458	0.198689	0.203455
1498	0.197867	0.105827	0.197045	0.199675	0.199018
1499	0.200004	0.109114	0.196881	0.201976	0.200332
1500	0.197045	0.111415	0.197374	0.198524	0.199839
1501	0.199182	0.118483	0.195237	0.200332	0.20099
1502	0.19573	0.118811	0.196059	0.197374	0.203455
1503	0.197374	0.123578	0.193758	0.19836	0.202633
1504	0.19836	0.127851	0.192279	0.201976	0.200332
1505	0.198524	0.128673	0.195073	0.198524	0.202305
1506	0.199182	0.130152	0.194087	0.197703	0.198853
1507	0.196881	0.136562	0.19458	0.196717	0.202305
1508	0.196881	0.136233	0.19458	0.196881	0.200497
1509	0.197045	0.139192	0.19458	0.197045	0.200497
1510	0.199675	0.137219	0.193101	0.198196	0.20099
1511	0.198689	0.144451	0.19573	0.199839	0.199839
1512	0.200332	0.140671	0.197867	0.19836	0.198853
1513	0.197867	0.146588	0.198524	0.197867	0.201647
1514	0.200497	0.154148	0.193594	0.202305	0.200332
1515	0.198031	0.152505	0.197374	0.199675	0.200168
1516	0.201812	0.154148	0.195237	0.200332	0.199839
1517	0.195566	0.156942	0.19721	0.197538	0.199675
1518	0.201483	0.158914	0.196223	0.199675	0.200004
1519	0.198031	0.160065	0.197374	0.198853	0.200004
1520	0.199182	0.159243	0.198031	0.200332	0.199346
1521	0.199346	0.159243	0.197703	0.198031	0.198689
1522	0.198689	0.163845	0.195895	0.19721	0.200661
1523	0.203948	0.164174	0.19836	0.19721	0.198196
1524	0.201319	0.167132	0.200168	0.200168	0.20362
1525	0.200497	0.167461	0.191786	0.196059	0.201154
1526	0.202962	0.169105	0.194909	0.197867	0.20099
1527	0.201976	0.166968	0.194087	0.198689	0.201976
1528	0.201976	0.171077	0.193594	0.197374	0.198524
1529	0.203948	0.17272	0.192772	0.199182	0.201647
1530	0.200004	0.173214	0.196552	0.201483	0.201976
1531	0.203948	0.172063	0.196881	0.198853	0.19836
1532	0.203126	0.17535	0.196223	0.198524	0.19836
1533	0.203455	0.180281	0.200168	0.20362	0.197538
1534	0.201483	0.179623	0.197045	0.197538	0.199839
1535	0.200332	0.178309	0.199511	0.200332	0.197867
1536	0.19721	0.182746	0.196717	0.201976	0.196717
1537	0.199839	0.182253	0.199182	0.20099	0.197867
1538	0.200332	0.179295	0.197703	0.200332	0.198196
1539	0.199182	0.182582	0.197374	0.199675	0.201154
1540	0.202962	0.181267	0.197703	0.197045	0.200332
1541	0.201976	0.183732	0.198853	0.197538	0.200825
1542	0.20362	0.180281	0.196881	0.196223	0.200168
1543	0.207071	0.184061	0.194909	0.197867	0.201154
1544	0.20477	0.18439	0.197374	0.196717	0.200332
1545	0.204606	0.180938	0.198196	0.195073	0.200661
1546	0.20362	0.18439	0.19721	0.199675	0.205921
1547	0.20214	0.18817	0.197045	0.198196	0.200004
1548	0.205099	0.187513	0.197867	0.198031	0.200497
1549	0.202962	0.186855	0.200332	0.198853	0.20099
1550	0.201483	0.186691	0.200661	0.198689	0.199346
1551	0.201647	0.186855	0.195895	0.19721	0.200825
1552	0.201154	0.190964	0.201812	0.200332	0.198689
1553	0.202469	0.187184	0.200497	0.198689	0.196388
1554	0.201976	0.189978	0.19836	0.199675	0.199346
1555	0.201812	0.18932	0.198853	0.19458	0.198524
1556	0.201812	0.187677	0.199839	0.196717	0.200661
1557	0.201319	0.188827	0.197538	0.200168	0.200661
1558	0.198524	0.193758	0.197867	0.198031	0.201483
1559	0.201647	0.192115	0.19721	0.197867	0.201647
1560	0.20099	0.191786	0.197538	0.194744	0.202633
1561	0.202305	0.190635	0.194909	0.200004	0.200825
1562	0.201154	0.193101	0.197867	0.000639	0.199018
1563	0.202798	0.192936	0.197045	0.002611	0.201319
1564	0.20477	0.189814	0.19721	0.00935	0.199675
1565	0.201647	0.191293	0.197867	0.021019	0.199511
1566	0.199839	0.191786	0.199839	0.01428	0.198196
1567	0.20099	0.192443	0.20214	0.032031	0.199511
1568	0.200004	0.191457	0.197703	0.040084	0.197703
1569	0.199839	0.195566	0.200825	0.045508	0.20099
1570	0.199675	0.19195	0.202305	0.048795	0.199839
1571	0.199675	0.197374	0.19721	0.061286	0.200497
1572	0.200332	0.192608	0.195895	0.064574	0.199346
1573	0.199182	0.193758	0.198196	0.067696	0.199839
1574	0.197867	0.194087	0.196223	0.076572	0.201319
1575	0.199839	0.192772	0.192936	0.078708	0.20099
1576	0.199839	0.194416	0.193265	0.084789	0.199182
1577	0.195566	0.192115	0.198853	0.077558	0.200168
1578	0.202633	0.187841	0.19573	0.093007	0.20099
1579	0.200497	0.182746	0.199182	0.098595	0.20099
1580	0.197703	0.183897	0.199511	0.103526	0.201319
1581	0.202469	0.182417	0.197538	0.102211	0.199018
1582	0.199839	0.184225	0.199018	0.109607	0.198689
1583	0.199182	0.181596	0.197703	0.113552	0.199182
1584	0.200661	0.182911	0.198524	0.114538	0.198689
1585	0.200661	0.186033	0.199018	0.120455	0.199182
1586	0.199511	0.188499	0.204277	0.127029	0.198689
1587	0.198524	0.187677	0.197045	0.1267	0.195073
1588	0.194416	0.190307	0.201154	0.127522	0.19721
1589	0.199018	0.188992	0.199346	0.135247	0.196223
1590	0.195073	0.190142	0.200332	0.132289	0.203126
1591	0.196223	0.193758	0.199346	0.136562	0.20099
1592	0.196388	0.191786	0.199018	0.138205	0.203291
1593	0.196059	0.190471	0.197867	0.143301	0.201154
1594	0.197703	0.190964	0.19721	0.142972	0.200168
1595	0.197538	0.190635	0.19836	0.14478	0.203126
1596	0.197045	0.189814	0.198196	0.148067	0.206085
1597	0.199182	0.192115	0.197703	0.153326	0.202469
1598	0.195895	0.189978	0.196717	0.153984	0.19836
1599	0.19836	0.193758	0.199675	0.160394	0.20099
1600	0.198853	0.192772	0.199182	0.155299	0.198853
1601	0.195402	0.191293	0.198524	0.159572	0.200168
1602	0.195566	0.19458	0.199018	0.161873	0.199346
1603	0.194744	0.19573	0.203291	0.163188	0.201812
1604	0.19573	0.19458	0.201483	0.165817	0.201647
1605	0.196552	0.195237	0.201154	0.166311	0.198853
1606	0.195895	0.194087	0.200332	0.168776	0.200661
1607	0.192279	0.195402	0.199675	0.170584	0.201154
1608	0.194416	0.192443	0.201812	0.173214	0.201647
1609	0.196223	0.19195	0.196717	0.172556	0.199346
1610	0.197703	0.192936	0.199675	0.177651	0.200661
1611	0.19836	0.196059	0.198689	0.173378	0.19836
1612	0.194744	0.191128	0.198196	0.173871	0.202962
1613	0.196388	0.197045	0.199346	0.173542	0.200825
1614	0.196881	0.198196	0.197538	0.177651	0.203126
1615	0.195237	0.194416	0.198689	0.180445	0.200661
1616	0.196881	0.198853	0.198689	0.179952	0.201483
1617	0.199675	0.196223	0.197703	0.178144	0.199511
1618	0.19573	0.195566	0.200332	0.180281	0.199675
1619	0.19721	0.197538	0.198196	0.182746	0.198196
1620	0.193594	0.198031	0.197374	0.182911	0.199839
1621	0.19836	0.197045	0.197538	0.188334	0.200497
1622	0.194909	0.200004	0.20099	0.183897	0.201647
1623	0.194251	0.19721	0.195895	0.18554	0.200332
1624	0.192608	0.201319	0.198689	0.18176	0.200497
1625	0.193594	0.195237	0.203455	0.188334	0.202305
1626	0.193265	0.197374	0.19836	0.185376	0.198689
1627	0.193758	0.197374	0.197703	0.188992	0.200168
1628	0.193594	0.19573	0.201647	0.187348	0.199182
1629	0.192279	0.198689	0.198853	0.187019	0.201319
1630	0.193594	0.193594	0.198524	0.188992	0.199511
1631	0.19458	0.201812	0.199346	0.186855	0.200497
1632	0.19836	0.196059	0.199182	0.189649	0.197703
1633	0.190471	0.200004	0.201154	0.187184	0.200168
1634	0.196881	0.203126	0.20099	0.1908	0.197703
1635	0.192443	0.201647	0.200497	0.190471	0.200004
1636	0.191128	0.201319	0.20099	0.190471	0.200168
1637	0.190142	0.201154	0.199511	0.190142	0.200497
1638	0.192936	0.199018	0.199675	0.188499	0.199346
1639	0.192279	0.202798	0.200332	0.189485	0.200332
1640	0.189156	0.200825	0.200004	0.193101	0.201647
1641	0.192608	0.199018	0.199511	0.193594	0.198031
1642	0.194251	0.200497	0.199675	0.192936	0.200825
1643	0.190142	0.198853	0.201647	0.00294	0.198689
1644	0.195073	0.199675	0.199346	0.003433	0.200004
1645	0.190964	0.196881	0.198853	0.011979	0.202469
1646	0.194087	0.201812	0.201154	0.01954	0.203455
1647	0.195402	0.200168	0.200168	0.027429	0.201483
1648	0.193758	0.199511	0.20214	0.033181	0.199675
1649	0.195073	0.19836	0.19721	0.03992	0.194087
1650	0.193101	0.200168	0.201483	0.047316	0.091199
1651	0.19195	0.200332	0.198853	0.057506	0.054055
1652	0.193265	0.198853	0.200332	0.062108	0.00935
1653	0.196717	0.197703	0.196388	0.069176	0.004255
1654	0.194251	0.200004	0.20362	0.075257	0.005898
1655	0.196717	0.199511	0.200825	0.078215	0.001789
1656	0.193265	0.198689	0.199346	0.08331	0.001789
1657	0.19458	0.205263	0.200497	0.089885	0.003433
1658	0.191786	0.200004	0.20099	0.094487	0.002611
1659	0.19721	0.20099	0.199018	0.100239	0.000639
1660	0.195402	0.198689	0.19836	0.102211	-0.001334
1661	0.195073	0.199675	0.199839	0.107635	0.001954
1662	0.19573	0.197703	0.197703	0.111087	0.000474
1663	0.195402	0.194251	0.199346	0.114702	0.00031
1664	0.197374	0.197703	0.199018	0.117825	0.001625
1665	0.194909	0.198853	0.200661	0.126207	0.00294
1666	0.197867	0.196388	0.196388	0.124728	-1.9e-05
1667	0.194087	0.199018	0.199018	0.128837	0.001789
1668	0.195895	0.200497	0.198196	0.129659	0.002611
1669	0.193265	0.199675	0.195566	0.132617	0.000474
1670	0.195566	0.199018	0.199675	0.137055	-0.001005
1671	0.193265	0.199511	0.197045	0.139356	0.002118
1672	0.19573	0.20099	0.198524	0.141821	0.000967
1673	0.194087	0.200168	0.197867	0.146095	0.002282
1674	0.196059	0.199346	0.195566	0.147245	0.00146
1675	0.195237	0.19573	0.194087	0.146752	0.001954
1676	0.195566	0.199839	0.196388	0.151683	0.001296
1677	0.19573	0.19721	0.193101	0.149875	0.000967
1678	0.194909	0.19721	0.194744	0.154312	0.00146
1679	0.195237	0.200168	0.196717	0.155627	0.003761
1680	0.194087	0.202798	0.200004	0.155463	0.003597
1681	0.19573	0.199182	0.197045	0.158257	0.001296
1682	0.193758	0.200168	0.197045	0.160065	0.001954
1683	0.194909	0.200168	0.19573	0.160887	0.00146
1684	0.191621	0.197703	0.196388	0.163681	0.005734
1685	0.196552	0.191786	0.196552	0.163845	0.008528
1686	0.193265	0.199346	0.195073	0.16779	0.015431
1687	0.191293	0.200497	0.196717	0.171241	0.025785
1688	0.195237	0.198031	0.195402	0.164996	0.03236
1689	0.193429	0.198524	0.197045	0.172392	0.040249
1690	0.193265	0.199675	0.199675	0.172885	0.047316
1691	0.195073	0.198853	0.196223	0.177815	0.056191
1692	0.194251	0.199511	0.196388	0.171406	0.057671
1693	0.194909	0.200004	0.198031	0.174528	0.067039
1694	0.197703	0.197703	0.195237	0.175186	0.069833
1695	0.192443	0.200661	0.198031	0.176336	0.08216
1696	0.198853	0.19721	0.195566	0.177158	0.082817
1697	0.195895	0.200168	0.19573	0.176008	0.086762
1698	0.197045	0.197538	0.19721	0.181596	0.09235
1699	0.195237	0.200168	0.196388	0.179459	0.096294
1700	0.194087	0.197045	0.19573	0.180774	0.099417
1701	0.195566	0.198031	0.196552	0.183239	0.106978
1702	0.19458	0.199346	0.198524	0.18061	0.111415
1703	0.196388	0.197867	0.192443	0.181924	0.113223
1704	0.198196	0.199182	0.193758	0.186033	0.11651
1705	0.198196	0.19721	0.196388	0.180774	0.11799
1706	0.195402	0.199346	0.196552	0.183897	0.120619
1707	0.197045	0.195895	0.195073	0.18439	0.123906
1708	0.194416	0.199018	0.195566	0.186033	0.126865
1709	0.197703	0.197374	0.197045	0.188499	0.129988
1710	0.197045	0.198031	0.198689	0.186362	0.133932
1711	0.195895	0.197374	0.196717	0.187348	0.134097
1712	0.195402	0.200332	0.196059	0.188663	0.141328
1713	0.196552	0.200168	0.197538	0.188334	0.143629
1714	0.193758	0.198853	0.198196	0.189156	0.145602
1715	0.19573	0.197538	0.199018	0.193429	0.148067
1716	0.194087	0.199182	0.198196	0.189649	0.148231
1717	0.194416	0.198031	0.196717	0.189978	0.151518
1718	0.197374	0.197045	0.196223	0.188663	0.152998
1719	0.191786	0.197374	0.196717	0.190471	0.155134
1720	0.19458	0.198196	0.196388	0.189485	0.154148
1721	0.196881	0.196223	0.19721	0.190635	0.15612
1722	0.193922	0.199346	0.199018	0.185869	0.160065
1723	0.195073	0.195566	0.198524	0.189814	0.163188
1724	0.196717	0.19836	0.194087	0.190307	0.163681
1725	0.193101	0.199182	0.193758	0.188992	0.16779
1726	0.19721	0.193429	0.197045	0.18817	0.165489
1727	0.195073	0.199346	0.196388	0.191786	0.169598
1728	0.194251	0.198853	0.199346	0.192115	0.168612
1729	0.195566	0.197374	0.19721	0.193758	0.171241
1730	0.197538	0.194416	0.200168	0.193922	0.17272
1731	0.191786	0.196717	0.198031	0.193758	0.172063
1732	0.199675	0.200825	0.197703	0.192608	0.173378
1733	0.194251	0.196717	0.199675	0.192279	0.174035
1734	0.193265	0.196223	0.199018	0.193594	0.176829
1735	0.192608	0.201319	0.19836	0.191786	0.178637
1736	0.191128	0.199511	0.196552	0.194416	0.177815
1737	0.19458	0.197703	0.194744	0.190142	0.176829
1738	0.194416	0.199675	0.198196	0.193265	0.180116
1739	0.191621	0.197538	0.196881	0.195237	0.18061
1740	0.196717	0.198853	0.200332	0.194087	0.182253
1741	0.198524	0.196717	0.193758	0.194744	0.18176
1742	0.195566	0.194744	0.198031	0.194087	0.183239
1743	0.198196	0.197374	0.197703	0.189156	0.182582
1744	0.196059	0.201812	0.198689	0.192115	0.183732
1745	0.196388	0.195402	0.198524	0.190964	0.187019
1746	0.197538	0.201319	0.20099	0.194251	0.190471
1747	0.195073	0.199675	0.196059	0.19573	0.18817
1748	0.194744	0.198853	0.197867	0.192608	0.185376
1749	0.194909	0.199675	0.197538	0.195895	0.188006
1750	0.194087	0.198524	0.19721	0.195237	0.188334
1751	0.194416	0.19836	0.199511	0.194744	0.187513
1752	0.196059	0.19721	0.195895	0.195402	0.188663
1753	0.194909	0.19836	0.198524	0.19573	0.189649
1754	0.19721	0.195895	0.194087	0.19458	0.186691
1755	0.196223	0.198031	0.19721	0.19458	0.188499
1756	0.19458	0.192936	0.196223	0.192608	0.187513
1757	0.199018	0.199675	0.198031	0.194416	0.192115
1758	0.19573	0.19458	0.19573	0.193594	0.190471
1759	0.193594	0.197045	0.198689	0.195073	0.189156
1760	0.197538	0.196388	0.196223	0.194744	0.190964
1761	0.196059	0.197538	0.197374	0.195566	0.192772
1762	0.197374	0.199018	0.198689	0.196059	0.189978
1763	0.195895	0.199182	0.198689	0.195566	0.191293
1764	0.196717	0.202305	0.19836	0.199346	0.193101
1765	0.195895	0.196223	0.199675	0.195402	0.192279
1766	0.19573	0.20099	0.200168	0.197374	0.194416
1767	0.193758	0.197538	0.200168	0.194744	0.194416
1768	0.193922	0.200332	0.198853	0.196717	0.19458
1769	0.192443	0.19836	0.19721	0.195402	0.193265
1770	0.19836	0.199839	0.203126	0.197045	0.194416
1771	0.197867	0.195402	0.19836	0.194909	0.191457
1772	0.195402	0.198031	0.196388	0.196388	0.19573
1773	0.196881	0.195073	0.19573	0.195402	0.192608
1774	0.19573	0.198196	0.197045	0.195566	0.195237
1775	0.19721	0.196388	0.193922	0.193429	0.197374
1776	0.198196	0.194909	0.197045	0.193101	0.194909
1777	0.197867	0.196059	0.199018	0.19836	0.194909
1778	0.195237	0.193265	0.195895	0.193922	0.19458
1779	0.199182	0.197703	0.199839	0.19836	0.19573
1780	0.195402	0.193922	0.200332	0.197538	0.197538
1781	0.195402	0.195237	0.197045	0.200332	0.193101
1782	0.196717	0.195402	0.199182	0.197045	0.192443
1783	0.198524	0.201812	0.200168	0.200497	0.196388
1784	0.195566	0.198196	0.198524	0.197538	0.193594
1785	0.193594	0.201154	0.199018	0.19836	0.195566
1786	0.196059	0.196552	0.198689	0.196881	0.197045
1787	0.194087	0.198196	0.197538	0.19721	0.197867
1788	0.196223	0.197374	0.199018	0.195895	0.19721
1789	0.194744	0.196881	0.199018	0.19721	0.199346
1790	0.19573	0.19836	0.19836	0.195237	0.199182
1791	0.197703	0.198196	0.197538	0.195895	0.198853
1792	0.195895	0.19458	0.196059	0.192443	0.198689
1793	0.202469	0.196223	0.196223	0.194251	0.197538
1794	0.201483	0.199182	0.196059	0.196223	0.19836
1795	0.198524	0.197374	0.200497	0.193429	0.197703
1796	0.200004	0.198196	0.200332	0.198689	0.200497
1797	0.198853	0.196059	0.201154	0.198031	0.198853
1798	0.199018	0.198689	0.200004	0.195402	0.199182
1799	0.196552	0.19721	0.19721	0.20099	0.19836
1800	0.196717	0.197867	0.199675	0.200168	0.200497
1801	0.195895	0.200168	0.197045	0.197867	0.197703
1802	0.195402	0.197374	0.200168	0.200661	0.199182
1803	0.197703	0.197867	0.197703	0.200332	0.199839
1804	0.195566	0.200497	0.198031	0.201647	0.199182
1805	0.200332	0.198031	0.195566	0.19836	0.199182
1806	0.19836	0.198031	0.19721	0.200332	0.197703
1807	0.196717	0.198196	0.193265	0.199018	0.199346
1808	0.198196	0.198031	0.198689	0.196717	0.197703
1809	0.198853	0.19721	0.197045	0.199182	0.200004
1810	0.195402	0.196059	0.197703	0.195895	0.200661
1811	0.198196	0.195402	0.197374	0.199675	0.19721
1812	0.198031	0.195895	0.197703	0.197374	0.200332
1813	0.198031	0.200825	0.19836	0.196223	0.199675
1814	0.201154	0.201483	0.198196	0.200497	0.197867
1815	0.200332	0.199018	0.198524	0.196717	0.199182
1816	0.20099	0.198689	0.197867	0.198524	0.196552
1817	0.199182	0.198689	0.19721	0.199346	0.200332
1818	0.199346	0.197703	0.197703	0.198524	0.198524
1819	0.197867	0.199182	0.201319	0.198689	0.199182
1820	0.201812	0.196717	0.202962	0.200332	0.199675
1821	0.199675	0.196881	0.200332	0.197703	0.198853
1822	0.198524	0.196223	0.198031	0.198689	0.197703
1823	0.197538	0.197374	0.200168	0.197538	0.199675
1824	0.198689	0.196223	0.194251	0.198196	0.200332
1825	0.197703	0.19573	0.196717	0.197538	0.199675
1826	0.203455	0.193429	0.195073	0.19721	0.199511
1827	0.200825	0.19836	0.193101	0.197374	0.198524
1828	0.200004	0.193429	0.196223	0.198689	0.197374
1829	0.199346	0.193101	0.194909	0.195237	0.199182
1830	0.197538	0.197867	0.200497	0.199018	0.196059
1831	0.201154	0.196717	0.196717	0.200004	0.193265
1832	0.196881	0.198689	0.199346	0.199511	0.200004
1833	0.199839	0.197374	0.199182	0.198689	0.194744
1834	0.198524	0.200332	0.198031	0.200332	0.195566
1835	0.197538	0.192936	0.196717	0.199346	0.199346
1836	0.200332	0.19573	0.201154	0.198689	0.197538
1837	0.200004	0.195237	0.197867	0.197703	0.19721
1838	0.199182	0.199675	0.200168	0.199511	0.198031
1839	0.19836	0.198524	0.200004	0.200004	0.19836
1840	0.195895	0.195895	0.200004	0.196388	0.200168
1841	0.197867	0.196059	0.198031	0.195237	0.199511
1842	0.198196	0.197045	0.198689	0.192772	0.200332
1843	0.195566	0.196059	0.200332	0.195566	0.200661
1844	0.200825	0.196223	0.197867	0.196388	0.198031
1845	0.200497	0.197703	0.196059	0.197045	0.202305
1846	0.199018	0.195895	0.195402	0.196059	0.19721
1847	0.199839	0.197703	0.199675	0.19721	0.203291
1848	0.203455	0.198853	0.197045	0.195073	0.200168
1849	0.200825	0.197867	0.197045	0.20214	0.199675
1850	0.199511	0.19573	0.197374	0.200332	0.199018
1851	0.199511	0.19836	0.197867	0.20099	0.199018
1852	0.200004	0.197374	0.200332	0.198031	0.198031
1853	0.200332	0.199839	0.199346	0.195402	0.198524
1854	0.198031	0.198196	0.198689	0.199675	0.19836
1855	0.197045	0.195402	0.197867	0.199182	0.198524
1856	0.20099	0.200825	0.201319	0.200332	0.201483
1857	0.19836	0.196552	0.196223	0.196552	0.203948
1858	0.201319	0.200332	0.198853	0.199839	0.200497
1859	0.202962	0.197867	0.197867	0.196388	0.198689
1860	0.200004	0.198524	0.19836	0.199182	0.201976
1861	0.200497	0.194251	0.19721	0.197374	0.199511
1862	0.19836	0.196881	0.198031	0.199182	0.199346
1863	0.199346	0.195402	0.197374	0.196717	0.199839
1864	0.203784	0.200332	0.198853	0.195402	0.200332
1865	0.201647	0.197045	0.197538	0.196223	0.197538
1866	0.199839	0.196717	0.197703	0.198524	0.198031
1867	0.201319	0.198524	0.200004	0.197374	0.198031
1868	0.198031	0.199346	0.198524	0.198031	0.201483
1869	0.202305	0.197045	0.198853	0.197867	0.201154
1870	0.200825	0.199346	0.203291	0.198031	0.200825
1871	0.202962	0.198524	0.198853	0.200168	0.199182
1872	0.196717	0.197374	0.197374	0.19836	0.199018
1873	0.199839	0.198524	0.198853	0.200168	0.200168
1874	0.198689	0.197045	0.196059	0.196388	0.200004
1875	0.199839	0.195402	0.198689	0.198853	0.19836
1876	0.198853	0.196388	0.197867	0.198524	0.199182
1877	0.199511	0.196717	0.197703	0.198196	0.200497
1878	0.200004	0.194087	0.194251	0.197374	0.198196
1879	0.200661	0.194416	0.201812	0.198524	0.198689
1880	0.199839	0.198524	0.198689	0.193594	0.197867
1881	0.199346	0.199018	0.200004	0.194087	0.200004
1882	0.203126	0.198689	0.197867	0.199018	0.197538
1883	0.199675	0.197703	0.198524	0.199346	0.196059
1884	0.200825	0.197867	0.197538	0.199018	0.198196
1885	0.199346	0.198853	0.199018	0.199675	0.196717
1886	0.201976	0.197374	0.19836	0.196881	0.19573
1887	0.196881	0.202798	0.199675	0.198196	0.198196
1888	0.19836	0.200004	0.199182	0.199182	0.196059
1889	0.19836	0.201319	0.200661	0.197867	0.198853
1890	0.193429	0.200497	0.19721	0.198689	0.201812
1891	0.197538	0.198524	0.19836	0.198689	0.197374
1892	0.196388	0.198689	0.199346	0.196059	0.202469
1893	0.197703	0.198524	0.197867	0.199511	0.198689
1894	0.197538	0.198689	0.200825	0.20214	0.200497
1895	0.200332	0.197703	0.195895	0.195566	0.19573
1896	0.19721	0.199511	0.198196	0.199182	0.199182
1897	0.197374	0.195237	0.196223	0.19573	0.196717
1898	0.198689	0.198196	0.20099	0.194909	0.199675
1899	0.199346	0.195073	0.196059	0.196223	0.196717
1900	0.199346	0.197703	0.199018	0.196388	0.200497
1901	0.200332	0.198689	0.193758	0.200497	0.199018
1902	0.197867	0.198524	0.198689	0.195237	0.199346
1903	0.199675	0.200004	0.199346	0.19458	0.197703
1904	0.198689	0.200004	0.195566	0.19836	0.197538
1905	0.199675	0.195566	0.197867	0.19836	0.198689
1906	0.196717	0.197538	0.19721	0.198524	0.198524
1907	0.198031	0.199018	0.199511	0.20214	0.202469
1908	0.196223	0.199018	0.19836	0.197374	0.195402
1909	0.198524	0.197374	0.199511	0.199018	0.198524
1910	0.199511	0.195566	0.198196	0.199018	0.199182
1911	0.197538	0.196717	0.198524	0.198524	0.199018
1912	0.199675	0.199182	0.196059	0.196388	0.200661
1913	0.19836	0.196717	0.198031	0.20099	0.201647
1914	0.200168	0.195895	0.19721	0.195402	0.200004
1915	0.198031	0.198524	0.19721	0.195895	0.197374
1916	0.199346	0.194416	0.196717	0.200004	0.198031
1917	0.198689	0.199018	0.196388	0.196881	0.19721
1918	0.199675	0.196223	0.198524	0.200661	0.197538
1919	0.200168	0.197538	0.199346	0.197374	0.19836
1920	0.197867	0.198031	0.205263	0.200004	0.198689
1921	0.198689	0.197538	0.199018	0.198031	0.197045
1922	0.193101	0.199182	0.199675	0.199839	0.201154
1923	0.19458	0.19836	0.201154	0.199346	0.198196
1924	0.195402	0.200168	0.196388	0.198196	0.201154
1925	0.197867	0.195566	0.195566	0.195073	0.197867
1926	0.19836	0.199182	0.200497	0.201483	0.199675
1927	0.197867	0.196717	0.196223	0.19836	0.198689
1928	0.195895	0.198196	0.195402	0.198031	0.199346
1929	0.200825	0.192936	0.19836	0.199839	0.19836
1930	0.198031	0.19721	0.199018	0.19573	0.202305
1931	0.198689	0.196223	0.196717	0.193101	0.200004
1932	0.197703	0.196717	0.200004	0.196717	0.197045
1933	0.200004	0.199675	0.198853	0.19721	0.19836
1934	0.197703	0.198031	0.195402	0.194909	0.198031
1935	0.196717	0.19836	0.199511	0.198853	0.199675
1936	0.19721	0.199018	0.195402	0.195237	0.19721
1937	0.200004	0.203455	0.198853	0.201319	0.197374
1938	0.196881	0.198853	0.197703	0.197374	0.197045
1939	0.196552	0.198689	0.199346	0.200168	0.201319
1940	0.19836	0.197538	0.19836	0.19721	0.197374
1941	0.19458	0.19836	0.199511	0.196717	0.199182
1942	0.195402	0.198196	0.198689	0.198853	0.198524
1943	0.195402	0.198524	0.201483	0.200661	0.198689
1944	0.198853	0.198689	0.201483	0.200004	0.198524
1945	0.194087	0.199511	0.200825	0.196388	0.202305
1946	0.197374	0.198524	0.196552	0.201483	0.195402
1947	0.197538	0.198689	0.197045	0.195073	0.200332
1948	0.197867	0.198196	0.198196	0.196881	0.19836
1949	0.198031	0.197538	0.196388	0.197867	0.197867
1950	0.197867	0.196388	0.196223	0.199182	0.200332
1951	0.197867	0.19721	0.19721	0.200661	0.197867
1952	0.199511	0.19721	0.199182	0.196717	0.199511
1953	0.198031	0.199346	0.197703	0.196388	0.197703
1954	0.196223	0.200168	0.194251	0.198524	0.198689
1955	0.197538	0.199675	0.197867	0.196223	0.200825
1956	0.199018	0.199511	0.19836	0.198689	0.199839
1957	0.198031	0.199839	0.194416	0.199675	0.197538
1958	0.195402	0.197374	0.200332	0.198524	0.197867
1959	0.195566	0.198524	0.195895	0.19836	0.195402
1960	0.195237	0.199346	0.199346	0.200661	0.198689
1961	0.19836	0.197374	0.194087	0.200661	0.196881
1962	0.194416	0.199511	0.199675	0.20099	0.200004
1963	0.199839	0.197374	0.200168	0.198853	0.19836
1964	0.196388	0.198031	0.196223	0.196223	0.200332
1965	0.194909	0.197703	0.196717	0.199511	0.197867
1966	0.195566	0.197867	0.197374	0.197867	0.197867
1967	0.197045	0.19836	0.197045	0.19836	0.198853
1968	0.197045	0.198524	0.196388	0.196717	0.196717
1969	0.199346	0.198524	0.19836	0.199018	0.200004
1970	0.199346	0.197867	0.20214	0.196717	0.197703
1971	0.19721	0.198524	0.200332	0.200661	0.202798
1972	0.194909	0.193101	0.19573	0.199675	0.198524
1973	0.19573	0.199675	0.19836	0.199839	0.198689
1974	0.199182	0.19836	0.197045	0.198196	0.199346
1975	0.195073	0.199182	0.197374	0.20099	0.201154
1976	0.202305	0.197045	0.19573	0.200004	0.197045
1977	0.197045	0.199018	0.201319	0.19721	0.199675
1978	0.19721	0.197867	0.197538	0.199675	0.200004
1979	0.20099	0.196388	0.200497	0.199346	0.200497
1980	0.200661	0.19836	0.197045	0.196059	0.198853
1981	0.20099	0.197045	0.196223	0.199675	0.197045
1982	0.200004	0.197867	0.200004	0.198524	0.199839
1983	0.199675	0.19721	0.196552	0.197374	0.19573
1984	0.199018	0.197867	0.197374	0.199511	0.19721
1985	0.199839	0.198853	0.198853	0.194416	0.197045
1986	0.196717	0.197374	0.198524	0.199018	0.200825
1987	0.198689	0.195402	0.197867	0.19721	0.199018
1988	0.198031	0.197703	0.198524	0.19836	0.199839
1989	0.198853	0.19458	0.196552	0.197045	0.200168
1990	0.197703	0.199018	0.201319	0.197374	0.200004
1991	0.20362	0.197538	0.196717	0.137712	0.197703
1992	0.204113	0.199675	0.197703	0.14215	0.199511
1993	0.201812	0.198031	0.200661	0.147574	0.197703
1994	0.201154	0.198689	0.199511	0.148231	0.198689
1995	0.20099	0.197867	0.200004	0.148231	0.197538
1996	0.198853	0.197867	0.199675	0.149053	0.201319
1997	0.199675	0.199346	0.200168	0.154148	0.201154
1998	0.198689	0.196552	0.198031	0.152011	0.198524
1999	0.199675	0.200004	0.200497	0.157764	0.199511
2000	0.199018	0.198524	0.198031	0.15875	0.200004
2001	0.199182	0.198853	0.199018	0.163681	0.200168
2002	0.200004	0.197703	0.197867	0.160229	0.197703
2003	0.200332	0.198524	0.197703	0.16401	0.20099
2004	0.199675	0.198196	0.195402	0.165489	0.199018
2005	0.200004	0.200004	0.199182	0.164667	0.198689
2006	0.20099	0.19721	0.199018	0.169433	0.199839
2007	0.198853	0.198689	0.19721	0.168283	0.200332
2008	0.198853	0.197867	0.19836	0.170584	0.196717
2009	0.199346	0.19573	0.197045	0.171241	0.194744
2010	0.197867	0.197538	0.199511	0.17272	0.199511
2011	0.196881	0.199018	0.198196	0.173214	0.198689
2012	0.201154	0.197867	0.195237	0.175515	0.200497
2013	0.198031	0.198689	0.200168	0.174857	0.198853
2014	0.20214	0.202305	0.199182	0.180774	0.199018
2015	0.197703	0.19721	0.196388	0.176829	0.200332
2016	0.201319	0.199018	0.198689	0.179459	0.20099
2017	0.198853	0.19836	0.199675	0.18061	0.19458
2018	0.199346	0.198524	0.199018	0.178966	0.198524
2019	0.200497	0.200168	0.19836	0.180116	0.197538
2020	0.198689	0.196552	0.199675	0.181103	0.198524
2021	0.19836	0.197538	0.200004	0.181103	0.197374
2022	0.19721	0.198853	0.197703	0.182582	0.204441
2023	0.201483	0.196388	0.194087	0.181431	0.198689
2024	0.202305	0.199018	0.195566	0.182253	0.197867
2025	0.204113	0.19458	0.196881	0.18554	0.200004
2026	0.200825	0.194251	0.195402	0.18439	0.197703
2027	0.202798	0.198689	0.19573	0.184225	0.198853
2028	0.199018	0.193101	0.198031	0.188499	0.196223
2029	0.202305	0.193758	0.197867	0.186526	0.199511
2030	0.201812	0.19836	0.19721	0.188663	0.194087
2031	0.20099	0.198524	0.197045	0.190307	0.194909
2032	0.200332	0.199839	0.200004	0.18932	0.195566
2033	0.200661	0.200168	0.199182	0.18817	0.196388
2034	0.203291	0.200332	0.196552	0.188499	0.197867
2035	0.198031	0.20099	0.199675	0.189814	0.198689
2036	0.201154	0.197045	0.197703	0.190142	0.198524
2037	0.199511	0.197374	0.196223	0.190142	0.199346
2038	0.200497	0.197045	0.196223	0.189649	0.199182
2039	0.19721	0.196223	0.197703	0.190307	0.200661
2040	0.199839	0.198689	0.195895	0.1908	0.200004
2041	0.201976	0.198524	0.19573	0.189485	0.197867
2042	0.200332	0.197703	0.192115	0.190142	0.197703
2043	0.200004	0.198031	0.195566	0.189485	0.199182
2044	0.202798	0.200332	0.195402	0.191621	0.198853
2045	0.201154	0.197703	0.198031	0.187677	0.197867
2046	0.201154	0.196059	0.196223	0.191457	0.197703
2047	0.203455	0.19836	0.195402	0.191128	0.200825
2048	0.200332	0.199346	0.198853	0.195402	0.20099
2049	0.199839	0.198031	0.195895	0.191621	0.19836
2050	0.199182	0.199675	0.199675	0.195073	0.200168
2051	0.201647	0.197703	0.196552	0.196059	0.198689
2052	0.199182	0.197703	0.19721	0.193265	0.199346
2053	0.200497	0.195895	0.19836	0.194744	0.196881
2054	0.19836	0.199511	0.199511	0.19458	0.200825
2055	0.20099	0.198031	0.195566	0.193265	0.199675
2056	0.20099	0.198196	0.195895	0.195402	0.199675
2057	0.200497	0.197703	0.195402	0.196552	0.199182
2058	0.202962	0.198031	0.194744	0.19195	0.199675
2059	0.202305	0.197703	0.193101	0.194744	0.19721
2060	0.202798	0.195895	0.193429	0.194087	0.200168
2061	0.203948	0.198689	0.19573	0.195566	0.201976
2062	0.201812	0.199182	0.192443	0.193101	0.199346
2063	0.200497	0.199675	0.194744	0.197867	0.199018
2064	0.203784	0.199182	0.193922	0.191457	0.194909
2065	0.197538	0.198524	0.196223	0.196059	0.200332
2066	0.200825	0.198031	0.193429	0.195237	0.199511
2067	0.19836	0.201976	0.193922	0.196881	0.197374
2068	0.200497	0.197867	0.192608	0.198689	0.199182
2069	0.19721	0.203126	0.188006	0.197374	0.200004
2070	0.200004	0.198031	0.193594	0.196388	0.198196
2071	0.196223	0.197867	0.188827	0.19573	0.198853
2072	0.197374	0.198196	0.191457	0.198524	0.198196
2073	0.202305	0.19721	0.189649	0.195402	0.200332
2074	0.198689	0.195566	0.188006	0.198853	0.198689
2075	0.200497	0.194251	0.188663	0.194744	0.19458
2076	0.199839	0.19721	0.182417	0.19721	0.199839
2077	0.19573	0.197045	0.167625	0.19458	0.197538
2078	0.196388	0.197045	0.162202	0.197374	0.19836
2079	0.199511	0.194416	0.147245	0.199018	0.195237
2080	0.198196	0.198031	0.140342	0.198853	0.198524
2081	0.199346	0.196059	0.136233	0.196059	0.195402
2082	0.197703	0.199182	0.140342	0.199511	0.198196
2083	0.19721	0.197374	0.135083	0.199018	0.195073
2084	0.196388	0.201154	0.133932	0.199182	0.195566
2085	0.197867	0.197703	0.130481	0.200004	0.196881
2086	0.195566	0.196717	0.128837	0.201154	0.196059
2087	0.19836	0.201483	0.124893	0.19836	0.198196
2088	0.193265	0.197045	0.125386	0.197045	0.198524
2089	0.193594	0.201976	0.123413	0.199018	0.195237
2090	0.191621	0.199675	0.123085	0.20099	0.199182
2091	0.199346	0.202305	0.123578	0.198689	0.199511
2092	0.195566	0.198524	0.120619	0.193758	0.198031
2093	0.193758	0.198853	0.120291	0.195566	0.198689
2094	0.194416	0.196223	0.114702	0.195895	0.197538
2095	0.196388	0.198031	0.111415	0.192279	0.198524
2096	0.197703	0.196552	0.104512	0.19195	0.194744
2097	0.193922	0.196552	0.098924	0.196388	0.195895
2098	0.195895	0.198689	0.092843	0.197045	0.19721
2099	0.194909	0.199346	0.093993	0.197703	0.200004
2100	0.195237	0.198031	0.091035	0.200661	0.196717
2101	0.194744	0.199018	0.089391	0.200661	0.196552
2102	0.196552	0.197374	0.087255	0.200004	0.198524
2103	0.193265	0.19721	0.082817	0.199182	0.197045
2104	0.195073	0.200168	0.077558	0.197867	0.197867
2105	0.192443	0.198196	0.074928	0.199839	0.198853
2106	0.193429	0.197538	0.072134	0.199018	0.197374
2107	0.193758	0.197538	0.066053	0.198524	0.198196
2108	0.193922	0.194909	0.062273	0.197867	0.197703
2109	0.194909	0.196223	0.056191	0.196881	0.197045
2110	0.191128	0.197703	0.054548	0.197374	0.201647
2111	0.190964	0.195402	0.049781	0.199839	0.196223
2112	0.192443	0.19836	0.046823	0.19836	0.199675
2113	0.196717	0.197538	0.04633	0.197538	0.197045
2114	0.192772	0.195566	0.042714	0.199182	0.195566
2115	0.191786	0.196059	0.038934	0.19836	0.196717
2116	0.191128	0.197538	0.039263	0.200004	0.200168
2117	0.192443	0.197374	0.035647	0.200497	0.196223
2118	0.193101	0.198853	0.034168	0.199839	0.196552
2119	0.189978	0.19721	0.028744	0.200825	0.199346
2120	0.189156	0.199182	0.024799	0.198524	0.199839
2121	0.190471	0.198853	0.025457	0.200661	0.197703
2122	0.189814	0.19721	0.02595	0.201483	0.199675
2123	0.191457	0.196717	0.028086	0.201483	0.199839
2124	0.191457	0.197538	0.023977	0.199182	0.197703
2125	0.189814	0.19721	0.024142	0.198853	0.201812
2126	0.194251	0.193922	0.027593	0.198524	0.196717
2127	0.191293	0.195895	0.02973	0.199346	0.197703
2128	0.193758	0.19458	0.026443	0.19721	0.200332
2129	0.189156	0.194416	0.02595	0.197867	0.201319
2130	0.192443	0.192608	0.028744	0.199182	0.199839
2131	0.189649	0.196059	0.026771	0.200004	0.198524
2132	0.192443	0.196881	0.02973	0.196717	0.197374
2133	0.190635	0.197538	0.026936	0.199839	0.198853
2134	0.191786	0.19836	0.026278	0.201483	0.196881
2135	0.1908	0.202469	0.025457	0.200661	0.196717
2136	0.190471	0.199675	0.023649	0.203948	0.196881
2137	0.18932	0.198031	0.021183	0.200004	0.197045
2138	0.187513	0.199675	0.022827	0.203291	0.200332
2139	0.192279	0.197045	0.021676	0.198853	0.195895
2140	0.190142	0.202469	0.022991	0.201812	0.200004
2141	0.193758	0.194744	0.019868	0.201154	0.196223
2142	0.191786	0.199346	0.018389	0.200661	0.200332
2143	0.193594	0.200004	0.019704	0.199018	0.198689
2144	0.191457	0.194251	0.019375	0.199511	0.199511
2145	0.192115	0.197538	0.017567	0.202962	0.198689
2146	0.193429	0.200004	0.020362	0.199018	0.201812
2147	0.195073	0.198689	0.017732	0.199675	0.198031
2148	0.193594	0.196717	0.017896	0.202305	0.196717
2149	0.196059	0.198524	0.019868	0.204277	0.195237
2150	0.193265	0.200168	0.021348	0.20099	0.198524
2151	0.190142	0.199182	0.020855	0.203126	0.197045
2152	0.193101	0.199182	0.01954	0.201976	0.197538
2153	0.193429	0.199182	0.019868	0.203455	0.199182
2154	0.193922	0.200004	0.017403	0.202798	0.197374
2155	0.193758	0.200004	0.019047	0.20477	0.200332
2156	0.196059	0.196717	0.017896	0.202962	0.19836
2157	0.19721	0.201319	0.020197	0.202798	0.199675
2158	0.197374	0.197045	0.016746	0.202633	0.19721
2159	0.194909	0.198196	0.015595	0.202305	0.199675
2160	0.196717	0.197045	0.018389	0.200168	0.199839
2161	0.197538	0.198031	0.017239	0.200004	0.198689
2162	0.197045	0.196059	0.015431	0.201319	0.196223
2163	0.195566	0.193265	0.017239	0.202305	0.197867
2164	0.19721	0.197045	0.015102	0.203291	0.20099
2165	0.193265	0.196717	0.019375	0.201154	0.197703
2166	0.200332	0.197867	0.017567	0.204606	0.198689
2167	0.202305	0.197703	0.016253	0.201812	0.197045
2168	0.201154	0.201154	0.020033	0.202962	0.199018
2169	0.199839	0.197703	0.022169	0.202798	0.197538
2170	0.197867	0.197374	0.021676	0.203126	0.200825
2171	0.200661	0.197538	0.022334	0.198524	0.195566
2172	0.198853	0.199346	0.022169	0.204441	0.199511
2173	0.197703	0.19721	0.018718	0.200825	0.198031
2174	0.199839	0.199018	0.023156	0.201976	0.197374
2175	0.199511	0.198196	0.018718	0.199346	0.198196
2176	0.199018	0.198031	0.020362	0.199182	0.199346
2177	0.202633	0.196059	0.021841	0.198853	0.200332
2178	0.200497	0.20099	0.025457	0.19836	0.200004
2179	0.202633	0.199839	0.024142	0.198689	0.204441
2180	0.199511	0.199182	0.026114	0.197538	0.196552
2181	0.20362	0.193922	0.02447	0.19836	0.197867
2182	0.202305	0.197374	0.031867	0.197538	0.199018
2183	0.202962	0.198853	0.027593	0.19836	0.196717
2184	0.200661	0.196552	0.025292	0.19721	0.196388
2185	0.197703	0.199839	0.032031	0.196552	0.198853
2186	0.202305	0.197538	0.028744	0.19721	0.198031
2187	0.205263	0.200332	0.03088	0.198689	0.199511
2188	0.202633	0.196717	0.031702	0.200168	0.197045
2189	0.201812	0.200825	0.036962	0.199182	0.201976
2190	0.20477	0.19836	0.036469	0.196388	0.19721
2191	0.204934	0.197374	0.040084	0.197703	0.199839
2192	0.203455	0.193594	0.039263	0.196881	0.199839
2193	0.201319	0.199182	0.0437	0.195895	0.200168
2194	0.202962	0.19836	0.044358	0.196881	0.199511
2195	0.199018	0.196717	0.046494	0.195895	0.200825
2196	0.202633	0.196388	0.047809	0.196059	0.198853
2197	0.20214	0.202798	0.050932	0.195895	0.199182
2198	0.202305	0.19573	0.054712	0.198196	0.197867
2199	0.203291	0.201319	0.055698	0.196388	0.199018
2200	0.204606	0.200825	0.060465	0.196223	0.200168
2201	0.20477	0.197374	0.060793	0.198524	0.198689
2202	0.203948	0.20099	0.065888	0.198196	0.198524
2203	0.202962	0.197538	0.06671	0.197538	0.198524
2204	0.201154	0.199839	0.073942	0.199675	0.198853
2205	0.203455	0.196059	0.074106	0.19573	0.197703
2206	0.203455	0.199018	0.077722	0.19458	0.198853
2207	0.202469	0.198196	0.080352	0.194909	0.19721
2208	0.201154	0.199839	0.083475	0.193758	0.198524
2209	0.201812	0.199182	0.090213	0.19721	0.200004
2210	0.199018	0.199182	0.093665	0.195895	0.201319
2211	0.20362	0.198689	0.096788	0.196717	0.199018
2212	0.200497	0.196059	0.103033	0.198031	0.206907
2213	0.200004	0.19836	0.105334	0.197867	0.201812
2214	0.200004	0.198196	0.108457	0.197045	0.201154
2215	0.19721	0.19836	0.114374	0.201483	0.201154
2216	0.202962	0.197703	0.116346	0.195402	0.199182
2217	0.198524	0.199018	0.121605	0.199018	0.199839
2218	0.199511	0.195237	0.119469	0.19458	0.196388
2219	0.199018	0.199511	0.12555	0.198853	0.199346
2220	0.202469	0.19721	0.128015	0.197374	0.198524
2221	0.198196	0.197703	0.132289	0.197703	0.198853
2222	0.202798	0.198196	0.136233	0.199182	0.196552
2223	0.199511	0.197867	0.137877	0.19836	0.203291
2224	0.200825	0.19721	0.139192	0.198031	0.197867
2225	0.200825	0.196552	0.143958	0.19836	0.200332
2226	0.200661	0.196717	0.146588	0.201647	0.195895
2227	0.198524	0.197538	0.148396	0.195566	0.199675
2228	0.196717	0.197538	0.153326	0.198853	0.200004
2229	0.198524	0.196059	0.148724	0.196717	0.196881
2230	0.196223	0.202962	0.154641	0.197703	0.196223
2231	0.197374	0.200004	0.152998	0.197374	0.195402
2232	0.197538	0.201812	0.155792	0.196881	0.201319
2233	0.200332	0.199346	0.156449	0.197045	0.196059
2234	0.201154	0.200332	0.158093	0.199182	0.201976
2235	0.195895	0.196552	0.158257	0.195895	0.197045
2236	0.197538	0.196717	0.16516	0.196059	0.198853
2237	0.197045	0.197374	0.163681	0.197538	0.198031
2238	0.19573	0.196881	0.164174	0.189814	0.199182
2239	0.197374	0.106649	0.166968	0.19573	0.197045
2240	0.193265	0.030552	0.166475	0.195237	0.198524
2241	0.195895	0.039427	0.167297	0.195073	0.198689
2242	0.197867	0.045508	0.173542	0.19721	0.199839
2243	0.196552	0.054219	0.175186	0.197045	0.199839
2244	0.19836	0.004583	0.173049	0.195237	0.199511
2245	0.198031	-0.000183	0.176336	0.196717	0.202305
2246	0.195402	0.000803	0.175679	0.19721	0.201319
2247	0.195237	-0.000512	0.176994	0.199182	0.199839
2248	0.196717	-1.9e-05	0.177651	0.198031	0.199675
2249	0.196388	-0.000347	0.178966	0.197703	0.200168
2250	0.196223	-0.000183	0.17913	0.195402	0.199018
2251	0.195402	-0.000347	0.176336	0.19836	0.199511
2252	0.196552	-0.000676	0.180938	0.197045	0.196223
2253	0.195566	-0.000347	0.182911	0.200004	0.201812
2254	0.197867	-0.000676	0.181267	0.194744	0.19836
2255	0.197867	-0.000841	0.182911	0.195073	0.199839
2256	0.198853	-0.000512	0.184225	0.200825	0.199182
2257	0.197045	-0.000183	0.183568	0.195237	0.199018
2258	0.195402	-0.000183	0.18439	0.205427	0.19721
2259	0.195073	-0.000183	0.185212	0.203784	0.199675
2260	0.196717	-0.000183	0.186691	0.199511	0.198524
2261	0.195237	-1.9e-05	0.186855	0.198853	0.198524
2262	0.19458	-1.9e-05	0.184883	0.200168	0.199182
2263	0.192608	-0.000512	0.185376	0.197703	0.199346
2264	0.197867	-0.000676	0.185705	0.199018	0.199675
2265	0.197538	-0.000676	0.189156	0.196059	0.200332
2266	0.196717	-0.000676	0.188499	0.199675	0.199675
2267	0.197045	-0.000347	0.190471	0.19721	0.198689
2268	0.195895	-0.000183	0.1908	0.197045	0.198196
2269	0.195895	-0.000183	0.190635	0.19721	0.196552
2270	0.195073	-1.9e-05	0.191621	0.198689	0.199018
2271	0.198196	-1.9e-05	0.187019	0.197867	0.198853
2272	0.196059	0.00031	0.188992	0.198853	0.196059
2273	0.198196	0.001625	0.184225	0.196223	0.192443
2274	0.196881	0.00031	0.186362	0.197374	0.201154
2275	0.195237	-0.000676	0.192115	0.197703	0.198524
2276	0.198031	-1.9e-05	0.192772	0.195895	0.197538
2277	0.197703	-0.000841	0.190142	0.199839	0.201154
2278	0.19721	-1.9e-05	0.190142	0.197703	0.200332
2279	0.198689	0.000639	0.192608	0.200497	0.198689
2280	0.19573	-0.001005	0.192772	0.198031	0.197374
2281	0.197045	0.003761	0.194087	0.202469	0.197374
2282	0.198689	0.001789	0.193265	0.196388	0.195237
2283	0.196223	0.005569	0.194744	0.198853	0.197045
2284	0.197867	0.008857	0.187841	0.196388	0.194251
2285	0.198689	0.011486	0.193429	0.197538	0.197703
2286	0.195895	0.017567	0.195237	0.195566	0.197538
2287	0.192279	0.024306	0.194909	0.198689	0.200825
2288	0.20099	0.024306	0.191457	0.201483	0.197703
2289	0.197538	0.031373	0.193265	0.197867	0.200661
2290	0.196881	0.037948	0.194744	0.199675	0.199018
2291	0.197703	0.040742	0.193922	0.198689	0.19573
2292	0.200168	0.049288	0.196388	0.198031	0.198031
2293	0.199675	0.052904	0.199346	0.196717	0.199839
2294	0.196388	0.057013	0.194909	0.199018	0.198031
2295	0.196059	0.05915	0.187348	0.19573	0.197538
2296	0.197867	0.067368	0.19573	0.199018	0.200497
2297	0.196552	0.066546	0.194744	0.199182	0.197703
2298	0.199018	0.071477	0.19836	0.198031	0.19836
2299	0.199675	0.070162	0.193101	0.199839	0.198524
2300	0.196388	0.077558	0.197867	0.19836	0.200168
2301	0.199346	0.081995	0.196059	0.199018	0.196059
2302	0.197045	0.08857	0.193265	0.198524	0.196881
2303	0.197374	0.090871	0.195402	0.198524	0.194416
2304	0.19721	0.097116	0.198031	0.195895	0.196223
2305	0.197867	0.101225	0.196059	0.19721	0.19836
2306	0.195402	0.101883	0.186691	0.200332	0.194251
2307	0.197045	0.109936	0.195237	0.19721	0.199182
2308	0.19721	0.110593	0.195895	0.197045	0.199511
2309	0.197374	0.115853	0.19573	0.195237	0.198196
2310	0.198524	0.093007	0.19721	0.199346	0.199018
2311	0.198031	0.037948	0.196552	0.200825	0.199675
2312	0.197703	0.044851	0.195895	0.198196	0.196552
2313	0.19573	0.049946	0.197867	0.200825	0.198031
2314	0.197374	0.056027	0.197538	0.200004	0.196388
2315	0.192936	0.064574	0.198853	0.19721	0.197867
2316	0.199346	0.067861	0.196881	0.198689	0.196717
2317	0.196059	0.074599	0.190142	0.198031	0.197045
2318	0.198689	0.078708	0.196881	0.198196	0.19836
2319	0.195895	0.087419	0.198196	0.198031	0.199182
2320	0.194744	0.089556	0.197703	0.195566	0.199182
2321	0.19721	0.086597	0.200168	0.198853	0.201812
2322	0.199018	0.097281	0.201319	0.199675	0.201647
2323	0.196552	0.100896	0.198031	0.195237	0.199018
2324	0.197703	0.105992	0.193758	0.199675	0.20214
2325	0.197703	0.109443	0.196388	0.197045	0.19721
2326	0.198196	0.11158	0.197703	0.197703	0.198196
2327	0.197538	0.116675	0.195237	0.198031	0.197703
2328	0.196388	0.119962	0.188334	0.199182	0.197867
2329	0.198031	0.125057	0.195402	0.196717	0.197045
2330	0.198031	0.125879	0.196717	0.199839	0.199018
2331	0.198853	0.126207	0.195895	0.197867	0.196388
2332	0.195566	0.120619	0.19836	0.199346	0.19836
2333	0.19836	0.132124	0.197867	0.200004	0.19573
2334	0.19573	0.137877	0.19721	0.198196	0.195237
2335	0.198031	0.141986	0.201647	0.198524	0.197045
2336	0.198853	0.143794	0.205592	0.198524	0.196717
2337	0.19836	0.145766	0.202633	0.192608	0.196717
2338	0.193758	0.148231	0.20214	0.198196	0.198524
2339	0.195237	0.151354	0.193265	0.200497	0.197045
2340	0.196388	0.152669	0.196881	0.195402	0.199018
2341	0.19458	0.155956	0.199018	0.197538	0.201483
2342	0.196717	0.152833	0.197703	0.195402	0.197538
2343	0.19836	0.150697	0.200168	0.197538	0.200497
2344	0.201647	0.160558	0.196059	0.196881	0.197374
2345	0.196059	0.160394	0.198031	0.199018	0.198853
2346	0.200661	0.160722	0.198853	0.200661	0.196223
2347	0.197867	0.163516	0.204277	0.20099	0.199346
2348	0.200497	0.165982	0.199182	0.198196	0.194251
2349	0.196717	0.165817	0.199182	0.199018	0.197703
2350	0.197538	0.168612	0.193429	0.199182	0.19836
2351	0.196881	0.169926	0.196552	0.198524	0.198031
2352	0.199018	0.170584	0.200004	0.20099	0.20214
2353	0.196881	0.170584	0.198031	0.196223	0.205756
2354	0.200004	0.169433	0.200168	0.200497	0.200497
2355	0.197045	0.171899	0.198196	0.198689	0.197703
2356	0.197538	0.174364	0.199018	0.197045	0.199346
2357	0.197867	0.176829	0.195402	0.195073	0.200661
2358	0.198031	0.178473	0.198031	0.201976	0.200004
2359	0.200332	0.175843	0.195566	0.201319	0.19836
2360	0.197045	0.178966	0.199675	0.195073	0.198689
2361	0.198524	0.175515	0.191621	0.199346	0.198689
2362	0.196881	0.176829	0.195895	0.200332	0.199018
2363	0.199182	0.17798	0.197374	0.197045	0.19721
2364	0.199346	0.180116	0.19836	0.197374	0.19836
2365	0.198524	0.177815	0.199346	0.201319	0.197374
2366	0.200004	0.181431	0.199182	0.196388	0.19573
2367	0.194251	0.182582	0.198524	0.200168	0.197374
2368	0.196552	0.18176	0.199346	0.197867	0.19721
2369	0.19836	0.185869	0.201976	0.202469	0.198524
2370	0.196059	0.183075	0.199018	0.19721	0.199346
2371	0.194416	0.186198	0.199511	0.196223	0.198853
2372	0.19721	0.185212	0.193922	0.19836	0.200332
2373	0.194251	0.185705	0.199182	0.199675	0.198853
2374	0.197867	0.186691	0.196552	0.194909	0.195402
2375	0.195895	0.187348	0.195895	0.200332	0.201812
2376	0.196059	0.184883	0.189649	0.199182	0.198196
2377	0.200004	0.18439	0.191786	0.195895	0.199182
2378	0.198196	0.183239	0.195237	0.199675	0.198031
2379	0.19836	0.186362	0.195237	0.197374	0.197374
2380	0.199675	0.186855	0.199346	0.198853	0.194416
2381	0.199839	0.18817	0.19573	0.19836	0.198196
2382	0.199839	0.189649	0.200168	0.19836	0.19573
2383	0.199839	0.189156	0.19721	0.197703	0.194909
2384	0.198853	0.190964	0.19721	0.200004	0.197703
2385	0.196552	0.190142	0.199511	0.197538	0.198031
2386	0.195237	0.192608	0.200825	0.201647	0.199018
2387	0.193594	0.194251	0.199675	0.200661	0.199182
2388	0.199346	0.189814	0.200661	0.197045	0.198689
2389	0.198689	0.191128	0.199182	0.196881	0.197538
2390	0.197538	0.193265	0.200332	0.195237	0.200661
2391	0.202798	0.191457	0.199182	0.196223	0.195895
2392	0.199511	0.192443	0.198689	0.195402	0.201319
2393	0.197045	0.191128	0.198689	0.195402	0.199346
2394	0.197703	0.191621	0.200497	0.197045	0.201812
2395	0.199018	0.189156	0.195073	0.196881	0.199346
2396	0.199675	0.193265	0.196717	0.198031	0.197703
2397	0.200168	0.194251	0.19721	0.199018	0.197703
2398	0.196552	0.196881	0.19836	0.199018	0.19836
2399	0.200332	0.193265	0.200661	0.198853	0.19573
2400	0.199675	0.193594	0.199346	0.198689	0.197045
2401	0.198853	0.194909	0.199182	0.200497	0.19458
2402	0.19836	0.19195	0.200661	0.198689	0.196223
2403	0.198689	0.195402	0.201483	0.200004	0.198031
2404	0.197703	0.194416	0.200497	0.199182	0.199839
2405	0.19721	0.194416	0.203948	0.198031	0.201647
2406	0.198031	0.192936	0.19573	0.197045	0.199511
2407	0.196388	0.196717	0.199839	0.199511	0.201812
2408	0.199675	0.197867	0.199182	0.197867	0.199839
2409	0.193265	0.199675	0.199182	0.197703	0.19836
2410	0.197045	0.190471	0.197867	0.196552	0.19721
2411	0.195566	0.194087	0.198689	0.198524	0.199182
2412	0.200661	0.195895	0.195895	0.196717	0.198853
2413	0.197045	0.193429	0.197867	0.196388	0.196881
2414	0.200004	0.194416	0.200825	0.19836	0.19721
2415	0.197045	0.193758	0.199018	0.197867	0.200004
2416	0.201812	0.194416	0.201812	0.198689	0.195237
2417	0.200661	0.194416	0.197045	0.197538	0.198853
2418	0.195237	0.194909	0.199018	0.198689	0.198853
2419	0.196059	0.195895	0.199182	0.198031	0.196717
2420	0.194251	0.202962	0.201154	0.200497	0.197045
2421	0.197703	0.193429	0.199511	0.199839	0.195073
2422	0.19573	0.19721	0.199839	0.20099	0.194087
2423	0.196388	0.194416	0.196388	0.199018	0.197045
2424	0.193265	0.196881	0.199182	0.198689	0.197867
2425	0.198524	0.192936	0.196552	0.196881	0.199839
2426	0.196059	0.193429	0.199839	0.199018	0.197045
2427	0.196552	0.194087	0.202962	0.19721	0.19721
2428	0.197374	0.192608	0.199018	0.194087	0.19836
2429	0.197867	0.192936	0.197867	0.196223	0.19573
2430	0.197045	0.195895	0.200497	0.197867	0.194744
2431	0.198031	0.20099	0.198853	0.198031	0.193265
2432	0.199182	0.195237	0.198853	0.197374	0.19458
2433	0.200004	0.193922	0.201483	0.198689	0.19458
2434	0.195402	0.196552	0.196881	0.196881	0.196059
2435	0.192936	0.197867	0.200497	0.197703	0.19836
2436	0.198689	0.194416	0.199511	0.196881	0.19721
2437	0.196388	0.197374	0.201319	0.199018	0.199839
2438	0.194251	0.197867	0.202469	0.195566	0.19721
2439	0.195237	0.199839	0.199346	0.197538	0.199182
2440	0.195895	0.197538	0.199018	0.197538	0.200661
2441	0.192279	0.198524	0.200168	0.195073	0.198196
2442	0.197045	0.203291	0.200004	0.19721	0.191128
2443	0.198196	0.193922	0.198853	0.195895	0.198031
2444	0.197867	0.194251	0.198524	0.197703	0.197867
2445	0.19836	0.192936	0.19721	0.194087	0.200004
2446	0.200168	0.192608	0.197045	0.199346	0.198524
2447	0.200332	0.195073	0.198196	0.196059	0.199675
2448	0.198524	0.195237	0.200168	0.200332	0.198196
2449	0.200168	0.194087	0.199675	0.196059	0.197045
2450	0.198031	0.198524	0.198196	0.197374	0.203948
2451	0.198196	0.198689	0.196059	0.197867	0.200825
2452	0.197374	0.196717	0.200168	0.199018	0.199839
2453	0.199182	0.201319	0.200004	0.199018	0.188334
2454	0.198031	0.194909	0.20099	0.200332	0.196552
2455	0.19836	0.199839	0.197538	0.200004	0.197703
2456	0.197867	0.199675	0.199675	0.202798	0.198196
2457	0.198524	0.201647	0.199511	0.202469	0.197867
2458	0.198524	0.198689	0.200332	0.199018	0.200497
2459	0.198031	0.200825	0.198031	0.20099	0.198524
2460	0.196388	0.194416	0.200004	0.19721	0.199346
2461	0.198196	0.198853	0.197538	0.200661	0.199018
2462	0.200497	0.198031	0.198689	0.19836	0.199346
2463	0.199346	0.197703	0.199511	0.198853	0.202633
2464	0.200661	0.20214	0.197867	0.199675	0.189156
2465	0.200332	0.195566	0.199675	0.200004	0.198031
2466	0.200661	0.195895	0.197538	0.197538	0.198031
2467	0.199182	0.198853	0.198031	0.198196	0.198524
2468	0.201319	0.195402	0.198853	0.198689	0.198031
2469	0.201976	0.198196	0.199182	0.199839	0.198689
2470	0.199182	0.197538	0.197045	0.199346	0.196881
2471	0.199018	0.197374	0.203948	0.201647	0.200168
2472	0.197703	0.19836	0.199182	0.199839	0.199839
2473	0.197867	0.199018	0.197045	0.200004	0.200332
2474	0.198853	0.196717	0.196717	0.201812	0.197867
2475	0.196223	0.200332	0.201483	0.197045	0.188334
2476	0.199018	0.194416	0.197538	0.200168	0.197538
2477	0.198853	0.194909	0.193758	0.198031	0.199018
2478	0.19836	0.19573	0.199346	0.197538	0.198524
2479	0.199018	0.195237	0.199018	0.197538	0.19836
2480	0.198196	0.195402	0.200004	0.197867	0.197867
2481	0.198853	0.197538	0.199839	0.196059	0.19573
2482	0.199182	0.198196	0.204934	0.199018	0.198031
2483	0.197045	0.197045	0.197374	0.197538	0.198689
2484	0.196059	0.198689	0.199346	0.199511	0.197867
2485	0.200004	0.197374	0.199018	0.199511	0.198031
2486	0.196552	0.200825	0.201647	0.199511	0.190964
2487	0.200332	0.198853	0.198196	0.201154	0.196881
2488	0.199675	0.198196	0.19836	0.203455	0.199839
2489	0.197374	0.198196	0.19721	0.203455	0.196388
2490	0.198196	0.193922	0.201483	0.19836	0.198524
2491	0.20362	0.195566	0.19836	0.198196	0.197867
2492	0.198031	0.195895	0.198196	0.195402	0.199018
2493	0.19836	0.19573	0.204441	0.198031	0.198524
2494	0.200168	0.195566	0.197867	0.196881	0.200332
2495	0.197045	0.197703	0.201154	0.19573	0.200332
2496	0.20214	0.194744	0.200332	0.197538	0.199018
2497	0.196881	0.20099	0.200661	0.199182	0.194909
2498	0.199839	0.192772	0.200497	0.197374	0.197045
2499	0.199182	0.194416	0.20214	0.200825	0.199018
