Ladekurvenmessung

Zeit: 2018_05_04 08.56.33

Info: FVA3, v = 0.14, T = 23, F = 20, h = 60.4

Ladewiderstand[Ohm]: 1012700

Störkapazität[pF]: 0.000000

Entladezeit[ms]: 200

Abtastrate[Hz]: 250000

Anzahl der Messwerte: 2500.000000

Verzögerung[ms]: 3

Ladespannung[V]: 0.200000


	Kurve_1	Kurve_2	Kurve_3	Kurve_4	Kurve_5
0	-0.002155	-0.001498	-0.000347	-0.003799	-0.000512
1	-1.9e-05	0.000639	-0.000512	-0.001827	0.000639
2	-0.000347	-0.005607	-0.000183	-0.001169	-0.001169
3	-0.000676	-0.003635	0.00031	-0.001827	0.002118
4	-0.001169	-0.005443	0.00031	-0.001662	-0.001498
5	-0.000512	-0.000841	0.00031	-0.000183	-0.001662
6	-1.9e-05	-0.005278	0.00031	-0.001991	0.000967
7	-0.004128	-0.000347	0.00031	-0.001827	0.001132
8	-0.002155	0.000639	-1.9e-05	-0.001662	0.00031
9	0.000474	-0.00347	-0.000183	-0.000347	0.00031
10	-0.004621	-0.001498	-0.000512	-0.001662	-0.001169
11	-0.002977	-0.001662	-0.000347	-0.002155	-0.001498
12	-0.002813	-0.000183	-0.000183	0.000474	-1.9e-05
13	-0.001662	-0.003799	-0.000183	-0.000676	-0.001334
14	-0.000183	-0.001991	0.000146	-0.000512	-0.000676
15	0.000639	-0.001662	0.000146	0.000639	-0.000347
16	-0.000183	-0.001334	0.000146	-0.001005	-0.001334
17	-0.001169	-0.001005	0.00031	-0.000512	-0.000347
18	0.000474	-0.000676	0.00031	-0.003142	-0.000841
19	-0.001334	-0.001498	-1.9e-05	-0.001991	0.000146
20	-0.000512	0.00031	-0.000183	-0.001498	-0.000676
21	-0.000347	-0.007579	-0.000183	-0.005443	-0.000841
22	-0.000841	-0.002155	-0.000512	-0.003963	0.00031
23	-0.000347	-0.00232	0.000146	-0.004292	-0.000512
24	0.00031	-0.00347	-1.9e-05	-0.002155	-0.000841
25	0.000146	-0.000347	0.000146	-0.003799	-0.001827
26	0.000146	-0.005278	0.000146	-0.000841	-0.001662
27	-1.9e-05	-0.002648	0.00031	-0.000347	0.000639
28	-0.000347	-0.00232	0.000146	-0.002484	-0.001169
29	-0.000512	-0.003799	0.000146	-0.002813	0.000803
30	-0.000347	-0.001169	-1.9e-05	-0.00232	-0.000512
31	-0.000347	-0.001498	-0.000347	0.000146	0.001132
32	0.000146	-0.005114	-0.000347	-0.001827	-0.001498
33	0.000146	-0.001991	-0.000183	-0.001991	-0.000183
34	0.000146	-0.003635	0.00031	0.000803	-0.000841
35	0.00031	-0.003963	0.000146	-0.003799	0.000474
36	0.000146	-0.00232	-1.9e-05	-0.001169	-0.001005
37	0.000146	-0.001498	0.000146	-0.001991	0.000803
38	-0.000183	-0.002648	0.000146	-0.001662	0.000803
39	-0.000347	-0.001498	-0.000183	-0.001662	0.000474
40	-0.000347	-0.003635	0.000474	-0.004785	0.000474
41	-0.000512	-0.002813	-1.9e-05	0.00146	0.00031
42	-0.000512	-0.003142	-1.9e-05	-0.001662	0.000146
43	0.000146	-0.002155	-0.000841	-0.001662	-0.000676
44	-1.9e-05	-0.003142	-1.9e-05	-0.003635	-0.000841
45	-1.9e-05	-0.008565	0.000967	0.000639	-0.001005
46	0.00031	-0.004621	0.000146	-0.000183	0.000639
47	0.000146	-0.003799	0.000146	-0.002155	-0.005278
48	0.000146	-0.002813	-1.9e-05	0.000474	-0.001498
49	-0.000183	-0.004456	0.000474	-0.001662	-0.001662
50	-0.000183	-0.003306	0.000146	-0.001827	-0.001498
51	-0.000347	-0.0061	0.000146	-0.001169	-0.001169
52	-0.000512	-0.003799	-1.9e-05	-0.001498	0.00031
53	-0.000347	-0.004128	-1.9e-05	0.002118	0.00031
54	-1.9e-05	-0.001662	-0.000183	0.000803	0.000474
55	0.000146	-0.001334	-0.000347	-0.002813	-0.000183
56	0.000146	-0.008565	-0.000512	0.00031	0.000639
57	0.00031	-0.004128	-0.000183	-0.002484	0.000967
58	0.00031	-0.002813	-1.9e-05	0.00031	-0.004292
59	0.00031	-0.001662	0.000146	-0.002484	-0.001334
60	0.000146	-0.001662	0.00031	0.000146	-0.003142
61	-0.000347	-0.002484	0.000639	-0.001827	0.000967
62	-1.9e-05	-0.003306	0.00031	-0.001334	0.000474
63	-0.000183	-0.002813	-1.9e-05	-0.002648	0.00031
64	-0.000347	-0.001991	-0.000183	-0.000512	-0.00232
65	-1.9e-05	-0.003142	-0.000347	0.00031	0.001296
66	-1.9e-05	-0.000512	-1.9e-05	-0.002977	-0.002977
67	0.000146	-0.007415	-0.000676	-0.001334	-0.001334
68	0.00031	-0.006922	-1.9e-05	-0.003142	-0.001827
69	-1.9e-05	-0.00232	0.000146	-0.001169	-0.005607
70	0.00031	-0.003142	0.000146	0.000474	-0.002813
71	-0.000183	0.000146	0.00031	-0.000841	0.001296
72	-0.000347	-0.004128	0.000474	-0.004128	-0.000512
73	-0.000183	-0.003306	0.000146	-0.001334	-0.000841
74	-0.000512	-0.001662	-1.9e-05	-0.002484	0.004255
75	-0.000183	-0.001498	-0.000183	-0.003142	-0.003635
76	0.000146	-0.002484	-0.000183	-0.000347	-0.000347
77	0.00031	-0.002813	0.000146	-0.00347	0.000474
78	0.00031	-0.000183	-0.002155	-0.001991	0.000146
79	0.000146	-0.004456	0.003433	-0.004621	-0.000183
80	0.000146	-0.002977	-0.001498	-0.001169	-0.001662
81	-1.9e-05	-0.004456	-0.002977	-0.002155	-0.003799
82	-0.000183	-0.004292	0.002775	-0.000347	0.000474
83	-0.000183	-0.002155	0.000967	-0.003799	-0.001005
84	-0.000512	-0.004292	-0.001827	-0.003142	-0.001334
85	-0.000347	-0.001334	0.000146	-0.00347	0.000146
86	-0.000512	-0.005114	-0.001334	0.000803	-1.9e-05
87	-0.000183	-0.002977	-0.000347	-0.002484	-1.9e-05
88	0.000146	-0.002484	-0.001005	-0.001662	0.000803
89	0.000146	0.001954	-0.001991	-0.002484	0.000146
90	0.00031	-0.003635	-0.003799	-0.001498	-0.000183
91	0.00031	-0.0061	-0.000183	-0.001005	0.004419
92	0.000146	-0.003963	-0.000676	-0.002155	-0.000676
93	-1.9e-05	-0.002484	-0.000347	-0.003142	0.001132
94	-0.000183	-0.004292	0.002118	-0.001827	-0.000347
95	-0.000512	-0.002155	-0.001334	0.00031	0.000146
96	-0.000347	-0.002484	0.000967	-0.002155	0.00031
97	-0.000347	-0.001991	0.000146	-0.003799	0.001625
98	-0.000183	-0.002484	-0.00232	-0.000676	-1.9e-05
99	0.000146	-0.002813	0.000803	-0.001827	0.000639
100	0.000146	-0.004292	-1.9e-05	-0.001991	-0.001991
101	0.000146	0.001954	-0.007086	-1.9e-05	-0.000183
102	0.00031	-1.9e-05	-0.001169	-0.000183	0.004583
103	0.00031	0.00031	-0.000183	-0.002155	-0.004785
104	-0.000183	-0.000676	-0.004785	-0.000512	0.001132
105	-0.000347	0.000803	-0.002977	-0.001334	-1.9e-05
106	-0.000512	0.000474	-0.002155	-0.001334	0.000146
107	-0.000347	0.003268	-0.003306	-0.001991	-0.000512
108	-0.000183	0.000967	-0.001334	-0.00232	0.001625
109	-1.9e-05	0.000474	-0.000183	-0.002977	-0.002813
110	0.000146	0.002611	-0.001005	-0.004621	0.001625
111	0.000146	0.001296	0.001296	-0.004621	0.001132
112	0.000146	0.000803	-0.002155	-0.001498	-0.001498
113	0.000146	-1.9e-05	0.00031	-0.002648	0.001132
114	0.000146	-0.001334	-0.000183	0.00031	-0.001169
115	-0.000183	0.001296	-0.001169	-0.002977	-0.000676
116	-0.000347	0.000474	-0.003963	0.002118	-0.001827
117	-0.000347	0.000146	-0.001991	-0.006922	0.00031
118	-0.000347	-1.9e-05	-0.000183	-0.002155	-0.001005
119	-1.9e-05	-0.000183	-0.001991	-0.001169	0.000639
120	-1.9e-05	-0.000183	-0.001005	0.002282	0.00031
121	-1.9e-05	-0.000183	-0.001005	-0.001005	0.003597
122	-1.9e-05	-0.000183	-0.000841	-0.000676	-0.001005
123	0.00031	-0.000183	-0.002648	-0.003635	-0.000676
124	0.000474	-1.9e-05	-0.000841	-0.003306	0.001625
125	0.000146	0.000474	-0.003799	-0.002977	-0.000676
126	-1.9e-05	0.000146	-0.000183	-0.002648	-0.000183
127	-0.000512	0.00031	-0.001169	-0.005114	-0.000183
128	-0.000347	0.00031	-0.000676	-0.004292	0.001954
129	-0.000347	-1.9e-05	-0.000183	-0.001169	0.003268
130	-1.9e-05	-0.000347	0.000803	-0.003306	-0.002977
131	0.000146	-0.000512	-0.003306	-0.002155	-0.000183
132	0.000146	-0.000347	0.001625	-0.002648	-0.000183
133	0.00031	-0.000183	-0.000841	0.000639	-0.001005
134	0.00031	-1.9e-05	-0.002813	-1.9e-05	-0.001334
135	0.000146	0.00031	0.000146	0.003268	-0.000841
136	-1.9e-05	0.000146	-0.002813	-0.000676	-0.001498
137	-0.000183	0.00031	-0.003306	0.00146	-0.001991
138	-0.000347	0.000146	-0.002977	-0.001498	0.001132
139	-0.000183	0.000146	0.000474	-0.003142	-0.001169
140	-0.000347	-0.000183	-0.003963	-0.000512	0.00031
141	-0.000347	-0.000347	0.000803	-0.00347	-0.000183
142	-1.9e-05	-0.000512	-0.001662	-0.001991	0.00031
143	0.000146	-0.000347	-0.001334	-0.004456	-0.001005
144	0.000146	-0.000512	0.00031	-0.005771	-1.9e-05
145	0.00031	-1.9e-05	-0.00232	-0.003799	-0.000841
146	0.00031	0.000146	-0.002813	-0.001498	0.003104
147	-1.9e-05	0.00031	0.000146	-0.002977	-0.001827
148	-0.000183	0.00031	-0.000347	-0.003142	0.000639
149	-0.000347	0.00031	-0.000183	-0.002484	0.001789
150	-0.000183	0.000146	-0.001827	-0.000676	0.00031
151	-0.000347	-0.000183	-0.003142	-0.003142	0.001296
152	-0.000183	-1.9e-05	-0.001827	-0.000183	-1.9e-05
153	-1.9e-05	-0.000347	-0.002977	-0.001334	-0.000676
154	0.000146	-0.000676	-0.001498	0.000146	-0.002977
155	0.00031	-0.000347	-0.000676	-1.9e-05	-0.000183
156	0.00031	-1.9e-05	-0.00347	-0.000347	-0.001827
157	0.00031	0.000146	-0.003306	0.001954	-1.9e-05
158	0.00031	-0.000183	-0.000512	-1.9e-05	-0.001827
159	-0.000183	0.000146	-0.003799	0.002282	-0.002648
160	-0.000347	0.000146	-0.001169	-0.004292	0.00146
161	-0.000183	0.000146	0.000146	-0.001827	0.00294
162	-0.000347	-1.9e-05	-0.003306	-0.004456	0.000146
163	-0.000183	-0.000512	-0.000512	-0.00232	0.002447
164	0.000146	-0.000183	-0.000183	-0.003799	0.000146
165	0.000146	-0.000183	-0.003142	-0.003799	-0.000512
166	0.000146	-0.000347	-0.003306	-0.001662	-0.000841
167	-1.9e-05	-1.9e-05	-0.000676	-0.002648	-1.9e-05
168	0.000474	0.00031	-0.001991	-0.001005	-0.001498
169	-1.9e-05	0.000146	0.000146	0.000146	0.000474
170	-0.000183	0.000474	-0.002155	-0.000841	-0.000183
171	-0.000347	0.00031	-0.002155	-0.001991	0.000967
172	-0.000183	0.00031	-0.001662	-0.000512	0.002447
173	-0.000183	-1.9e-05	-0.001005	-0.003799	-0.002648
174	-0.000183	-0.000183	-0.00347	-0.002813	-0.000183
175	-1.9e-05	-0.000347	-0.000347	-0.005278	0.000146
176	-1.9e-05	-0.000512	-0.00347	-0.002155	0.000146
177	0.000146	-0.000183	-0.001827	-0.003799	-0.000347
178	0.00031	0.000146	-0.002484	-0.006429	0.000146
179	0.000146	-1.9e-05	-0.001334	-0.007415	-0.001662
180	0.000146	0.000146	-0.001827	-0.003306	0.00031
181	-0.000183	0.000146	-0.004949	-0.000512	0.002282
182	-0.000347	0.000146	0.00146	-0.00347	0.000146
183	-0.000183	0.000146	-0.002484	-0.001662	0.001296
184	-0.000347	-0.000183	-0.000512	-0.001991	0.000639
185	-1.9e-05	-0.000183	-0.001827	-0.001169	-1.9e-05
186	0.000146	-0.000347	0.00031	-0.000347	-0.000676
187	0.000146	-0.000347	0.000474	-0.001498	0.000639
188	0.000146	-0.000183	0.000146	-0.000183	-0.00232
189	0.000146	-1.9e-05	-0.004785	-0.001827	-0.000841
190	0.00031	0.00031	-0.000347	-0.001991	-0.000512
191	0.000146	0.000146	0.000967	0.000639	-0.001334
192	-0.000183	0.00031	-0.001005	-0.002648	-0.000512
193	-0.000183	0.000146	-0.002977	-0.001005	0.000639
194	-0.000347	-1.9e-05	-0.003142	-0.002155	-0.000183
195	-0.000512	-0.000183	-0.00232	-0.001827	0.00146
196	-0.000183	-0.000347	-0.000841	-0.00347	-0.000183
197	-1.9e-05	-0.000347	0.001954	-0.001334	0.00031
198	0.000146	-0.000183	-0.00232	-0.004456	-0.001169
199	-1.9e-05	-0.000183	-0.000347	-0.000841	-0.000347
200	0.000146	-1.9e-05	-0.002977	-0.002813	0.001296
201	0.00031	0.000146	-0.001005	-0.001662	0.00031
202	-1.9e-05	0.000146	-0.002648	-0.000512	-1.9e-05
203	-1.9e-05	0.00031	0.000967	-0.001498	-0.000183
204	-0.000183	0.000146	-0.003799	-0.001169	0.000474
205	-0.000512	0.00031	-0.000347	-0.001662	-0.001005
206	-0.000347	-0.000183	-0.001334	0.00031	0.000474
207	-0.000347	-0.000183	-0.000183	0.002118	-0.001169
208	0.000146	-0.000347	-0.001662	0.00294	-0.000841
209	0.000146	-0.000512	-0.001498	0.000146	-0.001005
210	0.00031	-0.000183	-0.000841	0.002282	0.001789
211	0.000146	0.000146	-0.00232	0.000967	0.000639
212	0.00031	0.000146	-0.000183	0.000474	0.000474
213	-1.9e-05	0.000146	-0.002484	-1.9e-05	-0.000512
214	-0.000183	0.00031	-0.001005	-0.000183	-0.000183
215	-0.000183	0.00031	-0.002648	-0.004785	0.00031
216	-0.000183	0.000146	-0.004785	-1.9e-05	-0.002813
217	-1.9e-05	-1.9e-05	-1.9e-05	0.000146	0.000803
218	0.000474	-0.000183	0.001296	0.000474	-0.000676
219	-1.9e-05	-0.000512	-0.000347	-1.9e-05	0.001132
220	-0.000347	-0.000512	0.000146	0.000146	-0.000676
221	0.000967	-0.000512	-0.000841	-1.9e-05	0.000146
222	0.000146	-1.9e-05	0.00031	-0.000347	0.000474
223	0.000639	0.000146	-0.001827	-0.000347	0.000474
224	0.00031	0.000146	-0.001334	-0.000512	-0.001827
225	-1.9e-05	0.000146	-0.001662	-0.000183	0.001296
226	-0.000512	0.000146	-0.001498	0.00031	0.000803
227	-0.000183	0.000146	-0.00232	0.000146	-0.000676
228	-0.000347	-0.000347	-0.003142	0.000146	0.000803
229	-0.000347	-0.000183	0.00031	0.00031	-0.000347
230	0.000146	-0.000183	-0.005278	0.00031	0.000967
231	-0.000183	-0.000183	-0.001334	-0.000183	0.000639
232	0.000146	-0.000347	-0.002813	-0.000183	0.001296
233	0.00031	-1.9e-05	-0.001827	-0.000347	0.000474
234	0.000474	0.000146	-0.002813	-0.000512	0.000474
235	0.000146	0.00031	-0.000676	-0.000347	-1.9e-05
236	-0.000347	0.00031	0.00031	-0.000512	0.000803
237	-0.001169	0.00031	-0.000183	0.00031	0.000474
238	0.000803	-1.9e-05	-0.001169	0.000474	0.000474
239	-0.001169	-0.000183	-0.000183	-1.9e-05	0.000639
240	0.001296	-0.000347	0.001132	0.00031	-0.001827
241	0.00146	-0.000183	-0.003963	0.00031	-0.001334
242	-0.000183	-0.000512	-0.002648	0.000146	0.000639
243	0.000967	-0.000347	-0.003799	-0.000347	0.000146
244	0.000146	-1.9e-05	-0.001169	-0.000183	-0.003142
245	0.00031	-1.9e-05	-0.002813	-0.000512	0.002118
246	-1.9e-05	0.000146	-0.000347	-0.000512	-0.000512
247	-0.000183	0.00031	-0.004292	-0.000183	-0.001827
248	-0.000512	0.000146	-0.000841	0.000146	-0.000676
249	-0.000347	-1.9e-05	-0.002813	0.00031	-0.002484
250	-0.000512	-0.000347	-0.001334	0.00031	-0.001005
251	-0.000183	-0.000512	-0.001498	0.000146	-1.9e-05
252	-1.9e-05	-0.000347	-0.000676	0.00031	-0.001334
253	0.000146	-0.000347	-0.003799	-1.9e-05	0.001296
254	0.00031	-0.000347	-0.001827	-0.000183	-0.000512
255	0.00031	0.000146	-0.002484	-0.001498	-0.004292
256	0.00031	0.000146	-0.002155	0.00031	0.000639
257	-1.9e-05	0.00031	-0.001827	-0.001662	-0.00232
258	-0.000183	0.000146	-0.002648	0.000803	-0.00232
259	-0.000512	0.00031	0.000474	0.001625	-0.003306
260	-0.000347	0.00031	-0.001662	-0.004949	0.000146
261	-0.000512	-0.000183	-0.000841	0.000146	0.000146
262	-0.000183	-0.000183	-0.001827	0.001296	-0.000676
263	0.000146	-0.000183	-0.000676	-0.000676	-0.002484
264	0.00031	-0.000512	-0.001334	-0.001169	-0.000676
265	0.00031	-0.000183	-0.002648	0.000146	-0.001827
266	0.000474	-1.9e-05	-0.000512	-0.000512	0.00031
267	0.00031	-1.9e-05	-0.000841	-1.9e-05	-0.002977
268	-0.000183	0.000146	-0.001827	0.000803	-0.002977
269	-0.000512	0.00031	-0.001169	-0.002648	-0.000183
270	-0.000512	0.00031	-0.001662	0.000639	-0.002155
271	-0.001827	0.000146	-0.000183	-0.003635	-0.002813
272	-0.00232	-0.000347	-0.000512	-0.001827	-0.005607
273	0.002118	-0.000512	0.002282	-0.001498	-0.002813
274	0.000474	-0.000676	0.000146	-0.000347	-0.00347
275	-0.000183	-0.000347	0.00031	-0.001827	-0.001498
276	0.00031	-0.000183	-0.002155	-0.001169	-0.003306
277	0.00031	-0.000183	-0.001334	-0.001991	-0.00232
278	-0.001005	0.000146	-0.000841	0.000146	-0.002155
279	0.002611	0.00031	-0.001169	-0.00232	-0.001498
280	-1.9e-05	0.00031	-0.00232	-0.001169	-0.001498
281	-0.000183	0.000146	-0.006264	0.002447	-0.003635
282	-0.000347	0.000146	-0.003799	-0.001334	-0.00347
283	0.001296	-0.000183	-0.001169	-0.000347	-0.001169
284	0.000803	-0.000347	-0.001498	-0.001005	-0.002484
285	0.000803	-0.000512	-0.001827	-1.9e-05	-0.000841
286	0.00031	-0.000347	-0.00232	0.000474	-0.000512
287	-0.001005	-0.000347	-0.001169	0.000803	-0.001662
288	0.002611	-0.000347	-0.001827	-0.003142	0.000967
289	-1.9e-05	0.00031	-0.001169	-0.001169	-0.001334
290	0.001132	0.000146	-0.001991	-0.001334	-0.00232
291	0.000967	0.000146	-0.003635	0.001789	-0.000512
292	0.000639	0.000146	-0.001662	-0.001662	-0.001827
293	-0.001334	-1.9e-05	-0.001498	-0.000512	-0.000676
294	0.000967	-1.9e-05	-0.001991	-0.001334	-0.001498
295	-0.000676	-0.000512	-0.002155	-0.000676	-0.004292
296	0.002282	-0.000512	-0.004292	0.001296	-0.001498
297	0.000146	-0.000183	-0.001169	-1.9e-05	-0.004949
298	0.000639	-0.000183	-0.001991	0.002611	-1.9e-05
299	0.002118	-1.9e-05	-0.003963	-0.001991	-1.9e-05
300	0.001954	-1.9e-05	-0.00347	-0.000841	0.000967
301	-0.001334	0.000146	-0.005607	-0.001169	-0.001498
302	-0.000183	0.000146	-0.002648	-0.000347	0.00031
303	-0.002484	0.00031	-0.004292	-0.003142	0.000639
304	-0.000512	-1.9e-05	-0.006593	-0.001827	-0.002813
305	0.00031	-0.000183	-0.006757	-0.001498	0.00031
306	-0.000183	-0.000512	-0.003799	-0.001334	-0.002484
307	0.000146	-0.000347	-0.000183	-0.000841	-0.000841
308	0.000146	-0.000512	-0.001498	-0.000183	-0.005936
309	0.00031	-0.000183	-0.002484	0.000639	0.000474
310	0.00031	0.000146	-0.000183	0.003433	-0.001005
311	0.000474	0.000146	-0.002155	-0.000183	-0.001991
312	-1.9e-05	0.000146	-0.001005	-0.001498	-0.000841
313	-0.000183	-1.9e-05	-0.002977	0.002447	-0.004292
314	-0.000512	0.000146	-0.001827	-0.000512	-0.004456
315	-0.000347	0.000146	-0.001169	-0.001498	-0.00232
316	-0.000512	-0.000183	0.000803	0.000967	0.000803
317	-0.000183	-0.000183	-0.001169	-0.001334	-0.00347
318	-1.9e-05	-0.000183	-0.003142	-0.003142	-0.000676
319	-1.9e-05	-0.000347	-0.001334	-1.9e-05	-0.001991
320	0.00031	-0.000347	-0.003306	0.000474	-0.002484
321	0.00031	-1.9e-05	-0.000512	-0.003142	-0.001498
322	0.000146	0.00031	-0.002484	-0.001498	-0.001334
323	-0.000512	0.000146	-0.002484	-0.002155	-0.003306
324	0.000474	0.00031	-0.002977	0.002118	-0.000676
325	-0.000512	0.000146	0.001954	-0.003142	-0.00347
326	-0.000512	0.00031	-0.000676	-0.00232	-0.002813
327	-0.000676	-0.000183	0.001789	-0.005771	-0.001334
328	-1.9e-05	-0.000347	-0.001827	-0.00347	-0.006429
329	-0.000183	-0.000347	0.000967	-0.002648	-0.004785
330	0.000146	-0.000347	0.002282	-0.00232	-0.005278
331	0.00031	-0.000347	-0.00232	-0.005278	-0.002484
332	0.000474	0.000146	-0.004949	-0.000347	-0.002484
333	-0.000183	0.00031	0.000474	-0.000676	-0.001498
334	-1.9e-05	0.000146	-0.002155	-0.000183	-0.003963
335	0.000146	0.000146	-0.002813	-0.000512	-0.001334
336	-0.000676	0.00031	-0.000512	-0.000512	-0.003635
337	-0.000183	-1.9e-05	-0.004292	-1.9e-05	-0.002813
338	-0.001005	-1.9e-05	-0.003963	0.000146	-0.000512
339	-0.00232	-0.000347	-0.000841	0.00031	-0.000347
340	-0.003635	-0.000347	-0.001005	0.00031	-0.001169
341	-0.002484	-0.000676	0.001132	-1.9e-05	0.000146
342	-0.002813	-0.000347	0.005241	-0.000183	-0.001827
343	-0.001827	-1.9e-05	0.000639	-0.000347	-0.000512
344	-0.000183	-1.9e-05	0.001789	-0.000347	-0.000183
345	0.00031	0.000146	0.000803	-0.000347	-0.002484
346	-0.000512	0.000146	0.000967	-0.000512	-0.002813
347	-0.000676	0.00031	-0.000841	0.000146	-0.002813
348	0.00031	-1.9e-05	0.002282	0.000146	-0.004456
349	-0.001334	-0.000183	0.000146	0.00031	-0.003306
350	-0.001005	-0.000347	0.000639	-0.000512	-0.002484
351	0.001132	-0.000347	-0.001334	0.00146	-0.00232
352	-0.000183	-0.000347	0.001296	0.003268	0.00031
353	-0.001169	-0.000183	0.005076	0.001954	-0.00232
354	0.002611	-0.000183	-0.002484	0.000474	-0.004128
355	-0.001827	0.000146	0.000474	-0.000512	-1.9e-05
356	0.001296	0.00031	-0.000676	-0.001991	-0.002484
357	0.000474	0.00031	0.003268	-0.001991	-0.003799
358	-0.001498	0.00031	0.002447	-0.000512	-0.003306
359	-0.002484	0.000146	0.001625	-0.004621	-0.001169
360	-0.008401	-0.000183	-0.001498	-1.9e-05	-0.003799
361	-0.001662	-0.000183	0.000474	0.000474	-0.002648
362	-0.003635	-0.000347	-0.000841	0.001132	-0.002977
363	-0.001498	-0.000512	-0.000347	0.001296	-0.005771
364	0.000803	-0.000183	-0.001662	0.002775	-0.005278
365	0.000474	-1.9e-05	-0.004128	0.003597	0.000146
366	0.00294	0.00031	-0.002977	0.004255	-0.002155
367	0.003433	0.000146	-0.004949	0.001789	-0.002648
368	0.001789	0.00031	-0.001334	-0.000183	-0.00347
369	0.00146	0.000146	-1.9e-05	0.008692	-0.001991
370	-0.001827	-1.9e-05	0.003104	0.00294	-0.005771
371	-0.00725	-0.000183	-0.000841	0.004912	-0.00232
372	-0.001334	-0.000183	0.002775	0.003761	-0.003799
373	-0.001827	-0.000512	-0.000841	0.00146	-0.003306
374	-0.000841	-0.000512	-1.9e-05	0.003433	-0.004456
375	-0.00232	-0.000347	0.000639	0.003926	-0.001991
376	-0.00232	0.00031	0.00031	-0.001498	-0.00232
377	-0.004456	-1.9e-05	0.000146	0.004748	-0.002155
378	-0.002484	0.000146	0.00031	0.00409	-0.001662
379	-0.001662	0.000146	-0.000183	0.004748	-0.001334
380	-0.000676	0.00031	0.003433	0.003104	-0.000347
381	-0.001827	-1.9e-05	0.00409	0.010829	-0.002648
382	-0.002648	-1.9e-05	-0.00347	0.004748	-0.001169
383	-0.007086	-0.000347	0.001296	0.004748	-0.000676
384	0.004748	-0.000183	-0.001662	0.00409	-0.002977
385	-0.001991	-0.000512	-0.000676	0.005241	-0.002813
386	0.001954	-0.000347	-0.000347	0.004419	-0.001005
387	-0.001498	0.00031	-0.002648	0.002611	-0.002155
388	-0.001827	0.000146	-0.005278	0.003268	0.000967
389	-0.000676	0.000146	-0.004456	0.001625	-0.005443
390	-0.002484	0.000146	0.002775	0.00031	-0.002977
391	-0.001005	0.000474	-0.002484	0.000639	-0.003142
392	-0.003306	-1.9e-05	0.001625	0.00409	-0.000841
393	0.00409	-0.000347	0.004912	0.000474	-1.9e-05
394	-0.00347	-0.000347	0.003433	0.00294	0.001132
395	-0.002813	-0.000347	0.001625	-0.000676	0.00031
396	-0.002648	-0.000512	0.001132	0.002611	-0.001827
397	-1.9e-05	-0.000347	0.002611	-0.000183	-0.000183
398	-0.001498	-0.000183	0.000639	0.003104	-0.000841
399	-0.001498	0.000146	-0.000841	-0.002155	0.001296
400	-0.000841	0.000146	0.001132	-0.001169	-0.002648
401	-0.00232	0.00031	-0.000676	-0.000841	-0.001662
402	-0.002977	0.00031	-1.9e-05	0.002282	-0.003963
403	-0.00347	-0.000183	-0.002155	0.001625	-0.002648
404	0.002611	-0.000183	0.000146	0.001954	-0.000183
405	-0.001498	-0.000512	-0.001827	0.00294	0.000803
406	0.000803	-0.000347	-0.003142	-0.000347	-0.00232
407	-0.001662	-0.000347	-0.003963	0.000639	-0.002155
408	-0.000512	-0.000183	-0.002977	-0.000183	-0.001005
409	-0.002155	-1.9e-05	0.00031	0.000803	-0.002977
410	-0.00347	0.00031	-0.001498	-0.001005	0.000146
411	-0.001005	0.000146	-0.000676	-0.008401	-0.004949
412	-0.002648	0.000146	-0.001827	-0.002813	-0.001498
413	-0.004949	0.000146	-1.9e-05	-0.000183	-0.002977
414	-0.000183	-1.9e-05	0.002118	0.000146	-0.001169
415	-0.001498	-0.000183	0.001789	-0.000676	-0.001662
416	0.00146	-0.000183	-0.002813	0.00294	0.002282
417	0.001132	-0.000183	0.000146	-0.001498	-0.003635
418	0.001789	-0.000512	-0.001991	0.000803	-0.005936
419	0.001296	-0.000183	-0.001662	0.003268	-0.001991
420	0.000474	0.000146	-0.001991	0.003268	-0.0061
421	-0.000676	0.000146	-0.001005	0.001132	-0.002648
422	0.000146	0.000146	-0.00232	-0.002155	-0.003306
423	0.000474	0.000146	-0.001334	-0.000841	-0.006593
424	-0.001169	0.000146	-0.002155	0.003104	-0.009551
425	0.000146	0.000146	-0.000512	0.002611	-0.002813
426	-1.9e-05	-0.000183	-0.001827	0.001789	-0.002648
427	0.000967	-0.000512	-0.002648	0.001625	-0.000512
428	-0.001334	-0.000512	-0.000512	-0.000512	-0.00232
429	-0.00232	-0.000512	-0.00232	0.001132	-0.000676
430	-0.00347	-0.000183	-0.002155	0.004255	-0.003306
431	-0.003306	-1.9e-05	-1.9e-05	0.000639	-0.001005
432	-0.005114	0.000146	0.003104	0.000474	-0.002813
433	-0.001169	0.00031	-0.002484	0.005898	-0.002484
434	-0.00347	-1.9e-05	-0.001169	0.003597	-0.002155
435	-0.001169	0.000146	-0.003142	0.003926	-0.003142
436	-0.000512	-0.000183	-0.001334	0.005076	-0.003799
437	0.001789	-0.000183	-0.003306	0.007213	-0.002155
438	-0.000676	-0.000183	-0.003306	0.002775	-0.004456
439	-0.002977	-0.000183	-0.004621	0.004255	-0.000841
440	-0.001991	-0.000183	-0.002977	0.006062	-0.004292
441	-0.001334	-0.000183	-0.004456	0.006884	-0.005278
442	-0.004949	0.00031	-0.002484	0.005898	-0.000841
443	-0.002484	0.000639	-0.002648	0.005569	-0.00232
444	-0.000347	0.00031	-0.000512	0.008692	-0.002977
445	-0.00232	-1.9e-05	-0.004621	0.005569	-0.003799
446	-0.001005	0.000146	-0.005114	0.003761	0.001296
447	-0.002977	-0.000183	0.001625	0.004255	-0.002648
448	0.001296	-0.000183	-0.003963	0.007049	0.00146
449	-0.00347	-0.000347	0.00031	0.003761	0.001296
450	-0.001991	-0.000347	-0.005278	0.004583	-0.001334
451	-0.00232	-0.000512	-1.9e-05	0.005405	-0.000347
452	-0.00232	-0.000183	-1.9e-05	0.008035	-0.002155
453	-0.001334	-1.9e-05	-0.00232	0.005405	0.002447
454	-0.000841	-1.9e-05	-0.002977	0.006062	-0.003306
455	-0.000512	0.00031	-0.002155	0.004419	-0.00232
456	0.001789	0.000146	-0.004456	0.005569	-0.001662
457	-0.000183	0.000146	-0.004128	0.005076	-0.00232
458	0.000146	-0.000183	-0.00232	0.004419	-0.002155
459	-0.001662	-0.000183	0.000146	0.006884	0.001132
460	0.00031	-0.000183	-0.002155	0.006062	0.00031
461	-0.000347	-0.000347	-0.002155	0.002447	0.001789
462	-0.001334	-0.000347	-0.004128	0.00294	-0.000183
463	0.000803	-1.9e-05	-0.003142	0.002611	0.001132
464	-0.000841	0.000146	-0.001498	0.003104	-0.000183
465	-0.002648	0.000146	-0.003963	0.003926	0.000803
466	0.000639	0.00031	-0.002648	0.003926	0.001296
467	0.000803	-1.9e-05	-0.001005	0.003433	-0.000183
468	-0.001005	0.000146	-0.001662	0.002282	0.000146
469	-0.000676	-0.000183	-0.000347	0.003104	0.000474
470	-0.000183	-0.000347	0.000967	0.003268	-0.001662
471	-0.000676	-0.000347	-0.000841	0.003761	0.001625
472	-1.9e-05	-0.000347	-0.000183	0.000639	-0.000841
473	0.000639	-0.000676	-0.00873	0.004748	0.00031
474	0.000474	-0.000183	-0.002155	0.00294	-0.003142
475	-0.001991	-1.9e-05	0.000146	0.000967	-0.002977
476	-0.001662	-1.9e-05	-0.001991	-0.000676	-0.000512
477	-0.001498	0.00031	-0.001827	-0.000512	-1.9e-05
478	-0.002648	0.00031	-0.002813	-1.9e-05	0.001296
479	-0.000841	0.000146	-0.001498	0.000146	-0.000347
480	-0.001169	-1.9e-05	-0.001662	-1.9e-05	-1.9e-05
481	-0.000841	-0.000183	-0.000841	-1.9e-05	0.00031
482	-0.002977	-0.000183	0.000803	0.001132	-0.000183
483	-0.002648	-0.000512	-1.9e-05	0.000146	-0.000183
484	-0.001662	-0.000183	0.000639	-0.000183	-0.000183
485	-0.001498	-0.000347	-1.9e-05	-0.000347	-0.000676
486	-0.001498	-1.9e-05	0.001789	-0.000183	-0.000347
487	-0.001827	0.000146	0.002775	-0.000183	-0.000347
488	-0.000347	0.00031	0.001296	-1.9e-05	-1.9e-05
489	0.00031	0.00031	-0.000841	-0.000183	-1.9e-05
490	-0.00232	0.000146	-0.000183	0.000474	0.000146
491	0.000967	-1.9e-05	0.00146	0.00031	0.00031
492	0.001296	-0.000347	0.00031	0.000146	0.00031
493	-0.004292	-0.000347	-0.000183	0.002447	0.000146
494	-0.000841	-0.000183	0.002775	-0.000347	-0.000347
495	-0.002813	-0.000512	0.000474	0.000967	-1.9e-05
496	-0.002155	-0.000347	-0.004128	0.000474	-0.000347
497	-1.9e-05	0.000146	-0.005771	-0.000676	-0.000512
498	0.000146	-1.9e-05	-0.002813	-0.000841	-0.000183
499	-0.000183	-1.9e-05	-0.000676	0.002611	0.000146
500	-0.003963	0.00031	-0.002484	-0.002484	0.000146
501	-0.001005	0.000146	-0.003306	0.001296	0.00031
502	-0.001169	-0.000183	-0.002155	-0.000347	0.00031
503	-0.000347	-0.000183	0.00031	0.000474	0.000146
504	-0.000676	-0.000347	-0.002648	0.000146	-0.000183
505	-0.003799	-0.000676	-0.001005	-0.000347	-0.000183
506	-0.001334	-0.000347	0.002282	-1.9e-05	-0.000347
507	-0.005443	-0.000183	0.002775	-0.001662	-0.000512
508	-0.002977	0.00031	-0.001169	0.001296	-0.000841
509	-0.002155	-1.9e-05	-0.001498	-0.003635	-0.000183
510	-0.000183	0.000146	-0.000841	0.004419	0.000146
511	-0.000512	0.00031	-0.001827	0.000803	0.000146
512	-0.001827	0.00031	-0.002813	-1.9e-05	0.000146
513	0.000967	-1.9e-05	-1.9e-05	0.000146	0.000146
514	0.000146	-1.9e-05	-0.001991	0.000967	-0.000183
515	0.000146	-0.000347	-0.000512	0.000639	-1.9e-05
516	0.00031	-0.000512	-0.000512	-0.000841	-0.000183
517	-0.001498	-0.000183	0.00146	-0.003142	-0.000183
518	-0.001005	-1.9e-05	-0.000347	0.001625	-0.000347
519	-0.001498	0.000146	-0.000676	-0.001991	-0.000841
520	-0.001991	0.000146	-1.9e-05	-0.001169	-1.9e-05
521	0.001954	-1.9e-05	-0.001662	-0.000841	-0.000183
522	-0.001498	0.00031	0.001296	-0.002648	-1.9e-05
523	-0.001005	-1.9e-05	-0.001827	-0.003306	0.00031
524	0.000639	-1.9e-05	0.002282	-0.000512	0.000146
525	-0.001005	-0.000347	-0.000676	-0.004128	0.000146
526	0.002118	-0.000512	-1.9e-05	-0.002813	-1.9e-05
527	0.003926	-0.000512	0.00031	-0.005278	-0.000183
528	0.00294	-0.000183	-0.000512	-0.001662	-0.000512
529	0.003761	-1.9e-05	-0.002813	0.003268	-0.000347
530	0.00146	0.00031	-0.001334	-0.002813	-0.000347
531	-0.000512	0.000146	-0.002813	-0.000512	-1.9e-05
532	0.00031	0.00031	-0.002813	0.002118	-1.9e-05
533	-0.002155	0.000146	-0.001827	-0.003142	0.00031
534	-0.000183	0.00031	-0.002484	-0.004292	0.00031
535	-0.000512	-0.000183	-1.9e-05	-0.001827	0.000146
536	0.001296	-0.000183	-0.001169	-0.002648	0.00031
537	-0.002813	-0.000183	0.00031	-0.001991	-1.9e-05
538	0.000639	-0.000512	-0.000676	-0.001991	-0.000512
539	-0.000841	-0.000183	0.001132	0.000639	-0.000347
540	-0.001827	-0.000183	-0.00232	-0.00232	-0.000183
541	-0.001334	-1.9e-05	0.00031	-0.000841	0.000146
542	-0.001827	-1.9e-05	-0.000512	-0.000841	-0.000183
543	0.001789	0.000146	-0.000183	-0.000183	0.000146
544	0.000803	0.000146	-0.001169	-0.000183	0.00031
545	-0.001169	0.000146	-0.002648	-0.002648	0.000146
546	0.004583	-0.000183	-0.002813	0.000146	0.000146
547	0.00031	-0.000183	0.001625	-0.002155	0.000146
548	-0.001827	-0.000183	-0.001498	-0.001334	-1.9e-05
549	0.000967	-0.000347	-0.002648	-0.000841	-0.000347
550	-0.001498	-0.000512	-0.003635	-0.000347	-0.000183
551	0.000146	-1.9e-05	-0.004456	-0.001662	-0.000347
552	-0.001005	-1.9e-05	-0.004456	0.001132	0.000474
553	-0.000512	-1.9e-05	-0.006429	-0.002484	-0.000347
554	-0.00232	0.00031	-0.002484	0.002118	0.000146
555	0.000146	0.00031	-0.005114	0.00031	0.000474
556	0.00294	-1.9e-05	0.000474	-0.001662	0.000146
557	-0.000512	-0.000183	-0.003963	0.000967	0.00031
558	-0.000183	-0.000512	0.000967	-0.001498	-1.9e-05
559	-0.003799	-0.000347	-0.001827	-0.00347	-0.000183
560	-0.001169	-0.000347	-0.000512	-0.006429	-0.000183
561	-0.001169	-0.000512	0.000967	0.001132	-0.000512
562	-0.001991	-1.9e-05	-0.002977	-0.001334	-0.000347
563	-0.001169	-1.9e-05	-0.001827	0.00409	-1.9e-05
564	-0.000676	0.000146	-0.003635	-0.000512	-1.9e-05
565	-0.000512	0.00031	-0.000183	-1.9e-05	-1.9e-05
566	0.001625	0.000146	-0.003306	-0.000841	0.00031
567	0.001132	0.00031	-0.00232	-0.00232	0.000474
568	-0.001169	-0.000183	-0.002484	-0.001169	0.000146
569	-0.001334	-0.000183	-0.001169	-0.001169	0.000146
570	-0.000841	-0.000512	-1.9e-05	-0.002484	-0.000183
571	-0.001827	-0.000347	0.00146	-0.003306	-0.000183
572	0.000803	-0.000512	-0.000347	0.001132	-0.000183
573	-0.001334	-0.000183	0.003104	-0.00232	-0.000347
574	-0.002155	0.000146	0.003104	0.000639	-0.000512
575	-0.001005	0.000146	0.004748	-0.004456	0.000146
576	0.002282	0.00031	0.000967	-0.001991	0.000146
577	-0.003306	0.000474	0.003597	0.001132	0.000146
578	-0.001005	-1.9e-05	0.001789	-0.000347	0.000146
579	-0.003635	-1.9e-05	0.002775	-0.002648	0.000146
580	-0.002155	-0.000183	0.002611	0.000967	-1.9e-05
581	-0.000512	-0.000347	0.003104	-0.000183	-1.9e-05
582	-0.001991	-0.000347	0.004419	-0.003799	-1.9e-05
583	0.00031	-0.000183	0.000803	0.000474	-0.000183
584	-0.001498	-1.9e-05	0.000967	-0.002155	-0.000512
585	-0.000347	0.000146	-0.000512	-0.000676	-0.000512
586	-0.001005	0.000146	0.00294	-1.9e-05	-0.000183
587	-0.000676	0.000146	0.000146	-0.001498	0.000146
588	-0.000676	0.000146	0.00031	-0.000183	0.00031
589	-0.000183	0.000146	-0.001662	-0.002648	0.00031
590	-0.001005	-1.9e-05	0.000146	-0.002648	0.000474
591	-0.000183	-0.000347	-0.000183	-0.000183	0.000146
592	-0.003306	-0.000183	0.001296	-0.002648	-1.9e-05
593	-0.002484	-0.000512	-0.000183	-0.003635	-0.000183
594	-0.001498	-0.000183	0.000967	-1.9e-05	-0.000183
595	-0.001662	-0.000183	0.000146	-0.001498	-0.000347
596	-0.000347	-1.9e-05	-1.9e-05	-0.001498	-0.000676
597	-0.001005	0.000146	0.002447	-1.9e-05	-1.9e-05
598	0.000474	0.00031	0.000146	0.001132	-1.9e-05
599	-0.000676	0.000146	-0.000183	0.000146	-1.9e-05
600	0.001132	0.00031	0.000146	-0.001662	0.00031
601	-0.001662	-0.000183	0.002118	-0.001662	0.000474
602	0.00294	-0.000183	-0.003799	-0.001991	-0.000183
603	-0.001991	-0.000183	-0.002155	-0.003306	-0.000183
604	-0.002155	-1.9e-05	-0.001827	-0.004949	-1.9e-05
605	-0.004456	-0.000347	0.000474	-0.001991	-0.000347
606	-0.00347	-0.000183	-0.003142	-0.000841	-1.9e-05
607	-0.002155	-1.9e-05	-0.004621	-0.004621	-0.000512
608	-0.00347	0.000146	-0.002484	-0.001498	-0.000183
609	0.00146	0.00031	0.00146	-0.001827	-1.9e-05
610	-0.003306	0.000146	-0.001005	-0.002648	0.00031
611	-0.000183	-1.9e-05	0.00146	-0.008401	0.000146
612	-0.002813	-1.9e-05	0.003104	-0.001498	-1.9e-05
613	-0.001827	-0.000512	-0.001991	-0.001827	0.000146
614	-0.001005	-0.000183	0.003761	-0.000512	-0.000347
615	-0.001169	-0.000512	0.000967	-0.000183	-0.000183
616	-0.001498	-0.000512	0.001132	0.000803	-0.000347
617	0.000474	-1.9e-05	0.000146	0.000146	-0.000183
618	-0.001498	0.00031	-1.9e-05	-0.000347	-0.000347
619	-0.000183	0.000146	-0.000183	-0.000512	0.000146
620	0.001132	0.00031	0.000967	-0.000183	0.000146
621	-0.001991	0.00031	0.000474	-0.001662	0.000146
622	0.00294	-1.9e-05	-0.001498	-0.00232	0.00031
623	-0.003799	-0.000183	-0.000347	-0.002813	0.000803
624	-0.001334	-0.000347	-1.9e-05	-0.002977	0.000146
625	-0.003306	-0.000183	-0.000183	-0.001005	-0.000183
626	-0.005114	-0.000183	-0.000183	-0.004785	-1.9e-05
627	-0.003635	-0.000183	-0.000347	0.003433	-0.000183
628	-0.004128	-1.9e-05	-1.9e-05	-0.003306	-0.000512
629	0.001789	-1.9e-05	0.000146	0.00031	-0.000512
630	-0.002977	0.00031	0.000146	0.000474	-0.000347
631	-0.000512	0.00031	0.00031	0.000639	-0.000512
632	-0.001169	0.000146	0.000146	-0.000347	0.000474
633	0.001296	-1.9e-05	0.00031	0.00146	-1.9e-05
634	0.000967	-1.9e-05	-1.9e-05	0.005076	0.000967
635	-0.000841	-0.000347	-0.000183	0.000146	-1.9e-05
636	-0.001005	-0.000183	-0.000347	0.000967	-1.9e-05
637	-0.000676	-0.000512	-0.000347	-0.000676	-0.000183
638	-0.001827	-0.000183	-1.9e-05	-0.000183	-1.9e-05
639	-0.001662	0.000146	-1.9e-05	-0.000676	-0.000347
640	-0.001991	0.000146	-1.9e-05	0.001296	-0.000183
641	-0.002977	0.000146	0.000474	-0.001662	-1.9e-05
642	-0.002648	0.00031	0.000146	-0.000841	-1.9e-05
643	-0.003142	-1.9e-05	0.000146	-0.001169	0.00031
644	-0.001005	0.000146	0.00031	-0.001991	0.000146
645	-0.000841	-1.9e-05	-0.000183	-0.001827	0.000146
646	-0.00232	-0.000183	-1.9e-05	-0.001169	-1.9e-05
647	-0.001991	-0.000347	-0.004128	0.000146	-0.000347
648	-0.002155	-0.000347	-0.006593	-0.000841	-0.000183
649	-0.001498	-0.000347	-0.003799	0.000146	-0.000347
650	-0.003799	-1.9e-05	-0.00232	0.000639	-0.001169
651	0.001132	0.000146	-0.002155	0.000639	0.000146
652	-0.000841	0.00031	-1.9e-05	-0.001334	-0.000183
653	-0.001005	0.000146	-1.9e-05	0.000639	0.000146
654	0.000639	0.000146	-0.000183	-0.004621	0.000146
655	-0.001169	-1.9e-05	-0.000676	-0.001169	0.00031
656	-0.00347	-1.9e-05	-0.000676	-0.001662	-0.000183
657	-0.003799	-0.000183	0.000474	-0.002977	0.000146
658	-0.003799	-0.000183	-0.000347	-0.003306	-0.000183
659	-0.005936	-0.000183	-0.000676	-0.002484	-1.9e-05
660	-0.003142	-0.000183	-0.000512	-0.003306	-0.000347
661	-0.003799	0.000146	0.00031	-0.005771	-0.000512
662	-0.001827	0.000146	0.000146	-0.00232	-0.000183
663	-0.003635	-1.9e-05	0.00031	-0.001991	0.000146
664	-0.001827	0.000146	0.000474	-0.001005	-1.9e-05
665	-0.001005	0.00031	0.00031	-0.003142	0.000146
666	-0.001005	-1.9e-05	0.000146	-0.001334	0.000146
667	-0.000676	-0.000183	-0.000183	-0.000676	-1.9e-05
668	-1.9e-05	-0.000347	-0.000347	-0.001827	0.000146
669	0.001132	-0.000183	-0.000347	-0.002648	-0.000183
670	-0.001169	-0.000183	-0.000512	-0.001005	-0.000347
671	0.00031	-0.000183	-0.000183	-0.004621	-0.000347
672	-0.001662	0.000146	-0.000183	-0.000512	-0.000183
673	0.000967	0.000146	0.00031	-0.002813	-0.000347
674	-0.000676	0.00031	-1.9e-05	-0.003142	-1.9e-05
675	-0.004456	0.000146	0.00031	-0.003142	0.000146
676	-0.00347	0.000146	-1.9e-05	-0.000512	-1.9e-05
677	0.002611	0.000146	0.000639	-0.002155	-1.9e-05
678	-0.001991	-0.000183	-0.000183	-0.005936	0.00031
679	0.000967	-0.000183	-0.000183	-0.003142	-1.9e-05
680	-0.000183	-0.000183	-0.000183	-0.001005	-0.000183
681	-0.003306	-0.000347	-0.000347	-0.001005	-0.000183
682	-0.002813	-0.000183	-1.9e-05	-1.9e-05	-0.000347
683	-0.001334	-1.9e-05	-1.9e-05	0.001789	-0.000347
684	0.000803	-1.9e-05	0.00031	-0.002977	-0.001005
685	-0.000347	0.000146	0.00031	0.00031	0.000146
686	-0.000676	0.00031	0.000146	-0.001991	-0.000183
687	-0.000512	0.000146	0.00031	-0.000512	0.000474
688	-0.001827	-1.9e-05	0.000146	-0.001662	0.000639
689	-0.000512	-1.9e-05	-1.9e-05	-0.00232	0.000967
690	0.002447	-0.000183	-0.000183	-1.9e-05	0.00031
691	-0.00347	-0.000347	-0.000183	-0.000183	-0.000183
692	-0.003306	-0.000676	-0.000183	-0.001169	-0.000347
693	-0.002977	-0.000347	-0.000347	-1.9e-05	-0.000347
694	-0.001334	0.000146	0.000146	-0.000676	-0.000347
695	-0.002977	0.000146	0.000146	-0.002484	-0.000183
696	-0.000183	0.000146	0.000146	-0.000512	0.000146
697	-0.002648	-1.9e-05	0.00031	-0.000512	-0.000183
698	-0.002648	0.000146	0.000474	-1.9e-05	0.00031
699	-0.001005	-0.000183	-1.9e-05	-0.001334	0.000146
700	-0.003635	-0.000347	-0.000183	-0.000512	0.000474
701	0.001789	-0.000347	-0.000347	0.000474	0.000146
702	-0.000841	-0.000347	-0.000183	0.003104	-1.9e-05
703	-0.000512	-0.000183	-0.000347	0.001132	-0.000512
704	-0.000347	-0.000347	-0.000347	0.000803	-0.000183
705	0.000803	-1.9e-05	0.000146	0.001296	-1.9e-05
706	-0.000347	0.000146	0.000146	-0.000512	0.000474
707	0.004419	-1.9e-05	0.00031	-0.000183	0.000146
708	-0.004456	0.00031	0.000146	0.001132	0.000146
709	-0.004621	0.00031	0.000474	-0.000512	0.000639
710	-0.003306	0.000146	-1.9e-05	-0.00232	0.000146
711	-0.005278	-0.000347	-0.000183	-0.004621	0.000639
712	-0.001498	-1.9e-05	-0.000183	-0.002977	-1.9e-05
713	-0.003635	-0.000183	-0.000347	0.000967	-0.000183
714	-0.001991	-0.000512	-0.000183	-0.000676	-0.000347
715	-0.002648	-0.000347	-0.000347	-0.000512	-0.000512
716	-0.001991	-1.9e-05	0.000146	0.00031	-0.000512
717	-0.001005	0.000146	0.001296	-0.002155	-1.9e-05
718	0.001789	-1.9e-05	0.00031	0.000146	-0.000183
719	-0.000183	0.00031	0.003433	-0.000512	0.000146
720	0.00031	0.000146	0.000639	-0.001827	0.000146
721	-0.001169	-1.9e-05	0.00787	-0.001005	-0.000183
722	-0.000512	-1.9e-05	-0.000183	-0.00232	0.000146
723	0.000146	-0.000512	-0.000512	-0.002155	0.000146
724	-0.001662	-0.000183	-0.000347	0.000639	-0.000183
725	-1.9e-05	-0.000347	-0.000512	-0.005443	-0.000347
726	0.003268	-0.000183	-0.00232	0.003104	-0.000347
727	-0.000347	-1.9e-05	0.000639	-0.000183	-0.000183
728	-0.001498	-1.9e-05	-0.001169	-0.000347	-0.000183
729	0.001954	0.00031	-0.000676	-0.001662	-1.9e-05
730	-0.003306	0.000146	0.000146	-0.000347	0.00031
731	-0.00347	0.000146	0.001296	-0.00347	0.000146
732	-0.000347	0.000146	0.000639	-0.000183	0.000146
733	-0.001005	-0.000183	0.00146	-0.00347	0.000474
734	0.000803	-0.000347	0.002775	-0.00232	0.00031
735	0.000639	-0.000512	0.00146	-0.003306	-0.000183
736	-0.001991	-0.000347	-0.002813	0.000474	-0.000347
737	-0.000676	-0.000347	-0.000183	0.001625	-0.000512
738	-0.001005	-1.9e-05	0.003597	-0.001991	-0.000512
739	0.001296	0.000146	-0.002977	0.00031	-0.000347
740	-0.001334	0.000474	0.002118	-0.000183	-0.000183
741	0.000474	0.000146	0.001132	0.001954	-1.9e-05
742	-0.000183	0.000146	0.001296	-0.001498	0.00031
743	-0.003306	0.00031	-0.00347	0.000803	0.000474
744	-0.002977	-0.000347	0.000803	-0.001991	0.00031
745	0.001132	-0.000347	-0.001005	-0.001991	0.000474
746	-0.001827	-0.000512	-0.001169	0.000639	-0.000347
747	-0.002155	-0.000183	-0.001498	-0.000183	-1.9e-05
748	-0.001334	-0.000347	0.000803	-0.001662	-0.000347
749	-0.001991	-1.9e-05	-0.001005	0.000639	-0.000347
750	0.00031	-0.000183	-0.000347	-0.003799	-0.000512
751	0.00146	0.00031	0.003597	0.003433	-0.000183
752	0.012472	0.00031	0.011158	0.010993	-1.9e-05
753	0.015431	0.00031	0.017567	0.020033	0.000146
754	0.023977	0.000146	0.023156	0.026443	0.000146
755	0.030059	-0.000183	0.032853	0.032688	0.000146
756	0.040249	-0.000183	0.037619	0.040413	0.001132
757	0.043371	-0.000347	0.044193	0.047152	-0.000183
758	0.052082	-0.000183	0.051918	0.054876	-0.000347
759	0.054548	-0.000512	0.062437	0.056684	-0.000347
760	0.057671	-1.9e-05	0.065231	0.064902	-0.000347
761	0.002282	0.00031	0.069669	0.064738	0.00031
762	0.000146	0.00031	0.074106	0.073942	0.000146
763	-0.001662	0.00031	0.079037	0.081338	-1.9e-05
764	0.008692	0.00031	0.083968	0.083475	0.000474
765	0.012637	-1.9e-05	0.087748	0.086762	-1.9e-05
766	0.021183	-0.000183	0.094487	0.094651	0.000639
767	0.028744	-0.000183	0.097445	0.095637	0.00031
768	0.033674	-0.000512	0.10254	0.101225	-0.000183
769	0.042221	-0.000512	0.104512	0.105827	-1.9e-05
770	0.045837	-0.000183	0.111415	0.108621	-0.000676
771	0.053233	-1.9e-05	0.109114	0.11273	-0.000183
772	0.058328	0.000146	0.116839	0.114045	-0.000347
773	0.067368	0.000146	0.11799	0.117825	0.00031
774	0.072134	0.000146	0.122427	0.123906	0.00031
775	0.077558	0.000146	0.127522	0.125221	0.00031
776	0.084296	0.000146	0.119633	0.129988	0.00031
777	0.086104	-0.000183	0.123085	0.133932	0.00031
778	0.090871	-0.000183	0.126865	0.134918	-0.000183
779	0.094651	-0.000183	0.129001	0.137384	-1.9e-05
780	0.100732	-0.000347	0.131796	0.141821	-0.000347
781	0.102704	-0.000347	0.136891	0.143301	-0.000183
782	0.107471	-1.9e-05	0.135904	0.141164	0.000474
783	0.110922	0.00031	0.140342	0.146259	-0.000512
784	0.116675	0.000146	0.141821	0.147738	0.000146
785	0.114209	0.000146	0.144451	0.150697	0.000474
786	0.120619	0.00031	0.146752	0.153984	0.00031
787	0.124235	0.000146	0.147245	0.153819	0.000474
788	0.12292	-0.000347	0.146916	0.156778	0.001296
789	0.129001	-0.000512	0.151847	0.156778	-1.9e-05
790	0.130481	-0.000183	0.151354	0.162695	-1.9e-05
791	0.133275	-0.000347	0.15497	0.160887	-0.001005
792	0.137548	-0.000183	0.15875	0.164831	-0.000183
793	0.136562	-1.9e-05	0.157271	0.162366	-0.000347
794	0.143794	0.000146	0.161873	0.167132	-0.000841
795	0.145437	0.000474	0.161051	0.165817	-1.9e-05
796	0.146095	0.000146	0.163845	0.169433	0.00031
797	0.149382	0.00031	0.166475	0.168776	0.000967
798	0.150368	0.000146	0.166968	0.169762	-1.9e-05
799	0.152505	-0.000183	0.167297	0.169762	0.001954
800	0.150039	-0.000347	0.169598	0.170748	0.000474
801	0.155627	-0.000183	0.168776	0.171406	0.001132
802	0.158093	-0.000512	0.171406	0.170913	-0.000676
803	0.161873	-0.000183	0.172063	0.175679	0.004419
804	0.159572	-1.9e-05	0.173871	0.17535	-0.000841
805	0.159901	0.000146	0.172556	0.177487	-0.000183
806	0.160887	0.000146	0.177158	0.175186	-1.9e-05
807	0.163352	0.000146	0.176336	0.175679	0.001132
808	0.167954	0.000146	0.179623	0.179295	0.000146
809	0.169269	-1.9e-05	0.179623	0.177322	0.00031
810	0.164996	-0.000183	0.179459	0.176994	0.000146
811	0.169926	-0.000347	0.176829	0.176008	-0.000183
812	0.174528	-0.000347	0.182089	0.144122	-1.9e-05
813	0.170913	-0.000347	0.179295	0.000967	-0.000347
814	0.175021	-0.000512	0.183404	-0.000183	-1.9e-05
815	0.172392	-1.9e-05	0.182089	0.000146	-0.000183
816	0.176501	0.000146	0.180774	0.002282	0.00031
817	0.178144	0.00031	0.184225	0.003761	0.000639
818	0.178966	0.00031	0.182253	0.004748	-1.9e-05
819	0.176336	0.00031	0.185212	0.003761	-0.000347
820	0.178802	0.000146	0.186198	0.008199	0.001132
821	0.169105	-1.9e-05	0.186362	0.012144	0.000474
822	0.178473	-0.000183	0.187019	0.019211	0.000146
823	0.179788	-0.000183	0.187513	0.025292	0.000474
824	0.183239	-0.000183	0.187019	0.032688	0.000146
825	0.182582	-0.000183	0.192115	0.03729	-0.000347
826	0.182582	-0.000183	0.115853	0.046823	0.00146
827	0.182417	-1.9e-05	-0.001991	0.056356	-0.004785
828	0.183732	0.000146	0.003926	0.059314	-1.9e-05
829	0.185869	0.000474	0.000146	0.060958	0.000639
830	0.184554	0.00031	0.000146	0.067532	0.000639
831	0.187184	0.000146	0.000474	0.074271	0.000639
832	0.177487	0.000146	-0.000183	0.078873	0.000146
833	0.183897	-0.000347	-0.000347	0.086269	0.000146
834	0.186362	-0.000347	0.00031	0.089063	-0.000183
835	0.186526	-0.000512	-0.000347	0.0935	0.000474
836	0.186198	-0.000347	-1.9e-05	0.09991	-0.000512
837	0.188827	0.000146	0.000146	0.099746	0.000146
838	0.185705	0.000146	0.000146	0.10139	-0.000512
839	0.189814	0.000146	0.000146	0.11158	0.00031
840	0.186526	0.00031	0.00031	0.108457	0.001132
841	0.186033	0.00031	0.000146	0.116346	-1.9e-05
842	0.189485	-1.9e-05	0.00031	0.118811	0.000146
843	0.191786	-0.000183	-1.9e-05	0.121112	-1.9e-05
844	0.189485	-0.000347	0.00672	0.126536	0.000474
845	0.187841	-0.000347	-0.000512	0.1267	-0.000347
846	0.192115	-0.000347	-0.000347	0.135247	-0.000183
847	0.191293	-0.000183	-0.000183	0.136233	-0.000183
848	0.192936	-1.9e-05	-0.000183	0.136398	-1.9e-05
849	0.1908	0.000146	0.000146	0.138041	-0.000183
850	0.193594	0.000146	0.000146	0.141328	0.001132
851	0.193922	0.000146	-1.9e-05	0.141493	0.000146
852	0.189978	0.000146	0.00031	0.144451	0.000146
853	0.194087	-1.9e-05	-1.9e-05	0.147574	0.000146
854	0.196059	-0.000183	-0.000841	0.148889	0.001789
855	0.188992	-0.000512	0.003926	0.148889	0.000146
856	0.189814	-0.000183	0.002775	0.152833	-0.000183
857	0.1908	-0.000347	0.007377	0.153491	-0.000676
858	0.191128	-0.000183	0.011322	0.156285	-0.000183
859	0.19573	-1.9e-05	0.020197	0.1576	-0.000183
860	0.193429	0.00031	0.031209	0.156285	-1.9e-05
861	0.194744	0.000146	0.035975	0.158586	-1.9e-05
862	0.19458	0.00031	0.045179	0.161873	0.000146
863	0.196059	0.00031	0.048631	0.162366	0.000474
864	0.19458	-1.9e-05	0.056849	0.164667	-1.9e-05
865	0.19836	-1.9e-05	0.060958	0.168283	0.00031
866	0.194744	-0.000183	0.066546	0.167954	-0.000347
867	0.195073	-0.000512	0.07049	0.169433	0.000146
868	0.195566	-0.000347	0.076572	0.169598	-0.000347
869	0.195237	-0.000347	0.080516	0.171734	-0.000183
870	0.194744	-1.9e-05	0.086104	0.172556	-0.000512
871	0.193922	-0.000183	0.089391	0.174035	-0.000347
872	0.195566	0.00031	0.006391	0.166804	0.00031
873	0.195237	0.00031	0.000146	0.172392	0.000146
874	0.196059	0.00031	0.000474	0.173049	-1.9e-05
875	0.195566	0.000146	-1.9e-05	0.174693	0.00031
876	0.196059	-0.000183	-1.9e-05	0.176829	0.00031
877	0.192279	-0.000183	-0.000183	0.180116	-1.9e-05
878	0.196223	-0.000347	-0.000347	0.179295	-1.9e-05
879	0.194087	-0.000347	-0.000347	0.180938	-0.000183
880	0.197374	-0.000183	-0.000347	0.182417	-0.000347
881	0.197703	-1.9e-05	0.007049	0.183568	-0.000183
882	0.193265	0.000146	0.013952	0.183568	-0.000183
883	0.196881	0.000146	0.021019	0.176994	-1.9e-05
884	0.198196	0.000639	0.002447	0.180938	0.00031
885	0.197045	0.00031	0.00031	0.127687	0.000146
886	0.196552	-1.9e-05	0.001296	0.011322	0.000146
887	0.198853	-0.000183	0.00031	0.010336	0.00031
888	0.194744	-0.000183	0.004912	0.018882	-1.9e-05
889	0.195566	-0.000512	0.001132	0.026114	-0.000183
890	0.194251	-0.000512	-0.000347	0.035482	-0.000347
891	0.195566	-1.9e-05	0.000146	0.041235	-0.000347
892	0.193101	0.000146	-1.9e-05	0.047645	-0.000512
893	0.194744	0.000146	0.001296	0.053069	-0.000183
894	0.194416	0.00031	0.009021	0.05389	0.000146
895	0.19458	0.00031	0.012308	0.056684	0.00031
896	0.196223	0.000474	0.020855	0.063259	0.000146
897	0.196717	-1.9e-05	0.027593	0.063259	0.00031
898	0.198031	-0.000183	0.034989	0.068354	-1.9e-05
899	0.196223	-0.000183	0.04107	0.079859	0.00031
900	0.195566	-0.000347	0.046659	0.080845	-0.000512
901	0.193758	-0.000347	0.052411	0.089063	-0.000512
902	0.197374	-0.000183	0.05537	0.084789	-0.000183
903	0.194087	-1.9e-05	0.061615	0.093007	-0.000183
904	0.196388	0.000146	0.012637	0.081338	-0.000347
905	0.19458	0.000146	-0.001005	0.047152	0.000474
906	0.195402	0.000146	0.002282	0.011651	0.000146
907	0.194251	0.00031	0.002611	0.001132	0.000967
908	0.195566	-1.9e-05	-0.001334	0.000474	0.00031
909	0.191621	-0.000183	0.007542	-0.000183	0.000146
910	0.192772	-0.000347	0.0105	0.009021	0.000803
911	0.176829	-0.000347	0.020855	0.014938	-0.000183
912	0.164174	-0.000512	0.019211	0.024142	-0.000183
913	0.152505	-0.000347	0.000639	0.029237	-0.000676
914	0.146423	0.000146	-1.9e-05	0.037455	0.001625
915	0.143794	0.00031	-1.9e-05	0.042385	-0.000183
916	0.143794	0.000146	0.000474	0.05389	0.000474
917	0.142314	0.000146	0.00031	0.05389	0.000146
918	0.143794	0.000146	-0.000183	0.061615	0.000146
919	0.146259	0.000146	-1.9e-05	0.06556	0.000639
920	0.146588	-0.000183	-0.000512	0.074106	0.00031
921	0.148889	-0.000183	-0.000347	0.078708	0.00146
922	0.149053	-0.000347	-0.000183	0.077558	0.005405
923	0.152011	-0.000183	-0.000841	0.085776	-0.000512
924	0.151518	-0.000183	-0.000183	0.089391	0.000639
925	0.153326	-1.9e-05	0.000803	0.0935	0.00146
926	0.012637	0.000146	0.001132	0.098267	0.000803
927	0.000803	0.00031	0.002775	0.102211	0.003433
928	-0.000183	0.00031	0.009021	0.003104	0.003597
929	0.000474	0.00031	0.013952	0.005076	0.000639
930	-0.000183	0.000146	0.026278	0.005241	-0.003635
931	-0.000676	-0.000347	0.030552	0.001132	0.000967
932	0.003104	-0.000512	0.03992	0.000474	-1.9e-05
933	0.000146	-0.000512	0.044522	0.000474	0.000639
934	0.00031	-0.000512	0.046166	-0.000183	0.003433
935	0.000146	-1.9e-05	0.05652	-0.000183	0.007213
936	0.000474	-1.9e-05	0.061944	0.000146	0.005734
937	0.000146	0.00031	0.067368	0.003268	0.005405
938	0.000146	0.00031	0.070326	0.010993	0.0105
939	-1.9e-05	0.00031	0.077393	0.014938	0.001132
940	-0.000512	0.00031	0.080352	0.001954	0.005898
941	-0.000512	-1.9e-05	0.088898	0.000474	0.008035
942	0.002775	-0.000183	0.089885	0.000146	0.010993
943	0.000803	-0.000183	0.095966	0.00031	0.013623
944	0.002118	-0.000183	0.097609	0.000146	0.010664
945	-1.9e-05	-0.000347	0.102047	0.000146	0.011486
946	0.004419	-1.9e-05	0.103033	-0.000183	0.010336
947	0.000803	-1.9e-05	0.11158	-1.9e-05	0.014773
948	0.000639	0.000146	0.113059	-1.9e-05	0.016417
949	-1.9e-05	0.00031	0.117661	-0.000183	0.019211
950	0.000474	-1.9e-05	0.120455	0.000639	0.017896
951	-1.9e-05	0.00031	0.121112	-0.001991	0.018882
952	-0.000347	-1.9e-05	0.120291	0.001789	0.01954
953	-1.9e-05	-0.000183	0.108457	0.000146	0.022991
954	-1.9e-05	-0.000183	0.112237	0.000146	0.026771
955	0.000146	-0.000347	0.116346	0.00031	0.032688
956	0.000146	-0.000676	0.118976	-1.9e-05	0.035318
957	0.00031	-0.000183	0.120291	-0.000183	0.043536
958	0.00031	0.000146	0.127358	-0.000347	0.049781
959	-1.9e-05	0.000146	0.126207	-0.000512	0.055041
960	-1.9e-05	0.000146	0.13311	0.000146	0.061944
961	0.000146	0.000146	0.127851	-0.000183	0.069669
962	-0.000512	0.00031	0.124235	-0.000512	0.07049
963	-0.000183	-0.000183	0.128837	0.000803	0.076079
964	-0.000347	-0.000347	0.125879	-0.000347	0.082817
965	-0.000347	-0.000512	0.008035	-1.9e-05	0.085776
966	0.000146	-0.000347	0.00672	0.001296	0.092514
967	-1.9e-05	-0.000512	0.014773	0.000146	0.093993
968	0.00031	-0.000183	0.010336	-0.000183	0.098431
969	0.00031	0.000146	0.022827	-1.9e-05	0.10139
970	0.000146	0.00031	0.029237	-0.000347	0.104512
971	-1.9e-05	0.00031	0.035482	-1.9e-05	0.107635
972	-0.000183	0.000146	0.041399	0.000639	0.114867
973	-0.000347	0.00031	0.047152	0.00031	0.116182
974	-0.000347	-1.9e-05	0.053069	-1.9e-05	0.121277
975	-0.000347	-0.000183	0.061615	0.000474	0.123249
976	-1.9e-05	-0.000183	0.062766	0.00031	0.127358
977	0.00031	-0.000347	0.06934	0.000146	0.131467
978	0.000146	-1.9e-05	0.077393	-0.000183	0.134754
979	0.00031	-1.9e-05	0.079366	-0.000512	0.134918
980	0.00031	0.000146	0.085283	-0.000347	0.13459
981	0.000146	0.00031	0.090049	-0.000183	0.138205
982	-1.9e-05	0.000474	0.095144	-0.000183	0.141328
983	-0.000347	0.000146	0.097938	-1.9e-05	0.144944
984	-0.000347	0.000146	0.102869	-0.000676	0.145766
985	-0.000512	0.000146	0.10517	0.009021	0.149875
986	-0.000183	-0.000347	0.112237	0.018389	0.146588
987	0.000146	-0.000512	0.107635	0.024142	0.152998
988	0.000146	-0.000347	0.097116	0.029401	0.153655
989	0.000146	0.000474	0.089885	0.043043	0.157107
990	0.00031	-1.9e-05	0.090378	0.044851	0.156942
991	0.00031	-0.000183	0.091199	0.051918	0.154806
992	0.00031	0.000146	0.014116	0.056027	0.1576
993	-1.9e-05	0.00031	-0.001662	0.06556	0.162366
994	-0.000347	0.00031	0.00672	0.067532	0.16253
995	-0.000183	0.000146	-1.9e-05	0.071477	0.164174
996	-0.000347	-0.000183	-1.9e-05	0.075585	0.167625
997	-0.000183	-0.000183	-0.000183	0.082982	0.163188
998	-0.000183	-0.000347	0.002118	0.08216	0.171241
999	0.000146	-0.000347	0.000146	0.089227	0.170584
1000	0.00031	0.00031	0.000146	0.096294	0.174693
1001	0.000474	-0.000183	0.000146	0.09991	0.172885
1002	0.00031	-1.9e-05	0.000146	0.105827	0.166804
1003	0.00031	-1.9e-05	0.000146	0.106978	0.173049
1004	-0.000183	0.00031	0.00031	0.112401	0.175679
1005	-0.000347	0.000474	0.000474	0.114538	0.174528
1006	-0.000347	-1.9e-05	-1.9e-05	0.11651	0.173049
1007	-0.000512	0.000146	-1.9e-05	0.11799	0.175843
1008	-0.000347	-1.9e-05	-0.000183	0.125714	0.177651
1009	-0.000183	-0.000347	-0.000512	0.124399	0.179459
1010	0.000146	-0.000183	-0.000347	0.129495	0.179459
1011	0.000146	-0.000183	-0.000347	0.12818	0.183404
1012	0.000146	-0.000183	0.000146	0.117661	0.181596
1013	0.00031	0.00031	-1.9e-05	0.057999	0.18061
1014	0.00031	0.000146	0.00031	0.043865	0.180774
1015	-1.9e-05	0.00031	0.000146	0.044193	0.184554
1016	-0.000183	0.000474	0.000146	0.041564	0.184225
1017	-0.000512	0.00031	0.00031	0.046001	0.186526
1018	-0.000512	-1.9e-05	-1.9e-05	0.050439	0.182253
1019	-0.000183	-0.000347	-0.000183	0.042714	0.185705
1020	0.000146	-0.000183	-0.000183	0.038934	0.186526
1021	0.00031	-0.000841	-0.000347	0.045508	0.186198
1022	0.00031	-0.000841	-1.9e-05	0.049781	0.190142
1023	0.00031	-0.000183	0.000146	0.056191	0.188499
1024	0.000146	0.000146	0.000146	0.061286	0.191293
1025	0.000146	0.000146	0.00031	0.068518	0.187841
1026	-0.000183	-1.9e-05	0.000146	0.074928	0.18932
1027	-0.000347	0.00031	0.000474	0.075092	0.185705
1028	-0.000347	0.00031	0.000146	0.081174	0.192936
1029	-0.000347	0.000146	-0.000183	0.08331	0.190307
1030	-0.000347	-0.000347	-0.000347	0.023977	0.191128
1031	-0.000183	-0.000183	-0.000183	0.000474	0.191128
1032	-1.9e-05	-1.9e-05	-0.000183	-1.9e-05	0.196388
1033	0.000146	-0.001169	-0.000183	-0.000183	0.190635
1034	0.000474	-1.9e-05	-0.000183	-0.000183	0.195895
1035	0.000146	-1.9e-05	0.00031	-1.9e-05	0.197867
1036	0.000146	-0.000347	-1.9e-05	-1.9e-05	0.191457
1037	-0.000183	0.000803	-1.9e-05	-0.000183	0.193429
1038	-0.000183	0.000146	0.000146	0.000146	0.192608
1039	-0.000676	0.000146	0.000146	0.00031	0.193429
1040	-0.000512	-1.9e-05	-0.000676	0.00031	0.193101
1041	-0.000347	-1.9e-05	-0.000183	-0.000183	0.193922
1042	-0.000183	-1.9e-05	-0.000347	0.001132	0.189978
1043	0.000146	-0.000347	-0.000347	0.000146	0.195237
1044	0.000146	-0.000183	-0.000183	0.001132	0.193758
1045	0.00031	-1.9e-05	0.000146	-0.000347	0.194087
1046	0.000146	0.00031	0.000146	0.002611	0.19721
1047	0.000146	0.00031	-1.9e-05	0.010829	0.193758
1048	-0.000183	0.00031	0.00031	0.00672	0.191293
1049	-0.000183	0.000474	0.000146	0.000474	0.194744
1050	-0.000347	-1.9e-05	0.00031	-0.000183	0.194909
1051	-0.000183	-0.000183	-1.9e-05	0.00031	0.197867
1052	-0.000183	-0.000183	-0.000347	0.00031	0.192115
1053	-1.9e-05	-0.000347	-0.000347	0.000639	0.196388
1054	0.000146	-0.000347	-1.9e-05	0.000967	0.196717
1055	0.00031	-0.000183	-1.9e-05	0.001132	0.19458
1056	0.000146	-0.000183	-1.9e-05	0.000967	0.192936
1057	0.00031	0.00031	0.00031	0.002611	0.195073
1058	-1.9e-05	0.00031	0.000146	0.004583	0.195073
1059	-0.000183	0.000146	-1.9e-05	0.017403	0.19721
1060	-0.000512	0.000146	0.00031	0.006884	0.195895
1061	-0.000347	0.000146	0.000146	0.001954	0.195237
1062	-0.000347	-0.000183	-1.9e-05	0.000474	0.19721
1063	-0.000183	-0.000183	-0.000512	0.005241	0.194909
1064	0.000146	-0.000183	-0.000512	0.010993	0.196388
1065	0.000146	-0.000347	-0.000183	-0.000512	0.196717
1066	0.00031	-0.000347	-0.000183	-1.9e-05	0.19836
1067	0.00031	0.000146	-0.000183	-0.000183	0.198196
1068	0.00031	-1.9e-05	-0.000183	-0.000512	0.199018
1069	-1.9e-05	0.000146	0.000474	-0.000183	0.19721
1070	-0.000183	0.00031	0.000146	-0.000676	0.197703
1071	-0.000347	0.00031	0.00031	0.00031	0.199018
1072	-0.000183	0.00031	0.000146	0.000803	0.195237
1073	-0.000512	-0.000183	-0.000183	0.007706	0.200825
1074	-0.000183	-0.000183	-0.000183	0.00672	0.197374
1075	0.000146	-0.000183	-0.000183	0.001132	0.196388
1076	0.000146	-0.000183	-0.000347	0.000639	0.195073
1077	-1.9e-05	-0.000347	-0.000512	-1.9e-05	0.19836
1078	0.000146	-1.9e-05	-1.9e-05	-0.000347	0.19573
1079	0.00031	0.00031	0.000146	-0.000347	0.200332
1080	0.000146	0.000146	0.000146	-0.000347	0.195402
1081	-0.000183	0.00031	0.000474	-0.000183	0.199839
1082	-0.000183	0.000146	0.000146	-0.000183	0.200497
1083	-0.000347	0.000146	0.000146	0.000146	0.199675
1084	-0.000347	-1.9e-05	-0.000347	0.000146	0.197045
1085	-0.000512	-0.000183	-0.000183	0.000146	0.19836
1086	-0.000183	-0.000183	0.000146	0.000474	0.197538
1087	0.00031	-0.000347	-0.000676	0.00031	0.196881
1088	0.000474	-0.000183	-0.000347	-0.000183	0.201647
1089	0.00031	-1.9e-05	0.000146	-0.000347	0.197703
1090	0.000474	0.000146	-0.000183	-0.000347	0.200004
1091	0.00031	0.000146	-1.9e-05	-0.000183	0.197374
1092	-0.000347	0.00031	0.000146	-0.000183	0.198689
1093	-0.000183	0.00031	0.000146	0.000146	0.197374
1094	-0.000347	0.000146	-1.9e-05	0.001789	0.197867
1095	-0.000512	-0.000183	-0.000183	0.001625	0.199182
1096	-0.000347	-0.000183	-0.000183	0.005076	0.199839
1097	-1.9e-05	-0.000347	-0.000512	0.001132	0.199018
1098	0.00031	-0.000512	-1.9e-05	0.00146	0.197374
1099	0.000146	-0.000512	0.00031	0.000474	0.198853
1100	0.000474	-1.9e-05	-1.9e-05	0.000474	0.19836
1101	0.000146	0.00031	0.000474	-0.000347	0.200497
1102	0.00031	0.00031	0.000474	0.000146	0.198524
1103	-0.000183	0.00031	0.001789	-0.000347	0.198196
1104	-0.000347	0.00031	0.000474	0.000639	0.195895
1105	-0.000183	0.000146	0.002118	-1.9e-05	0.197867
1106	-0.000347	-0.000183	0.001625	0.000146	0.195073
1107	-0.000183	-0.000347	0.000146	0.000146	0.199018
1108	0.000146	-0.000512	0.001132	0.00031	0.196881
1109	0.000146	-0.000347	-0.000676	0.00146	0.198689
1110	0.00031	-0.000347	0.001954	0.004255	0.199675
1111	0.000146	-0.000183	0.000639	0.00409	0.196059
1112	0.00031	0.000146	0.003104	0.009678	0.197045
1113	0.000146	-1.9e-05	0.000803	0.019375	0.197703
1114	-0.000183	0.000474	0.00409	0.026443	0.197374
1115	-0.000183	0.00031	0.001132	0.030387	0.196881
1116	-0.000183	0.000146	0.000803	0.034989	0.199675
1117	-0.000347	-0.000183	0.002282	0.041728	0.196881
1118	-0.000183	-1.9e-05	0.007213	0.048467	0.197374
1119	-1.9e-05	-0.000347	0.009843	0.05274	0.198196
1120	-1.9e-05	-0.000347	0.010664	0.056356	0.196881
1121	0.000474	-0.000512	0.000146	0.063094	0.198031
1122	0.000146	-0.000183	0.000146	0.068847	0.196881
1123	0.00031	-1.9e-05	-1.9e-05	0.074764	0.200168
1124	0.000146	0.000146	0.000146	0.077558	0.197045
1125	-1.9e-05	0.000474	0.000146	0.080845	0.198524
1126	-0.000347	0.00031	0.00031	0.091692	0.199839
1127	-0.000512	0.000146	0.000146	0.091035	0.199675
1128	-0.000512	-0.000183	-1.9e-05	0.10254	0.198031
1129	-0.000347	-0.000183	-0.000183	0.105005	0.196717
1130	-1.9e-05	-0.000183	-0.000512	0.110593	0.200332
1131	-1.9e-05	-0.000512	-0.000183	0.111087	0.19836
1132	0.000146	-0.000183	-0.000183	0.116675	0.195895
1133	-1.9e-05	-0.000183	0.000146	0.117661	0.196388
1134	0.00031	0.000146	0.000146	0.121441	0.198853
1135	0.000146	0.000146	0.00031	0.123906	0.199018
1136	-0.000347	0.000146	0.00031	0.127522	0.198689
1137	-0.000347	0.000474	0.000639	0.12818	0.19721
1138	-0.000183	0.000146	0.00031	0.132289	0.198524
1139	-0.000512	-1.9e-05	-0.000183	0.134918	0.199675
1140	-0.000183	-0.000347	-1.9e-05	0.133275	0.19721
1141	-1.9e-05	-0.000183	-0.000512	0.140178	0.202798
1142	0.000146	-0.000512	-0.000347	0.13952	0.200004
1143	0.000146	-0.000183	-0.000183	0.147081	0.199675
1144	0.00031	-1.9e-05	-1.9e-05	0.14593	0.197538
1145	0.00031	-1.9e-05	0.00031	0.147738	0.202305
1146	0.000146	0.000146	0.00031	0.153984	0.200004
1147	-1.9e-05	0.000146	0.000146	0.154312	0.198689
1148	-0.000183	0.000146	0.000146	0.155627	0.19836
1149	-0.000183	0.000146	-1.9e-05	0.159572	0.199346
1150	-0.000512	-0.000183	-0.000183	0.158257	0.200497
1151	-0.000183	-0.000347	-0.000183	0.160394	0.197538
1152	-0.000183	-0.000347	-0.000512	0.161873	0.200497
1153	0.000146	-0.000512	-0.000512	0.162037	0.199182
1154	0.000146	-0.000183	-0.000347	0.163681	0.198524
1155	0.00031	-1.9e-05	0.000146	0.164667	0.19458
1156	0.000146	0.000146	0.000146	0.166968	0.202798
1157	-1.9e-05	0.00031	0.00031	0.166311	0.198524
1158	-0.000183	0.000146	0.00031	0.170913	0.200497
1159	-0.000347	0.000146	0.000474	0.169598	0.199675
1160	-0.000512	0.000146	0.000146	0.17272	0.202798
1161	-0.000347	-0.000183	-0.000347	0.169762	0.200004
1162	-1.9e-05	-0.000183	-0.000347	0.174528	0.196881
1163	0.000146	-0.000183	-0.000512	0.174035	0.201154
1164	-1.9e-05	-0.000347	-0.000347	0.176172	0.200168
1165	0.000146	-0.000347	-0.000183	0.157928	0.198031
1166	0.000146	-1.9e-05	-1.9e-05	0.036469	0.200332
1167	0.000146	0.000146	0.000146	-0.000183	0.200004
1168	-1.9e-05	0.000146	0.000146	0.000146	0.193922
1169	-0.000347	0.000146	0.00031	0.009021	0.198524
1170	-0.000347	0.000474	0.00031	0.010336	0.196388
1171	-0.000512	0.000146	0.00031	0.020197	0.197374
1172	-0.000183	-0.000347	-0.000183	0.02595	0.194416
1173	-0.000183	-0.000183	-0.000183	0.035154	0.200004
1174	-1.9e-05	-0.000347	-0.000347	0.038934	0.200497
1175	0.00031	-0.000512	-0.000183	0.044522	0.201483
1176	-1.9e-05	-0.000347	-0.000183	0.054219	0.200168
1177	0.000146	-1.9e-05	-1.9e-05	0.059643	0.201647
1178	0.00031	0.00031	0.000146	0.063916	0.201812
1179	-0.000183	-1.9e-05	0.000146	0.06934	0.200168
1180	-0.000183	0.00031	0.000474	0.077065	0.200332
1181	-0.000347	0.00031	0.000474	0.08216	0.199346
1182	-0.000347	0.000146	0.000146	0.080681	0.199018
1183	-0.000347	-0.000183	-0.000183	0.088241	0.196388
1184	-0.000183	-0.000183	-0.000183	0.092514	0.199839
1185	0.000146	-0.000183	-0.000347	0.05652	0.19836
1186	-1.9e-05	-0.000183	-0.000512	0.00031	0.199675
1187	0.00031	-0.000183	-0.000347	0.00294	0.198689
1188	0.000474	-0.000183	-0.000183	0.003433	0.198031
1189	0.000146	0.00031	0.00031	0.003104	0.200332
1190	-0.000183	0.000146	0.000146	0.010336	0.197703
1191	-0.000183	0.000474	0.000474	0.017239	0.199346
1192	-0.000183	0.00031	0.00031	0.008199	0.198524
1193	-0.000512	0.000146	0.000146	-0.000512	0.199346
1194	-0.000183	-0.000183	-0.000183	0.003104	0.19573
1195	-0.000183	-0.000183	-0.000183	0.000474	0.198853
1196	0.000146	-1.9e-05	-0.000347	0.004748	0.199675
1197	-1.9e-05	-0.000347	-0.000347	0.009514	0.203126
1198	0.000146	-0.000183	-0.000183	0.013623	0.19573
1199	0.00031	-1.9e-05	0.000146	0.019868	0.199675
1200	0.00031	0.00031	0.000146	0.017567	0.197703
1201	0.000146	0.00031	0.000146	0.015102	0.198689
1202	-0.000347	-1.9e-05	0.00031	0.004419	0.19721
1203	-0.000183	0.000639	0.000146	0.007542	0.199182
1204	-0.000347	0.000146	0.000146	0.00294	0.19573
1205	-0.000347	-0.000183	-0.000347	0.012965	0.199675
1206	-0.000183	-0.000183	-0.000183	0.019868	0.199018
1207	-1.9e-05	-0.000512	-0.000512	0.027758	0.199675
1208	0.000146	-0.000183	-0.000347	0.034661	0.199839
1209	0.00031	-0.000183	-0.000183	0.039756	0.200497
1210	0.00031	0.000146	0.000146	0.044193	0.199675
1211	0.00031	0.000639	0.000146	0.053726	0.200825
1212	-1.9e-05	0.000474	0.00031	0.057671	0.200825
1213	-0.000183	0.00031	-1.9e-05	0.066381	0.197703
1214	-0.000183	0.003104	0.00031	0.069669	0.200168
1215	-0.000183	0.006227	-1.9e-05	0.073778	0.199346
1216	-0.000347	0.011486	-0.000183	0.080845	0.199346
1217	-0.000183	0.015266	-0.000347	0.084625	0.197045
1218	0.000146	0.013623	-0.000183	0.090706	0.19721
1219	-1.9e-05	0.019868	-0.000512	0.094815	0.194909
1220	0.000146	0.028415	-0.000347	0.093829	0.199182
1221	0.00031	0.032031	0.000146	0.086433	0.19458
1222	0.000146	0.041399	0.00031	0.089227	0.193265
1223	-0.000183	0.047809	0.000146	0.093829	0.196552
1224	-1.9e-05	0.054219	0.00031	0.100732	0.197703
1225	-0.000183	0.059478	0.000146	0.098267	0.198524
1226	-0.000512	0.064409	0.000146	0.10632	0.201483
1227	-0.000347	0.07049	-0.000183	0.106978	0.200661
1228	-0.000183	0.075585	-0.000183	0.115195	0.198524
1229	-1.9e-05	0.082653	-1.9e-05	0.114374	0.201154
1230	-1.9e-05	0.086433	-0.000183	0.116839	0.198031
1231	0.00031	0.090378	-0.000183	0.122098	0.201976
1232	0.000474	0.094322	-1.9e-05	0.126043	0.199346
1233	0.00031	0.099582	-1.9e-05	0.127687	0.200825
1234	-1.9e-05	0.100075	0.000146	0.131467	0.202798
1235	-0.000347	0.104184	0.00031	0.135411	0.200004
1236	-0.000183	0.108786	0.000146	0.134261	0.200661
1237	-0.000512	0.111415	0.000146	0.129988	0.200661
1238	-0.000347	0.11536	-0.000347	0.130974	0.198853
1239	-0.000183	0.119797	-0.000183	0.135247	0.198031
1240	-1.9e-05	0.12292	-0.000347	0.135411	0.199346
1241	0.00031	0.12555	-0.000183	0.141493	0.200004
1242	0.000146	0.128673	-0.000183	0.14478	0.200332
1243	0.000146	0.131138	-1.9e-05	0.147738	0.199839
1244	0.000146	0.131467	-1.9e-05	0.151354	0.199675
1245	-0.000347	0.136726	0.000146	0.148396	0.19836
1246	-0.000183	0.136726	0.00031	0.151518	0.199346
1247	-0.000512	0.141657	0.00031	0.15234	0.199346
1248	-0.000347	0.14215	-1.9e-05	0.154806	0.20099
1249	-0.000512	0.145108	-1.9e-05	0.154148	0.199675
1250	-0.000183	0.146916	-0.000183	0.159572	0.199182
1251	0.000146	0.148231	-0.000183	0.159408	0.201647
1252	-1.9e-05	0.149875	-0.000512	0.160394	0.197374
1253	0.000146	0.15497	-0.000347	0.164831	0.195895
1254	0.000146	0.15612	-1.9e-05	0.161709	0.19836
1255	0.000146	0.155627	-1.9e-05	0.163516	0.198689
1256	0.000146	0.158914	0.00031	0.164996	0.198524
1257	-0.000183	0.15875	0.000146	0.167954	0.198196
1258	-0.000183	0.161873	0.000146	0.169433	0.19721
1259	-0.000347	0.163845	0.000146	0.169433	0.200168
1260	-0.000347	0.165817	-0.000347	0.173214	0.19836
1261	-0.000183	0.166146	-0.000347	0.172885	0.199018
1262	0.000146	0.171241	-1.9e-05	0.1742	0.199182
1263	0.000146	0.169598	-0.000183	0.174857	0.200661
1264	0.000146	0.170584	-0.000183	0.176008	0.200497
1265	0.00031	0.169762	-0.000183	0.17798	0.201319
1266	0.000146	0.17272	0.00031	0.177815	0.203291
1267	-0.000183	0.174364	0.000146	0.180281	0.199182
1268	-1.9e-05	0.1742	0.00031	0.179623	0.199182
1269	-0.000183	0.175515	0.00031	0.180774	0.198031
1270	-0.000347	0.175021	-1.9e-05	0.180938	0.197703
1271	-0.000347	0.177322	-0.000183	0.183897	0.200825
1272	-0.000183	0.178144	-0.000347	0.182089	0.195402
1273	-1.9e-05	0.181596	-0.000183	0.183075	0.194251
1274	-1.9e-05	0.179295	-0.000347	0.184718	0.197374
1275	0.000474	0.182417	-0.000183	0.182253	0.198524
1276	0.00031	0.180116	-1.9e-05	0.024799	0.201319
1277	0.00031	0.184225	-0.000183	0.003104	0.200168
1278	-1.9e-05	0.185212	0.000146	0.013952	0.198689
1279	-0.000347	0.186198	0.00031	0.022005	0.198031
1280	-0.000183	0.185705	0.000146	0.027429	0.199839
1281	-0.000347	0.185047	-1.9e-05	0.037619	0.202633
1282	-0.000183	0.186855	-1.9e-05	0.042221	0.198524
1283	-1.9e-05	0.184554	-0.000183	0.047152	0.20099
1284	-1.9e-05	0.188006	-0.000183	0.052247	0.206085
1285	0.00031	0.186526	-0.000512	0.062766	0.202633
1286	0.00031	0.187019	-0.000183	0.067861	0.199511
1287	0.00031	0.186198	0.000146	0.070655	0.200332
1288	0.000146	0.188499	0.000146	0.079366	0.201976
1289	-1.9e-05	0.186526	0.00031	0.082653	0.200168
1290	-0.000347	0.192115	0.00031	0.087912	0.200332
1291	-0.000183	0.18932	0.00031	0.090706	0.203784
1292	-0.000512	0.190142	-1.9e-05	0.097774	0.20099
1293	-0.000183	0.190142	-0.000183	0.100896	0.204606
1294	-1.9e-05	0.191293	-0.000347	0.103691	0.200825
1295	0.000146	0.191128	-0.000512	0.107635	0.201812
1296	0.000146	0.187841	-0.000512	0.111744	0.200825
1297	0.000146	0.188006	-0.000183	0.115689	0.201483
1298	0.000146	0.18817	-1.9e-05	0.117332	0.20099
1299	-1.9e-05	0.190142	0.000146	0.122098	0.204441
1300	-1.9e-05	0.189978	0.000146	0.123249	0.200661
1301	-0.000183	0.191457	-1.9e-05	0.127029	0.202962
1302	-0.000183	0.190964	0.00031	0.128837	0.202469
1303	-0.000183	0.194251	-1.9e-05	0.129988	0.200332
1304	-0.000676	0.193101	-0.000183	0.137384	0.200661
1305	-0.000183	0.193265	-0.000183	0.141328	0.201154
1306	0.000146	0.192772	-0.000347	0.140835	0.200004
1307	0.000146	0.193758	-0.000347	0.143301	0.201483
1308	0.000146	0.196059	-0.000183	0.146095	0.200497
1309	0.000146	0.193101	-1.9e-05	0.148231	0.197867
1310	0.000146	0.195566	0.000146	0.149546	0.202469
1311	-0.000183	0.19573	0.000146	0.150532	0.200661
1312	-0.000347	0.195566	0.000474	0.152833	0.20214
1313	-0.000347	0.198524	0.000146	0.153819	0.200497
1314	-0.000183	0.195566	0.000146	0.157928	0.200497
1315	-0.000676	0.195402	-0.000347	0.157928	0.202798
1316	-0.000183	0.195566	-0.000183	0.161709	0.201319
1317	-1.9e-05	0.195237	-0.000183	0.159572	0.202305
1318	0.00031	0.196881	-0.000347	0.164831	0.20099
1319	0.00031	0.196388	-0.000183	0.164338	0.201319
1320	0.00031	0.19573	-0.000183	0.165324	0.199675
1321	0.00031	0.195566	0.000146	0.168118	0.200661
1322	-0.000183	0.197374	0.000146	0.167132	0.202798
1323	-0.000183	0.197045	0.00031	0.16779	0.197538
1324	-0.000183	0.197703	0.00031	0.168776	0.198031
1325	-0.000347	0.196388	-0.000183	0.172227	0.199511
1326	-0.000183	0.197703	-0.000183	0.17157	0.196223
1327	-1.9e-05	0.197045	-0.000347	0.17272	0.200332
1328	-0.000183	0.197374	-0.000183	0.173871	0.200004
1329	0.000146	0.197045	-0.000183	0.178309	0.200332
1330	0.000146	0.199675	-0.000183	0.17798	0.200004
1331	0.000146	0.196223	-1.9e-05	0.179623	0.201812
1332	0.000146	0.196059	0.000146	0.178966	0.201976
1333	-1.9e-05	0.199675	-0.000183	0.17272	0.200332
1334	-0.000512	0.196059	0.00031	0.182911	0.201647
1335	-0.000183	0.197045	0.00031	0.183239	0.198689
1336	-0.000512	0.199182	-1.9e-05	0.185376	0.199675
1337	-0.000183	0.198031	-1.9e-05	0.181924	0.198524
1338	-1.9e-05	0.198853	-0.000183	0.185047	0.202962
1339	0.000474	0.19836	-0.000183	0.182417	0.19721
1340	0.00031	0.196552	-0.000347	0.186362	0.202962
1341	0.000146	0.199182	-0.000183	0.186362	0.199839
1342	0.00031	0.19573	0.000146	0.185047	0.201647
1343	0.000146	0.19573	-1.9e-05	0.188334	0.201976
1344	-0.000183	0.196388	0.000146	0.181596	0.201319
1345	-0.000183	0.196881	0.000146	0.183075	0.200004
1346	-0.000183	0.200332	0.00031	0.189156	0.199346
1347	-0.000347	0.199675	-1.9e-05	0.18817	0.200661
1348	-0.000347	0.195073	-0.000347	0.188663	0.199839
1349	-0.000183	0.192772	-0.000347	0.148067	0.203291
1350	-1.9e-05	0.198196	-0.000347	0.006884	0.200332
1351	0.000146	0.19458	-0.000512	0.00146	0.202305
1352	0.00031	0.197374	-0.000183	0.008857	0.199346
1353	0.00031	0.195402	-1.9e-05	-0.001334	0.20362
1354	0.00031	0.197045	0.000146	0.004419	0.201812
1355	-0.000183	0.197045	0.000146	0.011158	0.19836
1356	-0.000183	0.198853	0.00031	0.017732	0.199675
1357	-0.000512	0.198524	0.00031	0.027429	0.201319
1358	-0.000347	0.19836	-0.000183	0.033346	0.200497
1359	-0.000512	0.199018	-0.000183	0.042057	0.201812
1360	0.000146	0.199018	-0.000183	0.047809	0.20099
1361	-1.9e-05	0.202798	-0.000347	0.052904	0.201319
1362	0.000146	0.196059	-0.000512	0.058985	0.197538
1363	0.000146	0.201647	-0.000183	0.067696	0.201319
1364	0.000474	0.198853	-1.9e-05	0.070983	0.201976
1365	-1.9e-05	0.199018	0.000146	0.0769	0.200497
1366	-1.9e-05	0.197867	0.00031	0.087584	0.200497
1367	-0.000512	0.201154	0.000146	0.084296	0.199511
1368	-0.000347	0.198689	0.000474	0.089063	0.198031
1369	-0.000183	0.199182	-1.9e-05	0.093993	0.19836
1370	-0.000347	0.201976	-0.000183	0.097116	0.200825
1371	-0.000183	0.199182	-0.000347	0.099089	0.199182
1372	0.000146	0.200004	-0.000512	0.104019	0.200661
1373	0.00031	0.198853	-0.000512	0.109279	0.205592
1374	0.00031	0.196717	-1.9e-05	0.114374	0.203291
1375	0.00031	0.196881	0.000146	0.113552	0.201483
1376	0.00031	0.196223	0.000146	0.120291	0.202469
1377	-0.000183	0.197374	0.000146	0.126372	0.201976
1378	-0.000183	0.19573	0.000146	0.118483	0.197045
1379	-0.000183	0.194416	0.000474	0.121112	0.201976
1380	-0.000183	0.199182	-1.9e-05	0.122098	0.199182
1381	-0.000512	0.194744	-0.000183	0.113059	0.200332
1382	-0.000183	0.196717	-0.000183	0.109772	0.200168
1383	-1.9e-05	0.197045	-0.000183	0.108128	0.200332
1384	0.00031	0.198196	-0.000512	0.11158	0.201154
1385	0.000146	0.196388	-1.9e-05	0.075092	0.196388
1386	0.000146	0.198853	0.000146	0.051425	0.197703
1387	0.000146	0.198031	0.000146	0.049124	0.201483
1388	-0.000183	0.200497	0.00031	0.053562	0.200004
1389	-0.000347	0.198031	0.00031	0.057671	0.201319
1390	-0.000183	0.197703	0.000146	0.059807	0.19836
1391	-0.000183	0.200332	-1.9e-05	0.066875	0.199675
1392	-0.000512	0.199018	-0.000183	0.073778	0.200004
1393	-1.9e-05	0.199675	-0.000512	0.078215	0.200497
1394	0.000146	0.19836	-0.000347	0.080845	0.200332
1395	-1.9e-05	0.199511	-0.000183	0.090378	0.199675
1396	0.00031	0.19836	-0.000183	0.094487	0.199511
1397	0.000146	0.205099	0.00031	0.009843	0.198031
1398	0.000146	0.197703	0.000146	-1.9e-05	0.201154
1399	-0.000183	0.198196	0.000474	0.010993	0.198031
1400	-0.000183	0.200168	0.000146	0.015102	0.199839
1401	-0.000183	0.198689	0.00031	0.023156	0.198689
1402	-0.000347	0.19836	-1.9e-05	0.031373	0.199675
1403	-0.000347	0.201647	-0.000183	0.037619	0.199346
1404	0.000146	0.196388	-0.000183	0.044193	0.200497
1405	-1.9e-05	0.197703	-0.000183	0.048302	0.199346
1406	0.00031	0.198031	-0.000347	0.058657	0.20214
1407	0.000474	0.197045	-1.9e-05	0.058657	0.200497
1408	0.00031	0.200332	-1.9e-05	0.067532	0.200661
1409	-1.9e-05	0.19836	0.00031	0.068682	0.20099
1410	-0.000183	0.19721	0.000474	0.049946	0.201319
1411	-0.000183	0.196388	0.000146	0.020197	0.200661
1412	-0.000512	0.195566	0.00031	0.019704	0.199511
1413	-0.000676	0.199346	-1.9e-05	0.025292	0.200825
1414	-0.000347	0.199675	-0.000183	0.031209	0.199018
1415	-0.000183	0.19721	-0.000183	0.037948	0.202305
1416	0.00031	0.199675	-0.000183	0.0437	0.200004
1417	-1.9e-05	0.197703	-0.000347	0.051589	0.202305
1418	-1.9e-05	0.198853	-1.9e-05	0.05537	0.198031
1419	0.00031	0.199018	0.000146	0.061122	0.197045
1420	0.000474	0.200497	-1.9e-05	0.067368	0.199346
1421	0.000146	0.199511	0.00031	0.070819	0.199346
1422	-0.000347	0.199675	0.00031	0.076079	0.199018
1423	-0.000183	0.195895	0.000146	0.080023	0.199182
1424	-0.000183	0.199675	-0.000183	0.083146	0.201976
1425	-0.000347	0.199675	-0.000347	0.088898	0.201976
1426	-0.000183	0.198689	-1.9e-05	0.0935	0.201976
1427	-1.9e-05	0.201812	-0.000183	0.09876	0.200497
1428	0.000146	0.189814	-0.000183	0.104512	0.202469
1429	0.00031	0.196552	-0.000183	0.108786	0.200332
1430	-1.9e-05	0.197374	0.000146	0.111908	0.200168
1431	0.00031	0.19836	0.000146	0.115524	0.199675
1432	-0.000183	0.195402	-1.9e-05	0.119633	0.19836
1433	-0.000183	0.197867	0.000146	0.12555	0.197867
1434	-0.000347	0.197374	0.00031	0.124399	0.197538
1435	-0.000347	0.198524	-0.000183	0.125879	0.19836
1436	-0.000183	0.198524	-0.000183	0.130645	0.200497
1437	-0.000183	0.197867	-0.000183	0.133275	0.197538
1438	0.000146	0.199839	-0.000183	0.135904	0.201647
1439	0.00031	0.191293	-0.000512	0.136562	0.201647
1440	0.00031	0.198196	-0.000183	0.141328	0.197703
1441	0.00031	0.198853	-1.9e-05	0.138863	0.19836
1442	-1.9e-05	0.200004	0.000146	0.147081	0.194416
1443	-1.9e-05	0.196717	0.00031	0.145108	0.200661
1444	-0.000347	0.199182	-1.9e-05	0.148396	0.19721
1445	-0.000347	0.198031	0.00031	0.151354	0.199675
1446	-0.000347	0.199182	-0.000183	0.152669	0.198689
1447	-0.000347	0.196881	-0.000183	0.157271	0.19836
1448	-1.9e-05	0.196388	-0.000183	0.155627	0.199018
1449	-1.9e-05	0.198031	-0.000347	0.159408	0.199675
1450	0.00031	0.194416	-0.000183	0.160722	0.19721
1451	0.000474	0.194416	-1.9e-05	0.165489	0.199675
1452	0.00031	0.198689	-1.9e-05	0.161873	0.192443
1453	0.00031	0.196717	-1.9e-05	0.162366	0.198853
1454	-0.000183	0.200004	0.00031	0.165653	0.199182
1455	0.000146	0.199182	0.000146	0.165817	0.197867
1456	-0.000347	0.19836	0.00031	0.161709	0.20099
1457	-0.000512	0.202305	-0.000183	0.16894	0.200004
1458	-0.000347	0.198853	-1.9e-05	0.168612	0.198689
1459	0.000146	0.200168	-0.000512	0.170748	0.199839
1460	0.000146	0.199346	-0.000347	0.171734	0.200825
1461	-1.9e-05	0.202305	-0.000347	0.1742	0.199839
1462	0.000146	0.199675	-1.9e-05	0.174364	0.199675
1463	0.00031	0.200332	0.000146	0.176665	0.191128
1464	0.000146	0.19836	0.00031	0.179459	0.198196
1465	-0.000183	0.199839	0.000146	0.179295	0.196881
1466	-1.9e-05	0.19836	0.000146	0.179459	0.200004
1467	-0.000512	0.198689	0.000146	0.180116	0.19836
1468	-0.000347	0.199511	-0.000183	0.182089	0.197703
1469	-0.000512	0.199511	-0.000183	0.180445	0.194744
1470	-0.000183	0.200825	-0.000183	0.180116	0.196717
1471	0.000146	0.201483	-0.000347	0.182417	0.200661
1472	-1.9e-05	0.205263	-0.000347	0.181596	0.196388
1473	0.000146	0.197703	-0.000183	0.181596	0.199675
1474	0.000146	0.197538	0.000146	0.183732	0.193922
1475	0.000146	0.198689	0.00031	0.182089	0.19721
1476	-0.000347	0.200332	0.00031	0.185212	0.198689
1477	-0.000347	0.197374	0.000146	0.182746	0.199675
1478	-0.000183	0.197374	0.000146	0.186526	0.200168
1479	-0.000347	0.201154	-1.9e-05	0.186526	0.201812
1480	-1.9e-05	0.199018	-0.000512	0.18554	0.19836
1481	0.000146	0.198031	-0.000183	0.189649	0.202469
1482	-1.9e-05	0.199182	-0.000676	0.188006	0.202305
1483	0.000474	0.200661	-0.000183	0.186691	0.202305
1484	0.000146	0.19721	-1.9e-05	0.191786	0.20099
1485	0.000146	0.199018	-1.9e-05	0.193429	0.203784
1486	0.000146	0.196388	0.000146	0.187841	0.199675
1487	-1.9e-05	0.198689	-1.9e-05	0.1908	0.200332
1488	-0.000183	0.197703	0.000146	0.1908	0.206249
1489	-0.000676	0.19836	0.000146	0.18932	0.205592
1490	-0.000347	0.19836	-1.9e-05	0.190142	0.203455
1491	-0.000183	0.199346	-0.000183	0.189485	0.199839
1492	-1.9e-05	0.19836	-0.000347	0.189485	0.204606
1493	0.000146	0.20099	-0.000183	0.189485	0.200332
1494	0.000146	0.198524	-0.000347	0.191128	0.201976
1495	-1.9e-05	0.199182	-0.000183	0.1908	0.200168
1496	0.00031	0.198196	0.000146	0.19195	0.207235
1497	0.00031	0.195566	0.00031	0.192279	0.199675
1498	-1.9e-05	0.195237	0.000146	0.194087	0.204113
1499	-0.000183	0.197867	0.000146	0.192443	0.199511
1500	-0.000676	0.196717	-1.9e-05	0.192443	0.200168
1501	-0.000512	0.199675	-0.000183	0.192115	0.196717
1502	-0.000347	0.199839	-0.000183	0.187513	0.19721
1503	-0.000183	0.194909	-0.000512	0.189978	0.198853
1504	0.00031	0.201483	-0.000347	0.192115	0.200332
1505	0.000146	0.197045	-1.9e-05	0.186855	0.200004
1506	0.000474	0.19721	0.000146	0.18817	0.198196
1507	0.000146	0.197045	0.000146	0.186526	0.205756
1508	0.000146	0.199182	0.000146	0.184061	0.197374
1509	-0.000183	0.197538	0.00031	0.183075	0.200661
1510	0.000146	0.198689	0.000474	0.183732	0.19836
1511	0.000146	0.199018	0.000146	0.182911	0.203291
1512	-0.000347	0.199839	-0.000183	0.180774	0.196552
1513	0.000967	0.200004	-0.000183	0.179952	0.200497
1514	0.000474	0.198196	-0.000347	0.116017	0.201154
1515	0.001789	0.199018	-0.000512	0.00146	0.202469
1516	0.003926	0.199018	-0.000183	0.001132	0.200825
1517	0.001954	0.197045	-0.000183	0.002282	0.199675
1518	0.002611	0.196059	0.000146	0.00409	0.20099
1519	0.003926	0.200661	0.000146	0.000146	0.194087
1520	0.00146	0.197045	0.00031	-0.000183	0.196388
1521	0.000967	0.20099	-1.9e-05	0.005405	0.196552
1522	0.003104	0.192115	-1.9e-05	0.012308	0.198689
1523	0.000967	0.198031	-1.9e-05	0.011979	0.197867
1524	0.003104	0.199346	-0.000183	0.011158	0.199018
1525	0.001132	0.20099	-0.000183	0.013459	0.199182
1526	0.004255	0.199839	-0.000347	0.020362	0.201812
1527	0.003761	0.202469	-0.000183	0.026443	0.200825
1528	0.002775	0.198853	-1.9e-05	0.034168	0.201976
1529	0.00146	0.199675	0.00031	0.043043	0.200332
1530	0.001625	0.200825	-1.9e-05	0.048631	0.198689
1531	0.002118	0.198524	0.00031	0.055205	0.199346
1532	-0.002813	0.199675	0.000146	0.063259	0.199346
1533	0.003761	0.199018	0.000146	0.066217	0.200332
1534	0.002447	0.197538	-0.000183	0.071805	0.201154
1535	0.000803	0.200332	-0.000347	0.076736	0.199346
1536	0.003926	0.198524	-0.000347	0.084789	0.200497
1537	0.003761	0.198689	-0.000512	0.084625	0.20099
1538	0.003433	0.200332	-0.000183	0.093336	0.19836
1539	0.00146	0.195895	-0.000183	0.096788	0.200332
1540	0.002775	0.200168	0.000146	0.098595	0.200168
1541	0.00294	0.198853	0.000146	0.105992	0.201154
1542	0.003926	0.198031	0.00031	0.106978	0.199018
1543	0.005734	0.200497	0.00031	0.111087	0.200497
1544	0.003104	0.199018	-1.9e-05	0.113223	0.199675
1545	0.003761	0.200332	-0.000183	0.117003	0.199839
1546	0.003597	0.200168	-1.9e-05	0.121605	0.199182
1547	0.005569	0.199511	-0.000183	0.122756	0.204113
1548	0.004255	0.198689	-0.000347	0.125221	0.199018
1549	0.004255	0.198524	-0.000183	0.131467	0.20099
1550	0.001789	0.195895	-1.9e-05	0.132124	0.203455
1551	0.007049	0.196881	0.000146	0.136562	0.20362
1552	0.008199	0.197374	0.00031	0.138699	0.199511
1553	0.019375	0.203948	0.000146	0.145108	0.199839
1554	0.025621	0.198196	0.000146	0.140342	0.201483
1555	0.032688	0.19836	-1.9e-05	0.142972	0.196388
1556	0.038934	0.199018	-1.9e-05	0.146423	0.200661
1557	0.042714	0.198524	-0.000347	0.14971	0.197867
1558	0.049124	0.199182	-0.000347	0.147738	0.201154
1559	0.055863	0.198524	-0.000347	0.149546	0.199346
1560	0.060465	0.201483	-0.000347	0.155463	0.199839
1561	0.063916	0.197867	-0.000183	0.155134	0.200332
1562	0.071477	0.199018	0.000146	0.158421	0.202469
1563	0.075585	0.200004	0.00031	0.158586	0.200168
1564	0.081667	0.198196	0.000146	0.163023	0.199346
1565	0.08594	0.19836	0.00031	0.161215	0.201812
1566	0.090378	0.200661	0.00031	0.164667	0.200497
1567	0.095308	0.19836	-0.000183	0.162695	0.200825
1568	0.098102	0.201483	-0.000183	0.166968	0.200825
1569	0.102704	0.199675	-1.9e-05	0.167132	0.199839
1570	0.104348	0.199839	-0.000183	0.168118	0.195895
1571	0.112237	0.196552	-0.000347	0.173049	0.200497
1572	0.113223	0.198524	-0.000183	0.168776	0.197703
1573	0.115689	0.196223	0.000146	0.169926	0.200168
1574	0.118976	0.198524	0.000146	0.173214	0.195402
1575	0.12292	0.199018	0.000474	0.175679	0.199675
1576	0.124235	0.200168	0.000474	0.173707	0.19836
1577	0.130152	0.197374	0.000146	0.175515	0.196717
1578	0.130645	0.199018	-0.000183	0.177651	0.198031
1579	0.134918	0.200332	-0.000183	0.180445	0.203455
1580	0.13574	0.197374	-0.000347	0.176501	0.20362
1581	0.13952	0.198853	-0.000347	0.178802	0.201154
1582	0.142972	0.199018	-0.000183	0.178637	0.200661
1583	0.141493	0.200004	-1.9e-05	0.181267	0.202469
1584	0.146095	0.197703	0.000146	0.178473	0.201319
1585	0.146752	0.199839	0.000146	0.178966	0.198196
1586	0.150368	0.197703	0.00031	0.186198	0.201154
1587	0.15119	0.198853	0.00031	0.182746	0.199018
1588	0.153162	0.199182	0.000146	0.185705	0.200825
1589	0.153984	0.200497	-1.9e-05	0.185376	0.19836
1590	0.161709	0.197045	-0.000347	0.186526	0.199018
1591	0.155299	0.199182	-0.000347	0.187348	0.199675
1592	0.159243	0.20099	-0.000512	0.187677	0.199675
1593	0.16253	0.198031	-0.000183	0.18932	0.19836
1594	0.162859	0.199675	-1.9e-05	0.191293	0.199675
1595	0.166804	0.198524	0.000146	0.188334	0.20099
1596	0.165653	0.200332	0.000146	0.190635	0.199511
1597	0.167954	0.19836	0.00031	0.190142	0.200168
1598	0.167625	0.200497	0.00031	0.189814	0.198196
1599	0.16894	0.196223	0.00031	0.187841	0.203126
1600	0.169762	0.201483	-0.000183	0.191457	0.19721
1601	0.174693	0.199182	-0.000183	0.192936	0.199346
1602	0.175679	0.197374	-0.000347	0.191293	0.197703
1603	0.17535	0.19458	-0.000347	0.191128	0.199675
1604	0.17272	0.200332	-0.000183	0.189978	0.199182
1605	0.175679	0.198524	-1.9e-05	0.190635	0.200168
1606	0.174035	0.200168	-1.9e-05	0.191786	0.200332
1607	0.177815	0.199018	0.000146	0.188006	0.199018
1608	0.176665	0.198524	0.00031	0.193758	0.200004
1609	0.178637	0.200497	0.000146	0.197374	0.199675
1610	0.17913	0.197867	0.000146	0.1908	0.199018
1611	0.181103	0.199346	-0.000183	0.193758	0.197538
1612	0.184225	0.200661	-0.000183	0.194744	0.201976
1613	0.180938	0.20099	-0.000183	0.193429	0.198524
1614	0.183732	0.199675	-0.000347	0.19195	0.199675
1615	0.182911	0.201154	-0.000183	0.193101	0.134097
1616	0.185376	0.199018	-0.000183	0.192115	0.054712
1617	0.184718	0.200168	0.000146	0.191786	0.001954
1618	0.186691	0.200661	0.000146	0.193101	0.003597
1619	0.18554	0.199511	-1.9e-05	0.191621	0.001789
1620	0.187348	0.198196	0.00031	0.189485	0.001296
1621	0.185705	0.199839	0.000146	0.188827	0.000803
1622	0.189978	0.200497	-1.9e-05	0.192608	0.000146
1623	0.187513	0.201319	-0.000347	0.190471	0.000146
1624	0.187677	0.196717	-0.000183	0.190635	-1.9e-05
1625	0.188827	0.199346	-0.000347	0.188827	-0.000183
1626	0.190471	0.201483	-0.000183	0.193429	0.000146
1627	0.189156	0.19721	0.000146	0.19195	-0.000512
1628	0.192772	0.199839	0.000146	0.193594	-0.000347
1629	0.192115	0.199511	0.00031	0.192115	-1.9e-05
1630	0.190635	0.197867	0.000146	0.197045	0.000803
1631	0.192443	0.195237	0.00031	0.193594	0.000146
1632	0.193101	0.200497	-1.9e-05	0.190964	0.000474
1633	0.195566	0.067039	-0.000183	0.191457	0.000474
1634	0.196223	-1.9e-05	-0.000183	0.190142	0.000146
1635	0.192443	-0.000183	-0.000347	0.190471	0.00031
1636	0.192279	-0.000512	-0.000347	0.189814	-0.000183
1637	0.19458	-0.000183	-1.9e-05	0.192443	-0.000347
1638	0.190964	0.000146	-1.9e-05	0.189978	-0.000347
1639	0.194087	0.000146	0.000146	0.192936	-0.000183
1640	0.194251	0.00031	0.00031	0.189649	-1.9e-05
1641	0.192936	0.00031	0.00031	0.192772	0.00031
1642	0.194087	0.00031	0.00031	0.188663	0.000146
1643	0.195073	0.00031	0.000146	0.191457	0.00031
1644	0.195895	-0.000183	-0.000183	0.192608	0.000146
1645	0.197045	-0.000183	-0.000183	0.191786	-0.000183
1646	0.197703	-0.000347	-0.000347	0.193265	-0.000183
1647	0.192936	-0.000347	-0.000512	0.190964	-1.9e-05
1648	0.196059	-1.9e-05	-0.000183	0.192443	-0.000347
1649	0.195895	0.000146	0.000146	0.191786	-0.000183
1650	0.198853	0.00031	0.000146	0.19195	-0.000347
1651	0.197374	-1.9e-05	0.00031	0.192443	0.000146
1652	0.19458	0.000146	0.000146	0.195237	0.00031
1653	0.193922	0.000146	0.00031	0.187019	-1.9e-05
1654	0.194087	0.00031	0.000146	0.191457	0.000474
1655	0.193101	-0.000347	0.000146	0.189814	0.000474
1656	0.195566	-0.000183	-0.000183	0.191457	0.000146
1657	0.195073	-0.000183	-0.000347	0.193922	-0.000347
1658	0.193758	-0.000347	-0.000347	0.193101	-1.9e-05
1659	0.195073	-1.9e-05	-0.000183	0.191786	-0.000347
1660	0.198031	-1.9e-05	-1.9e-05	0.189978	-0.000512
1661	0.196881	-0.000512	0.00031	0.192115	-0.000347
1662	0.197045	0.000474	0.00031	0.156449	0.000146
1663	0.197045	0.002282	0.00031	0.125057	-1.9e-05
1664	0.200332	0.010007	0.000474	0.124564	0.000474
1665	0.199018	0.013952	0.000146	0.127522	0.00031
1666	0.196223	0.023813	-1.9e-05	0.127029	0.000146
1667	0.19836	0.031867	-1.9e-05	0.129495	0.000146
1668	0.19721	0.038112	-0.000347	0.133439	-0.000183
1669	0.198196	0.0437	-0.000347	0.136233	-1.9e-05
1670	0.19573	0.053069	-0.000183	0.137219	-0.000676
1671	0.197703	0.058492	-0.000183	0.137219	-0.000512
1672	0.197703	0.059972	0.000146	0.140342	-0.000347
1673	0.197703	0.069669	0.000146	0.142972	0.000146
1674	0.197867	0.074435	0.000146	0.146259	0.000146
1675	0.197045	0.078873	-1.9e-05	0.143794	0.000146
1676	0.199675	0.083639	-1.9e-05	0.148067	-1.9e-05
1677	0.19836	0.085447	-0.000183	0.150697	0.00031
1678	0.195237	0.092186	-0.000183	0.151518	0.000146
1679	0.19721	0.095473	-0.000183	0.153819	-0.000183
1680	0.19721	0.09876	-0.000512	0.157435	-0.000512
1681	0.195566	0.103691	-0.000183	0.158093	-0.000183
1682	0.197703	0.105827	-1.9e-05	0.159901	-0.000512
1683	0.193429	0.1101	0.000146	0.160065	-1.9e-05
1684	0.198689	0.114867	0.000146	0.163188	-1.9e-05
1685	0.198853	0.117825	0.000474	0.159736	0.000146
1686	0.196388	0.121441	-1.9e-05	0.161544	0.00031
1687	0.201812	0.123085	0.000146	0.162859	0.000146
1688	0.197867	0.129166	-0.000183	0.165489	0.00031
1689	0.197703	0.129659	-0.000347	0.162695	-1.9e-05
1690	0.197045	0.13459	-0.000183	0.168118	-0.000183
1691	0.197867	0.134918	-0.000512	0.169433	-0.000183
1692	0.195566	0.140178	-0.000183	0.170419	-0.000512
1693	0.198031	0.142972	0.000146	0.171899	-0.000183
1694	0.197045	0.142807	0.000146	0.17157	-0.000347
1695	0.199839	0.143629	0.00031	0.172392	-1.9e-05
1696	0.198689	0.145602	-1.9e-05	0.1742	0.000146
1697	0.199346	0.148067	0.00031	0.173871	0.00031
1698	0.198524	0.149217	0.000146	0.172885	0.000146
1699	0.200497	0.150697	-0.000183	0.175186	0.000146
1700	0.196059	0.149875	-0.000183	0.176008	-1.9e-05
1701	0.197703	0.153984	-0.000347	0.18061	-0.000183
1702	0.198853	0.159408	-0.000347	0.177487	-1.9e-05
1703	0.196881	0.160394	-0.000183	0.177322	-0.000183
1704	0.199346	0.160065	0.000146	0.178966	-0.000676
1705	0.202798	0.163023	-1.9e-05	0.178802	-0.000183
1706	0.199182	0.164338	0.000474	0.179952	-1.9e-05
1707	0.197374	0.16779	0.00031	0.180445	0.000146
1708	0.200661	0.166475	0.00031	0.181924	0.00031
1709	0.19721	0.167297	-1.9e-05	0.17798	0.00031
1710	0.197703	0.170584	-0.000183	0.183239	0.000146
1711	0.196059	0.171406	-0.000347	0.183075	0.000146
1712	0.201154	0.173049	-0.000347	0.186198	-1.9e-05
1713	0.197867	0.173214	-0.000183	0.184061	-1.9e-05
1714	0.200825	0.172392	-0.000183	0.186526	-0.000347
1715	0.199511	0.174528	-1.9e-05	0.186033	-0.000347
1716	0.200004	0.176336	0.000146	0.189156	-0.000183
1717	0.199839	0.175186	0.000146	0.186855	-0.000183
1718	0.199675	0.179623	0.000146	0.191786	0.000146
1719	0.202633	0.177815	0.000146	0.186198	-1.9e-05
1720	0.197374	0.179459	-0.000183	0.188006	0.00031
1721	0.194087	0.179952	-0.000183	0.1908	0.00031
1722	0.197703	0.18061	-0.000183	0.18932	0.000146
1723	0.198196	0.181924	-0.000183	0.188006	-0.000183
1724	0.198853	0.183075	-0.000183	0.1908	-0.000347
1725	0.199511	0.184061	-0.000347	0.191128	-0.000183
1726	0.198524	0.180774	0.000146	0.192608	-0.000347
1727	0.200004	0.185212	0.00031	0.190635	-0.000347
1728	0.19836	0.186033	0.00031	0.189814	-1.9e-05
1729	0.200004	0.185869	0.003761	0.190964	-1.9e-05
1730	0.125386	0.186362	0.015266	0.189978	0.000146
1731	0.000146	0.186855	0.020526	0.192936	0.000146
1732	-0.000841	0.186033	0.027593	0.191786	0.000146
1733	-0.000183	0.187348	0.033017	0.193429	0.000146
1734	0.000474	0.184225	0.039591	0.195237	-0.000183
1735	-1.9e-05	0.189649	0.045344	0.195566	-0.000183
1736	0.00031	0.189485	0.05274	0.193429	-0.000347
1737	0.000474	0.18817	0.05537	0.194251	-0.000183
1738	0.000146	0.189156	0.058657	0.195402	-0.000347
1739	-1.9e-05	0.191786	0.048467	0.192772	-1.9e-05
1740	-0.000183	0.192608	0.03729	0.194251	0.00031
1741	-0.000512	0.193758	0.025457	0.195073	0.000146
1742	-0.000512	0.191786	-1.9e-05	0.195073	0.00031
1743	-0.002813	0.193594	-0.000183	0.192772	0.000146
1744	0.005405	0.192608	-0.000183	0.194416	-1.9e-05
1745	0.00935	0.192443	-0.000347	0.193101	-1.9e-05
1746	0.017074	0.193265	-1.9e-05	0.19721	-0.000347
1747	0.025621	0.192608	-0.000183	0.19458	-0.000512
1748	0.031702	0.193594	0.00294	0.196059	-0.000347
1749	0.038605	0.191457	0.004255	0.195566	-0.000347
1750	0.048138	0.193922	-0.000512	0.196059	-1.9e-05
1751	0.052411	0.189814	0.000639	0.196552	0.000146
1752	0.060958	0.194087	-0.001169	0.194087	0.00031
1753	0.066381	0.195566	0.007049	0.194251	0.00031
1754	0.076572	0.195895	0.013787	0.197538	0.00031
1755	0.072956	0.196059	0.017567	0.195237	0.000146
1756	0.078544	0.195073	0.024142	0.195895	-0.000183
1757	0.081009	0.195237	0.032195	0.193594	-0.000183
1758	0.081831	0.199675	0.042878	0.196059	-0.000347
1759	0.088898	0.195895	0.046001	0.192443	-0.000183
1760	0.087419	0.195566	0.052575	0.195237	-0.000347
1761	0.096294	0.197045	0.057999	0.197045	-1.9e-05
1762	0.101883	0.195237	0.064738	0.194416	0.000146
1763	0.103855	0.198031	0.071805	0.196388	0.00031
1764	0.109936	0.195895	0.073778	0.196881	0.000146
1765	0.116675	0.197045	0.080516	0.194251	0.00031
1766	0.115195	0.196388	0.084461	0.198524	-1.9e-05
1767	0.119469	0.196388	0.088241	0.196552	-0.000183
1768	0.124728	0.195566	0.093829	0.19721	-0.000183
1769	0.127358	0.199182	0.097774	0.195402	-0.000347
1770	0.130152	0.195073	0.100239	0.195566	-0.000512
1771	0.129495	0.192115	0.103362	0.19573	-1.9e-05
1772	0.13837	0.19458	0.109114	0.193429	-1.9e-05
1773	0.137055	0.197374	0.11273	0.194087	0.000146
1774	0.141164	0.197867	0.115689	0.196552	0.00031
1775	0.143794	0.198196	0.121112	0.19458	0.000474
1776	0.145602	0.201647	0.121441	0.196223	0.000146
1777	0.143958	0.20099	0.126207	0.197703	-1.9e-05
1778	0.146588	0.202469	0.127358	0.200332	-0.000183
1779	0.147081	0.197374	0.132124	0.194909	-0.000183
1780	0.151025	0.200332	0.133768	0.19721	-0.000183
1781	0.153326	0.198196	0.137548	0.195237	-0.000347
1782	0.156285	0.19573	0.138699	0.195237	-0.000347
1783	0.159079	0.195895	0.146916	0.188334	0.000146
1784	0.160887	0.199018	0.144122	0.195402	0.00031
1785	0.161051	0.197538	0.144287	0.197538	0.000146
1786	0.163023	0.199511	0.147081	0.194744	0.000146
1787	0.16779	0.19721	0.14971	0.194744	0.00031
1788	0.163352	0.198196	0.150204	0.196059	0.000146
1789	0.165982	0.197045	0.151518	0.194744	-0.000183
1790	0.166968	0.199346	0.155792	0.195402	-0.000347
1791	0.169762	0.200497	0.153984	0.196717	-0.000347
1792	0.170913	0.197867	0.157764	0.195073	-0.000347
1793	0.17157	0.19836	0.157107	0.197045	-0.000183
1794	0.171899	0.198031	0.160065	0.188334	0.000146
1795	0.174693	0.199346	0.162037	0.19458	0.00031
1796	0.173049	0.198853	0.164338	0.194744	0.000146
1797	0.174035	0.199018	0.167297	0.196552	0.00031
1798	0.176336	0.19573	0.162859	0.195402	0.00031
1799	0.174857	0.195566	0.158421	0.195566	-0.000183
1800	0.18061	0.198196	0.153984	0.193758	-0.000183
1801	0.181596	0.198196	0.147738	0.196717	-0.000512
1802	0.180938	0.19836	0.149546	0.193265	-0.000183
1803	0.18061	0.198689	0.135247	0.194909	-0.000512
1804	0.18061	0.200825	0.134261	0.196717	-1.9e-05
1805	0.177158	0.19836	0.13837	0.189485	0.000146
1806	0.183075	0.201319	0.139356	0.195895	0.00031
1807	0.183239	0.19573	0.142479	0.19458	0.00031
1808	0.182746	0.200332	0.144122	0.196059	0.000474
1809	0.184554	0.200497	0.149546	0.198196	0.00031
1810	0.183897	0.200004	0.149053	0.196717	0.000146
1811	0.18554	0.198853	0.152011	0.197703	-0.000183
1812	0.186198	0.201647	0.152998	0.193922	-0.000183
1813	0.18554	0.199346	0.156285	0.187184	-0.000512
1814	0.186033	0.200497	0.152998	0.182746	-0.000512
1815	0.186526	0.200168	0.15875	0.178144	-0.000347
1816	0.18817	0.199182	0.159243	0.183239	-1.9e-05
1817	0.190307	0.198524	0.158257	0.178144	0.000146
1818	0.189814	0.199675	0.148724	0.175843	0.000146
1819	0.191457	0.199675	0.137219	0.175021	0.00031
1820	0.192936	0.197703	0.123249	0.174857	0.00031
1821	0.189814	0.198524	0.114209	0.177158	0.00031
1822	0.191621	0.199346	0.108128	0.174035	-0.000183
1823	0.192772	0.199839	0.105334	0.175021	-0.000183
1824	0.192115	0.199018	0.10139	0.175021	-0.000347
1825	0.194251	0.199675	0.056684	0.176008	-0.000347
1826	0.192443	0.199839	0.053726	0.173542	-0.000347
1827	0.196223	0.201319	0.050932	0.18061	0.000146
1828	0.191457	0.198689	0.051261	0.176336	0.000146
1829	0.193101	0.199182	0.058985	0.178802	0.00031
1830	0.18817	0.199346	0.06556	0.177815	0.00031
1831	0.044029	0.200661	0.069997	0.180116	0.00031
1832	0.043043	0.198853	0.076407	0.179952	0.00031
1833	0.003268	0.200497	0.081831	0.177158	-0.000183
1834	0.00294	0.199839	0.077558	0.183897	-0.000183
1835	0.00146	0.199346	0.088898	0.181431	-0.000347
1836	0.00294	0.19721	0.094815	0.181924	-0.000512
1837	0.003104	0.19836	0.097774	0.181103	-0.000347
1838	0.005241	0.200497	0.100568	0.183897	-0.000183
1839	0.000639	0.197703	0.104841	0.179459	0.000146
1840	0.002611	0.201812	0.105827	0.186198	0.000146
1841	0.001625	0.200497	0.110758	0.18439	0.000146
1842	-0.000183	0.200497	0.112894	0.185869	0.000146
1843	0.002775	0.198031	0.117003	0.183897	-1.9e-05
1844	0.002118	0.199018	0.120784	0.186033	-0.000183
1845	-0.000347	0.201319	0.114867	0.186362	-1.9e-05
1846	-0.000183	0.19721	0.120291	0.187184	-0.000183
1847	0.002118	0.196717	0.12555	0.185869	-0.000347
1848	-0.000512	0.199182	0.129001	0.18554	-0.000183
1849	0.001132	0.196223	0.130974	0.185869	0.000146
1850	0.000474	0.196223	0.135083	0.180938	0.000146
1851	0.000146	0.198524	0.135083	0.182582	0.000146
1852	-0.000841	0.200004	0.139849	0.176994	0.000146
1853	0.001132	0.20214	0.142972	0.182911	0.00031
1854	0.00031	0.199018	0.142314	0.181596	-0.000183
1855	0.003104	0.201812	0.143629	0.181267	-1.9e-05
1856	0.000639	0.200332	0.141328	0.183568	-1.9e-05
1857	0.002118	0.199018	0.145602	0.184883	-0.000183
1858	0.000146	0.199839	0.149875	0.184883	-0.000676
1859	0.001625	0.199018	0.151518	0.187841	-0.000347
1860	0.00031	0.198524	0.155792	0.187841	0.000474
1861	0.00031	0.199839	0.156942	0.185869	0.000474
1862	0.000474	0.19721	0.158914	0.185376	0.000146
1863	0.000146	0.204606	0.162202	0.186691	0.00031
1864	0.001954	0.199182	0.162695	0.188334	0.000146
1865	0.00031	0.200168	0.164174	0.186526	-0.000183
1866	0.001296	0.201319	0.163352	0.189649	-0.000183
1867	0.000474	0.199675	0.164338	0.188006	-0.000183
1868	0.003268	0.202469	0.157764	0.189156	-1.9e-05
1869	0.000639	0.197867	0.162202	0.168776	-0.000512
1870	0.000803	0.201483	0.16138	0.170913	-0.000347
1871	0.00031	0.201483	0.163845	0.126207	-1.9e-05
1872	0.00146	0.201319	0.162859	0.000474	0.00031
1873	-1.9e-05	0.199675	0.164831	-1.9e-05	-1.9e-05
1874	0.00146	0.201976	0.165817	0.00294	0.00031
1875	0.000803	0.199182	0.166311	0.003268	0.00031
1876	0.00031	0.201319	0.166146	0.001296	-0.000183
1877	0.000639	0.195895	0.168283	0.005405	-0.000183
1878	0.00294	0.200825	0.171406	0.007377	-0.000347
1879	0.00146	0.199182	0.16516	0.005076	-0.000347
1880	0.000474	0.200004	0.167625	-0.000841	-0.000512
1881	0.000639	0.200825	0.154148	0.001132	0.000146
1882	0.000146	0.201154	0.158914	0.000639	0.00031
1883	-0.001169	0.20099	0.147738	0.003104	0.000639
1884	0.002282	0.199675	0.150204	0.006227	0.000474
1885	0.002775	0.202305	0.143629	0.001789	0.00031
1886	-0.00347	0.199182	0.139685	-0.002155	0.000146
1887	0.001789	0.200332	0.138205	0.004255	0.00031
1888	0.000146	0.199839	0.13459	0.003761	-0.000347
1889	0.001625	0.194251	0.118811	-0.001005	-0.000183
1890	0.000803	0.198689	0.111908	0.001296	-0.000512
1891	0.001954	0.199675	0.106649	0.003926	-0.000347
1892	0.001132	0.197703	0.103362	0.004255	-0.000183
1893	0.001625	0.200004	0.097938	0.010829	0.00031
1894	0.00146	0.199182	0.084132	0.016253	0.000146
1895	0.000146	0.196552	0.076736	0.024635	0.000474
1896	0.00146	0.200661	0.071477	0.03236	0.000474
1897	0.00031	0.199018	0.060958	0.037126	0.00031
1898	0.000803	0.201154	0.000967	0.047809	-0.000183
1899	-0.000512	0.198031	-1.9e-05	0.048631	-0.000183
1900	-1.9e-05	0.191457	-0.000512	0.057177	-1.9e-05
1901	-0.000347	0.196388	0.000639	0.063587	-0.000512
1902	0.00146	0.196717	0.005569	0.065231	-0.000183
1903	-0.000841	0.193758	0.003268	0.06934	-0.000841
1904	0.000803	0.197045	-0.000512	0.076736	0.00031
1905	-0.001169	0.200168	0.002118	0.07953	0.000146
1906	-1.9e-05	0.199675	0.001296	0.08594	0.000639
1907	-0.000841	0.199511	0.001132	0.08972	-1.9e-05
1908	0.003926	0.201483	0.001296	0.094487	-0.000512
1909	0.000146	0.199675	-0.001169	0.100896	-1.9e-05
1910	0.00146	0.199839	0.002282	0.103855	0.00031
1911	0.002282	0.196388	0.001625	0.106978	-0.000183
1912	-0.000347	0.197538	0.002447	0.110593	-0.001169
1913	0.000639	0.20099	0.00146	0.117496	-0.002813
1914	0.001296	0.200497	0.005734	0.11914	0.000474
1915	0.001132	0.201483	0.003433	0.123906	-0.000183
1916	-0.000512	0.201483	0.002118	0.12555	0.000474
1917	0.00031	0.198524	0.00031	0.127851	0.000803
1918	-0.000676	0.201154	0.001625	0.130645	0.000474
1919	-1.9e-05	0.202305	-0.000347	0.128673	0.000474
1920	-0.000183	0.201647	0.00146	0.133275	-1.9e-05
1921	0.000146	0.207071	-1.9e-05	0.137219	0.000474
1922	0.001625	0.201647	0.003104	0.137877	-1.9e-05
1923	0.000803	0.199675	0.00031	0.141986	-0.000347
1924	0.002118	0.200168	0.000639	0.145766	-0.000841
1925	0.000803	0.199018	0.00031	0.149546	-1.9e-05
1926	-0.000841	0.199346	0.000803	0.154477	0.000146
1927	0.00031	0.202798	0.000146	0.151354	0.000146
1928	0.000803	0.199675	0.000803	0.156613	0.000803
1929	0.000146	0.201812	-0.000347	0.15612	0.00031
1930	-1.9e-05	0.199675	0.000474	0.157435	0.000474
1931	0.000146	0.199839	0.000474	0.159408	-1.9e-05
1932	0.000967	0.200825	-0.001005	0.161709	0.000146
1933	0.000146	0.203455	-0.000183	0.159243	-1.9e-05
1934	-1.9e-05	0.198689	0.001625	0.168612	0.000146
1935	0.000803	0.198524	0.00031	0.167132	0.001625
1936	0.001296	0.199675	0.000967	0.164174	0.000146
1937	-1.9e-05	0.199182	0.001132	0.166639	0.000146
1938	-0.000512	0.201154	0.00031	0.169105	0.000474
1939	0.001296	0.19836	0.000474	0.167132	0.00031
1940	0.000146	0.200004	0.00031	0.170584	0.000474
1941	0.001296	0.198853	-0.000183	0.173214	0.000474
1942	0.000474	0.199018	-0.000347	0.172556	-1.9e-05
1943	0.00146	0.198853	-0.000347	0.1742	-0.000183
1944	0.00146	0.201812	-0.000841	0.175843	-0.000512
1945	0.001954	0.198031	-1.9e-05	0.17798	0.00031
1946	0.000474	0.19573	-1.9e-05	0.178802	0.002447
1947	0.000639	0.194087	0.000146	0.181596	-0.000183
1948	-0.000183	0.197867	0.000146	0.178144	-1.9e-05
1949	0.000639	0.199675	0.000146	0.180774	-0.000841
1950	-0.000841	0.195895	0.00031	0.181103	0.00031
1951	0.000146	0.201647	-1.9e-05	0.18176	0.000639
1952	0.001132	0.199675	-0.000347	0.181267	0.000474
1953	0.000639	0.200661	-1.9e-05	0.18176	0.00031
1954	0.00031	0.198031	-1.9e-05	0.18176	-0.001005
1955	0.00031	0.199018	-0.000676	0.181431	0.000967
1956	-1.9e-05	0.20099	0.00031	0.183075	-1.9e-05
1957	0.00146	0.199018	0.00031	0.186362	0.000146
1958	-0.001005	0.199675	0.00031	0.184718	0.000146
1959	0.00146	0.200497	0.000474	0.185705	-0.000347
1960	-0.000183	0.199018	0.000146	0.187513	0.000639
1961	-0.000512	0.198524	-1.9e-05	0.185376	0.00031
1962	-1.9e-05	0.199182	-0.000183	0.191457	0.001789
1963	-0.000183	0.200497	-0.000183	0.191293	0.000474
1964	0.000474	0.199182	-0.000512	0.19195	0.00031
1965	-1.9e-05	0.197374	-0.000512	0.188499	0.00031
1966	0.000967	0.201976	0.000146	0.193265	-0.000183
1967	0.000146	0.197867	-1.9e-05	0.190635	-0.000183
1968	0.000474	0.201812	0.000146	0.190471	0.001132
1969	0.000474	0.20362	0.000474	0.187841	0.000803
1970	-0.000347	0.202798	0.00031	0.1908	0.00146
1971	-0.000183	0.199675	0.00031	0.191786	0.000474
1972	-1.9e-05	0.200497	0.000146	0.189156	0.000967
1973	-0.000183	0.202798	-1.9e-05	0.190142	0.00146
1974	-0.001005	0.201483	-0.000183	0.192772	-0.001334
1975	0.00031	0.202305	-1.9e-05	0.192772	0.001132
1976	0.00031	0.20099	-0.000347	0.193265	0.000146
1977	0.000639	0.203291	-0.000183	0.194909	-0.000841
1978	0.000146	0.202305	-1.9e-05	0.194416	0.000967
1979	0.000967	0.196717	0.000146	0.194251	-0.000841
1980	-1.9e-05	0.19721	0.000146	0.194416	-0.000512
1981	-1.9e-05	0.200332	0.000146	0.196223	-1.9e-05
1982	0.000146	0.198524	0.000639	0.193101	-0.000512
1983	0.000474	0.199511	-1.9e-05	0.19721	0.000474
1984	-0.000841	0.199839	-1.9e-05	0.190964	0.000146
1985	-0.000347	0.20099	-0.000347	0.010829	0.000639
1986	-0.000347	0.200332	-0.000512	0.004255	-0.000183
1987	0.000146	0.201154	-0.000347	0.006556	0.00031
1988	0.00031	0.20214	-0.000183	0.006391	0.000474
1989	0.000146	0.200168	0.000146	0.00146	-1.9e-05
1990	0.000474	0.199675	0.00031	0.005569	0.001296
1991	0.00031	0.201154	0.00031	0.017239	0.000639
1992	-0.000676	0.20099	0.000146	0.022169	0.001296
1993	-0.000183	0.199839	0.00031	0.027758	0.00031
1994	-0.000347	0.199511	0.000146	0.036469	0.001132
1995	-0.000512	0.202469	-1.9e-05	0.041399	0.000474
1996	0.000803	0.201483	-1.9e-05	0.049946	0.000639
1997	-1.9e-05	0.198196	-0.000676	0.054383	-0.001827
1998	0.000639	0.198524	-0.000512	0.059314	0.000474
1999	0.00031	0.197045	-0.000183	0.064902	-0.000183
2000	0.000967	0.19836	-0.000347	0.069833	-0.000512
2001	0.000474	0.19573	0.000146	0.079694	-0.000676
2002	0.000803	0.196388	0.000146	0.081831	0.000474
2003	-0.000183	0.198689	0.000474	0.085283	0.001132
2004	-0.000183	0.196881	0.000146	0.089556	0.001789
2005	-1.9e-05	0.195566	0.000146	0.09235	0.003926
2006	-0.000183	0.199839	-0.000183	0.096623	0.001132
2007	-0.000347	0.20099	-1.9e-05	0.10139	0.000639
2008	-0.000183	0.201647	-1.9e-05	0.105827	0.000146
2009	0.00031	0.200168	-0.000512	0.109772	0.000639
2010	0.000146	0.199346	-0.000183	0.111908	-0.000347
2011	0.00031	0.196717	-0.000183	0.117496	0.000967
2012	0.00031	0.198196	0.000146	0.119469	-0.000512
2013	0.000146	0.201812	-1.9e-05	0.124728	0.000474
2014	0.000146	0.197867	0.000146	0.126536	0.00031
2015	0.000146	0.199675	0.000146	0.1267	0.000639
2016	-1.9e-05	0.197703	0.000146	0.130481	0.000474
2017	-1.9e-05	0.200825	-0.000183	0.13311	-1.9e-05
2018	-0.000512	0.197374	-0.000183	0.134425	0.00031
2019	0.000474	0.201647	-0.000347	0.135411	0.000803
2020	-1.9e-05	0.200661	-0.000347	0.134425	-1.9e-05
2021	0.00031	0.201976	-1.9e-05	0.096952	-0.000183
2022	0.000639	0.197703	-1.9e-05	0.000474	0.000967
2023	0.000146	0.200004	-1.9e-05	0.002282	-0.000347
2024	0.000146	0.200004	0.00031	0.012308	0.000146
2025	-0.000512	0.200332	0.000474	0.021183	0.00146
2026	0.000146	0.200168	0.000146	0.030552	0.004912
2027	-0.000512	0.197045	0.000146	0.017239	0.000474
2028	-0.000183	0.199839	-0.000347	0.00787	0.000474
2029	-0.000347	0.196552	-0.000512	0.003104	0.00031
2030	0.000639	0.199675	-0.000347	0.003104	0.001296
2031	0.00031	0.201319	-0.000347	0.000474	0.001625
2032	0.00031	0.201154	-0.000512	0.007706	0.000803
2033	0.000146	0.197374	-1.9e-05	0.008363	-0.002155
2034	0.00031	0.199675	0.000146	0.000639	-1.9e-05
2035	0.000146	0.198524	0.000146	0.006062	0.00031
2036	-1.9e-05	0.200661	0.000474	0.0105	-0.000183
2037	-0.000183	0.198689	0.00031	0.001296	0.001296
2038	-0.000183	0.200168	0.000146	0.007706	-1.9e-05
2039	-1.9e-05	0.20099	-1.9e-05	0.000803	0.000803
2040	0.000146	0.200332	-0.000183	0.000146	0.00031
2041	0.00031	0.200825	-0.000347	0.006556	0.000146
2042	-0.000183	0.201319	-0.000183	0.008199	-0.000183
2043	0.00031	0.203126	-0.000183	0.019375	0.00031
2044	0.000146	0.199511	-1.9e-05	0.024964	-0.000183
2045	0.000474	0.201319	-0.000183	0.030387	0.000474
2046	0.000146	0.199346	0.000146	0.034496	-0.000512
2047	-1.9e-05	0.199182	0.000146	0.042057	0.000146
2048	-1.9e-05	0.201154	0.00031	0.00294	0.00031
2049	-0.000183	0.198524	-0.000183	0.005241	0.000639
2050	0.000146	0.198524	-1.9e-05	0.006062	0.000146
2051	0.000639	0.201483	-0.000183	0.005734	0.00031
2052	-0.000512	0.198689	-0.000183	0.006062	-0.000347
2053	0.00031	0.201976	-0.000347	0.005569	-0.000183
2054	0.000474	0.196881	-0.000183	0.003268	0.00031
2055	0.000474	0.197703	-0.000183	0.007213	-0.000512
2056	0.000474	0.200661	0.000146	0.011322	-0.000183
2057	0.000146	0.200004	0.000146	0.019047	-0.000183
2058	-0.000183	0.200332	-1.9e-05	0.016253	0.00031
2059	-0.000183	0.20099	0.000474	-1.9e-05	0.000639
2060	-1.9e-05	0.202798	0.00031	0.00146	0.000146
2061	-0.000512	0.201483	0.000146	-0.000512	0.000146
2062	-0.000183	0.205592	-0.000183	0.001625	0.000146
2063	-1.9e-05	0.199511	-0.000512	0.00031	0.000146
2064	0.00031	0.199839	-0.000347	-0.001662	-0.000183
2065	0.000474	0.200825	-1.9e-05	-1.9e-05	-0.000183
2066	0.00031	0.202962	-1.9e-05	0.001789	-0.000347
2067	0.000639	0.19721	-1.9e-05	0.000803	-0.000347
2068	0.000146	0.200332	0.000146	-1.9e-05	-0.000183
2069	0.000146	0.200497	0.00031	0.001132	0.00031
2070	-0.000841	0.200332	0.000146	0.00031	0.000146
2071	-0.000183	0.20099	-1.9e-05	0.001132	0.00031
2072	-0.000347	0.199511	-0.000183	-0.000512	0.00031
2073	-0.000347	0.202305	-0.000183	0.000639	0.000146
2074	0.000146	0.199346	-0.000183	-0.000347	-0.000183
2075	0.000146	0.202305	-0.000183	0.000639	-0.000183
2076	-0.000347	0.200497	-0.000183	0.000146	-0.000347
2077	0.000639	0.200332	-1.9e-05	0.000639	-0.000347
2078	0.000474	0.199018	0.000146	-0.000841	-1.9e-05
2079	0.000474	0.200825	0.000146	0.000146	0.000146
2080	-0.000183	0.202305	0.000146	-0.000512	0.00031
2081	-0.000183	0.202633	0.000146	0.00031	0.000474
2082	-0.000183	0.199675	0.00031	0.000803	0.000146
2083	-0.000512	0.200168	-0.000347	0.000146	0.000474
2084	-0.000183	0.197045	-0.000347	0.000639	0.000146
2085	-0.000183	0.200825	-0.000183	0.001296	-1.9e-05
2086	0.000146	0.198524	-0.000183	0.001296	-0.000183
2087	0.000146	0.20099	-0.000347	0.000639	-0.000183
2088	0.000639	0.198689	-1.9e-05	0.00031	-0.000676
2089	0.000146	0.19836	0.000146	-0.000183	-0.000183
2090	0.00031	0.200825	0.000146	0.001954	-1.9e-05
2091	-0.000183	0.198689	0.00031	0.00031	0.000146
2092	-0.000183	0.199346	0.000146	-0.000676	0.00031
2093	-0.000841	0.197538	-1.9e-05	0.001132	0.000474
2094	-1.9e-05	0.200825	-0.000183	0.000474	0.000474
2095	-0.000183	0.197703	-0.000512	-1.9e-05	0.00031
2096	0.000146	0.199839	-0.000512	0.001625	-0.000183
2097	0.000146	0.19836	-0.000512	-0.000676	-1.9e-05
2098	0.00031	0.201319	0.000146	0.002447	-0.000183
2099	0.000639	0.197867	0.00031	0.000474	-1.9e-05
2100	0.00031	0.198524	0.00031	-0.001169	-1.9e-05
2101	0.00031	0.199182	0.00031	0.001296	0.000639
2102	-0.000183	0.199839	0.00031	0.000474	0.00031
2103	0.000146	0.201812	0.00031	0.000639	0.00031
2104	-0.000512	0.19573	0.000146	-0.000841	-1.9e-05
2105	-1.9e-05	0.200661	-0.000183	0.00146	0.00031
2106	0.00031	0.199346	-0.000347	-1.9e-05	-0.000347
2107	0.00031	0.201483	-0.000347	0.001789	0.00031
2108	-1.9e-05	0.200332	-0.000347	0.000474	-0.000512
2109	0.000803	0.200497	-0.000183	0.00031	-1.9e-05
2110	0.000474	0.199839	-0.000183	-0.000347	-0.000183
2111	0.000146	0.200825	-0.000183	-1.9e-05	-1.9e-05
2112	-1.9e-05	0.198689	0.000146	-0.000347	-1.9e-05
2113	-0.000183	0.201812	0.000474	-0.001498	-1.9e-05
2114	-1.9e-05	0.200661	-1.9e-05	0.000474	0.000474
2115	-0.000512	0.199346	0.00031	0.00146	0.000474
2116	-1.9e-05	0.201483	-0.000183	0.001625	0.000146
2117	-0.000841	0.200332	-0.000183	-0.000183	0.000474
2118	0.00031	0.201812	-0.000183	0.002447	-0.000183
2119	0.00031	0.199182	-0.000183	0.000967	-0.000183
2120	0.000967	0.20477	-0.000183	0.000474	-0.000183
2121	0.000474	0.203948	-0.000183	-1.9e-05	-0.000183
2122	0.000803	0.199839	0.00031	0.002447	-0.000512
2123	0.000146	0.198524	0.00031	-0.001169	-1.9e-05
2124	-0.000183	0.203291	0.000146	0.000967	0.000474
2125	0.000146	0.198689	0.00031	0.000803	0.000146
2126	-0.000841	0.19836	0.000146	0.000639	0.00031
2127	-0.000183	0.200168	-0.000183	0.00146	0.000474
2128	-0.000347	0.200332	-0.000512	0.000146	0.000146
2129	-1.9e-05	0.199018	-0.000347	0.001296	0.00031
2130	-0.000183	0.199675	-0.000347	0.001132	-0.000183
2131	0.000474	0.201976	-0.000347	0.00031	0.000146
2132	0.000146	0.19573	0.000146	-0.000347	-0.000512
2133	0.000146	0.198689	-1.9e-05	0.00031	0.000474
2134	-0.000347	0.196552	0.00031	0.000639	-0.000183
2135	-0.000347	0.198689	0.00031	0.000639	0.00031
2136	-0.000347	0.197867	0.00031	0.000474	0.00031
2137	-0.000183	0.198853	0.000146	0.000803	0.000146
2138	-0.000347	0.198524	-0.000183	0.000639	-0.000183
2139	-0.000347	0.198031	-0.000512	0.001296	0.000474
2140	0.00031	0.198196	-0.000512	0.000146	0.000803
2141	0.00031	0.200168	-0.000512	0.002118	-0.000183
2142	0.00031	0.196059	-0.000183	0.000639	-0.000676
2143	0.000474	0.199675	0.000146	0.000146	-1.9e-05
2144	0.000146	0.196223	0.000146	0.001132	-0.000841
2145	-1.9e-05	0.197703	0.000146	-0.001498	0.002118
2146	-0.000183	0.19836	0.000146	-0.000512	0.001296
2147	-0.000347	0.197703	0.00031	0.000967	-0.000512
2148	-0.000183	0.198196	-1.9e-05	0.00146	0.003761
2149	-0.000676	0.197538	-1.9e-05	0.00031	0.007049
2150	0.00031	0.198853	-0.000347	0.000639	0.002611
2151	-0.000183	0.197538	-0.000347	0.000146	0.001132
2152	-1.9e-05	0.197538	-0.000512	0.000803	0.001296
2153	0.000146	0.193758	-0.000347	0.000639	0.000146
2154	0.000474	0.194251	-1.9e-05	0.001625	0.000803
2155	0.000146	0.195566	0.00031	-0.000512	0.002447
2156	0.00031	0.198196	0.00031	0.001132	-0.000676
2157	-1.9e-05	0.194251	0.000146	0.000474	0.007542
2158	0.000146	0.198524	0.00031	-1.9e-05	0.002611
2159	-0.000512	0.195402	0.000146	0.001789	0.008363
2160	-0.000676	0.197538	-1.9e-05	0.002611	0.007706
2161	-0.000512	0.198196	-0.000347	0.00146	0.01691
2162	0.000146	0.196388	-1.9e-05	-0.000841	0.021841
2163	0.000803	0.198524	-0.000512	0.000639	0.029894
2164	-1.9e-05	0.197374	-0.000347	-1.9e-05	0.037455
2165	0.000146	0.197045	-1.9e-05	0.00146	0.041892
2166	0.00031	0.198853	0.000146	-1.9e-05	0.049124
2167	-0.000183	0.199346	0.000146	0.000474	0.053397
2168	-0.000183	0.197703	0.00031	-0.001169	0.059314
2169	-0.000183	0.198853	0.00031	-1.9e-05	0.063094
2170	-0.000512	0.198689	-1.9e-05	-0.000676	0.073778
2171	-0.001498	0.202633	-0.000183	0.000639	0.077065
2172	0.000146	0.199511	-0.000183	0.000803	0.084789
2173	0.000639	0.198524	-0.000347	0.000803	0.088077
2174	0.000474	0.198524	-0.000347	0.000639	0.0935
2175	0.000474	0.20099	-0.000347	0.00031	0.096623
2176	0.000474	0.195566	-1.9e-05	0.000474	0.10254
2177	0.00031	0.200332	-1.9e-05	0.000474	0.104677
2178	0.00031	0.199018	0.00031	0.001132	0.107635
2179	-0.000676	0.195237	0.000146	-0.000512	0.110429
2180	-0.000183	0.19836	0.00031	0.000474	0.115031
2181	-0.000183	0.19573	0.000146	0.00031	0.122263
2182	-0.002484	0.191786	-1.9e-05	0.000474	0.122098
2183	-1.9e-05	0.195237	-0.000347	0.000146	0.126043
2184	-1.9e-05	0.197538	-0.000347	0.000803	0.12933
2185	0.000146	0.196223	-0.000183	-0.000183	0.133275
2186	0.00031	0.199675	-0.000183	-0.000676	0.13459
2187	0.00031	0.196059	-1.9e-05	-0.000347	0.138205
2188	0.00031	0.198196	0.000146	-0.000512	0.140671
2189	0.000146	0.196881	0.00031	-0.000347	0.143958
2190	-1.9e-05	0.196552	0.000146	-0.000841	0.14215
2191	-1.9e-05	0.195895	0.000146	0.000803	0.147574
2192	-0.000347	0.196717	-0.000183	0.000803	0.151518
2193	0.000474	0.199182	-0.000183	0.000639	0.152011
2194	-0.000183	0.195566	-0.000347	0.000474	0.152176
2195	0.00031	0.196388	-0.000347	0.000803	0.156285
2196	0.000146	0.195566	-0.000183	-0.000183	0.159408
2197	0.00031	0.195237	-0.000183	0.000474	0.155134
2198	0.000146	0.189814	-1.9e-05	-0.000347	0.1576
2199	-1.9e-05	0.195237	0.000146	-0.000183	0.162202
2200	0.000474	0.196717	0.00031	-0.000183	0.161709
2201	-0.000512	0.19458	0.000146	-1.9e-05	0.166146
2202	-0.000676	0.194909	0.00031	-0.000676	0.166311
2203	-0.000183	0.199511	-1.9e-05	-0.000183	0.166475
2204	0.00294	0.196388	-0.000183	0.000474	0.171406
2205	-0.000183	0.198031	-0.000512	0.00031	0.169598
2206	0.00031	0.19836	-0.000183	0.000474	0.173542
2207	0.000639	0.193594	-0.000347	0.000146	0.175843
2208	0.00031	0.195566	-0.000183	0.00031	0.177322
2209	-1.9e-05	0.186855	-1.9e-05	-0.000512	0.176008
2210	0.000474	0.177815	0.000146	-1.9e-05	0.176172
2211	0.000146	0.124728	0.00031	-0.000183	0.175021
2212	0.000146	0.004583	0.00031	0.000474	0.174857
2213	-0.000183	0.001954	0.00031	-0.000183	0.179459
2214	-1.9e-05	0.002775	-1.9e-05	0.001132	0.177322
2215	0.000639	0.002611	-0.000183	0.001132	0.180281
2216	0.000639	0.00935	-0.000347	0.00031	0.177158
2217	0.000146	0.016417	-0.000183	-0.000512	0.181267
2218	0.000146	0.023649	-0.000512	0.001789	0.180774
2219	-0.000183	0.030223	-0.000183	0.00031	0.179623
2220	0.000639	0.02595	-1.9e-05	-0.000512	0.180774
2221	0.000146	0.026771	0.000146	-0.000347	0.185376
2222	-0.000347	0.03614	0.00031	-1.9e-05	0.185705
2223	-1.9e-05	0.045344	0.00031	-0.000183	0.185047
2224	-0.000183	0.049453	0.00031	0.000474	0.188006
2225	0.000146	0.057835	-0.000183	0.001296	0.188334
2226	-0.001005	0.060958	-1.9e-05	0.000146	0.189814
2227	0.00031	0.067203	-0.000347	0.000639	0.188334
2228	-0.000347	0.071805	-0.000183	0.00031	0.188663
2229	0.000639	0.078708	-0.000347	0.000146	0.188663
2230	0.000474	0.082324	-1.9e-05	0.000146	0.189485
2231	0.000474	0.089227	0.000146	0.00031	0.192115
2232	0.000474	0.086269	0.000146	-1.9e-05	0.192772
2233	-0.000183	0.095966	0.000146	-0.001169	0.189156
2234	-0.000347	0.101554	0.000146	-0.001005	0.19195
2235	-1.9e-05	0.106649	0.00031	0.000474	0.190635
2236	-0.000841	0.1101	-0.000183	-1.9e-05	0.190471
2237	-0.001334	0.113881	-0.000347	0.00031	0.193101
2238	0.000146	0.116346	-0.000347	0.000146	0.195237
2239	0.00031	0.120455	-0.000347	0.000146	0.193922
2240	0.000803	0.123413	-0.000347	0.00031	0.195566
2241	0.000146	0.127358	-0.000183	-0.000676	0.195237
2242	0.000639	0.12933	0.000146	0.000146	0.194087
2243	-0.000183	0.132289	-1.9e-05	-0.000512	0.198031
2244	0.00031	0.133932	0.00031	-0.002813	0.194744
2245	-0.000183	0.132617	0.000146	-0.000183	0.194909
2246	0.000146	0.139027	0.00031	0.00031	0.193265
2247	-0.000183	0.141328	-1.9e-05	0.000146	0.196717
2248	-1.9e-05	0.142643	-0.000183	0.000639	0.192936
2249	0.000474	0.14215	-0.000512	0.000474	0.19573
2250	0.000146	0.147903	-0.000347	0.000146	0.194744
2251	0.00031	0.150368	-0.000347	0.00031	0.19573
2252	0.00031	0.15497	-1.9e-05	-0.000512	0.194416
2253	0.000474	0.156285	-1.9e-05	-0.000183	0.195073
2254	-1.9e-05	0.159243	0.00031	-0.001169	0.197374
2255	-0.000347	0.157107	0.000146	-0.003306	0.196552
2256	-0.000512	0.159901	0.000146	-0.000512	0.197045
2257	-1.9e-05	0.163352	0.000146	0.001132	0.199839
2258	-0.000676	0.163681	-1.9e-05	-0.000676	0.199346
2259	-1.9e-05	0.163845	-0.000347	0.001132	0.200661
2260	0.000146	0.164503	-0.000347	-1.9e-05	0.199511
2261	0.00031	0.165489	-0.000347	0.000146	0.197374
2262	0.000639	0.165489	-0.000512	0.000146	0.197538
2263	0.000639	0.171406	0.000146	0.000146	0.199346
2264	0.000474	0.167625	-1.9e-05	-1.9e-05	0.198853
2265	0.000474	0.171241	0.00031	-0.000347	0.199182
2266	-1.9e-05	0.172556	0.000146	0.002118	0.198031
2267	-0.000347	0.172392	0.000146	-1.9e-05	0.194416
2268	-1.9e-05	0.17535	0.000146	0.000146	0.200168
2269	-0.000183	0.176665	-0.000183	-1.9e-05	0.195237
2270	-0.000183	0.177158	-0.000512	0.000474	0.195402
2271	-0.000183	0.174857	-0.000347	0.000474	0.197538
2272	0.000146	0.177487	-0.000512	0.000803	0.199182
2273	-1.9e-05	0.179295	-0.000347	-1.9e-05	0.19836
2274	0.00031	0.181924	-1.9e-05	-0.000183	0.19836
2275	-1.9e-05	0.179295	-0.000183	-0.000676	0.20099
2276	0.000639	0.181431	0.00031	-1.9e-05	0.200825
2277	-1.9e-05	0.181267	0.00031	0.000146	0.201154
2278	0.000474	0.183732	0.000146	-0.000183	0.195402
2279	-0.000347	0.183897	0.000146	0.000146	0.199511
2280	-0.000183	0.185212	-1.9e-05	0.00031	0.199182
2281	-0.000512	0.18176	-0.000183	-0.000183	0.199839
2282	0.00031	0.184061	-0.000183	0.001954	0.197867
2283	0.00031	0.187184	-0.000347	0.001296	0.199018
2284	0.00031	0.187184	-0.000676	0.000474	0.196223
2285	0.00031	0.186526	-1.9e-05	0.002447	0.199346
2286	0.00031	0.188992	0.000146	0.00031	0.197374
2287	0.00031	0.187513	0.000146	0.000146	0.200497
2288	-1.9e-05	0.188827	0.000146	0.003926	0.19836
2289	-0.000183	0.190142	0.00031	0.00146	0.199018
2290	-0.000347	0.187677	0.00031	-0.000183	0.198853
2291	-1.9e-05	0.191293	-1.9e-05	0.000967	0.20099
2292	-0.000841	0.190142	-0.000183	-1.9e-05	0.19836
2293	-1.9e-05	0.192608	-0.000347	0.000967	0.201154
2294	0.00031	0.191293	-0.000347	-0.000841	0.200661
2295	0.00031	0.190471	-0.000347	-0.001005	0.198031
2296	0.00031	0.189978	-1.9e-05	0.001625	0.203126
2297	0.000474	0.191293	0.000146	0.00031	0.200825
2298	-1.9e-05	0.190635	-1.9e-05	-1.9e-05	0.202469
2299	-1.9e-05	0.191457	0.00031	-0.000512	0.199182
2300	-0.000183	0.190635	-1.9e-05	0.000146	0.20099
2301	-0.000183	0.193429	0.00031	-1.9e-05	0.199675
2302	-0.000183	0.195073	-0.000183	0.00031	0.199511
2303	0.000146	0.196059	-0.000347	-0.000347	0.19836
2304	-0.000183	0.195895	-0.000347	0.00672	0.199346
2305	-1.9e-05	0.192279	-0.000512	0.001625	0.201483
2306	0.00031	0.195237	-1.9e-05	0.001625	0.200004
2307	0.00031	0.193101	-0.000183	-0.000347	0.200332
2308	-1.9e-05	0.197045	0.000146	0.003926	0.201319
2309	-0.000183	0.192279	0.000146	0.007049	0.199018
2310	0.00031	0.19573	0.000146	0.008363	0.198031
2311	-1.9e-05	0.195895	0.000146	0.012965	0.201483
2312	-0.000183	0.194909	-1.9e-05	0.018882	0.201319
2313	-0.000347	0.197538	-1.9e-05	0.0105	0.201319
2314	0.000146	0.195895	-0.000183	0.000967	0.20099
2315	-1.9e-05	0.195895	-0.000183	0.00787	0.201483
2316	0.000474	0.19836	-0.000512	0.000967	0.205592
2317	0.000474	0.194909	-0.000347	0.001625	0.201976
2318	0.000146	0.194251	-0.000183	0.006556	0.201812
2319	0.000474	0.196223	0.000146	0.000967	0.204277
2320	0.00031	0.198196	0.000146	0.00787	0.197045
2321	-0.000183	0.198853	-1.9e-05	0.016417	0.198524
2322	-0.000183	0.198196	0.000146	0.019047	0.199839
2323	-0.000347	0.194744	0.00031	0.020526	0.197703
2324	-0.000512	0.196388	-0.000183	0.006227	0.200497
2325	-0.000512	0.19721	-0.000183	0.004748	0.199018
2326	-0.000347	0.197045	-1.9e-05	0.004748	0.202305
2327	-1.9e-05	0.201647	-0.000512	0.00672	0.200825
2328	0.000146	0.197374	-0.000676	0.017896	0.202305
2329	0.000146	0.194909	-1.9e-05	0.023813	0.201647
2330	0.000146	0.197703	-1.9e-05	0.029566	0.20099
2331	0.000474	0.19721	0.000146	0.033839	0.199839
2332	0.00031	0.19573	0.000146	0.043536	0.20099
2333	-0.000347	0.198853	0.000146	0.046166	0.199346
2334	-1.9e-05	0.199182	-1.9e-05	0.053397	0.201319
2335	-0.000347	0.195895	-0.000183	0.054219	0.200332
2336	-1.9e-05	0.19721	-0.000347	0.060629	0.201812
2337	-0.000183	0.196717	-0.000512	0.065231	0.201319
2338	0.00031	0.199182	-0.000347	0.067368	0.200825
2339	0.000146	0.194744	-0.000347	0.066381	0.203291
2340	0.000474	0.196223	-0.000183	0.068025	0.197374
2341	0.000146	0.196223	-1.9e-05	0.072134	0.201976
2342	0.000146	0.195073	0.000146	0.072791	0.198031
2343	-0.000347	0.198031	0.000146	0.074271	0.200661
2344	-0.000347	0.198853	0.000146	0.074435	0.200661
2345	0.00031	0.198524	0.000146	0.060958	0.201812
2346	-0.000676	0.198031	0.000146	0.04748	0.199675
2347	0.000474	0.198524	-0.000183	0.043371	0.205921
2348	0.000146	0.197374	-0.000183	0.045015	0.202305
2349	-1.9e-05	0.196881	-0.000183	0.052082	0.204606
2350	-1.9e-05	0.190635	-0.000512	0.054219	0.201812
2351	0.000146	0.196552	-1.9e-05	0.062766	0.202633
2352	0.000967	0.198196	0.000146	0.064409	0.200825
2353	0.00146	0.196881	0.00031	0.069997	0.196552
2354	-0.000183	0.195237	0.000146	0.074599	0.201154
2355	0.001954	0.198689	0.000146	0.076736	0.199182
2356	0.00031	0.197045	0.000146	0.080023	0.201154
2357	0.00031	0.198524	-1.9e-05	0.085611	0.199675
2358	0.001132	0.199839	-1.9e-05	0.092514	0.20099
2359	0.000803	0.200004	-0.000183	0.093172	0.198196
2360	-0.000347	0.200661	-0.000183	0.094651	0.200332
2361	0.000146	0.194416	-0.000183	0.096459	0.200168
2362	0.003268	0.199839	-0.000183	0.099582	0.202469
2363	-0.00232	0.199839	0.000146	0.103033	0.197867
2364	0.002447	0.200661	0.00031	0.103855	0.201976
2365	0.003926	0.203455	0.00031	0.105334	0.198853
2366	0.009185	0.199346	0.00031	0.108621	0.199839
2367	0.017896	0.197538	0.00031	0.108293	0.201812
2368	0.025457	0.201647	-1.9e-05	0.1101	0.198524
2369	0.034661	0.199182	-0.000183	0.113388	0.200497
2370	0.039427	0.200168	-1.9e-05	0.113059	0.199839
2371	0.047809	0.196881	-0.000183	0.11651	0.201812
2372	0.053233	0.202798	-0.000183	0.116675	0.201319
2373	0.051754	0.198853	-1.9e-05	0.119797	0.203455
2374	0.030223	0.197703	0.000146	0.121605	0.194251
2375	0.030552	0.198853	0.000146	0.123085	0.199018
2376	0.030223	0.199511	0.00031	0.123906	0.19836
2377	0.037783	0.200004	0.00031	0.123413	0.200168
2378	0.043865	0.201319	0.000146	0.124728	0.20099
2379	0.051754	0.20214	-1.9e-05	0.12933	0.199675
2380	0.054383	0.199675	-0.000183	0.126865	0.19721
2381	0.008199	0.202305	-0.000512	0.129166	0.204277
2382	0.00031	0.198031	-0.000512	0.126865	0.201812
2383	0.000146	0.20477	-0.000183	0.129495	0.202305
2384	-0.001169	0.200168	-1.9e-05	0.127687	0.202962
2385	0.00146	0.196388	0.000146	0.02332	0.195073
2386	0.011486	0.198031	0.000146	0.008035	0.201154
2387	0.020033	0.198853	0.000146	0.016581	0.200332
2388	0.023813	0.195895	0.000146	0.024635	0.202962
2389	0.033017	0.200497	-1.9e-05	0.028579	0.200332
2390	0.039263	0.198689	-1.9e-05	0.039756	0.199675
2391	0.044686	0.199346	-0.000183	0.045344	0.199018
2392	0.051425	0.19836	-0.000183	0.051096	0.201976
2393	0.053726	0.199675	-0.000347	0.052575	0.200332
2394	0.058821	0.20362	-0.000347	0.059643	0.201483
2395	0.05915	0.196552	-0.000183	0.061286	0.200497
2396	0.068189	0.199839	0.000146	0.069176	0.201812
2397	0.071805	0.200004	0.000474	0.074271	0.199675
2398	0.078051	0.198853	0.000146	0.078873	0.201154
2399	0.049288	0.197867	-1.9e-05	0.081667	0.201812
2400	0.012472	0.196717	-1.9e-05	0.085118	0.201483
2401	0.003104	0.19836	0.000146	0.088241	0.201812
2402	0.001132	0.20099	-0.000183	0.09235	0.198689
2403	0.003268	0.196717	-0.000347	0.096459	0.202962
2404	0.001954	0.19836	-0.000347	0.097445	0.19836
2405	0.001954	0.199018	-0.000347	0.10632	0.203126
2406	0.00031	0.199018	-1.9e-05	0.105005	0.201976
2407	0.000474	0.198853	-1.9e-05	0.108293	0.205263
2408	0.000146	0.199346	0.000146	0.105334	0.195402
2409	-0.000183	0.198689	0.000146	0.112237	0.200168
2410	-0.000512	0.198689	0.00031	0.113716	0.201976
2411	-1.9e-05	0.197703	0.000146	0.114374	0.202469
2412	-0.000841	0.199346	-0.000183	0.104348	0.202305
2413	-0.000183	0.199018	-0.000183	0.108621	0.200004
2414	0.000146	0.199018	-0.000347	0.109114	0.202962
2415	0.00031	0.199675	-0.000347	0.109114	0.199346
2416	0.000146	0.194744	-0.000183	0.114374	0.20099
2417	0.000146	0.194087	-0.000183	0.112073	0.198689
2418	0.00031	0.194251	-1.9e-05	0.112073	0.205427
2419	0.000146	0.194416	0.000146	0.115689	0.198689
2420	-1.9e-05	0.190964	0.00031	0.114374	0.200825
2421	-0.000183	0.192279	0.00031	0.117003	0.201812
2422	-0.000183	0.187677	0.00031	0.118154	0.20099
2423	-1.9e-05	0.191786	-0.000183	0.117661	0.200825
2424	-0.000347	0.193265	-0.000512	0.122756	0.20099
2425	0.000146	0.191786	-0.000183	0.122098	0.202305
2426	0.00031	0.194909	-0.000347	0.125714	0.202305
2427	0.000146	0.194251	-0.000183	0.126372	0.200168
2428	0.00031	0.193922	-1.9e-05	0.130974	0.200497
2429	0.00031	0.191786	0.000146	0.131796	0.203948
2430	0.000146	0.192608	0.000146	0.126536	0.201647
2431	-0.000347	0.192443	0.000474	0.129166	0.204934
2432	-0.000183	0.193101	0.000146	0.12818	0.200332
2433	-0.000183	0.191786	0.000146	0.129166	0.202798
2434	-0.000183	0.194416	-0.000183	0.128837	0.200497
2435	-0.000183	0.191457	-0.000183	0.131302	0.201483
2436	-1.9e-05	0.190142	-0.000347	0.130481	0.203291
2437	-1.9e-05	0.191457	-0.000183	0.130974	0.203784
2438	0.000474	0.191786	-0.000512	0.131302	0.201154
2439	0.000474	0.188827	0.000146	0.132289	0.201812
2440	0.00031	0.190471	-1.9e-05	0.13196	0.20099
2441	0.00031	0.183897	0.000146	0.13459	0.200332
2442	-0.000183	0.182746	0.000146	0.13459	0.20362
2443	-0.000347	0.172227	0.000146	0.131631	0.201154
2444	-0.000347	0.161709	0.000474	0.13459	0.201319
2445	-0.000347	0.134097	-1.9e-05	0.135576	0.200004
2446	-0.000183	0.124399	-0.000347	0.134261	0.200825
2447	-1.9e-05	0.129823	-0.000183	0.137384	0.20214
2448	-1.9e-05	0.129495	-0.000183	0.135247	0.202469
2449	0.000146	0.126043	-0.000183	0.135576	0.199346
2450	0.000146	0.131138	-1.9e-05	0.136562	0.202305
2451	0.000639	0.134097	0.000146	0.136069	0.200825
2452	0.000146	0.130974	0.00031	0.136069	0.201154
2453	-0.000183	0.138041	0.00031	0.135576	0.200497
2454	-0.000183	0.135411	0.00031	0.135576	0.202305
2455	-0.000512	0.137055	0.000146	0.134918	0.200332
2456	-1.9e-05	0.141657	-1.9e-05	0.135576	0.201976
2457	-0.000183	0.143136	-0.000347	0.138863	0.201319
2458	-1.9e-05	0.146588	-0.000347	0.139849	0.200661
2459	0.000146	0.146916	-0.000347	0.137548	0.201483
2460	0.000146	0.149053	-0.000347	0.137877	0.204606
2461	0.00031	0.149053	-1.9e-05	0.143301	0.201976
2462	0.00031	0.153819	-1.9e-05	0.144615	0.20362
2463	0.000146	0.152669	0.000146	0.144451	0.199346
2464	-0.000183	0.156613	-1.9e-05	0.147738	0.201319
2465	-0.000347	0.1576	0.00031	0.144944	0.200497
2466	-0.000347	0.159901	0.000146	0.144287	0.195073
2467	-0.000347	0.160558	-0.000183	0.151518	0.199839
2468	-0.000183	0.163188	-0.000183	0.149053	0.197538
2469	-0.000183	0.162695	-0.000347	0.147903	0.201483
2470	0.000146	0.163023	-0.000347	0.147245	0.197867
2471	0.000474	0.164667	-0.000183	0.152505	0.201154
2472	0.000146	0.164174	0.000146	0.151025	0.201319
2473	-1.9e-05	0.068518	-1.9e-05	0.152669	0.200825
2474	-1.9e-05	0.019211	0.000146	0.153162	0.200497
2475	-0.000183	0.027922	0.00031	0.159408	0.200497
2476	-0.000183	0.029072	0.00031	0.153819	0.20099
2477	-0.000183	0.037948	-1.9e-05	0.159243	0.200004
2478	-0.000347	0.045179	-0.000183	0.157107	0.200661
2479	-0.000512	0.049946	-0.000183	0.154641	0.201154
2480	-0.000183	0.054712	-1.9e-05	0.159243	0.200825
2481	0.000146	0.063587	-0.000347	0.157764	0.199839
2482	0.000146	0.068518	-0.000183	0.159243	0.20099
2483	0.000146	0.072791	-1.9e-05	0.159901	0.199511
2484	0.00031	0.077065	0.000146	0.161709	0.200497
2485	0.000146	0.063094	-1.9e-05	0.159408	0.200168
2486	-1.9e-05	0.009185	-1.9e-05	0.163516	0.200168
2487	-0.000183	0.018225	0.000146	0.146095	0.199511
2488	-0.000183	0.001132	-1.9e-05	0.117661	0.205099
2489	-0.000512	0.001132	-0.000183	0.099089	0.200497
2490	-0.000347	0.011158	-0.000347	0.08216	0.199511
2491	0.000146	0.016746	-0.000347	0.073449	0.20362
2492	0.000146	0.024306	-0.000347	0.076243	0.200661
2493	0.00031	0.02973	-0.000183	0.067696	0.202962
2494	0.000146	0.036797	-0.000183	0.056849	0.200497
2495	0.000474	0.040249	0.000146	0.050439	0.201483
2496	0.000146	0.047973	0.00031	0.044522	0.202469
2497	-0.000183	0.051261	0.000146	0.040742	0.203291
2498	-0.000183	0.0603	0.000474	0.036304	0.200497
2499	-0.000512	0.061615	0.00031	0.038112	0.204441
