Ladekurvenmessung

Zeit: 2018_05_04 09.00.31

Info: FVA3, v = 0.382, T = 23, F = 20, h = 314.9

Ladewiderstand[Ohm]: 1012700

Störkapazität[pF]: 0.000000

Entladezeit[ms]: 200

Abtastrate[Hz]: 250000

Anzahl der Messwerte: 2500.000000

Verzögerung[ms]: 3

Ladespannung[V]: 0.200000


Kurve 1

-0.001498
-0.000183
-0.002155
0.001625
0.000474
0.001296
0.000803
0.000639
0.001132
0.000474
0.001789
0.00146
0.001132
-1.9e-05
0.001296
-0.001827
-0.001498
-0.000347
-1.9e-05
-0.002813
0.00146
-0.001334
-0.001169
-0.001498
-0.001005
0.001132
-0.000676
-0.001498
0.000639
-0.001662
-0.002648
0.000474
-0.001169
-0.003963
-0.003799
-1.9e-05
-0.001827
-0.000183
-0.002155
0.000639
-0.001334
-0.002648
-0.001005
-0.001662
-0.00347
-0.001498
0.001954
-0.001334
0.001296
-0.004128
0.001625
-0.002484
-0.003306
-0.003306
-0.002813
-0.001827
-0.003635
-0.000676
-0.001827
-0.001334
-0.002155
0.001296
-0.002648
0.000146
-0.001662
0.00146
-0.001169
0.001296
0.001625
0.000967
0.00031
-0.002155
-0.000183
-0.002648
0.000146
-0.003635
0.000967
-0.000347
-0.001662
-0.000841
0.001132
-0.000183
0.001132
-0.00232
-0.001498
-0.001498
-0.000841
0.002611
-0.001169
-0.00232
-0.001498
-0.001005
-0.003306
0.001625
0.001625
-1.9e-05
0.001954
0.001132
0.002775
0.000639
-0.001827
0.002611
0.002447
-0.002648
-0.000347
-0.001991
-0.001169
-0.001827
0.00031
-0.002813
0.000803
-0.002648
0.000639
0.000146
0.000146
0.001132
0.006391
0.001625
0.001132
0.004748
0.000639
-1.9e-05
0.000146
0.000146
-0.001662
0.000967
-0.001334
0.00294
-0.002484
-0.001334
-0.001169
0.000967
0.000803
0.001954
0.000474
0.000146
0.002775
0.000639
0.003761
-0.001662
0.000474
-0.001662
0.002447
-0.001662
-0.000512
0.001132
0.001296
-0.000183
-0.000841
0.001625
-0.001498
-0.001827
0.001132
0.002282
0.001954
0.000803
0.000146
0.002775
0.001296
0.00031
-0.000183
0.00146
0.000967
-0.000183
-1.9e-05
0.001789
0.002118
0.000967
0.001132
0.000639
0.001954
-0.000512
0.001789
0.000474
0.001296
0.001789
-1.9e-05
-1.9e-05
-1.9e-05
0.001132
0.000639
0.001625
-0.001005
0.00031
0.00294
0.00294
0.000639
0.000803
0.000803
0.001625
0.00146
0.001296
0.001954
0.000146
0.000146
0.00031
0.000474
-0.00347
-0.003142
-0.004128
0.001296
-0.00347
0.003597
0.002447
0.000967
0.002118
0.001625
-0.001005
0.002447
0.002118
0.003597
0.001296
-0.000347
0.001954
-0.000347
-0.001827
-0.003142
-0.001169
-0.002155
-0.000347
-0.000347
0.001625
0.000639
0.002447
0.000967
0.001296
0.000803
0.000474
0.002282
-0.000183
0.001954
0.000639
0.001789
-0.003142
-0.000183
-0.002155
-0.002813
-0.000183
-0.000512
-0.001827
0.001789
0.000803
0.003268
0.001296
0.000474
0.000803
-0.002648
-0.006922
-0.005936
-0.002977
-0.001005
-0.001005
0.000474
0.003597
0.003104
0.001789
0.001296
0.00146
-0.005771
-0.000347
0.001789
0.000146
0.001296
0.001789
0.003104
0.001954
0.004255
0.000474
-0.000347
-0.010045
-0.001827
-0.001005
-0.000183
0.001625
-0.001991
0.00409
0.00146
0.00294
-0.000183
0.00294
-0.005936
-1.9e-05
0.00031
-0.001498
0.000474
-0.003799
0.000803
-0.000183
0.000639
-0.001991
0.001789
0.000146
-0.000183
0.00031
0.000967
0.000639
0.002118
0.001296
0.001132
-0.001498
0.002447
-0.003142
0.001789
-0.001498
-0.002155
0.001296
-0.00347
0.003597
0.001132
0.00146
0.001954
0.001789
-0.001827
0.00672
0.000967
0.002118
-0.000183
0.000146
0.003597
0.000146
0.000967
-0.000183
0.00146
-0.001827
0.005734
-0.000183
0.001132
0.000803
0.00146
-0.001827
-0.000347
0.00146
-0.001334
0.000967
-0.000183
0.002611
-0.002484
-0.002648
0.000474
0.001789
0.003433
0.000967
0.00146
0.000803
0.000146
0.000967
-0.000676
-0.002648
-0.000676
-0.001334
-1.9e-05
-0.001827
0.002775
0.00146
0.001789
0.000474
0.000474
0.000803
-0.00347
-0.003635
-0.001662
-0.001662
0.000639
-0.001498
0.002447
0.001625
0.000803
0.001789
0.00146
-0.000183
0.000146
0.001625
0.000474
-0.000676
-0.001827
0.003433
-0.001827
0.000803
0.003268
-0.001005
-0.001498
-0.000347
-0.001498
0.000146
0.000474
-0.003799
0.005405
0.000474
-0.000183
-0.001005
0.000474
-0.001662
0.000803
-0.000512
-0.001005
-0.000512
-0.004128
-0.000676
-0.000347
-0.001334
-0.002977
0.001132
-0.001169
0.002447
0.000803
0.002447
0.000967
-0.000676
0.00146
-0.001498
-1.9e-05
0.000639
0.002118
-0.001169
0.00146
-0.002648
-0.001827
0.002611
-0.001169
0.000967
0.002611
0.000803
0.001296
0.001789
0.000803
-1.9e-05
-0.000347
-0.000183
-0.000676
0.000474
-0.000512
0.000967
-0.001334
-0.000676
-0.000347
-0.000841
-0.001169
0.000639
0.003433
0.002447
0.003268
-0.001498
0.00031
-1.9e-05
-0.00232
-0.00347
-0.00232
-0.005443
-0.00232
-0.001662
-0.000183
-0.000676
0.000474
0.001954
0.001954
0.001296
0.001789
0.00146
0.001954
0.00294
-0.002977
-0.003963
-0.001662
0.001132
-0.001498
0.001296
-0.001169
0.001296
-0.000183
-0.000676
0.003104
-0.000183
-1.9e-05
-0.002155
0.00409
-0.000347
0.002611
-0.000183
0.003433
-0.001498
0.000474
-0.001991
0.000639
-1.9e-05
-0.000512
-0.000183
0.001625
0.000146
-0.000183
0.003597
-1.9e-05
0.001954
-0.000841
0.003597
-0.003142
-0.001662
-0.000183
0.000146
-0.002484
-0.003635
0.002775
-0.000183
-0.000183
-0.000183
0.000474
0.000146
0.001954
0.001625
-0.000676
-0.002484
0.00146
0.004583
0.002118
0.001625
0.000474
0.000146
0.00031
-0.000676
0.001296
0.001296
0.000474
0.002611
-0.000676
-0.000841
0.000474
-0.000512
0.003104
0.002282
-0.000347
0.002611
-0.001334
0.002447
0.000639
0.001625
-0.001334
0.001132
0.002611
0.000803
0.004255
0.00031
-0.000676
0.001954
0.002447
0.001296
0.003761
0.001132
0.001954
0.003268
-0.001662
-0.000676
-0.000347
0.00146
-0.001334
0.00031
-0.000347
0.003597
0.000803
-0.00232
-0.001169
0.000967
0.002611
-0.001991
0.00031
0.001296
0.001789
-0.000183
0.003597
-0.001662
0.002282
-0.000183
0.001296
-0.002648
-0.000676
-0.001005
0.000474
0.000146
0.002447
0.001296
-1.9e-05
0.000146
-0.000676
0.002282
-0.001498
0.000803
-0.000183
0.001296
-0.002977
-0.005114
0.001625
0.000803
-0.003963
-0.002977
-0.001498
-0.000183
-1.9e-05
0.001132
-0.001498
-0.002155
0.002447
-0.00232
-0.000676
-0.001169
0.002447
-0.001169
-0.000183
-0.001498
0.00146
-0.000512
0.002447
0.001296
0.000146
0.002282
0.000474
0.000639
0.002282
0.001789
0.000146
0.002611
0.000639
0.002611
-0.000347
0.000639
-0.001498
-1.9e-05
-0.001827
-0.001498
0.00031
-0.001005
0.002447
-0.001005
-0.000676
-0.000183
0.002775
-0.001827
0.000639
-0.000183
0.001132
-1.9e-05
-0.001827
-0.001005
-0.002484
0.001132
-0.003799
-0.000676
-0.008565
-0.001005
-0.001334
-0.003142
-0.002813
0.000474
0.001789
0.001132
-0.001662
0.000967
0.002447
-0.000676
-0.000512
0.001625
0.002118
0.000146
0.000146
-1.9e-05
0.004419
-0.001662
0.000803
-0.000512
-0.001005
-0.001827
0.00031
-0.003306
0.000474
-0.000676
-0.002648
0.003597
0.000967
-0.000347
-0.000183
-0.000841
-0.00347
-0.000347
-0.000347
-0.001169
-0.001827
-0.001005
-0.001827
0.00294
0.003597
0.001132
0.001789
0.001132
0.00409
0.000803
0.002447
-0.001005
0.000474
-0.002648
-0.000512
-0.002648
-0.001334
-0.001169
-1.9e-05
-0.003306
-0.000841
0.003597
-0.001334
0.002611
-0.000676
0.004255
-0.001827
-0.001005
0.000639
-0.000512
-0.004456
-0.000347
-0.002484
-0.002648
-0.001334
0.00031
0.001296
-0.001498
0.003104
0.000639
0.000474
0.00146
0.001954
0.000803
0.000803
-0.000347
-0.001334
0.000474
-0.001005
-0.001498
-0.000676
0.000803
-0.003635
-0.001169
-0.000183
-0.001169
-0.000512
0.00146
0.000639
0.004912
0.001625
0.001954
0.000967
-0.003635
-0.003963
-0.001169
-0.004128
-0.004292
-1.9e-05
0.003268
0.01313
0.020362
0.027265
0.034003
0.043043
0.044193
0.055041
0.05389
0.067203
0.073613
0.077065
0.080681
0.090049
0.091528
0.094815
0.100568
0.102376
0.107799
0.108621
0.115195
0.118811
0.124071
0.124071
0.131631
0.129659
0.13574
0.137384
0.137219
0.141821
0.139849
0.145437
0.145766
0.15234
0.150697
0.155134
0.15497
0.160229
0.1576
0.159079
0.166804
0.165324
0.169598
0.167954
0.169926
0.169105
0.174364
0.170748
0.169269
0.173049
0.173049
0.173049
0.175843
0.176994
0.180116
0.177158
0.179459
0.183239
0.182746
0.182911
0.182253
0.185705
0.185705
0.185705
0.183732
0.18932
0.184554
0.185869
0.189649
0.188006
0.188006
0.189156
0.190142
0.189814
0.191786
0.192443
0.192608
0.190964
0.192279
0.194087
0.193101
0.190635
0.190964
0.19721
0.196552
0.192443
0.196388
0.195895
0.191786
0.194909
0.194909
0.19721
0.19458
0.192936
0.194087
0.197703
0.193101
0.196717
0.196223
0.198031
0.197703
0.199511
0.196717
0.198524
0.19573
0.196223
0.194909
0.197045
0.198031
0.197374
0.197867
0.197703
0.200825
0.19458
0.19836
0.197538
0.200004
0.19836
0.196881
0.200004
0.198524
0.198031
0.198031
0.203291
0.196223
0.198524
0.196881
0.199182
0.19721
0.199839
0.201483
0.199346
0.193758
0.200825
0.201483
0.19721
0.19836
0.198853
0.198853
0.197867
0.197867
0.19721
0.197045
0.197045
0.198031
0.198031
0.196059
0.197703
0.200661
0.200168
0.201319
0.201812
0.200332
0.201647
0.198853
0.199839
0.197538
0.201319
0.198196
0.198853
0.198031
0.200497
0.199018
0.200825
0.200497
0.205099
0.201976
0.202798
0.201812
0.199346
0.201319
0.198853
0.201976
0.199675
0.200497
0.199182
0.199839
0.199346
0.19836
0.200497
0.199511
0.200332
0.198031
0.202305
0.201976
0.203455
0.198853
0.202305
0.19836
0.200332
0.197538
0.200661
0.198196
0.196717
0.199511
0.201976
0.196717
0.195895
0.198524
0.198031
0.201647
0.199839
0.201647
0.199346
0.200825
0.20099
0.202305
0.201812
0.200661
0.200168
0.200004
0.197538
0.198524
0.198524
0.198689
0.200825
0.199839
0.200004
0.199182
0.201319
0.198689
0.200661
0.197538
0.200004
0.200497
0.198853
0.198853
0.200168
0.199675
0.197867
0.201647
0.199839
0.201154
0.19721
0.201319
0.197538
0.198031
0.197703
0.201647
0.196388
0.196223
0.202798
0.200332
0.198031
0.195237
0.197538
0.196881
0.196223
0.195402
0.199511
0.199675
0.200497
0.198524
0.197867
0.198196
0.198853
0.196388
0.201976
0.199839
0.199018
0.200332
0.200168
0.200004
0.198524
0.200332
0.194087
0.19721
0.196223
0.197867
0.196388
0.199182
0.203948
0.198689
0.198196
0.200825
0.200168
0.197045
0.19836
0.199182
0.19721
0.196881
0.200497
0.19836
0.200497
0.199018
0.198853
0.20099
0.195073
0.196717
0.20099
0.197374
0.201319
0.202305
0.197538
0.202305
0.196223
0.198524
0.19721
0.18932
0.194251
0.200497
0.197867
0.198524
0.198524
0.199675
0.198689
0.197045
0.201812
0.194416
0.193594
0.197703
0.201319
0.199018
0.200168
0.200332
0.199182
0.19836
0.198524
0.19836
0.199675
0.194416
0.199182
0.199511
0.19721
0.199182
0.19836
0.198196
0.200497
0.200661
0.192443
0.192443
0.189156
0.186855
0.181431
0.164174
0.14856
0.001625
0.010993
0.001132
0.003268
-0.000512
-0.000841
0.004583
0.004419
0.000803
0.000639
0.00031
-1.9e-05
-0.000183
-0.001005
-0.000676
-0.000676
-0.000347
0.006391
0.00031
-0.000512
0.001132
0.000967
0.001625
-1.9e-05
-0.000512
-0.000183
-1.9e-05
-0.000347
-0.001827
-0.000676
0.000639
0.000474
-0.000512
-1.9e-05
0.00031
0.000146
-0.000183
-0.000347
-0.000183
-0.011359
-0.000183
0.00146
0.006062
0.011979
0.019047
0.026443
0.035154
0.039263
0.051096
0.050932
0.0603
0.064574
0.070162
0.075421
0.083146
0.086269
0.089227
0.093665
0.09876
0.102211
0.104019
0.108457
0.111087
0.120784
0.121277
0.125714
0.127687
0.130809
0.134425
0.138699
0.136069
0.13952
0.141493
0.144451
0.143958
0.149875
0.15234
0.154148
0.154477
0.158257
0.160229
0.160229
0.16516
0.164338
0.162859
0.167954
0.169105
0.166968
0.171899
0.169269
0.170913
0.176829
0.175186
0.176665
0.17798
0.177487
0.177487
0.180445
0.179295
0.181103
0.179623
0.183897
0.183075
0.182911
0.184554
0.184554
0.18554
0.182253
0.183075
0.185047
0.186691
0.183897
0.186855
0.189156
0.190142
0.188992
0.192443
0.187348
0.192115
0.190635
0.194909
0.1908
0.190142
0.192279
0.191621
0.192608
0.192608
0.19458
0.1908
0.193922
0.193594
0.194251
0.191128
0.193922
0.192936
0.19721
0.192115
0.196552
0.195402
0.194251
0.191128
0.196717
0.194744
0.193429
0.195895
0.195073
0.196552
0.195237
0.197538
0.198524
0.19836
0.196223
0.197703
0.19573
0.194416
0.193429
0.197703
0.195402
0.194087
0.19573
0.195237
0.196881
0.194909
0.199346
0.196717
0.19836
0.19721
0.19721
0.198031
0.197867
0.199839
0.201647
0.198524
0.198196
0.200332
0.198031
0.19721
0.196223
0.199839
0.197045
0.197374
0.198853
0.200332
0.197045
0.196223
0.200497
0.199346
0.199839
0.19721
0.196223
0.195237
0.196388
0.197045
0.201319
0.196223
0.197045
0.197703
0.199182
0.197374
0.198853
0.200332
0.199675
0.19836
0.201319
0.202962
0.196717
0.200168
0.198853
0.198524
0.196717
0.194744
0.198196
0.19836
0.195895
0.197867
0.199018
0.19836
0.201483
0.198524
0.198853
0.194744
0.197045
0.197374
0.200497
0.198689
0.200332
0.200004
0.197538
0.198031
0.200168
0.198031
0.197374
0.198689
0.198196
0.200004
0.199839
0.201812
0.200497
0.200497
0.196388
0.196881
0.197045
0.197703
0.196881
0.198689
0.196388
0.197867
0.197867
0.198853
0.198196
0.196223
0.198853
0.197045
0.198196
0.196717
0.199182
0.195566
0.197045
0.198031
0.199511
0.196717
0.194416
0.198853
0.198031
0.198689
0.19836
0.20099
0.196388
0.200497
0.197045
0.200332
0.20214
0.197374
0.197374
0.199675
0.200004
0.197867
0.20099
0.200004
0.200825
0.198853
0.201154
0.19836
0.199839
0.197867
0.201319
0.202633
0.201483
0.200497
0.200497
0.200168
0.200825
0.199511
0.198853
0.200004
0.197867
0.200004
0.198689
0.200332
0.198196
0.198689
0.199182
0.197374
0.195566
0.199346
0.199675
0.198853
0.198524
0.198524
0.19836
0.197867
0.198853
0.198031
0.200661
0.199511
0.198524
0.199675
0.19721
0.198689
0.199346
0.196388
0.202962
0.19721
0.202633
0.202305
0.200168
0.200332
0.199018
0.200825
0.199675
0.200497
0.200004
0.198196
0.200004
0.199675
0.19836
0.199675
0.193758
0.193429
0.198689
0.196059
0.200497
0.197374
0.200004
0.199182
0.199018
0.198031
0.206085
0.203126
0.201319
0.198689
0.200661
0.198196
0.198196
0.196717
0.197045
0.196223
0.197538
0.198689
0.196059
0.197867
0.198853
0.200825
0.198031
0.198196
0.199511
0.20099
0.199511
0.199511
0.199511
0.200004
0.196717
0.19721
0.195566
0.19721
0.200661
0.196388
0.196717
0.19836
0.200661
0.19721
0.198689
0.200497
0.20099
0.200004
0.199018
0.198853
0.198689
0.199346
0.197867
0.199511
0.195895
0.200497
0.197538
0.196717
0.199018
0.200332
0.198196
0.195073
0.199018
0.198031
0.199511
0.197867
0.200168
0.19836
0.194744
0.197045
0.199675
0.195073
0.198689
0.196881
0.199018
0.19836
0.20099
0.197867
0.201319
0.200661
0.199182
0.198196
0.198196
0.199511
0.200168
0.199839
0.198031
0.201154
0.196059
0.200004
0.203126
0.195895
0.195402
0.196717
0.199018
0.198031
0.199839
0.200825
0.200168
0.199346
0.198853
0.196223
0.200661
0.19836
0.197538
0.197703
0.198689
0.196881
0.197867
0.19836
0.19458
0.199839
0.200661
0.200825
0.199182
0.200661
0.199182
0.200661
0.19836
0.201154
0.199182
0.197538
0.195402
0.196552
0.198031
0.196059
0.19573
0.198031
0.200332
0.199018
0.199675
0.200004
0.200332
0.198031
0.201647
0.198689
0.199839
0.198524
0.195073
0.199018
0.200004
0.201319
0.200825
0.19836
0.199675
0.199675
0.196717
0.200004
0.195073
0.201812
0.198524
0.200332
0.199346
0.20099
0.198689
0.196388
0.198524
0.197703
0.196388
0.197867
0.200004
0.197703
0.20099
0.196552
0.200661
0.196388
0.201319
0.199182
0.198853
0.196717
0.196388
0.199018
0.198689
0.197867
0.195566
0.200825
0.198853
0.200004
0.197538
0.200004
0.196223
0.19836
0.199346
0.200332
0.200168
0.199675
0.200332
0.200661
0.201483
0.197538
0.200825
0.197703
0.200825
0.19836
0.200497
0.196881
0.201976
0.19836
0.19721
0.199018
0.196223
0.200497
0.200168
0.197374
0.199675
0.200661
0.198031
0.199839
0.200497
0.201483
0.197703
0.19836
0.197045
0.201319
0.200168
0.197045
0.199346
0.197703
0.19573
0.199839
0.198524
0.195237
0.197045
0.197538
0.201647
0.197374
0.200661
0.199346
0.198853
0.199182
0.200332
0.198031
0.19836
0.199346
0.200825
0.200825
0.196388
0.200004
0.198524
0.202469
0.198524
0.199511
0.195895
0.197374
0.197374
0.198196
0.198689
0.199675
0.196388
0.200168
0.199018
0.196388
0.19836
0.195073
0.198524
0.198031
0.200168
0.198196
0.199018
0.200497
0.198689
0.198853
0.198031
0.200168
0.19573
0.198524
0.197374
0.19573
0.195566
0.199839
0.197045
0.199346
0.197703
0.19836
0.198196
0.199346
0.200332
0.197703
0.201812
0.199182
0.200497
0.199511
0.20099
0.197374
0.199675
0.196388
0.199346
0.198196
0.197045
0.198196
0.199182
0.203784
0.199511
0.198689
0.199839
0.200661
0.198524
0.198689
0.196223
0.200332
0.197374
0.200497
0.199182
0.198853
0.196717
0.197703
0.198853
0.197538
0.19573
0.196717
0.200497
0.19573
0.200497
0.19721
0.20099
0.19721
0.201483
0.200004
0.195566
0.195895
0.198031
0.195895
0.195073
0.197538
0.199839
0.199839
0.198853
0.200497
0.192936
0.199018
0.199182
0.197867
0.197703
0.198524
0.20099
0.199018
0.19721
0.199182
0.199511
0.1908
0.197045
0.198196
0.201812
0.200004
0.200332
0.198689
0.202305
0.198196
0.19836
0.19836
0.191786
0.196388
0.196059
0.198196
0.197374
0.19721
0.198031
0.197374
0.197703
0.20214
0.198689
0.191293
0.198524
0.202305
0.199346
0.201319
0.197703
0.203948
0.198031
0.197538
0.199018
0.197867
0.193758
0.193922
0.199511
0.194744
0.197538
0.197538
0.199018
0.19836
0.199346
0.199675
0.200168
0.201976
0.199346
0.198196
0.19721
0.199346
0.195566
0.200168
0.197045
0.197703
0.195566
0.198689
0.204113
0.196881
0.198853
0.198853
0.197538
0.200004
0.198524
0.198853
0.198689
0.19836
0.196717
0.202469
0.196059
0.199018
0.200004
0.199511
0.198853
0.198196
0.199511
0.197703
0.199511
0.193265
0.199346
0.194251
0.19573
0.198524
0.196388
0.19721
0.196223
0.200497
0.200661
0.19836
0.198524
0.196881
0.19458
0.200332
0.198196
0.19836
0.199018
0.199182
0.200332
0.199675
0.204441
0.197538
0.200661
0.197703
0.199182
0.195073
0.198031
0.195073
0.197867
0.195073
0.198196
0.197867
0.197374
0.201154
0.199839
0.197374
0.197045
0.199839
0.19836
0.19836
0.199018
0.202305
0.200332
0.199346
0.200004
0.197703
0.197703
0.197374
0.19721
0.197867
0.19836
0.198689
0.198031
0.199018
0.198524
0.197045
0.198853
0.198853
0.200825
0.198689
0.197867
0.197045
0.199182
0.200332
0.19458
0.200497
0.199182
0.198196
0.198196
0.19458
0.202633
0.200332
0.197538
0.201319
0.198196
0.200004
0.199018
0.197045
0.196223
0.19721
0.198196
0.198031
0.198524
0.197374
0.200168
0.198524
0.197374
0.196717
0.198689
0.19573
0.199839
0.198031
0.198853
0.196717
0.19573
0.200168
0.197703
0.197374
0.197703
0.196388
0.198689
0.197867
0.193265
0.196059
0.196059
0.194909
0.196881
0.19836
0.198689
0.199182
0.198689
0.19721
0.199346
0.197045
0.198853
0.198031
0.19836
0.19836
0.199675
0.194744
0.19721
0.203948
0.196552
0.19721
0.199346
0.19836
0.20099
0.198689
0.19836
0.200497
0.198689
0.19836
0.200661
0.198031
0.196881
0.198853
0.196059
0.198524
0.194744
0.197538
0.199839
0.19836
0.196388
0.197867
0.200004
0.193922
0.198689
0.19836
0.198689
0.19721
0.198196
0.192443
0.196552
0.195073
0.197538
0.195237
0.194087
0.196881
0.198031
0.198524
0.196881
0.200497
0.198031
0.200332
0.19836
0.198524
0.197867
0.200004
0.200332
0.198031
0.196552
0.195402
0.196717
0.199182
0.198031
0.197867
0.200661
0.19836
0.199182
0.197703
0.200825
0.197867
0.198689
0.197374
0.19721
0.198196
0.196881
0.19721
0.196388
0.197703
0.195073
0.197538
0.196881
0.193922
0.197867
0.198853
0.19721
0.199182
0.20099
0.198689
0.20099
0.196881
0.200497
0.19721
0.19573
0.197867
0.198196
0.195073
0.199511
0.201483
0.199018
0.197867
0.200004
0.20099
0.200004
0.198853
0.200332
0.199018
0.200497
0.199675
0.19836
0.197538
0.197867
0.200825
0.193922
0.199839
0.197374
0.199675
0.19836
0.199511
0.199511
0.198689
0.199346
0.199018
0.200168
0.196717
0.197538
0.196388
0.199675
0.197045
0.198853
0.195237
0.200332
0.194744
0.199182
0.196881
0.197045
0.19836
0.199839
0.198853
0.197703
0.197867
0.198689
0.20099
0.194416
0.198524
0.199675
0.19721
0.197703
0.19836
0.197538
0.198853
0.198524
0.198524
0.201976
0.196717
0.197045
0.196388
0.199675
0.195566
0.200004
0.198524
0.200004
0.198853
0.199346
0.199675
0.199839
0.192936
0.197703
0.198196
0.196881
0.198853
0.199346
0.197045
0.199018
0.199018
0.199018
0.19836
0.197703
0.198853
0.199346
0.200332
0.198524
0.200004
0.197374
0.197703
0.19836
0.197374
0.196059
0.196552
0.200661
0.195073
0.19836
0.198853
0.197867
0.195237
0.198524
0.199346
0.198689
0.198031
0.198689
0.199018
0.19573
0.199182
0.19721
0.199839
0.19573
0.197374
0.199018
0.19721
0.199182
0.200661
0.198524
0.199675
0.199511
0.199675
0.195566
0.196388
0.197045
0.197703
0.198689
0.196223
0.200004
0.197045
0.198031
0.196059
0.198853
0.199018
0.199182
0.199511
0.198524
0.201976
0.199018
0.202798
0.198853
0.199839
0.199182
0.197374
0.197538
0.199346
0.197703
0.197374
0.196388
0.195566
0.192936
0.198031
0.193922
0.197374
0.199839
0.19836
0.199839
0.200168
0.198031
0.198196
0.198689
0.200661
0.20099
0.196388
0.198196
0.198689
0.198524
0.200497
0.198689
0.199511
0.197867
0.199182
0.196059
0.199018
0.196881
0.198853
0.19721
0.198853
0.197045
0.198524
0.197867
0.197045
0.197703
0.196552
0.198196
0.197538
0.198196
0.19573
0.197703
0.200004
0.200497
0.197374
0.201154
0.197703
0.19836
0.196717
0.196717
0.197045
0.195402
0.195895
0.193101
0.200168
0.199182
0.20214
0.198524
0.199346
0.199018
0.200168
0.200168
0.198031
0.198031
0.201483
0.197703
0.199018
0.20214
0.197703
0.197374
0.196059
0.199018
0.199346
0.197374
0.199511
0.200004
0.200004
0.20099
0.203291
0.200004
0.198524
0.198524
0.19836
0.19721
0.196552
0.197867
0.198031
0.196881
0.199182
0.199182
0.198524
0.197374
0.194251
0.19573
0.198031
0.196059
0.199346
0.199839
0.198031
0.197703
0.198031
0.19721
0.196552
0.196059
0.197703
0.199839
0.193429
0.201647
0.197867
0.199018
0.199182
0.197703
0.196881
0.197703
0.199839
0.197538
0.199675
0.196388
0.200661
0.197045
0.199182
0.198689
0.201154
0.196717
0.19836
0.200497
0.198031
0.199511
0.19721
0.196059
0.199182
0.200168
0.198031
0.200825
0.197374
0.199018
0.197867
0.198031
0.19573
0.199018
0.198689
0.197867
0.20099
0.196552
0.200004
0.199182
0.198853
0.19836
0.200497
0.194744
0.197374
0.198196
0.200497
0.195895
0.19573
0.199346
0.197703
0.196223
0.197045
0.197538
0.197703
0.194251
0.19721
0.195895
0.197538
0.200004
0.198031
0.200332
0.198196
0.198031
0.198689
0.199182
0.196223
0.197867
0.197538
0.195566
0.198853
0.194744
0.201812
0.198196
0.199511
0.197045
0.200497
0.197045
0.201812
0.199018
0.198031
0.199511
0.197867
0.199018
0.197538
0.196059
0.200004
0.200661
0.196388
0.20214
0.199182
0.198689
0.198524
0.198524
0.196059
0.196717
0.199511
0.199182
0.195237
0.198031
0.196059
0.196881
0.199675
0.196223
0.199018
0.197538
0.198689
0.19721
0.199346
0.198524
0.198524
0.200004
0.202305
0.197374
0.200332
0.199018
0.198853
0.198853
0.196388
0.200004
0.198689
0.198689
0.199018
0.199675
0.197703
0.197374
0.198031
0.198196
0.199018
0.197703
0.198689
0.199018
0.199675
0.198524
0.19836
0.198853
0.197374
0.192279
0.198031
0.197045
0.196717
0.197045
0.196552
0.19721
0.197538
0.196552
0.197867
0.194087
0.196552
0.200004
0.195402
0.197538
0.197867
0.201154
0.205427
0.199182
0.199018
0.199675
0.18932
0.196059
0.197867
0.197538
0.198524
0.19836
0.200332
0.200825
0.200661
0.197374
0.20477
0.190307
0.19836
0.199675
0.198689
0.197867
0.200168
0.198853
0.200168
0.198689
0.196223
0.199018
0.188663
0.197538
0.197867
0.200332
0.197703
0.202962
0.202962
0.203948
0.200497
0.199675
0.200004
0.19458
0.196223
0.19573
0.197538
0.195073
0.198196
0.197703
0.20099
0.200332
0.19836
0.199018
0.203784

Kurve 2

0.001296
0.003268
0.000967
0.003268
-0.00347
0.000803
-0.000512
0.002775
-1.9e-05
0.003926
0.001789
0.001789
0.00146
-0.001169
0.000474
0.001132
-0.002155
-0.000347
-1.9e-05
0.00031
0.003104
0.003926
0.003268
0.002282
0.000803
-1.9e-05
0.001789
0.000639
0.002282
0.00146
0.001789
0.003926
0.003104
0.002611
0.002282
0.001132
-0.000841
-0.000676
-0.001005
0.003433
-0.001334
0.001132
0.001296
0.000639
0.00409
0.001132
0.002611
0.002118
0.001954
0.000639
0.001296
-0.000183
0.001625
0.000146
0.002611
-0.000512
0.001132
0.00146
0.002282
-0.001498
0.000146
0.000639
-0.000512
0.003597
-0.000512
-0.000183
-0.00232
0.000146
-0.002155
-0.001334
-0.004785
0.004255
0.000146
0.000146
0.000967
0.000474
0.001625
0.000803
0.002282
0.000146
0.002611
0.002118
0.004419
0.00146
0.001296
0.001132
0.001132
-0.001169
0.001625
-0.000347
-0.001827
-0.000512
-0.000676
0.00146
0.001132
-0.002648
0.003268
0.006227
0.003104
0.00294
0.001954
0.001789
-0.000347
0.001789
-0.001005
-0.000841
0.002282
0.001625
0.000803
-0.000512
0.002282
-0.000183
0.000639
-0.001005
0.001954
-0.001827
0.001296
-0.001991
0.002282
0.001954
0.000146
-0.002648
-0.001827
-0.000512
-0.000347
0.001132
-0.001334
0.003268
-0.000676
0.000967
0.004255
0.004912
0.00294
0.002775
0.001789
0.002118
0.001789
0.00031
0.001132
-0.001005
0.000967
0.000639
0.000967
-0.001334
0.003433
0.000639
-0.000512
0.003268
0.002611
0.000967
0.000639
0.003104
0.00031
-0.00232
0.000803
0.003433
-0.000512
-0.002155
-0.001827
0.001132
-0.002155
0.000474
-0.000183
0.000967
-0.001662
0.000803
0.000967
0.000639
-0.000841
-0.000347
0.001789
-0.003963
0.000639
-1.9e-05
0.001296
0.001296
0.001954
0.000474
0.002118
0.000639
0.002118
0.002611
0.000474
0.001296
0.003597
0.00031
0.001625
0.003104
0.002447
0.001132
-1.9e-05
0.001789
0.000474
0.001625
-0.001334
0.001789
-0.000183
0.000639
0.002447
0.00146
0.001296
0.000967
-1.9e-05
0.000474
0.003597
-0.000183
0.002611
0.002118
-0.001498
0.006062
0.000474
-0.001662
0.001296
-0.001827
-1.9e-05
-0.002648
-0.003963
0.001954
0.003761
0.002611
0.00031
0.00409
0.001296
0.003433
0.001132
0.003433
0.000803
0.002775
0.00146
0.000639
0.000803
0.00294
0.00031
-0.001498
-0.000347
-0.001334
0.001954
0.000967
0.000967
-0.000676
0.003433
0.001954
0.001954
0.003433
0.00031
0.000474
-0.000512
-0.002813
0.000474
-0.000183
-0.001334
0.00146
-0.000676
0.000639
0.002775
0.000803
0.000639
0.002611
0.000474
0.005898
0.002611
0.000639
-0.000347
-0.001498
-0.000347
-0.001662
-0.002155
-0.001005
0.002611
-1.9e-05
0.002611
0.000803
0.001954
0.001296
0.00294
0.002775
0.002447
0.002282
0.000803
0.00146
-0.000183
-0.001991
-0.00347
-0.001827
0.000639
0.000639
-0.000347
0.00031
0.00031
-0.000183
0.000474
0.00409
0.002282
0.002775
0.005734
-0.000676
-0.003142
-0.002484
-0.001662
-0.001169
-0.001334
-0.001827
0.000967
0.00031
0.001954
0.000639
0.000639
0.000803
0.003104
0.004748
0.001132
0.002611
-0.001005
0.00146
0.000474
0.001132
-0.000347
-0.00232
-0.00232
0.000474
-0.004456
-0.000676
0.000967
-1.9e-05
0.004748
0.001789
0.003597
-0.001827
-1.9e-05
0.00031
0.00031
-0.001827
0.001296
-1.9e-05
-1.9e-05
-0.000183
0.001296
0.002611
-1.9e-05
-0.000676
0.001625
0.002447
-0.000183
0.001132
0.000146
-0.000183
0.000146
0.001132
-0.001662
-0.000183
0.002118
-0.000347
-0.000676
-1.9e-05
-0.000183
-0.000347
0.000967
-0.000676
0.00409
0.002282
-0.000841
-0.002155
-0.001169
-0.00232
-0.002155
-0.000512
0.000639
-0.005771
-0.00347
0.000639
0.000639
-1.9e-05
-0.000183
0.003761
-0.001498
-0.000676
-0.000676
-0.00232
-0.000183
0.000474
0.003926
0.007377
-0.001005
0.004912
0.000474
-0.00347
0.00146
-0.001498
0.000803
-0.000676
0.001296
0.000967
0.00031
-1.9e-05
-0.001334
-0.000183
-0.007579
-0.000347
0.003433
-0.000347
-0.001169
0.000639
-0.001334
0.001954
-0.000676
0.001789
-0.002813
-0.00988
-0.001498
-0.000841
-0.005936
-0.005114
-0.004785
-0.001334
-0.001334
-0.000676
0.001954
-0.001498
-0.0061
-0.001498
0.000639
-0.001662
0.001789
-0.000512
-0.000676
-0.000676
0.000639
-0.001498
0.001296
-0.004785
-0.000676
-0.000676
0.000967
-0.000841
-0.001498
0.001625
-1.9e-05
0.005076
-1.9e-05
0.002775
-0.000841
-0.001005
-0.003635
0.002447
-0.002155
-0.001005
-0.001005
0.002447
0.00031
0.002118
0.000146
0.004255
0.000967
0.001625
0.001625
0.00031
0.000474
-0.001498
0.001296
0.001132
-0.001005
-0.002813
0.002611
-0.000183
-0.000183
0.001954
0.000474
0.000803
-0.001005
0.003104
0.000474
0.002118
0.00031
0.007049
0.00031
-0.000347
-0.000512
0.000146
-1.9e-05
-0.004456
0.000146
0.000639
0.000146
0.001954
0.004583
-0.001005
-0.000676
0.000146
0.002611
-0.000676
-0.000512
0.001625
0.000639
0.00146
-0.001498
0.00294
-0.001991
-0.000347
-0.003635
-0.003142
-0.004456
-0.001662
0.000146
0.002447
-0.001005
0.001132
0.000967
-0.000183
0.000803
0.000474
0.001132
-0.001498
-0.003306
0.004912
0.001625
0.000967
0.00031
-0.001334
-0.000676
0.000967
0.000639
-0.000512
0.000146
-0.00347
-0.001991
-0.000183
0.000146
0.000474
0.00031
-1.9e-05
-0.000676
0.000803
-0.001991
0.000967
-0.002813
-1.9e-05
0.000967
-0.001005
-0.000183
0.000967
0.001132
-1.9e-05
0.000639
-0.001498
0.001296
-0.001005
0.001132
-0.000347
0.00146
-0.001334
0.001296
-0.001827
-0.001169
-0.000512
-0.002977
0.002611
0.003433
-0.000183
0.002118
0.001132
-0.000183
0.004748
-0.001991
0.000639
-1.9e-05
-0.001991
0.000146
-0.001662
-0.000676
-0.001827
-0.002648
-0.000512
0.002611
0.00294
0.001625
0.000474
0.001132
-0.000347
0.000803
0.001132
0.001625
0.001132
0.000639
0.000474
-0.000183
-0.001991
-0.001169
0.000967
-0.001005
-0.000841
0.001789
-0.001498
0.000639
0.002447
-0.000183
0.00146
-0.001169
0.000474
-0.001005
0.000803
-0.003142
0.000639
-0.001662
0.003104
0.00409
-0.000347
0.004255
-0.000512
0.002118
0.000474
0.00031
-0.00347
0.00031
0.001625
-1.9e-05
-0.001005
0.000474
-0.000512
0.000146
0.000146
-0.000183
0.001789
-0.000676
-0.000676
-0.001334
-0.003635
-0.000183
0.001789
-0.001169
0.002118
-0.000676
0.001132
0.003268
-1.9e-05
0.000803
-0.001334
0.000967
-0.000183
0.003597
-0.002977
0.001296
-0.001169
-0.000183
0.000146
-0.000183
-1.9e-05
0.002775
0.000639
-0.000347
0.002118
-0.002813
0.00146
-0.001991
-0.000841
-0.004128
0.000803
-0.000183
0.001132
0.001954
-0.001005
0.000146
-0.002155
-0.001169
0.000474
-0.00347
-0.001662
-0.000183
0.000803
0.002775
-0.001005
0.000803
0.006556
0.00031
-0.000512
0.002282
-0.000676
0.003597
-0.001005
0.00146
0.001954
-0.000347
-1.9e-05
-0.000841
-0.002155
-0.000512
0.001132
-0.000676
0.000803
-0.000183
0.001132
-1.9e-05
0.000146
0.000639
-0.001334
0.000146
-0.000841
0.00031
-0.001334
-0.000676
-0.000676
0.001789
0.000146
0.001789
0.003104
0.00146
0.00146
0.003761
0.001296
0.000146
0.000967
-0.001662
-0.000183
-0.003963
-0.000512
-0.003963
-0.001334
-0.003635
0.001296
0.00031
0.001132
0.000803
0.000639
0.00031
-0.005114
-1.9e-05
-0.003635
-0.00347
-0.00232
0.003597
-0.004621
0.001132
0.00031
-0.001662
0.000639
0.001132
-0.000841
0.002282
0.000474
-0.001169
0.001954
0.001789
-0.001991
-0.000183
0.000146
-0.001991
-0.000676
-0.002155
-0.001005
-0.001662
-0.001334
-0.000841
0.003597
0.011322
0.018554
0.023813
0.03236
0.041235
0.047809
0.054055
0.059972
0.06556
0.068847
0.072463
0.078215
0.086597
0.087419
0.093829
0.09876
0.10517
0.110593
0.113059
0.115195
0.118483
0.126865
0.126536
0.131302
0.132289
0.137055
0.136562
0.141328
0.140506
0.145108
0.145602
0.148889
0.14971
0.153984
0.158421
0.155463
0.157764
0.161544
0.163352
0.165653
0.164338
0.164503
0.169762
0.166804
0.169105
0.169926
0.171077
0.171077
0.174528
0.177651
0.177158
0.180445
0.178309
0.180774
0.178637
0.181596
0.17913
0.181267
0.182417
0.185869
0.183075
0.184225
0.185047
0.183404
0.184225
0.18439
0.18932
0.186362
0.187677
0.190307
0.192772
0.194416
0.191786
0.190635
0.193265
0.188827
0.191128
0.192936
0.190307
0.191786
0.195237
0.194251
0.192936
0.19458
0.194744
0.195402
0.193594
0.196223
0.193758
0.196059
0.194251
0.201319
0.195895
0.195895
0.197045
0.196552
0.195895
0.193594
0.197538
0.195402
0.198689
0.195566
0.199182
0.198689
0.20099
0.197374
0.198524
0.196717
0.19573
0.19573
0.197703
0.198196
0.193758
0.197703
0.199346
0.198196
0.198689
0.199511
0.196881
0.199675
0.198524
0.196223
0.197374
0.197867
0.199511
0.197538
0.201483
0.20099
0.203291
0.199839
0.201812
0.199511
0.199511
0.200497
0.198524
0.197703
0.199675
0.19836
0.19836
0.199675
0.198524
0.200168
0.201647
0.199182
0.199839
0.200332
0.199346
0.201319
0.201154
0.199018
0.198196
0.200332
0.19836
0.198196
0.198853
0.199346
0.200004
0.200497
0.199346
0.197374
0.198031
0.200168
0.197867
0.196059
0.201154
0.200661
0.201812
0.200332
0.200661
0.198031
0.195566
0.197703
0.199018
0.198031
0.19836
0.201812
0.202305
0.201319
0.198689
0.203126
0.200661
0.203291
0.200332
0.202469
0.199182
0.199182
0.198524
0.200825
0.199018
0.199018
0.198853
0.199182
0.200497
0.19721
0.201976
0.199018
0.200497
0.199675
0.203455
0.201812
0.200168
0.200004
0.200332
0.197703
0.199839
0.198689
0.200332
0.197703
0.199675
0.197045
0.197045
0.199182
0.198031
0.199018
0.196881
0.201154
0.200661
0.200497
0.200168
0.19573
0.199675
0.200332
0.198524
0.197538
0.202962
0.19721
0.200497
0.194416
0.198196
0.198689
0.197703
0.200497
0.201319
0.199346
0.201812
0.200004
0.198031
0.201483
0.200825
0.198196
0.198196
0.200332
0.197045
0.199182
0.195895
0.198524
0.198853
0.199182
0.197703
0.202305
0.198031
0.198524
0.201319
0.197867
0.199675
0.196881
0.199346
0.195402
0.197538
0.197374
0.199675
0.195566
0.196388
0.199675
0.200661
0.199675
0.200825
0.19836
0.197867
0.201647
0.201319
0.204113
0.198689
0.200825
0.200004
0.199839
0.199839
0.202633
0.200825
0.199018
0.200332
0.200497
0.200004
0.198031
0.200004
0.199018
0.200497
0.199182
0.203126
0.203291
0.198689
0.200661
0.198689
0.198853
0.197374
0.197538
0.198196
0.197703
0.196223
0.200497
0.198524
0.199346
0.199346
0.200004
0.200661
0.198031
0.199675
0.200661
0.198524
0.199346
0.197538
0.197703
0.197538
0.196552
0.197374
0.197374
0.19721
0.198524
0.19573
0.203291
0.201483
0.203126
0.202962
0.199511
0.200168
0.200004
0.199675
0.199018
0.199346
0.196717
0.196881
0.199182
0.19721
0.199675
0.197703
0.199346
0.196388
0.199675
0.199182
0.20099
0.198524
0.199675
0.199346
0.199511
0.199182
0.197867
0.201812
0.197703
0.198196
0.198853
0.198196
0.197703
0.197374
0.198853
0.203455
0.199182
0.199675
0.199182
0.197374
0.198524
0.196717
0.198031
0.195895
0.19836
0.199182
0.200168
0.198524
0.199675
0.19836
0.201319
0.20099
0.199839
0.200168
0.197538
0.198853
0.200825
0.200497
0.198031
0.200332
0.195073
0.197703
0.199018
0.200497
0.196717
0.197867
0.198689
0.198689
0.199675
0.199182
0.200497
0.198853
0.200004
0.198524
0.19836
0.194909
0.197374
0.197538
0.198689
0.200497
0.200168
0.197703
0.199182
0.197045
0.196552
0.199839
0.199346
0.199511
0.198524
0.197374
0.196388
0.198196
0.198853
0.197374
0.196223
0.198196
0.198853
0.19836
0.19836
0.198031
0.20099
0.20099
0.202305
0.200168
0.200661
0.198524
0.198031
0.19836
0.197703
0.199511
0.198524
0.19836
0.200332
0.200004
0.19836
0.203784
0.19836
0.197538
0.202633
0.197867
0.19721
0.199839
0.196881
0.199839
0.199839
0.19836
0.195895
0.196552
0.197045
0.19836
0.199675
0.197703
0.199182
0.197703
0.201319
0.202469
0.19836
0.195237
0.192772
0.194087
0.196881
0.19573
0.197703
0.19836
0.199511
0.200168
0.200004
0.200004
0.199839
0.192115
0.198524
0.200004
0.199675
0.199182
0.198196
0.200004
0.198031
0.199182
0.199182
0.199675
0.193429
0.200661
0.201976
0.199675
0.19721
0.190142
0.191621
0.179623
0.091528
0.091035
0.082488
0.078873
0.087912
0.088898
0.092843
0.077229
0.036304
0.018554
0.012965
0.006391
0.008857
0.009021
0.005569
0.005898
0.007049
0.010007
0.002118
0.002611
0.006556
0.010171
0.009843
0.006884
0.009185
0.013459
0.008692
0.005076
0.005241
0.005405
0.004748
0.003761
0.010829
0.014609
0.018718
0.011158
0.016417
0.005076
0.009021
0.009021
0.008035
0.005405
0.003761
0.005569
0.005076
0.001296
0.002447
0.006884
-0.000347
0.004255
0.003761
0.002775
0.000967
0.002282
0.001296
0.002282
0.001789
0.001954
0.003597
0.000474
0.001954
0.001625
0.002775
0.004419
0.00146
0.001954
0.004583
0.005898
0.00935
0.008692
0.002118
0.001625
0.002611
0.002611
0.007213
0.011651
0.006556
0.004748
0.001625
0.002611
0.002118
0.00146
0.003433
0.000146
0.001789
0.002447
0.001625
0.003268
0.001296
0.001296
0.000639
0.002611
0.002282
0.000803
0.002118
-0.003142
0.002118
0.000967
0.001789
0.001789
0.002611
0.002611
0.005405
0.002447
0.001954
0.000639
0.004419
0.003597
0.000146
0.001296
0.002447
0.00294
-0.000841
0.004748
0.000803
0.00409
0.00294
0.007377
0.00672
0.009185
0.00672
0.004583
0.00672
0.011815
0.019375
0.020855
0.0271
0.0271
0.022169
0.009843
0.004912
0.009678
0.009678
0.006391
0.002447
0.002611
0.001132
0.001625
0.001789
0.004748
0.001296
0.003268
0.003104
0.002775
0.001625
-0.000841
0.000803
0.002447
0.002118
0.005076
0.006062
0.002282
0.001296
0.003104
0.000967
-0.000183
0.001954
0.000967
0.002447
-0.001169
0.001132
-0.001334
0.002447
0.001296
0.001789
0.002447
0.001296
0.006062
0.005898
0.003597
0.003433
0.004419
0.004583
0.000803
0.000967
0.001625
0.000803
0.000639
-0.001498
0.002447
0.001296
0.000639
0.000967
0.001296
0.000803
0.000146
0.001132
0.00146
0.00146
-0.000512
-1.9e-05
-0.000183
0.000146
-1.9e-05
0.000474
0.000146
0.000474
-0.000347
-1.9e-05
-0.000347
-0.000347
-0.000512
0.000639
-0.000512
0.000146
0.000474
0.000146
0.00031
-0.000183
-0.000512
-0.000512
-0.000512
-0.000841
0.000474
-0.000183
0.00031
-1.9e-05
-0.000183
-1.9e-05
0.000146
-0.000347
-0.000183
-0.000183
-0.000347
0.000146
0.000474
0.000146
0.000146
0.000639
0.000146
-0.000347
-0.000347
-0.000347
-1.9e-05
0.002282
0.004912
0.007049
0.008857
0.015431
0.024635
0.031702
0.038934
0.045672
0.050932
0.05652
0.065395
0.067861
0.074764
0.08216
0.084789
0.088405
0.092021
0.100403
0.100568
0.104841
0.10895
0.112237
0.115031
0.119469
0.121277
0.125057
0.129495
0.130645
0.135576
0.137877
0.139192
0.140013
0.143794
0.144122
0.14971
0.148231
0.15119
0.154148
0.154641
0.155299
0.159079
0.161873
0.163188
0.164831
0.164174
0.168612
0.167954
0.171406
0.171077
0.173871
0.171077
0.174035
0.174035
0.174035
0.177815
0.175843
0.180445
0.176829
0.178802
0.182911
0.181267
0.182253
0.187841
0.185212
0.186855
0.186198
0.18554
0.188827
0.186691
0.186033
0.189156
0.183239
0.187184
0.189814
0.188499
0.189814
0.189485
0.188663
0.191128
0.190964
0.192115
0.194909
0.193101
0.193265
0.191128
0.193594
0.193101
0.192443
0.190964
0.189485
0.195073
0.193922
0.192772
0.190471
0.196388
0.194744
0.196552
0.195402
0.195566
0.197867
0.198196
0.196717
0.194251
0.196388
0.194416
0.196717
0.194744
0.197374
0.194909
0.196717
0.195895
0.196717
0.197045
0.19721
0.192772
0.192936
0.199018
0.194744
0.19721
0.197374
0.198031
0.195402
0.197703
0.19573
0.197703
0.196881
0.193101
0.199018
0.197045
0.199018
0.199182
0.197538
0.197538
0.199182
0.193594
0.196717
0.196059
0.195073
0.196388
0.19573
0.200004
0.197374
0.198196
0.195895
0.197538
0.196717
0.199511
0.199511
0.196552
0.199839
0.199182
0.197703
0.200497
0.199182
0.199346
0.191621
0.195402
0.196388
0.196223
0.194909
0.199675
0.198196
0.199018
0.200168
0.199018
0.199182
0.198689
0.200497
0.196881
0.199675
0.197374
0.199839
0.197703
0.199018
0.196059
0.199675
0.203784
0.199839
0.200332
0.19836
0.200004
0.194744
0.202633
0.196223
0.19721
0.195566
0.200497
0.197045
0.196717
0.199018
0.198524
0.199346
0.19836
0.197703
0.19836
0.198031
0.197867
0.203291
0.196552
0.198689
0.198853
0.199346
0.200004
0.198031
0.200004
0.204113
0.202962
0.199018
0.203291
0.198689
0.199346
0.198196
0.199018
0.198524
0.200004
0.200004
0.199346
0.198689
0.197703
0.200825
0.199018
0.199182
0.198853
0.199346
0.200825
0.198524
0.197703
0.199675
0.199018
0.198196
0.199346
0.19836
0.197374
0.199018
0.197045
0.196059
0.19573
0.19721
0.198196
0.197045
0.199511
0.200168
0.200168
0.196552
0.198689
0.198853
0.199018
0.196717
0.199511
0.19836
0.198031
0.198031
0.200497
0.200332
0.198853
0.195566
0.199675
0.200332
0.196881
0.201319
0.199182
0.198524
0.19836
0.201483
0.19721
0.199839
0.197867
0.198031
0.19836
0.197045
0.197867
0.198689
0.199018
0.199346
0.198524
0.195237
0.204277
0.199182
0.19836
0.199346
0.197703
0.196881
0.199511
0.19836
0.196223
0.196059
0.192772
0.198196
0.197867
0.195895
0.197374
0.197867
0.20214
0.199018
0.197374
0.199182
0.197867
0.198031
0.196223
0.197538
0.198031
0.197374
0.198689
0.19573
0.200168
0.198524
0.196059
0.196881
0.196059
0.197538
0.198689
0.198196
0.198689
0.19836
0.198853
0.200825
0.199018
0.197867
0.19573
0.197867
0.196223
0.199346
0.197538
0.19836
0.196388
0.203126
0.196223
0.197538
0.199346
0.197045
0.19836
0.197867
0.200168
0.198031
0.200661
0.196717
0.196881
0.197045
0.19836
0.194087
0.195566
0.19721
0.198524
0.197374
0.198524
0.199839
0.198853
0.198031
0.199839
0.199182
0.198031
0.197703
0.19836
0.198689
0.19573
0.200497
0.199675
0.200825
0.197867
0.199018
0.198524
0.196388
0.197538
0.200004
0.198196
0.197867
0.199182
0.19836
0.200332
0.197538
0.198689
0.196881
0.194744
0.196552
0.20099
0.198853
0.195895
0.202962
0.200825
0.200497
0.20099
0.20099
0.199346
0.190307
0.195895
0.198853
0.19573
0.196717
0.19573
0.20099
0.199675
0.197538
0.198853
0.198196
0.190471
0.196881
0.198853
0.199675
0.199675
0.199182
0.20099
0.200332
0.199839
0.19836
0.20099
0.191128
0.195895
0.200332
0.198689
0.19836
0.198689
0.199346
0.198853
0.199346
0.199182
0.199839
0.196552
0.199346
0.197703
0.197867
0.19836
0.19836
0.198689
0.19721
0.195566
0.195895
0.199511
0.198196
0.195566
0.195895
0.197867
0.197045
0.200332
0.199511
0.196223
0.19836
0.199675
0.198853
0.20362
0.195402
0.19836
0.197867
0.198524
0.198689
0.198524
0.200825
0.198196
0.199346
0.199511
0.205592
0.197538
0.198689
0.200168
0.198689
0.198689
0.197703
0.198524
0.193594
0.200004
0.199839
0.198853
0.198031
0.199182
0.197703
0.198689
0.200168
0.198853
0.199839
0.201154
0.198524
0.197867
0.200168
0.196059
0.195895
0.198524
0.200497
0.200825
0.198689
0.202305
0.201319
0.198031
0.199675
0.200004
0.198689
0.199018
0.197538
0.196717
0.19836
0.197867
0.196552
0.201154
0.198524
0.199182
0.198524
0.200332
0.198031
0.197867
0.198689
0.196717
0.199182
0.198853
0.202305
0.200332
0.199346
0.201154
0.200168
0.198031
0.202305
0.198196
0.19836
0.197867
0.200661
0.200497
0.198031
0.198524
0.201647
0.196059
0.198031
0.198524
0.198524
0.197867
0.195402
0.201976
0.201976
0.201647
0.199182
0.201647
0.198689
0.198524
0.196223
0.196717
0.198031
0.199839
0.196059
0.193429
0.197867
0.195895
0.197374
0.196881
0.200497
0.19836
0.199675
0.199346
0.19836
0.200825
0.200168
0.199182
0.19836
0.199018
0.196552
0.19836
0.193101
0.198031
0.196552
0.195566
0.199182
0.200661
0.200168
0.201976
0.199675
0.199511
0.199839
0.19836
0.199018
0.198196
0.199675
0.196717
0.199511
0.198031
0.196717
0.198196
0.196388
0.201319
0.198689
0.197045
0.201319
0.197703
0.200168
0.197045
0.198196
0.198853
0.200168
0.198031
0.19721
0.199182
0.196223
0.197374
0.193922
0.199511
0.193594
0.196881
0.198031
0.201647
0.198689
0.198689
0.200004
0.197867
0.200497
0.197703
0.199839
0.199511
0.195402
0.198196
0.19836
0.196881
0.198689
0.197867
0.200497
0.200825
0.199018
0.201319
0.200168
0.201154
0.19836
0.200332
0.199839
0.19836
0.197538
0.197703
0.198031
0.195895
0.197374
0.198689
0.195073
0.196881
0.197703
0.197374
0.19721
0.19573
0.202798
0.201319
0.199346
0.199675
0.198196
0.197538
0.195566
0.199182
0.19721
0.194087
0.195073
0.199346
0.195402
0.198524
0.199018
0.199018
0.198689
0.199839
0.198031
0.198689
0.199675
0.20099
0.199511
0.199182
0.197703
0.199346
0.198853
0.197374
0.20099
0.201483
0.201154
0.197045
0.200332
0.200825
0.199182
0.198853
0.202469
0.198689
0.20099
0.198689
0.200004
0.19836
0.198196
0.19721
0.19573
0.196059
0.196388
0.201647
0.196552
0.19721
0.200168
0.202633
0.196223
0.199346
0.197703
0.199346
0.196881
0.197538
0.200168
0.193594
0.197374
0.195895
0.200497
0.198853
0.19836
0.196717
0.197867
0.200497
0.197374
0.196881
0.19836
0.199182
0.199182
0.199018
0.198853
0.199182
0.19836
0.200004
0.199018
0.200168
0.199675
0.200497
0.198196
0.199182
0.199018
0.197538
0.200661
0.199346
0.200332
0.199675
0.19836
0.199346
0.200825
0.197045
0.197045
0.19836
0.198524
0.195895
0.198689
0.196552
0.19721
0.195073
0.197374
0.199511
0.19573
0.197374
0.199839
0.19836
0.19458
0.199675
0.196881
0.201483
0.198689
0.199346
0.197703
0.198853
0.197703
0.199511
0.199182
0.193594
0.197703
0.198853
0.197867
0.199018
0.200004
0.198853
0.20099
0.197703
0.201647
0.197703
0.200168
0.199839
0.197867
0.196881
0.196552
0.199675
0.199346
0.199346
0.198031
0.199675
0.197538
0.198853
0.199346
0.199675
0.197045
0.196388
0.199675
0.19721
0.198689
0.199018
0.198689
0.197538
0.19836
0.198689
0.199511
0.195402
0.199511
0.196388
0.198524
0.197703
0.200004
0.200497
0.199346
0.198689
0.19721
0.198524
0.199182
0.200661
0.201319
0.200497
0.197703
0.200168
0.197867
0.198853
0.198524
0.198524
0.202305
0.199182
0.19836
0.202962
0.201154
0.200004
0.200332
0.198196
0.198853
0.198031
0.201319
0.19836
0.197374
0.19721
0.198031
0.19836
0.197703
0.201812
0.19573
0.197538
0.199182
0.199346
0.197867
0.199839
0.197867
0.198689
0.200168
0.20099
0.200825
0.199346
0.196552
0.198031
0.196059
0.196059
0.199182
0.195895
0.19721
0.197045
0.200497
0.198031
0.200332
0.20099
0.201319
0.198196
0.199346
0.198524
0.199182
0.197867
0.19836
0.19836
0.19836
0.201319
0.199839
0.199346
0.198689
0.200332
0.198689
0.200168
0.202305
0.198689
0.203948
0.199675
0.199675
0.198031
0.196717
0.197538
0.198524
0.197045
0.199182
0.201647
0.199346
0.199511
0.199675
0.201319
0.199346
0.199018
0.199675
0.200004
0.199346
0.196552
0.196059
0.19458
0.196717
0.198196
0.197703
0.19721
0.197045
0.199182
0.197867
0.196717
0.198524
0.202962
0.200497
0.200168
0.201647
0.200332
0.199511
0.198853
0.197867
0.198031
0.199346
0.19458
0.198524
0.196223
0.196388
0.19836
0.199839
0.200332
0.200332
0.199675
0.20099
0.200004
0.19836
0.199182
0.197867
0.20099
0.196552
0.201154
0.199839
0.199675
0.198524
0.199346
0.198524
0.195566
0.199018
0.202305
0.197045
0.201319
0.199839
0.193594
0.196223
0.194909
0.196059
0.19721
0.197374
0.198196
0.198853
0.197703
0.197538
0.200825
0.19573
0.19721
0.200332
0.197703
0.199346
0.199018
0.198689
0.200497
0.198524
0.200332
0.19721
0.197374
0.194416
0.197045
0.196717
0.197703
0.195566
0.200168
0.200497
0.199839
0.199346
0.199675
0.200825
0.196717
0.200168
0.197538
0.198524
0.195237
0.196059
0.198689
0.199839
0.19721
0.200004
0.19836
0.198853
0.199839
0.198031
0.19836
0.196059
0.19721
0.196881
0.201976
0.199018
0.198524
0.198524
0.198196
0.196881
0.198689
0.197703
0.199018
0.19836
0.197374
0.200004
0.197867
0.198689
0.197867
0.198853
0.199018
0.20099
0.198853
0.198853
0.199182
0.201647
0.200825
0.19836
0.199839
0.198524
0.199346
0.197538
0.199346
0.199346
0.196881
0.199839
0.200332
0.198031
0.201483
0.196881
0.199182
0.197538
0.19573
0.19836

Kurve 3

0.001789
0.002447
0.005076
0.001789
0.002775
-0.000841
0.001132
-0.000347
0.00146
-1.9e-05
0.000639
-0.001991
0.000803
0.002118
0.000146
-0.002484
0.001789
0.003597
0.000639
0.003761
0.001625
0.001789
0.001296
-0.000512
0.000146
0.000146
-0.001169
0.000474
-0.001662
0.000967
0.000967
-0.000183
0.003104
0.001625
0.003268
-0.001334
0.002282
-0.001498
-0.002155
-0.000183
0.001789
-0.002484
0.002447
-0.000347
0.003597
0.000639
0.000803
0.00146
-0.00232
0.00146
0.000474
0.001625
-0.000841
0.003268
0.001132
0.00146
0.001132
0.000967
-0.002977
-0.000841
-0.001827
-0.001005
-0.002813
-0.002813
0.000639
-0.000841
-0.000841
0.000967
0.001954
0.004419
0.002447
0.002282
0.003104
0.001625
-0.000512
0.001296
0.000639
-0.000183
0.000474
0.001625
-0.000676
0.002282
-0.000347
0.00294
0.00031
-0.000183
0.00031
0.002282
-0.003306
0.003104
0.00409
-0.000512
0.001789
0.001296
-0.002484
-0.002648
-0.001169
-0.000841
0.000639
0.000474
0.00031
0.000474
0.00031
0.00031
0.001954
0.001132
0.002118
-0.001005
0.000474
0.002447
-0.000183
0.000967
-0.001169
-0.000676
0.00031
0.000803
-0.00232
0.000639
-0.000347
0.000639
0.000803
0.002611
0.00294
0.004748
0.002282
0.001625
-0.000183
0.001132
0.00031
0.000146
0.00146
0.000146
0.002447
-1.9e-05
0.000967
-0.000676
0.000639
0.001789
0.000967
0.005405
0.001625
0.003268
0.002447
0.002611
0.000967
0.003597
0.000803
0.004419
0.000474
0.002282
-0.000183
-0.00347
0.000146
0.000639
0.001132
0.00146
0.00294
-0.000183
0.001954
-0.000183
0.002282
0.00146
0.000474
-0.004292
-0.001662
-0.000512
-0.001498
-0.000841
-0.001498
0.00031
-0.001498
0.000967
0.003268
0.002775
0.003268
0.006227
0.001625
0.003268
0.002611
0.001954
0.000474
0.002118
-1.9e-05
-0.000841
-0.000512
0.000639
0.000146
-1.9e-05
0.006062
0.003433
0.000146
0.001789
0.002775
0.001625
0.002447
-1.9e-05
0.007213
-0.00232
0.000146
0.001132
-1.9e-05
-0.001827
0.000967
0.001789
-0.001827
0.002118
0.000474
0.000967
0.001296
0.002775
0.000474
0.002611
-0.001334
-0.001005
-0.001005
-0.00232
0.00146
-0.000512
0.00146
0.000803
0.001132
-0.000347
0.006062
0.002447
0.002447
0.000146
0.003268
0.001296
0.002447
0.002282
0.001296
0.00031
0.001625
0.002447
-1.9e-05
0.001789
0.000146
0.00294
0.002611
0.003104
0.000639
0.002775
0.001625
0.002118
0.001954
0.001132
-0.001662
-0.001005
-0.002155
-0.001169
-0.001005
0.001954
0.001954
0.000803
0.001789
-0.000676
0.00146
0.000639
0.000639
-0.000676
0.003433
0.002118
-0.000347
0.00146
-0.001334
0.000639
0.000639
0.001625
-1.9e-05
0.000803
0.000474
0.001789
0.002118
0.003268
0.000803
0.000803
0.001625
-0.000183
-0.000183
0.000474
0.000474
0.000474
0.002447
0.00031
0.003597
0.00031
0.00146
0.000967
0.005241
0.002118
0.00031
0.000146
-0.000676
0.003104
-1.9e-05
0.000639
0.00031
0.000474
-0.000347
0.004583
-0.000347
0.001954
0.000803
0.001296
0.003104
0.001132
-0.000183
-1.9e-05
-0.00347
0.001625
-0.00232
-0.000676
-0.000512
-0.001334
0.001625
0.000146
0.002118
-0.001334
0.000474
0.003104
0.000639
0.000146
0.003433
0.00031
0.002282
0.000474
0.00031
0.002447
-0.001005
0.002118
-0.000512
-0.001498
-0.000841
0.001625
0.000967
0.001954
0.000967
0.00146
0.005076
0.003104
0.000474
0.00146
-0.004785
-0.00232
0.002282
-0.005936
0.000146
-0.002484
0.000146
0.001954
0.000967
-0.000183
0.003104
-0.006922
-1.9e-05
0.000967
-0.000512
0.001132
-0.001169
0.000474
-0.001498
-0.003963
-0.000512
-0.001662
-0.011195
-0.003963
-0.001498
-0.002977
-0.001334
0.001132
0.002282
0.002775
0.003926
-0.000183
0.000803
-0.006264
0.00031
-0.002484
0.000639
0.000146
0.00031
-0.000512
0.00146
0.001132
0.001296
0.001296
0.00031
0.001296
-0.000183
0.004912
-0.000512
0.002118
0.000639
0.003926
-0.002155
0.000474
-0.001005
0.002447
-0.000841
-0.000512
-0.003635
-0.003799
0.001789
-0.000512
0.003268
0.002282
0.000967
0.000803
0.005898
-0.001662
0.000146
-0.00347
-0.002155
-0.003306
-0.001334
-0.001334
-0.001662
-1.9e-05
0.001954
0.005569
0.00031
-0.000183
0.001296
-0.00232
-0.002813
0.001789
0.001296
0.000639
0.001296
-0.000512
0.00294
-0.000183
0.001954
-0.001169
-0.000347
-0.001169
0.001789
-0.002155
-0.001498
-0.000512
0.001296
0.00146
0.000803
0.001296
0.001625
0.001625
-0.000347
-0.000183
0.00031
-0.00347
-0.002155
-0.000512
0.00031
-0.000676
-0.001991
-0.001169
-0.000347
0.001789
0.001789
0.004912
-0.000183
0.001296
0.000146
0.000803
-0.002484
-0.00232
-0.000676
-0.000183
0.001296
-0.001498
0.001296
-0.001169
-0.004621
0.000639
0.001296
-0.001169
0.002118
0.001954
0.002282
0.00146
-0.001169
0.002447
0.001954
-0.000183
0.001625
0.002775
-0.00232
0.002775
-0.004128
-0.002484
-0.000183
-0.000512
-0.000841
0.00294
0.001789
0.00031
0.002611
-0.001169
0.001789
-0.001334
0.000967
-0.001991
-1.9e-05
-0.000183
0.000967
-0.000676
0.000474
0.000967
0.002118
0.001296
0.000639
0.001132
0.000146
-0.000841
0.000639
0.000803
-0.002484
-1.9e-05
-0.000676
-1.9e-05
-0.001169
-0.001005
0.00031
0.00031
-0.000676
0.000474
0.002775
0.002118
-0.000512
-0.000676
0.002447
0.000146
0.001625
-0.001334
0.002282
-0.001334
0.000474
-0.000676
0.003104
-0.000347
0.000803
-0.000347
-0.000676
0.000639
0.00031
0.000474
-0.001827
0.003597
0.000474
0.000474
0.000639
0.000474
0.003268
0.001132
-0.000841
0.000803
0.000146
-0.002484
0.000803
0.000146
0.00031
-0.000512
0.002447
-0.000676
0.001296
-0.003963
-0.001498
-0.002813
-0.000347
0.002282
0.001789
0.001296
-1.9e-05
0.003268
0.000639
-0.000676
-0.001169
0.00146
-0.001662
-0.000676
0.000146
0.001954
-0.000512
0.003268
0.00031
-0.000347
0.000967
-0.000512
0.001296
-0.001005
-0.000347
0.000639
0.00409
0.00031
0.001132
-0.001005
-0.001169
-0.001005
-0.001498
-0.001005
0.00031
-0.001498
0.004255
0.004583
-0.001498
0.002447
0.000474
-0.004292
-0.001334
0.000967
-0.003799
-0.001169
-0.003306
-0.001991
-0.002648
-0.003306
-0.001169
0.001789
-0.001991
0.000146
0.001132
-0.003142
-0.000183
-0.002484
0.001132
-0.000676
0.000474
-0.001334
-0.001005
-0.001334
-0.001498
-0.001334
-0.000183
-0.000676
-0.000347
0.001132
0.001296
0.001625
0.000967
-0.001169
-0.003142
0.000146
-0.000841
0.000474
-0.001169
-0.001498
-0.002813
0.000803
-0.001991
-0.001005
0.002118
-0.001334
0.001296
-0.002484
0.001296
-0.000512
-0.000183
-0.000841
0.001132
0.000474
-0.001005
-0.001005
-0.004456
-0.001005
-0.004292
-0.003306
-0.001334
0.000803
-0.000347
0.00146
0.002118
0.003104
0.001132
0.005241
0.000146
0.00031
0.000967
0.000639
-0.001827
-1.9e-05
0.00146
-0.001334
-0.002484
-0.001498
-0.001005
-1.9e-05
-0.000676
-0.000841
0.000474
-1.9e-05
0.006062
0.001296
0.001789
0.001954
-0.003799
-0.001662
-0.001169
-0.001827
-0.001334
0.000146
-0.003142
-1.9e-05
-0.001334
0.002282
-0.002484
-0.002648
0.001789
0.001789
0.000474
0.001789
-1.9e-05
-0.002155
-0.001991
-0.001662
0.001132
-0.000676
0.00146
-0.004949
0.000803
-0.00347
0.001789
0.002118
0.000967
0.002282
0.001789
0.001954
-0.000183
0.003761
-0.001662
0.002118
-0.00232
-0.000347
-0.000183
-0.001334
0.000146
0.000803
-0.001827
-0.000347
0.000803
-0.000183
0.001625
0.002775
-0.000841
-0.003306
-0.000841
-0.004785
0.003104
-1.9e-05
0.001625
0.00031
-0.000841
0.003104
0.012965
0.018389
0.026278
0.032688
0.041892
0.048631
0.053069
0.060136
0.065231
0.071641
0.074435
0.080023
0.082488
0.084296
0.09235
0.097774
0.10139
0.108293
0.11158
0.114702
0.11914
0.120948
0.126043
0.127029
0.128837
0.136233
0.138205
0.137548
0.143465
0.142643
0.147245
0.147409
0.151025
0.152669
0.154148
0.156613
0.153655
0.162366
0.159736
0.166146
0.162366
0.166804
0.168447
0.164338
0.167132
0.171406
0.168612
0.172885
0.175021
0.175515
0.176336
0.177651
0.162366
0.147245
0.120126
0.099253
0.081009
0.070655
0.065231
0.063094
0.071477
0.074599
0.081338
0.08216
0.082653
0.073449
0.066217
0.060629
0.062108
0.052904
0.049288
0.045344
0.047973
0.048138
0.050439
0.045508
0.044686
0.031702
0.021512
0.025128
0.020855
0.007049
0.005898
0.005898
0.008857
0.013294
0.013623
0.017239
0.022991
0.021841
0.025128
0.026936
0.03236
0.035318
0.023977
0.015102
0.004748
0.002447
0.004419
0.004912
0.003926
0.006227
0.000639
0.006391
0.006556
0.011158
0.006884
0.011815
0.003761
0.004583
0.008035
0.012965
0.015266
0.009843
0.008363
0.005898
0.008528
0.006062
0.005076
0.004748
0.009678
0.006556
0.003926
0.005569
0.002282
0.001296
0.000803
0.001132
0.000803
0.000967
0.001625
0.001296
0.000474
0.001954
0.001296
0.005405
0.002775
0.001296
0.002447
-0.001005
0.004255
-0.000183
-0.000841
0.00031
0.003761
0.001789
0.003761
0.003104
0.000967
0.000146
0.00409
0.00294
0.00294
0.002611
0.007706
0.009678
0.005569
0.002775
0.003433
0.003433
0.002775
0.005734
-0.001498
0.00146
0.002282
0.003433
0.002611
0.002118
0.003104
0.010007
0.010664
0.008199
0.002447
0.006062
0.005734
0.003926
0.004912
0.00409
0.002282
0.003926
0.001132
0.004912
0.001625
0.004255
0.006391
0.002447
0.003926
0.003597
0.010336
0.016088
0.01954
0.024142
0.030059
0.023484
0.018389
0.021183
0.015595
0.024142
0.005076
0.00787
0.008692
0.009514
0.009678
0.009678
0.009185
0.008363
0.009514
0.00409
0.002282
0.005734
0.008528
0.006391
0.008035
0.005569
0.002611
-0.001005
0.00146
0.001625
0.003104
0.005241
0.006391
0.002118
0.004255
0.004419
0.001625
0.00146
0.00031
0.001296
0.000146
-0.000183
-0.000347
0.001296
-1.9e-05
0.000146
0.000803
0.000639
-0.000347
0.000967
0.000474
-0.000841
-0.000512
-1.9e-05
0.000474
0.000146
0.00031
-1.9e-05
-0.000512
-0.000512
-0.000347
-0.000841
-0.000347
0.000146
0.000146
0.000146
-1.9e-05
0.000967
-1.9e-05
0.000146
-0.000183
-0.000347
-1.9e-05
-0.000512
-0.000183
0.000146
-1.9e-05
0.000639
0.000146
-1.9e-05
-0.000512
-0.000183
-0.000347
-1.9e-05
-0.000347
0.00031
-1.9e-05
0.000146
0.000474
0.00031
0.000146
-0.000347
-1.9e-05
-0.000512
-0.000183
-0.000347
-1.9e-05
0.000474
0.000474
0.000146
0.000967
0.000146
0.000146
0.00031
-0.000512
0.001132
-0.000841
0.003433
0.006227
0.005405
0.009021
0.017732
0.026771
0.031538
0.038441
0.044029
0.052247
0.055041
0.062108
0.069176
0.074271
0.077722
0.084789
0.092186
0.092679
0.095473
0.100403
0.105005
0.108128
0.109772
0.115195
0.120948
0.121605
0.12933
0.130974
0.131467
0.135904
0.140506
0.136069
0.141657
0.144615
0.147409
0.150861
0.150532
0.15497
0.154806
0.157107
0.157764
0.160558
0.153984
0.163188
0.160887
0.164338
0.166146
0.169433
0.169105
0.172885
0.173707
0.171406
0.176172
0.166146
0.176665
0.177158
0.178473
0.178637
0.179295
0.181596
0.182911
0.181103
0.182911
0.182253
0.174693
0.180445
0.17798
0.183568
0.181431
0.184883
0.186526
0.189156
0.190307
0.188499
0.191786
0.188827
0.186691
0.191293
0.190471
0.189156
0.190964
0.190471
0.193758
0.1908
0.194416
0.192608
0.196881
0.191128
0.193922
0.193758
0.194416
0.194744
0.195402
0.196059
0.19458
0.193758
0.194087
0.200168
0.190964
0.193922
0.192443
0.192443
0.193758
0.197045
0.196717
0.198853
0.195895
0.196881
0.201154
0.196059
0.196223
0.194251
0.196223
0.195237
0.196717
0.192443
0.193758
0.195237
0.196388
0.196388
0.195237
0.195566
0.203291
0.199511
0.198689
0.198031
0.199182
0.199182
0.195895
0.197703
0.199346
0.193429
0.197538
0.197703
0.196059
0.198524
0.194909
0.201483
0.198031
0.199346
0.199018
0.199346
0.199839
0.196059
0.201154
0.197703
0.199346
0.196388
0.198689
0.197703
0.199018
0.194416
0.198031
0.196552
0.197045
0.198524
0.198853
0.199182
0.197538
0.197867
0.197045
0.202305
0.197867
0.198689
0.194909
0.193758
0.196881
0.196552
0.195566
0.197867
0.200004
0.200168
0.200497
0.197703
0.197703
0.197045
0.199346
0.19573
0.201154
0.199511
0.197045
0.198853
0.200004
0.19721
0.197867
0.199018
0.19721
0.199675
0.196388
0.201154
0.198524
0.198031
0.193429
0.200168
0.196388
0.200004
0.200661
0.198524
0.197703
0.197703
0.199839
0.196223
0.194087
0.197045
0.196717
0.198031
0.199839
0.198689
0.197867
0.198524
0.199839
0.197867
0.200661
0.196388
0.200168
0.195402
0.200332
0.19573
0.196552
0.197703
0.199018
0.199018
0.198853
0.197703
0.197045
0.201154
0.201647
0.200497
0.199675
0.200332
0.198689
0.199346
0.20099
0.197867
0.198689
0.199675
0.198524
0.198689
0.200332
0.197867
0.198689
0.197045
0.199018
0.198524
0.201154
0.196552
0.200332
0.201812
0.201483
0.19836
0.200004
0.199839
0.196388
0.199675
0.198196
0.198689
0.197538
0.199675
0.197867
0.199511
0.199018
0.197045
0.201483
0.200497
0.199346
0.194251
0.201154
0.198853
0.19836
0.197703
0.199675
0.199346
0.196223
0.200168
0.202469
0.199346
0.199839
0.199511
0.200661
0.197867
0.20099
0.200004
0.200661
0.200004
0.199675
0.200332
0.197867
0.199675
0.197703
0.199839
0.199511
0.200004
0.200332
0.200661
0.199511
0.200004
0.198524
0.19836
0.199675
0.198196
0.202469
0.193265
0.197374
0.199675
0.19836
0.196223
0.198031
0.198689
0.197045
0.197867
0.198853
0.197374
0.197703
0.199675
0.199182
0.194744
0.193758
0.199675
0.196388
0.196717
0.196388
0.198524
0.196223
0.200168
0.199018
0.199346
0.198853
0.196388
0.201976
0.197374
0.19721
0.199346
0.199839
0.19836
0.199839
0.199182
0.200497
0.199675
0.200004
0.199018
0.198196
0.198524
0.199182
0.196881
0.197867
0.198031
0.198196
0.201812
0.199511
0.199839
0.199182
0.197703
0.199346
0.197045
0.198031
0.199018
0.199511
0.200168
0.198853
0.198689
0.200168
0.199018
0.201319
0.195237
0.197703
0.195895
0.193594
0.195237
0.19836
0.197703
0.200661
0.200168
0.200168
0.198853
0.200004
0.200825
0.199511
0.194909
0.19573
0.20099
0.197374
0.200497
0.199346
0.198031
0.19573
0.200332
0.199018
0.200332
0.198031
0.196552
0.198853
0.198031
0.200332
0.200004
0.199839
0.198853
0.200004
0.197538
0.200332
0.195402
0.196388
0.197374
0.198524
0.197538
0.201812
0.200825
0.199182
0.199675
0.199018
0.20099
0.197703
0.199346
0.200004
0.199018
0.19573
0.19573
0.199675
0.194416
0.195566
0.196717
0.201319
0.197867
0.200497
0.199511
0.202798
0.200497
0.200004
0.198689
0.202305
0.201976
0.199675
0.197374
0.200497
0.197538
0.19836
0.199839
0.199182
0.198689
0.201647
0.198196
0.200004
0.197867
0.199018
0.20099
0.198689
0.200825
0.199511
0.199511
0.198196
0.199018
0.197374
0.19721
0.198689
0.19721
0.198853
0.199018
0.200168
0.199182
0.200004
0.198524
0.200497
0.199511
0.199511
0.199839
0.19458
0.200004
0.19836
0.200661
0.197045
0.197703
0.19721
0.199511
0.198524
0.199511
0.197867
0.200661
0.199018
0.203948
0.201647
0.202633
0.200332
0.199346
0.200825
0.197703
0.198689
0.197703
0.200661
0.197703
0.201319
0.199839
0.200004
0.200332
0.20099
0.201319
0.200004
0.197867
0.201154
0.200332
0.198031
0.198524
0.20099
0.200004
0.199675
0.199182
0.198853
0.200497
0.197703
0.198689
0.19836
0.197374
0.199018
0.198031
0.199839
0.199018
0.199346
0.197538
0.197045
0.199839
0.198031
0.197045
0.19721
0.19573
0.20099
0.199018
0.199346
0.200004
0.198853
0.199182
0.200004
0.201647
0.19836
0.200004
0.19721
0.200497
0.200825
0.20099
0.197703
0.199675
0.198853
0.199511
0.198031
0.200661
0.200168
0.199182
0.198524
0.200497
0.199511
0.199675
0.200497
0.200168
0.200497
0.19836
0.199018
0.199018
0.197703
0.199182
0.199018
0.197867
0.199018
0.199675
0.197374
0.199182
0.198196
0.198689
0.194251
0.196717
0.198524
0.19458
0.19721
0.199346
0.201319
0.198853
0.199018
0.201154
0.200332
0.197045
0.196881
0.200004
0.199018
0.19836
0.198196
0.198853
0.199346
0.197374
0.200661
0.19573
0.199182
0.19721
0.200497
0.199511
0.199346
0.198524
0.202305
0.20099
0.197703
0.200004
0.19836
0.200332
0.19573
0.19721
0.19721
0.200168
0.200825
0.201483
0.199346
0.19836
0.19836
0.198689
0.195566
0.196717
0.200168
0.196881
0.199511
0.196881
0.197867
0.196552
0.199511
0.199346
0.19721
0.197703
0.200332
0.201647
0.198689
0.198853
0.197045
0.200497
0.199182
0.199182
0.197538
0.200004
0.198031
0.19458
0.196717
0.200168
0.196388
0.198524
0.199675
0.197703
0.19836
0.197867
0.199346
0.198524
0.19836
0.198689
0.200168
0.198196
0.200332
0.199839
0.199346
0.20099
0.200004
0.198524
0.200332
0.198689
0.198853
0.198689
0.199182
0.200004
0.199346
0.198524
0.199839
0.199018
0.197045
0.198853
0.19721
0.19573
0.195073
0.197374
0.200004
0.199675
0.198524
0.199839
0.200497
0.197867
0.201319
0.199018
0.200168
0.199182
0.199675
0.198031
0.199346
0.195402
0.20099
0.199346
0.200825
0.200004
0.200332
0.200497
0.200168
0.198689
0.19836
0.202305
0.19721
0.20099
0.199511
0.200825
0.200332
0.200004
0.199182
0.196059
0.200332
0.197703
0.200332
0.195895
0.198031
0.199018
0.197045
0.199182
0.204113
0.197703
0.199018
0.201647
0.201154
0.199018
0.198031
0.197045
0.195402
0.199018
0.193265
0.196881
0.198196
0.197538
0.198853
0.199675
0.19721
0.199839
0.199839
0.200004
0.199018
0.199839
0.200825
0.199018
0.200168
0.198196
0.199346
0.196881
0.198524
0.196717
0.20099
0.197703
0.199839
0.199182
0.200497
0.199182
0.199018
0.201319
0.197374
0.19721
0.195895
0.197538
0.197374
0.198853
0.199182
0.200168
0.197045
0.198196
0.197374
0.19836
0.200332
0.199018
0.19721
0.194909
0.200332
0.19721
0.194416
0.198689
0.196717
0.195895
0.196223
0.196552
0.199839
0.197867
0.200004
0.202962
0.200332
0.200332
0.200661
0.200661
0.196717
0.199182
0.199346
0.199675
0.198689
0.199018
0.199018
0.198853
0.197867
0.199018
0.197538
0.193101
0.197045
0.197538
0.20099
0.203948
0.202305
0.204277
0.203126
0.197703
0.199346
0.199018
0.187677
0.193594
0.199346
0.195402
0.197867
0.197538
0.198031
0.199182
0.198031
0.199182
0.197867
0.188827
0.197703
0.196881
0.193758
0.199346
0.198689
0.19721
0.198031
0.199018
0.198524
0.197374
0.187184
0.198524
0.199182
0.200168
0.199182
0.199511
0.198524
0.198853
0.20099
0.196881
0.199675
0.197045
0.197703
0.198853
0.197867
0.197374
0.198031
0.19836
0.199018
0.19836
0.199511
0.201154
0.200004
0.198689
0.199018
0.197703
0.197703
0.198853
0.197867
0.198196
0.199346
0.197374
0.198524
0.207893
0.19573
0.198196
0.197703
0.197374
0.199675
0.196717
0.199839
0.198031
0.196059
0.197374
0.200825
0.196223
0.196388
0.197374
0.199018
0.195566
0.198853
0.19721
0.195402
0.197538
0.197538
0.20214
0.197538
0.195895
0.19836
0.198196
0.19836
0.199675
0.19836
0.199839
0.199018
0.198524
0.198196
0.197703
0.199839
0.19836
0.195895
0.193922
0.194909
0.199346
0.197703
0.197374
0.199346
0.199182
0.199018
0.19836
0.19836
0.199839
0.198689
0.198524
0.198853
0.20099
0.199182
0.198031
0.19721
0.199018
0.197703
0.198524
0.19721
0.19458
0.194251
0.199839
0.19721
0.196881
0.199346
0.200661
0.201812
0.200168
0.203126
0.198853
0.197703
0.197374
0.198853
0.196059
0.199018
0.199511
0.201154
0.199182
0.197703
0.197867
0.201154
0.201154
0.197045
0.200661
0.200497
0.199675
0.198524
0.202962
0.198524
0.200661
0.19721
0.197703
0.197867
0.195237
0.201319
0.195895
0.199018
0.197867
0.201483
0.198031
0.200332
0.199839
0.199675
0.198689
0.197374
0.199018
0.199018
0.196059
0.196059
0.199675
0.195895
0.197703
0.198031
0.200004
0.198689
0.197374
0.197867
0.199018
0.200825
0.201483
0.201976
0.19836
0.200332
0.197703
0.198031
0.197703
0.199182
0.19573
0.198524
0.199346
0.19721
0.198196
0.198524
0.197374
0.199018
0.199675
0.199182
0.200661
0.196717
0.197538
0.196552
0.198196
0.19721
0.194909
0.195402
0.199675
0.195895
0.197538
0.196881
0.199018
0.198689
0.19836
0.198689
0.199346
0.199182
0.195566
0.198853
0.195237
0.197045
0.196388
0.196552
0.194087
0.198031
0.195566
0.201647
0.203455
0.197045
0.200332
0.197703
0.198524
0.197867
0.200825
0.19836
0.200661
0.198853
0.200661
0.199018
0.19836
0.196717
0.199182
0.197374
0.197374
0.198524
0.197045
0.200168
0.195073
0.199182
0.197045
0.199675
0.199346
0.198853
0.199018
0.19836
0.20099
0.197538
0.198031
0.198689
0.191457
0.198689
0.198689
0.196059
0.199675
0.197045
0.198524
0.198689
0.200497
0.199675
0.199346
0.19573
0.19721
0.198524
0.197045
0.196388
0.196717
0.194744
0.19721
0.198689
0.197703
0.199839
0.193922
0.196717
0.199018
0.198689
0.197374
0.201154
0.197703
0.199839
0.200332
0.199018
0.199346
0.199675
0.197867
0.197538
0.198031
0.194251
0.196388
0.19721
0.199018
0.195895
0.198196
0.194251
0.200661
0.198196
0.198196
0.199018
0.198689
0.198853
0.196552
0.200004
0.198524
0.194744
0.197867
0.19836
0.197867
0.196552
0.197867
0.201154
0.198524
0.198853
0.198196
0.198524
0.200004
0.198524
0.197703
0.196717
0.19836
0.198689
0.198853
0.198031
0.20099
0.196223
0.198853
0.199018
0.197703
0.199018
0.200004
0.19836
0.198689
0.200661
0.198689
0.198853
0.198689
0.199346
0.19836
0.200004
0.19721
0.201976
0.197538
0.198031
0.199346
0.197374
0.201812
0.201483
0.197703
0.200168
0.199018
0.199018
0.196881
0.198689
0.199346
0.198853
0.199182
0.196223
0.198689
0.19836
0.19721
0.198031
0.193758
0.196552
0.199346
0.190471
0.197867
0.201976
0.198031
0.20362
0.19836
0.201319
0.201154
0.202469
0.199675
0.198853
0.198689
0.197374
0.199018
0.197703
0.199675
0.199346
0.19836
0.197867
0.199346
0.19836
0.200004
0.19836
0.200004
0.199839
0.201319
0.202633
0.199346
0.199839
0.198524
0.19836
0.199346
0.19721
0.194909
0.198524
0.195895
0.19836
0.201319
0.20214
0.197703
0.200004
0.200004
0.197538
0.200661
0.198524
0.196881
0.197703
0.196717
0.195073
0.200004
0.194416
0.197703
0.193594
0.199182
0.199018
0.199511
0.200168
0.201319
0.198853
0.199839
0.203126
0.198031
0.201483
0.201319
0.197703
0.196552
0.198689
0.19721
0.19836
0.19836
0.198689
0.199018
0.199839
0.200168
0.200825
0.204113
0.199346
0.199675
0.20099
0.200661
0.197867
0.197045
0.195237
0.196223
0.196388
0.196059
0.198524
0.198031
0.198689
0.199346
0.199018
0.197538
0.200168
0.201647
0.200661
0.195402
0.200168
0.196223
0.19573
0.196552
0.200661
0.195237
0.19458
0.197045
0.199346
0.199675
0.199511
0.200332
0.198524
0.203291
0.200168
0.204113
0.199346
0.198524
0.198196
0.200168
0.197538
0.198853
0.200661
0.198031
0.197703
0.19721
0.199675
0.198031
0.200497
0.201976
0.201483
0.19721
0.202305
0.201812
0.198689
0.197703
0.19836
0.200825
0.201483
0.195237
0.199018
0.199182
0.197538
0.200497
0.200332
0.197703
0.198196
0.199511
0.198031
0.199182
0.197045
0.200661
0.197045
0.196552
0.198524
0.201647
0.196717
0.19573
0.199346
0.19721
0.198853
0.192772
0.200661
0.203948
0.201812
0.198031
0.201647
0.198196
0.19836
0.199018
0.198853
0.199182
0.195566
0.200004
0.198524
0.198031
0.198853
0.201976
0.198524
0.200825
0.199346
0.198196
0.200168
0.198689
0.199182
0.198689
0.20099
0.200004
0.200332
0.198031
0.19836
0.198689
0.19836
0.197374
0.199675
0.19721
0.198853
0.196881
0.198031
0.200332
0.194744
0.197538
0.198689
0.198196
0.196223
0.199182
0.199675
0.200168
0.198689
0.20099
0.199511
0.199511
0.199675
0.198196
0.19836
0.199182
0.197703
0.198853
0.202798
0.198524
0.201319
0.201976
0.200168
0.19836
0.200004
0.198689
0.199346
0.197045
0.200825
0.202305
0.199346
0.198689
0.198853
0.19836
0.199182
0.19836
0.197867
0.200825
0.195402
0.198196
0.197045
0.200661
0.198031
0.198689
0.197867
0.198196
0.197867
0.19721
0.19836
0.197045
0.198031
0.196388
0.198196
0.19458
0.195895
0.198196
0.200332
0.199018
0.201812
0.199839
0.198689
0.199182
0.200497
0.199675
0.199675
0.198689
0.197538
0.199675
0.194744
0.199839
0.199018
0.200497
0.197538
0.201154
0.198524
0.200168
0.20099
0.196059
0.201483
0.199675
0.199675
0.199346
0.199018
0.198689
0.198524
0.197374
0.198524
0.196059
0.197867
0.196059
0.197867

Kurve 4

0.002775
0.00409
0.003268
0.002447
0.000639
-0.000347
0.001296
0.000474
0.000146
0.003926
0.005734
0.00294
0.003433
0.003597
0.004748
0.00031
0.003761
-1.9e-05
0.002118
-0.001498
0.000967
-0.00232
0.00146
0.001625
0.003597
0.001132
-0.000183
0.002447
0.001625
-0.000347
0.000967
0.002775
0.001296
0.003268
0.001789
0.00294
0.00031
-0.002155
0.000639
-0.001334
-0.001169
-0.003635
0.000803
-0.000676
0.00146
0.000803
0.002282
0.003104
0.002118
0.000146
0.003104
0.00294
-0.000183
0.000639
-0.000512
0.000146
0.00031
0.003104
-0.000512
-0.00232
-0.001498
0.000803
0.001296
0.003268
0.00146
0.002775
0.001954
0.002447
0.004419
-0.002648
0.001132
-0.000512
0.00146
0.001132
-0.001662
0.001789
0.002775
0.00294
0.000639
0.002282
-0.002813
0.001954
0.000967
0.001132
-0.001169
0.001296
0.00146
-0.001334
-0.001827
-1.9e-05
-0.00232
-0.003306
-0.003142
0.001296
-0.000676
0.001296
0.001789
0.001789
0.002447
0.001296
0.003433
0.002118
0.000146
-0.000512
0.000803
-1.9e-05
0.001789
-0.001169
0.003761
0.001789
-0.000841
-0.00232
0.00031
-0.000512
0.000474
0.002118
0.001789
0.00031
0.000474
0.001625
-0.000183
0.002611
-0.001334
0.002611
0.001625
-0.000183
-0.000347
0.00294
0.001625
-1.9e-05
0.00146
0.002447
0.002775
-0.001498
-0.002155
-0.00347
0.00146
-0.000841
-0.00232
-0.002977
0.002282
0.005405
-0.000183
0.002447
0.001296
-0.000183
-0.000183
0.000146
-0.000347
0.000474
0.000639
0.000639
-0.000183
0.003433
-0.000676
0.00146
0.000474
0.001625
0.001625
0.001296
0.001954
0.004583
0.004912
0.002118
-0.000512
-0.001827
0.001789
-0.001169
-0.000183
-0.000512
0.000639
0.000474
0.002775
0.002775
0.001625
0.002447
0.000639
0.001296
-0.001005
0.000146
0.000474
0.00031
-0.000841
0.002447
0.000146
-0.001169
-0.001334
0.00294
0.000474
-0.00347
0.000474
-0.001334
0.001625
0.002447
0.000967
0.003433
0.002447
-0.000183
-0.001169
-0.005278
0.002775
0.001296
0.001132
0.001132
0.001296
0.00294
0.003268
0.002118
0.002118
0.002447
-0.003306
0.000803
-1.9e-05
0.000967
0.001954
-0.004785
0.001132
0.00146
-0.000841
-0.001169
0.001296
-0.007086
-0.000841
0.000803
0.000146
0.000474
0.002282
0.000146
0.002611
-0.001005
0.000803
0.00031
-0.009058
-0.001827
-0.000347
0.002282
-0.004785
-0.000676
-0.000347
-1.9e-05
-0.000676
0.000967
0.000967
-0.003963
-0.001498
0.001132
0.000803
-0.000676
0.002118
0.000639
0.00409
0.000474
-0.001334
0.000639
-0.001334
0.00146
0.000803
-0.000347
0.001625
0.000639
0.003433
0.001954
0.002282
0.000639
0.001296
-0.001991
-0.004292
-0.000676
-0.000183
-0.000676
-0.001005
-0.001662
0.001296
0.003433
0.000474
0.000146
0.004748
-0.000512
-0.000183
0.002118
-1.9e-05
0.000967
0.00146
0.001132
-0.001005
-0.000676
-0.000512
0.005898
-0.002648
-0.000841
0.003597
0.00031
0.001132
-0.000512
0.002282
-1.9e-05
0.00146
0.000474
0.008035
-1.9e-05
0.00031
-0.001169
0.000639
0.00146
-0.000347
0.002611
-1.9e-05
-0.000347
0.001625
0.003268
-0.001334
0.000803
-0.001334
0.002775
0.00294
0.003104
0.006884
0.002447
0.00146
-0.000512
0.002775
0.000146
0.000146
-0.001334
0.000967
-0.001827
-0.00347
0.000146
0.002282
0.001296
0.001296
0.002118
-0.001334
0.001132
0.001789
0.003761
0.001296
-0.004785
-0.001498
-0.000183
-0.002977
-0.001005
-0.001005
-0.001498
-0.001169
0.002118
0.001296
0.000967
0.000474
0.001954
0.00294
-1.9e-05
0.002775
0.002282
0.000967
0.000803
0.001132
-0.000183
-0.001991
-0.003142
-0.001498
0.000967
0.000803
0.000803
-0.000183
-0.001005
-0.000676
0.00409
0.001789
0.000803
-0.001662
0.003926
0.000639
0.000146
-0.001169
0.002282
-0.002813
-0.000512
0.00146
-1.9e-05
0.001954
-0.000841
0.001625
0.000639
-1.9e-05
-0.003142
0.003268
-0.005443
0.001132
-0.001827
-0.000676
0.000146
0.000146
0.000803
0.000146
0.001132
0.00031
0.001954
-0.000841
0.00031
-0.000347
0.001789
-0.000347
0.002611
0.001296
0.001132
0.000146
-0.000183
0.000639
-0.001334
-1.9e-05
-0.000676
0.001296
0.000474
0.000967
0.000639
0.002611
-0.003306
-0.000676
-0.001662
-0.000347
-0.000512
0.00031
0.000146
-0.001498
-1.9e-05
0.002118
-0.000676
0.000474
0.00146
-0.001991
0.000967
-0.001334
0.001954
-1.9e-05
0.001954
-0.001334
0.004419
-0.000676
-0.003799
0.00031
0.000474
-0.001169
-0.000676
-0.000512
-1.9e-05
0.000967
-0.001662
0.00146
-0.000841
0.00031
0.000803
0.00294
-0.000183
0.000639
0.000639
0.001625
0.000474
-0.000841
0.002447
0.001296
0.002775
-0.000676
0.002447
-0.000347
0.002447
0.000967
0.002118
0.000803
-0.002155
0.000146
0.006556
0.000474
0.000146
0.00409
0.000639
0.003761
0.00031
0.002447
0.000967
0.000803
0.000639
-0.000841
0.000474
0.000639
0.000146
-0.00347
-0.00232
-0.005114
0.000803
0.002611
-1.9e-05
0.000146
0.000639
-0.001169
-0.000183
0.002447
-0.000183
-0.000183
0.000146
-0.000676
-0.000676
-0.001334
-0.000841
0.001296
-1.9e-05
0.000146
0.001132
0.00146
-1.9e-05
0.001625
0.001789
0.000474
-0.001334
-0.000347
-0.001005
-0.000183
-0.000841
-0.000676
-0.000183
0.00031
-1.9e-05
0.00031
0.000474
0.000146
-0.000347
-0.000676
-0.000183
-0.000676
-0.000183
-0.000183
-1.9e-05
0.000146
-0.000347
-1.9e-05
-0.000347
-0.000183
-0.000183
-0.000183
-0.000512
-0.000183
-0.000512
0.000146
-1.9e-05
0.000474
0.000146
-1.9e-05
-0.000183
-0.000183
-0.000512
-0.000512
-0.000183
0.000146
-1.9e-05
-1.9e-05
0.000146
0.000146
0.00031
0.000146
-0.000183
-0.000676
0.000474
-0.000347
-1.9e-05
-1.9e-05
0.000146
-0.000183
0.000967
0.000146
-0.000183
-1.9e-05
-0.000676
-0.000841
-0.001991
-0.002484
-0.00232
-0.001005
-0.001498
0.000146
-0.000512
-0.001005
-0.000183
-0.000676
0.000803
-0.003142
-0.001169
-0.001169
-0.001334
-0.000841
-0.002977
-0.005607
-0.003635
-0.003142
-0.000347
0.001625
0.001296
0.00031
-0.000512
0.002282
0.001132
0.001789
-0.000841
0.002447
0.002118
0.000803
-0.000676
0.001296
0.000639
-0.001334
-0.000183
-0.001498
-0.000841
-0.000183
0.00146
-0.000512
0.00294
-1.9e-05
-0.000183
-0.000183
0.000967
-0.000183
0.000803
0.000639
-0.000347
0.000639
-0.000183
0.001625
-0.000676
0.003433
-0.001991
-0.000183
-1.9e-05
-0.001827
-0.000841
0.000146
-0.000347
0.000639
0.000639
0.000146
0.002282
-0.001827
0.002118
0.000967
0.001625
0.000474
-0.000512
-0.001827
0.000474
0.000639
0.00031
0.002447
0.002775
0.001132
0.000803
0.00146
0.00146
0.002447
0.000474
0.002447
0.000146
0.001954
-0.002155
-1.9e-05
-0.001827
0.000146
0.00146
0.000803
-0.00347
-1.9e-05
0.000803
0.001625
0.00146
0.00031
0.001296
-0.000347
0.00146
0.000639
-0.000347
-0.002813
0.000967
-0.000512
-0.000512
-0.001827
-0.003963
-0.000347
0.00031
-0.001662
-0.001334
0.002118
0.000146
0.003597
0.003433
0.002282
-0.000512
0.00146
0.001296
-0.000841
-0.000841
0.001132
0.00031
-0.001498
0.002611
0.001132
0.002118
0.00146
0.002447
0.000146
0.002118
0.001789
0.002447
0.001296
-0.000676
0.000146
0.003926
0.000967
-0.000676
0.00146
-0.000841
-0.002648
0.002282
0.000146
0.00146
0.000639
0.000639
0.003104
-0.000183
0.001954
0.001296
0.000967
0.000474
0.000146
-0.000841
-0.001498
-0.003142
-0.001991
0.001132
-0.001662
-0.000183
0.000967
0.001296
0.002447
-1.9e-05
-0.001662
0.00031
0.000474
0.00146
-0.000512
0.001625
0.001296
0.00294
0.000474
0.001296
0.015102
0.020033
0.027429
0.034168
0.043371
0.047316
0.053562
0.057671
0.067039
0.071148
0.075914
0.081995
0.084625
0.091035
0.093993
0.097774
0.099582
0.107306
0.108457
0.117496
0.116346
0.120455
0.124399
0.128837
0.130809
0.132782
0.137219
0.13837
0.141986
0.142807
0.146259
0.14593
0.148724
0.151354
0.154312
0.153819
0.155792
0.154806
0.159736
0.162037
0.160394
0.166968
0.16516
0.167625
0.167625
0.16779
0.171241
0.17272
0.171899
0.17535
0.173542
0.177651
0.176829
0.175186
0.17798
0.176336
0.178966
0.180445
0.179952
0.183075
0.184718
0.184718
0.185212
0.185869
0.187184
0.182911
0.185705
0.185869
0.18932
0.185376
0.186691
0.189156
0.188499
0.190471
0.192443
0.189978
0.190142
0.193101
0.19195
0.193429
0.189485
0.192279
0.192608
0.193429
0.19195
0.194251
0.189649
0.191786
0.192772
0.191621
0.193594
0.200168
0.197867
0.197045
0.199346
0.19573
0.200825
0.196717
0.198524
0.196881
0.197374
0.196388
0.195237
0.197045
0.198524
0.198196
0.196881
0.199182
0.196388
0.197703
0.197703
0.200004
0.19721
0.20099
0.198196
0.197703
0.200661
0.197374
0.198689
0.196552
0.197867
0.197374
0.198031
0.198689
0.199511
0.197703
0.201647
0.19836
0.200168
0.200332
0.197703
0.193922
0.196059
0.200332
0.194416
0.196881
0.199839
0.200497
0.198689
0.200497
0.199018
0.204441
0.197045
0.199018
0.199511
0.200332
0.201483
0.202798
0.201154
0.199675
0.199839
0.199675
0.198689
0.197045
0.201319
0.200004
0.201154
0.199511
0.20099
0.198524
0.200004
0.198524
0.199182
0.198853
0.201483
0.200168
0.200825
0.202305
0.198853
0.201483
0.19836
0.201647
0.198524
0.199018
0.198524
0.20099
0.198853
0.199018
0.200004
0.200332
0.201976
0.195402
0.196059
0.198524
0.198853
0.196717
0.201483
0.198853
0.200497
0.203126
0.202962
0.197703
0.198853
0.198196
0.200168
0.195895
0.199018
0.199839
0.200332
0.201483
0.202305
0.201319
0.199675
0.200825
0.198689
0.201154
0.199511
0.196717
0.201319
0.199675
0.199018
0.198853
0.201647
0.198689
0.201319
0.199675
0.20214
0.197374
0.200497
0.200168
0.200497
0.200497
0.20099
0.202305
0.199839
0.199675
0.199675
0.198689
0.197867
0.19836
0.198031
0.199511
0.194087
0.19836
0.199675
0.198031
0.197374
0.201154
0.198689
0.198689
0.200825
0.200825
0.196059
0.19721
0.199675
0.200825
0.199182
0.19836
0.201154
0.193758
0.199675
0.199511
0.198689
0.19836
0.199511
0.199018
0.20099
0.199675
0.199675
0.200168
0.193429
0.197538
0.197867
0.198031
0.199839
0.199675
0.196881
0.198689
0.197703
0.199511
0.199675
0.193429
0.198524
0.200168
0.20214
0.198524
0.20099
0.197867
0.200168
0.199675
0.19836
0.200825
0.191293
0.193594
0.19721
0.196059
0.196059
0.198689
0.201154
0.200825
0.200004
0.20099
0.199675
0.196223
0.202305
0.20099
0.201812
0.20099
0.196388
0.200168
0.197703
0.200332
0.201319
0.200497
0.200168
0.199675
0.200825
0.198689
0.199511
0.199511
0.200332
0.199675
0.201647
0.199346
0.199018
0.199839
0.196223
0.196552
0.196552
0.200825
0.198196
0.200168
0.199675
0.200168
0.199675
0.199675
0.20477
0.199511
0.198524
0.200168
0.197538
0.201154
0.201319
0.198689
0.197045
0.197538
0.196059
0.200661
0.198524
0.198196
0.197538
0.19836
0.199182
0.195237
0.203784
0.197867
0.185705
0.134754
0.134918
0.132617
0.026771
0.031045
0.034332
0.041235
0.027758
0.02332
0.027429
0.029401
0.03351
0.041564
0.044522
0.046823
0.041399
0.028744
0.02332
0.022169
0.026936
0.030552
0.032853
0.030387
0.028908
0.027265
0.034825
0.036304
0.04107
0.038605
0.028086
0.021512
0.012308
0.006227
0.007213
0.009021
0.012637
0.016253
0.018225
0.02069
0.021841
0.002775
0.001954
0.004419
0.005569
0.006062
0.006884
0.004912
0.004748
0.00031
0.000474
0.000146
0.003268
0.005734
0.008035
0.005405
0.002775
0.00294
0.003597
0.005569
0.007377
0.007213
0.005241
0.00672
0.003926
0.004912
0.007213
0.002118
0.011486
0.008363
0.009843
0.010007
0.009514
0.006556
0.004419
0.005076
0.00672
0.007213
0.004419
0.006391
0.001296
0.00294
0.002611
0.003761
0.005241
0.003104
0.000146
-1.9e-05
0.002611
0.001789
0.003761
0.00409
0.004255
0.003433
0.002775
0.00409
0.000967
0.003104
0.002775
0.001625
0.002447
0.000967
0.007706
0.005241
0.00294
0.006227
0.001789
0.002118
0.001954
0.00294
0.000474
0.002118
0.000474
0.001789
0.002611
0.002775
0.003433
0.000474
0.00409
-0.001169
0.00409
-0.000347
0.00294
0.003761
0.001954
0.005405
0.003104
0.001625
0.002775
0.000803
0.001789
0.002447
0.001132
0.001954
0.005076
0.00031
0.003597
0.003597
0.001296
0.003761
0.00294
0.000967
0.000967
0.000967
-0.000512
-0.001005
0.000146
-0.000347
0.000474
0.00031
0.00146
0.000146
0.003597
-0.000183
0.00146
-0.000347
-0.001498
-0.000841
0.00031
0.000639
-1.9e-05
0.00031
-1.9e-05
-0.000841
-0.000347
0.00031
-0.000512
-0.000347
0.000474
0.000803
0.000146
0.002118
-0.000183
0.001954
0.00031
0.001132
0.000803
-0.000347
0.000803
-1.9e-05
0.001296
-0.000841
0.002611
-0.000676
0.001789
-0.000347
0.001132
-0.000841
0.00294
0.001954
0.002118
0.003433
0.001296
0.00031
-1.9e-05
0.000474
-1.9e-05
-0.001005
-0.000676
-0.000183
-0.000512
-1.9e-05
-0.001169
0.000474
0.000639
0.000474
0.000474
-1.9e-05
0.000146
0.000146
-0.000183
0.000803
0.002118
0.002282
0.00031
0.00031
0.001296
-0.000183
0.000639
-0.000183
-0.000676
-0.000512
-0.000183
0.000474
0.000803
-1.9e-05
0.000803
0.001296
0.000146
0.000474
-0.000183
0.002118
-0.000183
-1.9e-05
0.000474
0.000146
0.000639
0.002611
0.002447
0.001296
0.006884
0.013623
0.018882
0.029566
0.038276
0.044851
0.052411
0.056684
0.06556
0.067532
0.071641
0.077886
0.08216
0.084789
0.091364
0.096952
0.090706
0.091857
0.093829
0.098595
0.103033
0.107306
0.107964
0.113059
0.114702
0.119797
0.124893
0.1267
0.129166
0.130316
0.13574
0.136562
0.138863
0.140671
0.147245
0.147738
0.149217
0.151847
0.153162
0.155134
0.156449
0.159736
0.161215
0.162695
0.159736
0.164831
0.163845
0.164667
0.165982
0.16894
0.171734
0.174364
0.172885
0.175843
0.176172
0.177815
0.178966
0.17798
0.17913
0.17798
0.181924
0.179623
0.181267
0.181267
0.182746
0.184061
0.182746
0.183897
0.186526
0.182746
0.186198
0.18439
0.183732
0.190964
0.191128
0.189156
0.186526
0.187184
0.189978
0.189485
0.188006
0.190471
0.188006
0.189649
0.189156
0.191128
0.190635
0.189485
0.191786
0.190307
0.192772
0.192936
0.193594
0.191457
0.192443
0.189814
0.193101
0.192443
0.190964
0.192443
0.190964
0.192608
0.190635
0.192936
0.189978
0.198196
0.190142
0.19573
0.194909
0.192115
0.194416
0.195895
0.19458
0.195402
0.196388
0.195237
0.195402
0.19458
0.197045
0.194909
0.19721
0.197538
0.199182
0.193594
0.196717
0.19836
0.19195
0.194744
0.193594
0.195237
0.198524
0.195073
0.199018
0.199182
0.196717
0.198524
0.198853
0.195566
0.196388
0.196717
0.195895
0.19836
0.194087
0.196552
0.193265
0.197045
0.196881
0.198853
0.19721
0.19836
0.201647
0.19836
0.199018
0.197045
0.196717
0.19573
0.198524
0.196059
0.200825
0.198689
0.200004
0.196717
0.197374
0.199018
0.199182
0.199182
0.199675
0.199182
0.197867
0.201483
0.194744
0.199182
0.19573
0.198196
0.192608
0.196717
0.196717
0.19721
0.197867
0.198689
0.20214
0.196059
0.200332
0.197867
0.196388
0.200168
0.199018
0.196059
0.200661
0.197538
0.200168
0.198689
0.198524
0.194909
0.194251
0.198689
0.196059
0.196717
0.198853
0.199346
0.198689
0.201812
0.200825
0.203291
0.20214
0.200825
0.19836
0.200332
0.196223
0.198524
0.198853
0.198031
0.197374
0.198853
0.198196
0.199675
0.197374
0.196223
0.200497
0.19573
0.200497
0.194909
0.199182
0.19836
0.200661
0.200168
0.200004
0.197045
0.198689
0.198689
0.196059
0.200168
0.198196
0.198031
0.199346
0.201647
0.197538
0.20099
0.19836
0.200004
0.197045
0.197538
0.197374
0.199182
0.196552
0.19721
0.198031
0.193922
0.196881
0.194744
0.194416
0.164996
0.113552
0.117825
0.12292
0.125879
0.126865
0.127029
0.117661
0.118811
0.121277
0.12555
0.128015
0.131467
0.133275
0.138863
0.13952
0.140506
0.14593
0.147081
0.143629
0.15234
0.154641
0.156778
0.156613
0.157928
0.156942
0.159901
0.163188
0.161709
0.166639
0.16516
0.167625
0.169598
0.172392
0.171734
0.174035
0.175515
0.175515
0.179623
0.177158
0.179623
0.178802
0.180774
0.177815
0.183568
0.180116
0.180938
0.180938
0.182746
0.18554
0.185047
0.187677
0.185047
0.185376
0.189156
0.189978
0.188006
0.192115
0.18932
0.192279
0.190635
0.189814
0.191457
0.190964
0.1908
0.192115
0.19195
0.193101
0.1908
0.194416
0.195566
0.196881
0.1908
0.195237
0.193265
0.194744
0.197703
0.198853
0.196223
0.197045
0.194416
0.193594
0.193758
0.193101
0.193758
0.19573
0.194909
0.196552
0.196881
0.199018
0.196552
0.19458
0.192772
0.192279
0.19458
0.194909
0.193429
0.196552
0.195402
0.198853
0.198031
0.199182
0.195073
0.19458
0.18932
0.194909
0.196223
0.197703
0.198853
0.197867
0.201812
0.198689
0.199511
0.199346
0.199182
0.189978
0.196059
0.197703
0.196388
0.201812
0.199346
0.202962
0.199346
0.201154
0.198524
0.201154
0.192936
0.199346
0.196059
0.200004
0.198853
0.197045
0.201154
0.147245
0.14971
0.150697
0.153984
0.155627
0.156778
0.158586
0.160558
0.160394
0.162366
0.164831
0.168118
0.167297
0.169269
0.169762
0.173871
0.171406
0.173871
0.175515
0.177322
0.174364
0.175679
0.179459
0.179788
0.180445
0.184061
0.186691
0.182089
0.181431
0.183568
0.187677
0.186198
0.185047
0.188499
0.187184
0.190964
0.188006
0.194087
0.187348
0.190142
0.18932
0.189156
0.191128
0.189485
0.186855
0.191621
0.190142
0.188663
0.195895
0.19195
0.192443
0.193101
0.194087
0.191786
0.195237
0.193758
0.194744
0.192443
0.194416
0.193265
0.190964
0.195566
0.193758
0.19573
0.195566
0.196881
0.196717
0.19836
0.195402
0.198196
0.195895
0.193758
0.193594
0.196552
0.195566
0.194087
0.196388
0.197538
0.197538
0.198031
0.198853
0.194251
0.19836
0.197374
0.196881
0.196388
0.202305
0.195895
0.196388
0.198031
0.196717
0.196223
0.197045
0.195237
0.19573
0.199182
0.196388
0.197045
0.197867
0.198853
0.196552
0.200168
0.197703
0.200332
0.195895
0.198196
0.197703
0.196717
0.196388
0.197045
0.198524
0.196717
0.19573
0.194251
0.200332
0.194744
0.196717
0.195073
0.19836
0.197703
0.198524
0.199182
0.19836
0.198031
0.197045
0.198853
0.197703
0.19721
0.196881
0.199511
0.196388
0.195566
0.197538
0.200004
0.199018
0.197867
0.20362
0.197538
0.197703
0.195073
0.202633
0.195402
0.194744
0.197374
0.199675
0.19836
0.199018
0.196059
0.196059
0.19721
0.198524
0.198031
0.197867
0.197538
0.20099
0.197374
0.196552
0.198689
0.195566
0.196881
0.196388
0.197867
0.192279
0.19836
0.195895
0.198196
0.198031
0.196717
0.199018
0.200825
0.200004
0.197703
0.199018
0.197703
0.199675
0.196717
0.20099
0.199675
0.199018
0.198196
0.201154
0.196717
0.197374
0.198524
0.199346
0.199182
0.199675
0.198196
0.197703
0.201154
0.197703
0.199511
0.196717
0.198524
0.196717
0.195237
0.196059
0.195402
0.194744
0.196223
0.199018
0.196717
0.201483
0.196388
0.198853
0.195895
0.197045
0.198031
0.19721
0.196388
0.201154
0.20099
0.197374
0.198524
0.198689
0.198196
0.19836
0.199346
0.196552
0.197867
0.199182
0.198031
0.198031
0.201319
0.198853
0.199018
0.199675
0.199346
0.200004
0.199018
0.19836
0.199018
0.199511
0.199182
0.200332
0.199182
0.201812
0.197538
0.197538
0.199675
0.199511
0.198031
0.199675
0.199511
0.19836
0.199346
0.195895
0.200497
0.197045
0.199839
0.199018
0.203126
0.194909
0.199346
0.198524
0.200004
0.198524
0.200497
0.198196
0.197703
0.196388
0.199839
0.19836
0.195895
0.201319
0.199511
0.199511
0.198031
0.20099
0.197703
0.199675
0.196552
0.19721
0.197867
0.196388
0.200661
0.199346
0.199839
0.198853
0.19836
0.197045
0.200332
0.19836
0.199182
0.199675
0.199346
0.199511
0.201154
0.196388
0.20099
0.199018
0.196552
0.19836
0.198031
0.19721
0.19721
0.195895
0.200332
0.200168
0.197374
0.197538
0.197045
0.19721
0.196881
0.192772
0.0105
0.015431
0.029566
0.033839
0.037455
0.041892
0.053726
0.057013
0.065067
0.071148
0.076079
0.081995
0.086762
0.090706
0.097774
0.097445
0.102704
0.105992
0.1101
0.114045
0.116182
0.122098
0.124893
0.127851
0.130316
0.135083
0.135411
0.140342
0.141328
0.145766
0.145766
0.150204
0.151518
0.153326
0.156449
0.154641
0.158914
0.157764
0.160722
0.161709
0.164338
0.162859
0.166968
0.170091
0.169598
0.169433
0.172227
0.173542
0.173214
0.175515
0.175515
0.178637
0.176336
0.176829
0.176665
0.177651
0.176665
0.176172
0.180116
0.18061
0.182582
0.185869
0.185376
0.184718
0.187184
0.180938
0.187184
0.186691
0.186362
0.189156
0.18932
0.18817
0.189156
0.189156
0.18817
0.188827
0.18932
0.191786
0.191128
0.191293
0.192936
0.192279
0.189156
0.186033
0.183897
0.186691
0.187677
0.184883
0.184225
0.187677
0.184061
0.189485
0.187677
0.188992
0.187184
0.188663
0.188827
0.188827
0.1908
0.1908
0.192279
0.189156
0.19195
0.19458
0.193265
0.190307
0.191786
0.1908
0.191128
0.193429
0.193922
0.192443
0.191786
0.194909
0.193594
0.196388
0.196223
0.197703
0.008363
0.019047
0.02595
0.033346
0.03729
0.0437
0.053397
0.057506
0.064902
0.069176
0.077558
0.077886
0.084625
0.090213
0.089556
0.097116
0.104348
0.10517
0.11158
0.114867
0.117168
0.120291
0.121605
0.124728
0.127687
0.133439
0.130645
0.136233
0.140342
0.143629
0.145108
0.148724
0.149053
0.153326
0.154477
0.15497
0.157764
0.1576
0.159572
0.158421
0.162695
0.16401
0.166804
0.16516
0.169105
0.001296
0.012965
0.021019
0.031538
0.034661
0.040413
0.050274
0.055205
0.062108
0.065888
0.071477
0.076079
0.081831
0.085447
0.092186
0.092021
0.100075
0.100896
0.111087
0.114374
0.115689
0.117332
0.125221
0.123578
0.126865
0.130974
0.131138
0.136069
0.139685
0.141
0.142807
0.147738
0.146588
0.152011
0.150039
0.151518
0.157107
0.152669
0.15875
0.160722
0.162037
0.161051
0.167132
0.165324
0.166804
0.166475
0.169762
0.171077
0.170913
0.173049
0.174528
0.175186
0.173214
0.17798
0.176336
0.178802
0.178802
0.181924
0.17798
0.182253
0.184883
0.185047
0.183568
0.18554
0.186526
0.184718
0.18439
0.184554
0.182582
0.185869
0.18817
0.188006
0.18817
0.188006
0.185376
0.1908
0.190635
0.188334
0.189978
0.188334
0.1908
0.191457
0.191128
0.194087
0.194744
0.192279
0.194087
0.1908
0.187677
0.18932
0.188992
0.189814
0.189649
0.191621
0.193594
0.195566
0.194416
0.196388
0.194744
0.194251
0.193429
0.193429
0.194087
0.193758
0.195895
0.194744
0.197045
0.194416
0.197703
0.19573
0.195073
0.197703
0.196881
0.195895
0.197867
0.197374
0.196552
0.197374
0.198031
0.197867
0.189814
0.195073
0.194744
0.19573
0.194251
0.196059
0.196717
0.195895
0.197374
0.198031
0.20099
0.198853
0.199018
0.196881
0.201812
0.19458
0.198196
0.194909
0.19573
0.195566
0.196552
0.194909
0.19458
0.193594
0.196881
0.195895
0.194909
0.196223
0.199511
0.197867
0.19836
0.202798
0.197538
0.199018
0.197045
0.197867
0.19721
0.199182
0.196059
0.197374
0.200332
0.201319
0.199839
0.198524
0.199346
0.199346
0.199511
0.195895
0.200497
0.199675
0.198853
0.199018
0.196552
0.196881
0.197045
0.198853
0.195566
0.197045
0.195566
0.198689
0.200497
0.199182
0.198031
0.199346
0.197867
0.199018
0.197703
0.197703
0.19836
0.199675
0.195895
0.199839
0.19458
0.194087
0.195566
0.19573
0.195073
0.197045
0.198524
0.19721
0.197703
0.199839
0.199675
0.196717
0.199675
0.198853
0.198524
0.196717
0.197867
0.19721
0.19721
0.197703
0.197538
0.200661
0.195566
0.196881
0.197538
0.197538
0.197045
0.198196
0.197703
0.197374
0.201319
0.196717
0.196059
0.193594
0.196059
0.195237
0.192772
0.191457
0.193101
0.1908
0.192115
0.192772
0.195402
0.194744
0.195073
0.193758
0.194744
0.189978
0.189649
0.192772
0.192279
0.195073
0.188663
0.193594
0.197703
0.19721
0.193265
0.194251
0.185212
0.193265
0.195073
0.19573
0.19458
0.196059
0.199182
0.196388
0.195895
0.19836
0.196717
0.185869
0.195402
0.193594
0.196388
0.193922
0.196552
0.197045
0.199182
0.197867
0.197703
0.197867
0.192936
0.197045
0.195895
0.195895
0.193265
0.19836
0.199675
0.196717
0.195237
0.197538
0.196059
0.196223
0.19573
0.19573
0.198689
0.196223
0.195237
0.195895
0.200168
0.196552
0.196717
0.195402
0.203455
0.196059
0.197703
0.196717
0.200332
0.196388
0.196552
0.199839
0.196717
0.197374
0.19836
0.205099
0.196223
0.198524
0.196059
0.197538

Kurve 5

-0.000347
0.002118
0.001954
0.00031
0.001789
0.003268
-0.000841
0.002447
0.00294
0.000967
0.002775
0.002775
0.001625
0.000474
-0.000183
0.003104
0.003926
0.00031
0.002775
0.00146
0.002282
0.00294
0.005405
-0.000512
0.003268
-0.001498
0.001625
0.000967
-0.00232
0.003433
0.001132
0.00146
0.000803
0.003597
-0.000183
-0.000183
0.001132
0.003104
-0.000347
-0.002813
-0.001991
0.000639
-0.002813
-0.00347
0.001625
-0.000512
0.002282
0.001954
0.004748
0.002775
0.000146
0.001625
0.003104
0.000803
0.002282
0.00294
0.00031
0.000639
-0.000183
-0.000676
0.001954
-0.000512
0.00031
-0.000183
-0.002484
0.002611
0.000146
0.001789
-0.000347
0.002118
0.000474
0.00146
0.001789
-0.001498
-0.001662
-0.001827
-0.000347
0.002118
-0.000347
-0.000841
-0.000347
-0.000512
-0.001827
0.000146
0.001789
0.00146
0.000146
0.000967
0.002447
0.00031
-0.00232
-0.000841
-0.000841
-0.000183
0.001132
0.001296
0.000146
0.002118
-0.000841
0.001132
-0.002977
0.001296
0.001132
0.001625
0.001132
0.000967
0.002447
0.001296
0.002118
0.000803
0.003926
0.000474
0.000639
-0.004128
-0.001169
-0.002648
0.000803
-0.000347
0.00294
0.001296
0.000803
0.00146
-0.000347
-0.001498
-0.002155
0.000146
-0.000841
-0.000347
0.001625
0.001132
-0.001827
0.000474
-0.000676
0.000639
-0.000841
-1.9e-05
0.00031
-0.000347
0.002611
0.001789
0.000639
-0.001498
0.001789
-1.9e-05
0.000967
-0.000347
0.000146
-0.000347
0.001625
-0.00347
-0.005443
0.002775
-0.000183
0.000967
0.00146
-0.000183
-1.9e-05
0.002775
0.00031
0.002118
-0.001169
0.001625
0.001132
-0.000512
-0.001662
-0.001005
0.002282
-0.002484
-0.001827
0.000639
0.001132
-0.001334
-0.000512
0.004748
0.002775
0.000146
0.005569
0.000146
0.000967
0.000967
-0.000512
0.00031
-0.000183
0.000146
0.000967
0.000803
-0.00347
0.001789
-0.002648
0.001132
-0.001991
0.001132
-1.9e-05
-0.003142
0.000967
0.001625
0.001954
-0.000183
-0.001827
-0.001169
0.000146
-1.9e-05
0.000474
-0.001498
0.001296
-1.9e-05
0.001132
-0.001005
0.000474
0.00146
-0.000347
0.001625
0.00146
0.003761
-0.000512
-0.001498
-0.000512
0.000803
-0.000512
0.001789
-0.001005
0.000639
-0.001827
-0.001662
0.000967
0.002118
0.002282
0.001132
-0.003635
0.002118
0.001132
-0.000841
0.002611
-0.000676
0.000803
-0.001334
-1.9e-05
-0.004292
-0.000512
-0.00347
-0.003142
-0.001827
-0.001169
-0.002648
-1.9e-05
-0.000183
-1.9e-05
0.001789
-0.005278
0.005076
-0.000841
0.00146
-0.000512
0.001625
-0.000676
-0.001005
-0.001498
-0.001005
-0.001662
-0.001498
0.001789
-0.000183
0.002282
0.000146
0.005405
-0.003306
0.001789
0.000146
0.000803
0.000803
0.000146
-1.9e-05
-0.000512
-0.001662
-0.000841
-0.000183
-0.004621
-0.001498
-0.003306
-0.001005
-0.001005
0.00031
0.002447
0.00146
0.002118
0.001625
0.000803
-0.000512
-0.001498
-0.001005
-0.003963
-0.002977
-0.000512
0.00031
0.001789
-1.9e-05
0.002118
-0.000183
0.002118
0.000967
0.003268
-0.000512
0.001625
0.002447
0.000474
-0.002648
0.000474
0.001789
-0.000347
-0.000183
-0.000841
0.002611
0.000146
0.000474
0.002611
0.006391
0.002282
0.00294
0.002118
0.004748
0.000803
-0.001334
-0.003142
-0.001005
0.000639
-0.001827
-0.001991
-0.004128
0.001789
0.000474
0.002447
0.00031
0.001954
0.000474
0.003268
0.004419
0.00031
0.002775
-0.002484
-1.9e-05
-0.001498
0.000474
-0.001498
0.002118
-0.000676
0.001296
-0.000676
0.002118
0.003104
0.003268
0.002447
0.002775
0.00294
0.00031
0.002118
0.000474
0.001296
-0.002484
-0.000183
-0.000512
0.000967
-0.000676
0.002118
0.002775
-0.000512
0.000639
0.003761
0.002611
0.002118
-0.000512
0.000803
0.000803
0.001296
0.001789
0.00146
0.001132
0.000146
-0.000183
-0.000512
0.005076
-0.002977
0.001625
0.002447
-0.001662
0.003433
0.002611
-0.000183
0.001625
-0.001005
-0.004128
0.00146
-0.002648
-0.001498
0.000639
0.001789
-0.001498
0.003926
0.000474
0.000967
-1.9e-05
-0.000841
0.000639
-0.002155
0.001132
0.001625
0.002282
0.000146
0.003597
-0.001498
0.001132
0.000803
0.00031
0.00146
-0.001827
-0.003142
-0.000676
-0.001498
-0.000347
0.001789
-0.001827
0.000803
-0.000676
0.000803
0.000474
-0.000183
0.000146
0.001132
0.001132
0.001132
0.00672
0.001789
0.000474
-0.000512
-0.00347
-0.002484
0.000474
0.001132
0.000639
-0.00232
-1.9e-05
-0.002648
0.00146
-0.001334
-0.001334
0.00031
0.002611
-0.000841
-0.004949
0.000803
-0.000183
-0.000183
-0.00232
0.000639
-0.001005
-1.9e-05
-0.000183
0.001625
-0.000347
0.00146
0.001296
0.002775
0.002118
-1.9e-05
0.001296
0.001132
0.000803
-0.003306
-0.002813
-0.00232
0.000146
-0.001991
0.000803
-0.000676
-0.000676
0.002611
0.000639
-0.001334
0.002282
0.001296
0.004583
0.003926
0.00031
0.001296
-0.000841
0.00031
-0.002155
0.000474
-0.003635
-0.00232
-0.000183
-0.001662
-0.001498
-1.9e-05
0.000967
0.003761
0.000639
0.00031
0.004255
0.00031
-0.000676
0.001789
0.002282
0.00031
0.000146
0.000474
-0.000183
-0.001334
-0.000347
0.001625
0.000474
0.000639
0.001625
0.004748
0.00031
0.000639
-0.000512
0.003104
0.00031
0.000639
0.000639
0.00146
-0.000183
0.001296
-1.9e-05
0.000474
0.000803
-0.000183
-0.0061
-0.001498
0.001296
-0.004949
0.000967
-0.000676
0.003268
0.002447
0.000967
-0.000347
-0.00232
-0.012017
-0.002155
-0.001991
-0.002484
-0.000183
-0.003142
0.001954
-0.000347
0.001132
0.000639
0.002118
-0.007908
0.000967
-0.000841
0.000639
0.001789
-0.001334
-0.000841
-0.003635
0.002447
-0.000183
0.002282
-0.004292
-0.002155
-0.000512
-0.001334
0.00031
0.000803
0.000639
0.002118
0.000803
-0.001827
-0.001827
-0.002813
-0.001827
-0.003635
-0.001334
-0.002977
-1.9e-05
-0.001169
-0.001991
0.00031
-0.001169
0.000474
0.008528
-0.000676
0.001789
0.001132
-0.001827
0.001789
-0.004785
0.000474
-0.000512
-0.005443
-0.002648
0.000474
-0.005278
-0.002813
-0.001169
0.000474
-1.9e-05
0.001296
0.001625
0.001296
0.00294
0.00031
0.003597
-0.001991
0.001296
-0.001498
-0.001991
-0.00232
-0.002484
0.002447
-0.000676
-0.002155
0.00031
0.002447
0.00031
0.000146
-0.000183
0.000967
-1.9e-05
0.000146
-0.001005
0.00031
-0.001662
-0.001662
-0.001334
-0.002977
-1.9e-05
-0.001334
0.000146
-0.001334
0.00031
-0.000183
0.001625
0.000639
0.00146
0.000146
0.001789
-0.004621
-0.002648
0.003926
0.000639
-0.000347
0.00031
-0.001169
-0.003142
-0.000347
0.002447
-0.001169
-0.000841
0.000146
-0.000512
0.000474
-0.001169
0.003104
0.000146
0.000474
-1.9e-05
0.001789
-0.001334
-1.9e-05
-0.001498
-0.000841
0.003104
-0.003306
0.002447
-0.000841
-0.002155
0.003268
0.00146
0.000803
0.005241
0.00031
-0.002155
0.000967
-0.00347
0.001132
-1.9e-05
0.000803
-0.000183
0.00146
-0.002484
0.000474
-0.002155
-0.000347
-0.001662
-0.003799
-0.001991
0.002118
-0.001005
0.000474
-0.000183
-0.002813
-0.000512
-0.002648
0.000803
0.000803
-0.001334
-0.000841
0.000803
-0.001662
-0.000347
0.000474
-0.003142
-0.000841
0.000146
-1.9e-05
0.000474
0.000146
-1.9e-05
0.000967
-1.9e-05
0.000474
-0.000183
-0.000183
-0.000183
-0.000512
-0.001662
0.001296
-0.002813
-0.001827
-0.00232
0.001296
-0.00347
-0.000347
-0.000841
0.001296
0.000474
-0.000347
0.001132
-0.001169
0.00146
-0.000183
0.001132
-0.000676
-0.002484
-0.003635
-0.003963
0.000967
0.000146
-0.003306
-0.001498
0.003926
0.002775
0.00294
0.001132
0.004583
-0.000841
0.000474
-0.000841
0.005569
0.00935
0.017239
0.028086
0.033346
0.04255
0.047973
0.056356
0.059314
0.065231
0.071148
0.077229
0.081667
0.088077
0.092021
0.096788
0.100075
0.104348
0.109279
0.110758
0.113059
0.114702
0.120948
0.122427
0.126536
0.130974
0.137219
0.13574
0.142479
0.13952
0.145766
0.147903
0.147903
0.148889
0.153655
0.153162
0.155792
0.156613
0.157107
0.157271
0.158914
0.161051
0.163845
0.163845
0.167461
0.170913
0.170419
0.1742
0.176665
0.175515
0.176336
0.174693
0.176336
0.17913
0.178802
0.178309
0.183732
0.180116
0.181596
0.182746
0.185705
0.185047
0.186855
0.187513
0.188006
0.188334
0.187513
0.187184
0.184883
0.188827
0.189156
0.191128
0.187184
0.190142
0.188499
0.190307
0.1908
0.191293
0.194416
0.192115
0.193594
0.194416
0.195895
0.193265
0.195073
0.189156
0.196059
0.193429
0.191621
0.196059
0.193101
0.192279
0.192443
0.198196
0.198031
0.199675
0.196388
0.197703
0.195895
0.19721
0.195895
0.197374
0.196388
0.198853
0.197538
0.197867
0.198524
0.197703
0.196717
0.195895
0.196717
0.197867
0.198196
0.19836
0.200661
0.197374
0.199182
0.201812
0.203126
0.197703
0.198196
0.199018
0.201483
0.197374
0.198196
0.198031
0.199018
0.198853
0.198689
0.198853
0.19721
0.199675
0.198031
0.200825
0.196223
0.198524
0.199182
0.19836
0.20099
0.19721
0.199675
0.19721
0.197867
0.200004
0.202305
0.195895
0.200661
0.195402
0.198031
0.200497
0.20099
0.199346
0.200497
0.199346
0.200497
0.200661
0.198689
0.199511
0.199675
0.199346
0.198031
0.200825
0.197374
0.199182
0.197045
0.196717
0.198031
0.200332
0.199675
0.200661
0.200825
0.199675
0.203291
0.20214
0.199182
0.199182
0.200497
0.198524
0.198689
0.19836
0.201154
0.197703
0.198524
0.200661
0.199346
0.197867
0.198689
0.200004
0.200661
0.201154
0.196552
0.203455
0.200497
0.198196
0.197045
0.194744
0.197374
0.197867
0.19836
0.199182
0.19836
0.200661
0.200168
0.200661
0.200004
0.198524
0.202633
0.19836
0.201154
0.199182
0.199839
0.197867
0.200004
0.198853
0.200004
0.19836
0.197538
0.199675
0.198196
0.198853
0.198031
0.19836
0.196223
0.202469
0.200168
0.200332
0.199346
0.197538
0.201647
0.199018
0.197045
0.200497
0.19721
0.197867
0.199511
0.200168
0.198853
0.199511
0.20214
0.198031
0.199018
0.198853
0.20099
0.199511
0.19836
0.203126
0.20362
0.200004
0.200825
0.200004
0.199675
0.19836
0.197374
0.198853
0.199018
0.199511
0.200497
0.200825
0.198853
0.201483
0.20099
0.201319
0.197538
0.199675
0.200168
0.201154
0.199675
0.199346
0.200168
0.197538
0.200004
0.197867
0.196223
0.198524
0.199511
0.197703
0.201154
0.198689
0.200497
0.200004
0.199511
0.200497
0.199018
0.198689
0.199346
0.201154
0.19573
0.197045
0.197538
0.19573
0.197374
0.196388
0.197538
0.202305
0.199675
0.199346
0.202798
0.197867
0.199839
0.19836
0.20099
0.199675
0.201812
0.199511
0.201154
0.198524
0.197703
0.199839
0.199839
0.19836
0.19836
0.201812
0.199675
0.200825
0.197538
0.200332
0.199346
0.199182
0.199675
0.196881
0.197374
0.19721
0.195895
0.196881
0.19836
0.198196
0.200004
0.200497
0.200497
0.200004
0.20099
0.198524
0.199511
0.199182
0.200332
0.196388
0.197867
0.200004
0.192608
0.19573
0.196059
0.197538
0.199182
0.201319
0.199346
0.199018
0.198853
0.197703
0.201812
0.201647
0.19836
0.200661
0.200004
0.200004
0.197045
0.199182
0.197867
0.198196
0.198689
0.20214
0.19836
0.198524
0.199839
0.200168
0.200497
0.194744
0.201483
0.201483
0.199018
0.199346
0.200004
0.198524
0.196388
0.195237
0.196881
0.198524
0.196059
0.198524
0.200497
0.199675
0.199018
0.202469
0.198853
0.200004
0.200004
0.19836
0.198853
0.197867
0.194909
0.195895
0.197867
0.199018
0.200168
0.200332
0.199675
0.19836
0.200661
0.201483
0.20477
0.200497
0.20099
0.20099
0.200168
0.20214
0.198853
0.200004
0.199018
0.199018
0.199675
0.199346
0.198031
0.200497
0.199346
0.201812
0.202469
0.200168
0.202469
0.199511
0.200004
0.199675
0.199018
0.196388
0.197538
0.196552
0.197703
0.199346
0.199839
0.19721
0.200004
0.19836
0.199839
0.199018
0.199839
0.199346
0.197538
0.198853
0.199182
0.196388
0.197703
0.197045
0.194087
0.199346
0.19836
0.201812
0.198689
0.200004
0.198031
0.201154
0.199182
0.198031
0.19836
0.199511
0.202633
0.199675
0.200004
0.198524
0.20099
0.199839
0.20099
0.199182
0.199182
0.19721
0.198031
0.199675
0.20214
0.198853
0.197703
0.199018
0.200004
0.199346
0.198031
0.20099
0.196717
0.197538
0.198853
0.200661
0.199675
0.200661
0.200825
0.197867
0.197703
0.198031
0.199511
0.197538
0.198524
0.200168
0.200825
0.197538
0.202798
0.19573
0.199346
0.195402
0.195237
0.201154
0.198031
0.198524
0.201647
0.199018
0.197703
0.196388
0.195895
0.200168
0.197703
0.196059
0.199182
0.199018
0.198689
0.20099
0.200332
0.199018
0.20099
0.197045
0.197045
0.196717
0.197374
0.196881
0.198031
0.196223
0.200168
0.198524
0.198196
0.196717
0.196881
0.197374
0.197703
0.198524
0.198031
0.19836
0.197867
0.200004
0.201812
0.200332
0.197538
0.201812
0.195566
0.195895
0.196552
0.199346
0.197867
0.19721
0.199182
0.201319
0.198689
0.200168
0.202305
0.197374
0.197703
0.196388
0.20214
0.194744
0.199182
0.199346
0.202798
0.19836
0.19836
0.198524
0.198689
0.19836
0.200004
0.199182
0.200661
0.201154
0.199018
0.202469
0.200168
0.199018
0.198689
0.193758
0.195402
0.199018
0.195895
0.196552
0.19573
0.199346
0.200332
0.198031
0.200004
0.200004
0.191128
0.197703
0.199511
0.198196
0.198524
0.199018
0.196717
0.194909
0.19721
0.196223
0.198196
0.190142
0.195566
0.200332
0.198524
0.199346
0.197538
0.200004
0.199018
0.199675
0.197538
0.197867
0.193265
0.198524
0.197374
0.200168
0.198031
0.194416
0.197867
0.199511
0.200004
0.197703
0.201976
0.197538
0.197045
0.198031
0.200661
0.19721
0.200332
0.198196
0.199346
0.197867
0.196388
0.198689
0.200168
0.198196
0.197045
0.199182
0.197703
0.196552
0.198031
0.200497
0.19836
0.198524
0.202305
0.201483
0.197867
0.196552
0.197538
0.198196
0.194416
0.196552
0.198689
0.19573
0.198689
0.196059
0.203784
0.198031
0.200332
0.197867
0.199839
0.199675
0.198853
0.201812
0.198031
0.197374
0.198196
0.20214
0.195402
0.197045
0.195402
0.19573
0.196717
0.195073
0.194909
0.197867
0.195073
0.194909
0.195895
0.191128
0.192443
0.175843
0.151683
0.134754
0.104184
0.083475
0.067368
0.055041
0.046166
0.030716
0.008035
0.002282
0.002282
0.000803
0.001789
0.000146
0.001132
0.000803
-1.9e-05
0.000474
0.001296
-0.000512
0.000803
0.001625
-0.000347
0.00146
-0.000183
0.000146
0.000639
0.00031
0.000639
0.000803
0.00031
0.00031
0.000803
-0.000841
0.00294
-0.000841
0.002447
-0.000512
0.006391
0.013623
0.02447
0.026936
0.036469
0.042714
0.047973
0.057835
0.062437
0.06671
0.075257
0.077393
0.080681
0.092021
0.086269
0.095966
0.100403
0.102376
0.10632
0.112237
0.114045
0.118647
0.123413
0.125057
0.130481
0.129988
0.133275
0.134097
0.139192
0.140835
0.145602
0.147574
0.149546
0.15234
0.153819
0.155627
0.1576
0.158421
0.160229
0.160722
0.163352
0.165324
0.165324
0.167461
0.168118
0.166639
0.170748
0.170255
0.172227
0.172392
0.174693
0.171406
0.176008
0.178802
0.178309
0.179788
0.181103
0.179788
0.182911
0.181596
0.183075
0.182417
0.183568
0.183075
0.185047
0.188663
0.187677
0.186691
0.187513
0.187184
0.18817
0.191128
0.187513
0.192115
0.186362
0.192443
0.189156
0.189814
0.188334
0.190964
0.18932
0.188992
0.191786
0.195402
0.193922
0.193101
0.196552
0.193758
0.196881
0.194416
0.196717
0.193429
0.195402
0.192608
0.194744
0.192115
0.19458
0.198689
0.195566
0.198031
0.196059
0.198524
0.196388
0.197703
0.19573
0.197703
0.194087
0.196881
0.199182
0.197374
0.195895
0.195566
0.200004
0.196717
0.196223
0.196717
0.197867
0.197867
0.197703
0.198853
0.201976
0.19573
0.199018
0.200004
0.196059
0.196059
0.197867
0.193758
0.195073
0.196717
0.195237
0.19721
0.194744
0.195237
0.197538
0.198196
0.196717
0.200497
0.199182
0.199182
0.197867
0.199675
0.198524
0.198524
0.197374
0.199018
0.198524
0.197374
0.201319
0.19836
0.198853
0.196881
0.200497
0.200004
0.20099
0.198689
0.200332
0.199346
0.198689
0.199346
0.199018
0.197538
0.194251
0.199182
0.19721
0.200332
0.198853
0.199182
0.199182
0.199675
0.200004
0.202962
0.201976
0.19836
0.200004
0.19836
0.201319
0.200004
0.199839
0.195073
0.200332
0.197538
0.197045
0.196552
0.198689
0.199346
0.202305
0.197045
0.199839
0.201154
0.198689
0.199511
0.198689
0.200168
0.200004
0.199346
0.199018
0.199511
0.199018
0.200497
0.199675
0.199511
0.200004
0.199839
0.201976
0.200332
0.200168
0.199182
0.196552
0.199511
0.20099
0.19836
0.198853
0.200332
0.199346
0.197045
0.199839
0.196223
0.197045
0.200825
0.200332
0.199182
0.199346
0.200004
0.200004
0.199511
0.19836
0.198524
0.196552
0.199182
0.19836
0.199675
0.198689
0.199182
0.198524
0.199018
0.202305
0.202305
0.204934
0.199346
0.201319
0.200004
0.199511
0.198196
0.202798
0.198524
0.199346
0.198689
0.200332
0.197867
0.199675
0.199346
0.200004
0.19836
0.199182
0.200661
0.201154
0.198689
0.204606
0.20099
0.201483
0.200661
0.198196
0.20099
0.198031
0.199018
0.199511
0.197374
0.198031
0.199182
0.198196
0.199018
0.196388
0.19836
0.200004
0.198524
0.199839
0.197703
0.197703
0.195895
0.197045
0.198524
0.198689
0.198196
0.199511
0.197703
0.19458
0.196552
0.197045
0.200332
0.197374
0.200168
0.199675
0.199675
0.197538
0.201319
0.199839
0.199511
0.200004
0.200497
0.196388
0.198853
0.19836
0.196881
0.19836
0.195566
0.204441
0.202305
0.197045
0.195237
0.197867
0.196223
0.197703
0.199182
0.199018
0.19836
0.19573
0.200825
0.199839
0.199675
0.197538
0.200004
0.195895
0.19836
0.198524
0.199511
0.19836
0.194251
0.19721
0.198689
0.198031
0.19836
0.199346
0.196388
0.201154
0.199839
0.200497
0.196717
0.195073
0.198689
0.199182
0.196552
0.199182
0.199346
0.200825
0.199182
0.198689
0.198196
0.197538
0.199346
0.198524
0.200825
0.196881
0.199511
0.201647
0.200332
0.197045
0.19458
0.196881
0.198031
0.199511
0.200332
0.200004
0.199511
0.199018
0.199675
0.198524
0.197538
0.200825
0.197538
0.200004
0.19836
0.197374
0.19836
0.199018
0.19836
0.199018
0.197374
0.194744
0.196552
0.197374
0.19836
0.193429
0.19836
0.19721
0.197703
0.199018
0.200332
0.201154
0.196059
0.197703
0.197538
0.196388
0.19836
0.199839
0.198031
0.199511
0.198853
0.200332
0.197703
0.197867
0.200004
0.199018
0.199018
0.200168
0.198196
0.199018
0.198524
0.202633
0.196881
0.195566
0.197867
0.196059
0.198196
0.195237
0.199675
0.197374
0.199675
0.199839
0.200004
0.20099
0.198689
0.200332
0.197374
0.199018
0.197538
0.195402
0.197703
0.199511
0.195402
0.197703
0.198689
0.198853
0.200004
0.200497
0.199182
0.201483
0.199018
0.200497
0.202305
0.198196
0.199675
0.200168
0.199182
0.197703
0.198853
0.196881
0.198031
0.197045
0.197867
0.199182
0.19836
0.19836
0.200497
0.199675
0.198524
0.203455
0.200661
0.201154
0.195895
0.19836
0.20099
0.196717
0.196717
0.199182
0.19573
0.196717
0.19721
0.19721
0.19836
0.19836
0.197867
0.200661
0.200168
0.196881
0.200497
0.195566
0.196223
0.196552
0.195402
0.195237
0.197703
0.196717
0.195237
0.201319
0.19836
0.201154
0.19836
0.195895
0.198689
0.200332
0.197867
0.201647
0.200825
0.197867
0.198689
0.198031
0.198689
0.198524
0.19721
0.197045
0.19836
0.197703
0.199018
0.198689
0.202633
0.198689
0.19836
0.199018
0.19836
0.200497
0.195895
0.197045
0.19836
0.199675
0.198524
0.198196
0.198853
0.199182
0.197703
0.197045
0.197538
0.199018
0.19836
0.201154
0.198524
0.199018
0.196552
0.196717
0.19721
0.196717
0.195237
0.197045
0.199182
0.19573
0.199511
0.198689
0.199018
0.196717
0.192279
0.198031
0.197867
0.196881
0.199675
0.198689
0.199018
0.200332
0.19836
0.199346
0.198524
0.200004
0.19836
0.197374
0.200497
0.20099
0.195895
0.196717
0.198689
0.199511
0.197703
0.197374
0.196552
0.19836
0.19836
0.193758
0.199511
0.200004
0.198853
0.201319
0.197703
0.198689
0.197374
0.198689
0.199346
0.19573
0.198689
0.199182
0.196223
0.197374
0.199182
0.200661
0.195566
0.200497
0.20099
0.200168
0.199511
0.197045
0.198689
0.199182
0.197867
0.197538
0.19836
0.197538
0.199839
0.198524
0.200332
0.19573
0.199839
0.199346
0.199839
0.196717
0.200497
0.198689
0.197538
0.194909
0.199346
0.193922
0.196223
0.198031
0.197374
0.199018
0.19836
0.203291
0.201483
0.200825
0.199511
0.201319
0.193429
0.198689
0.199018
0.19836
0.199511
0.198196
0.198853
0.199018
0.195402
0.199182
0.196881
0.188334
0.19573
0.196881
0.199018
0.195402
0.200825
0.198524
0.201647
0.199182
0.198853
0.200332
0.19195
0.197538
0.197538
0.199018
0.195895
0.19836
0.200004
0.200332
0.198524
0.200168
0.199182
0.194744
0.199675
0.19836
0.200497
0.199182
0.196717
0.203126
0.201319
0.198196
0.199839
0.196388
0.199839
0.191786
0.196223
0.195073
0.198031
0.197703
0.199018
0.199346
0.199018
0.199346
0.198196
0.20362
0.196881
0.197045
0.196059
0.196223
0.195402
0.199346
0.197045
0.197703
0.200332
0.19721
0.205099
0.19836
0.197867
0.198689
0.199018
0.201154
0.200661
0.200661
0.200661
0.198031
0.199839
0.199346
0.198031
0.197538
0.19721
0.198196
0.198524
0.199839
0.197867
0.19721
0.198689
0.197867
0.203126
0.20099
0.196881
0.200825
0.196552
0.197867
0.198031
0.197045
0.194251
0.199511
0.198524
0.199511
0.198196
0.198031
0.197867
0.19721
0.198853
0.195402
0.200497
0.197867
0.198853
0.197374
0.198524
0.196059
0.195566
0.19721
0.19836
0.193101
0.190307
0.193922
0.191293
0.190471
0.192279
0.194744
0.193922
0.197538
0.191457
0.194416
0.194251
0.192608
0.193429
0.193265
0.193429
0.193265
0.195566
0.191621
0.195402
0.193594
0.196717
0.193594
0.197538
0.197045
0.197538
0.199675
0.195895
0.196552
0.193101
0.19721
0.199839
0.198689
0.196388
0.176336
0.066875
0.037455
0.016746
0.003926
0.001625
0.002447
0.000474
0.002775
0.000803
0.001954
0.001296
0.001296
-0.001005
0.000967
0.009021
0.017896
0.025292
0.03088
0.040742
0.045672
0.053233
0.058492
0.068189
0.072134
0.077229
0.083803
0.08709
0.090213
0.095144
0.102376
0.099417
0.107799
0.107471
0.114374
0.11536
0.120455
0.122427
0.127522
0.130152
0.134261
0.135411
0.139192
0.140178
0.141328
0.147409
0.146095
0.153162
0.147903
0.154641
0.150697
0.155956
0.155792
0.163352
0.159408
0.160394
0.164338
0.165489
0.166475
0.166804
0.169105
0.169598
0.170913
0.171734
0.173049
0.176336
0.174035
0.177322
0.177815
0.178473
0.180281
0.181103
0.182911
0.183404
0.182089
0.183239
0.183404
0.185869
0.185047
0.187841
0.184883
0.187184
0.187513
0.188827
0.187677
0.190307
0.187348
0.186526
0.190635
0.190471
0.194087
0.189978
0.193758
0.191786
0.191293
0.192279
0.192443
0.191457
0.192279
0.18932
0.195073
0.19458
0.19458
0.193922
0.193922
0.191621
0.195073
0.195895
0.190142
0.192608
0.194416
0.193922
0.196223
0.19573
0.194909
0.198524
0.195237
0.196881
0.195895
0.196717
0.196717
0.195402
0.197538
0.197045
0.194744
0.192772
0.198689
0.195237
0.19573
0.195895
0.197045
0.196881
0.197867
0.197867
0.198689
0.199018
0.195073
0.201976
0.195402
0.195237
0.199675
0.200168
0.196059
0.197374
0.19573
0.199511
0.193101
0.198689
0.19836
0.197867
0.200661
0.200168
0.200497
0.198689
0.19836
0.197867
0.198689
0.198689
0.19836
0.194416
0.195566
0.195073
0.200332
0.197703
0.194087
0.198031
0.199018
0.201976
0.199675
0.198853
0.198853
0.199182
0.197703
0.19573
0.196717
0.197538
0.194087
0.198031
0.197867
0.19721
0.198524
0.19721
0.199018
0.198689
0.199675
0.19721
0.199346
0.197703
0.200497
0.198524
0.198853
0.197538
0.197867
0.194416
0.198524
0.193922
0.19836
0.199182
0.195402
0.200661
0.20099
0.199182
0.201976
0.200497
0.197538
0.200004
0.197867
0.199839
0.199675
0.198524
0.193265
0.194416
0.198031
0.19721
0.199018
0.196223
0.199018
0.198031
0.198853
0.199346
0.199839
0.198031
0.199182
0.198689
0.197703
0.201812
0.197703
0.19836
0.197538
0.19721
0.19721
0.197867
0.19836
0.200004
0.197703
0.197867
0.198689
0.200332
0.200168
0.201812
0.19836
0.197703
0.199182
0.197538
0.198524
0.198031
0.196717
0.197703
0.196717
0.197703
0.201976
0.197703
0.196223
0.194251
0.199182
0.198853
0.199018
0.197703
0.198196
0.196223
0.193594
0.19573
0.195073
0.19721
0.19721
0.200168
0.197538
0.199182
0.19836
0.198524
0.198524
0.196388
0.201319
0.201154
0.200332
