Ladekurvenmessung

Zeit: 2018_05_04 09.05.03

Info: FVA3, v = 1.05, T = 23, F = 20, h = 518.2

Ladewiderstand[Ohm]: 1012700

Störkapazität[pF]: 0.000000

Entladezeit[ms]: 200

Abtastrate[Hz]: 250000

Anzahl der Messwerte: 2500.000000

Verzögerung[ms]: 3

Ladespannung[V]: 0.200000


Kurve 1

0.00146
-0.000183
0.002282
0.001296
0.00294
0.001296
0.00409
0.003597
0.005405
0.003433
0.00294
0.002282
0.004583
0.000803
0.001132
0.00146
-0.000347
0.000474
-0.002648
0.002282
0.001132
-0.000512
0.00146
0.003268
0.00146
0.004255
0.003433
0.003761
0.003268
0.004583
0.002447
0.000146
-0.000347
0.001132
0.001625
-0.001827
0.002775
0.000803
0.001132
0.00146
0.002611
0.002118
0.005569
0.001625
0.002282
0.002447
0.000474
0.003268
0.001625
0.002447
-0.002155
-1.9e-05
-0.001662
0.002118
-0.003635
0.000803
-0.000676
0.001625
0.003597
0.002282
0.001954
0.001625
0.002447
0.001132
-0.001005
-0.002484
-0.001662
0.00031
-0.00347
-0.002155
-0.000183
-0.002155
-0.000183
0.001132
0.00146
-1.9e-05
-0.000347
0.002447
0.002775
0.000474
0.000474
0.000146
-0.002813
0.000146
-0.001169
0.001296
-0.001498
0.000803
-0.000183
-1.9e-05
0.00146
0.001296
0.003268
0.00294
0.003104
0.003433
0.003104
-0.003799
0.002118
0.001296
0.001789
-0.000841
0.001625
-1.9e-05
0.000967
0.001954
0.001296
0.001789
-0.003635
0.000967
0.002118
0.002118
0.00031
0.00031
0.00031
0.004255
-0.001005
0.003268
-0.000841
-0.004949
-0.001662
-0.000183
0.000474
0.000146
0.000967
-0.000676
0.002611
0.002447
0.000474
-0.005607
-0.004785
-0.002648
0.000146
-0.001334
0.001296
0.002447
-1.9e-05
-0.001662
0.003433
0.000146
-0.000512
-0.005936
-0.000183
0.001132
0.000967
0.001954
0.000803
0.001789
0.000474
0.004255
0.001789
0.000803
-0.004128
0.000146
0.002447
0.000803
0.00146
0.001789
0.002447
-0.000676
0.003268
0.000146
0.00146
-0.007908
-1.9e-05
0.000967
0.001625
-1.9e-05
0.004255
-1.9e-05
0.001625
0.002611
0.000639
0.003597
-0.006593
0.002447
-0.004949
0.002611
-0.001005
-0.003142
0.00031
-0.000183
0.002118
0.00409
0.000967
-0.003963
0.001625
0.000639
0.003433
0.000146
0.00146
-0.000676
0.003926
-0.000512
0.000146
0.000146
-0.006757
0.000474
0.001625
0.001296
0.003104
0.002282
0.004583
0.00409
0.003104
0.003761
0.002282
-0.004621
-0.000841
0.002282
-0.000347
0.001296
-0.001498
0.000474
0.00031
0.001789
0.001789
0.005241
-0.001991
0.001625
0.003104
-0.000676
0.00409
0.000967
0.003268
0.001296
0.000639
0.00031
-0.000676
-0.009223
-0.001005
0.002118
-0.001334
0.002282
0.005076
0.002611
0.002447
0.004419
0.003926
0.005569
-0.005114
0.001296
0.002118
0.001625
0.000474
-0.000347
0.001132
0.00031
0.001132
0.000474
0.003926
-0.002813
0.001296
0.003268
0.003433
0.001296
0.004419
0.001625
0.002118
0.001789
0.001789
0.00146
-0.004128
-0.001991
-0.000512
0.002447
-0.001662
0.000146
0.002447
0.002775
0.003761
0.003597
0.002611
-0.001827
-0.001005
0.001954
0.001296
-0.002155
0.000146
-0.001169
-0.001498
-0.000347
-0.002813
-0.001991
-0.004456
0.006391
-1.9e-05
-0.000347
0.002611
0.00409
0.003761
0.000146
0.003104
0.002611
0.000146
-0.002484
-0.001498
0.001296
0.001296
-0.000512
0.002611
0.000146
-0.002484
0.001789
0.000639
0.001789
-0.001991
0.001296
0.00146
0.001132
0.002447
-0.000183
0.001296
-0.001334
0.001296
0.001625
0.00146
-0.001169
-0.001662
-0.003635
0.002611
0.00146
0.00031
0.002447
0.000474
0.001789
0.000967
0.001954
-0.002484
-0.001169
0.000146
-0.000841
-0.005607
0.00031
-0.001169
-1.9e-05
-0.001169
-0.000512
0.000474
-0.000347
0.000639
-0.001991
0.003268
0.000639
0.001954
0.001296
0.000639
0.00146
0.003433
0.00146
-0.002813
-0.002977
0.001296
-0.000676
-0.001498
0.002118
0.00031
-1.9e-05
0.003597
0.001625
0.001296
-0.001662
-0.001662
0.00294
0.000639
0.001954
0.000967
0.001296
-0.000676
0.000639
-0.003306
-0.001334
-0.004785
-0.002155
0.000803
0.001132
-0.001991
-0.001334
0.003268
-0.002155
0.002447
0.001296
0.000967
-0.0061
0.000803
0.001625
-0.002155
-0.001498
-0.000841
-1.9e-05
-0.001991
0.000146
0.001296
0.001296
-0.008894
0.002118
0.000639
0.000803
0.003433
0.001789
-0.000841
0.000639
0.001789
-0.001498
0.000146
-0.007579
-0.001498
-0.001005
0.001132
-0.000676
0.001789
-0.002155
-0.000841
0.002447
0.002447
0.001789
-0.003799
0.001789
0.000967
0.002447
0.002775
0.001625
0.000639
-0.000676
-0.001005
0.001954
-0.003799
-0.001334
-0.000512
-0.000841
-0.001005
-0.001005
-0.001169
0.004912
0.000803
0.002775
-0.001334
-0.001169
0.003926
-0.003142
-0.001005
-0.001662
-0.000512
-0.001334
-0.000841
-0.001991
-1.9e-05
0.00031
-0.000676
0.005734
-0.000676
0.002447
-0.001991
-0.000512
-0.001498
0.001789
-0.00347
-1.9e-05
-0.002813
0.000474
0.003268
-0.003799
-0.002813
0.000146
-0.000347
-0.001662
-0.001005
-0.000841
0.000146
-0.001005
0.000474
0.001296
-0.000676
-0.001827
0.00146
-0.005278
-0.00232
-0.005114
-0.006922
-0.003142
-0.004292
-0.003799
-0.001005
-0.001334
-0.000512
-0.000512
-0.003142
0.002447
-0.002813
-0.000347
0.000474
-0.001005
-0.001498
-0.000347
0.001296
0.003268
0.001625
-0.001334
0.001954
-0.001498
-0.000183
0.000967
0.001132
-0.000676
0.001132
0.002447
0.000474
-0.000347
0.000146
-0.000676
-0.000512
-0.002648
-0.000183
0.000639
-0.002484
0.002118
-0.002484
-0.000512
-0.000676
-0.000183
0.000639
0.00146
0.00031
-0.000841
-0.001005
0.002282
0.00146
-0.004621
-0.003306
-0.001662
-0.000347
-0.003142
-0.001498
-0.001662
0.000474
0.000474
0.003761
0.003433
0.001625
0.000967
0.002282
0.002282
0.000474
-0.000841
0.000803
0.001296
0.001625
0.001296
0.002118
-0.000183
-0.000676
0.001296
-0.001662
0.000639
0.000803
0.001132
0.001625
0.003104
0.002282
0.000803
0.002282
0.00031
-0.004128
0.000803
-1.9e-05
-0.001005
-0.000183
-0.001827
-0.001498
0.001789
-1.9e-05
0.001132
0.00031
0.003761
0.005076
-0.000183
-0.002813
0.000146
-0.002813
0.000803
-1.9e-05
0.000146
-0.001169
0.000803
-0.001005
-0.000512
-0.000676
-0.001005
0.000967
0.001954
0.002447
0.000967
0.002447
0.000146
0.001296
0.003597
0.002447
0.000474
0.00146
-0.003306
0.00146
0.000803
-0.001005
0.001789
-1.9e-05
0.001132
0.001132
0.003104
0.002447
0.001132
-0.001827
0.001954
-0.000183
0.002282
0.002611
-0.000512
-0.002813
0.005241
-0.000512
-0.000183
0.001132
-0.001498
0.003104
-0.002813
0.000803
0.000803
-0.002813
-0.001498
0.00031
-0.003306
0.001296
0.001296
-0.000347
-0.001827
0.000967
0.00146
0.001954
0.003104
0.00031
0.002611
0.000803
0.00031
0.000474
0.001296
-0.000183
0.003597
-1.9e-05
0.00409
0.001789
0.00031
0.002447
0.001789
0.000474
0.002611
-0.000183
0.002611
0.002118
0.001132
0.00031
-0.002155
0.000803
0.00031
0.000967
-0.000183
0.000967
0.000474
-1.9e-05
0.00146
0.001132
0.001789
-0.000512
0.004583
0.000146
0.000967
-0.000183
0.00294
-0.001498
-0.000841
0.00146
0.000474
-0.001169
-0.000512
0.001625
0.000146
0.001954
0.00031
0.003926
-0.001005
0.001132
-0.000183
0.000474
-0.001662
0.000474
0.001132
0.00409
0.000967
0.00294
0.002775
-0.000512
0.002282
0.001296
0.003597
0.001954
0.000146
0.002118
0.00031
-0.000512
0.001789
-0.000183
-0.004949
-1.9e-05
0.001954
0.001132
0.003104
-0.000183
0.000146
0.001132
-0.000676
0.003433
0.000474
-0.000676
-0.000512
-0.00232
-0.000676
-0.000183
-0.002648
-1.9e-05
-0.002155
-0.000183
-0.000676
-0.000347
-0.004128
0.00146
0.00294
0.00031
0.003926
-1.9e-05
0.002118
0.000474
-0.001169
-0.001169
-0.001005
-0.002155
-0.002155
-0.001991
-0.002648
-0.001991
-0.003799
-0.004785
0.001296
0.001296
0.003761
0.013787
0.017074
0.029566
0.035482
0.042057
0.047316
0.052247
0.058821
0.065231
0.07197
0.074928
0.083146
0.08216
0.092843
0.097116
0.103197
0.104841
0.110758
0.113881
0.117003
0.119797
0.122756
0.124399
0.122427
0.128344
0.132453
0.13574
0.137219
0.146095
0.144451
0.146259
0.150204
0.152011
0.155792
0.153326
0.156778
0.159736
0.160558
0.162695
0.163681
0.162037
0.16516
0.164503
0.169105
0.167625
0.172063
0.176665
0.173214
0.174857
0.177815
0.175843
0.176994
0.180774
0.179459
0.180116
0.181267
0.180445
0.181103
0.182746
0.182417
0.184554
0.182253
0.184225
0.183568
0.185869
0.186526
0.186198
0.186033
0.186362
0.1908
0.189156
0.194416
0.186691
0.188992
0.18554
0.187348
0.18932
0.189814
0.188992
0.193922
0.191621
0.192772
0.193265
0.192115
0.193101
0.195237
0.194416
0.19458
0.195895
0.193265
0.198853
0.193429
0.199018
0.198031
0.196059
0.195895
0.19458
0.192115
0.19195
0.193594
0.194416
0.19836
0.196223
0.198524
0.197538
0.19836
0.197538
0.199018
0.19836
0.198853
0.200825
0.200004
0.196388
0.199018
0.197867
0.200497
0.198689
0.195237
0.199018
0.196552
0.199346
0.199182
0.201976
0.20099
0.204277
0.196881
0.010007
-0.000841
-0.000347
-0.000841
-0.000347
-0.000512
-0.000347
-0.000512
-0.000676
-0.001005
-0.000841
-0.001005
-0.000676
-0.000183
-0.000676
-0.000347
-0.000183
-0.000183
-0.000676
-0.000841
-0.001005
-0.000676
-0.000676
-0.000676
-0.000347
-0.000183
-0.000347
-0.000183
0.00031
-0.000512
-0.000512
-0.000841
-0.000676
-0.000512
-0.000512
-0.000512
-0.000347
-0.000347
-1.9e-05
-1.9e-05
-0.000676
-0.000512
-0.000676
-0.000841
-0.000676
-0.000347
-1.9e-05
0.00031
-1.9e-05
0.000146
0.00031
-0.000676
-0.000347
-1.9e-05
-0.000841
0.000146
-0.000841
-0.000841
0.000967
-0.001005
0.001132
0.001296
0.000803
0.000474
0.00672
0.016417
0.019047
0.025457
0.034661
0.041564
0.046166
0.057013
0.059807
0.065067
0.070655
0.077886
0.079366
0.088734
0.089227
0.095144
0.100239
0.104019
0.108786
0.115524
0.113881
0.119304
0.124235
0.126043
0.13311
0.130316
0.13459
0.134261
0.141
0.142807
0.147574
0.146752
0.148067
0.146423
0.153984
0.159243
0.155299
0.161215
0.160065
0.161051
0.163352
0.171406
0.167297
0.170419
0.169598
0.169926
0.173707
0.17272
0.173542
0.176336
0.17913
0.175515
0.178637
0.17913
0.180445
0.18061
0.181103
0.180774
0.183897
0.182253
0.185869
0.186855
0.186033
0.188334
0.187348
0.187184
0.186855
0.188663
0.187348
0.188663
0.187019
0.189156
0.189978
0.191293
0.192115
0.194416
0.193922
0.192936
0.193429
0.193758
0.193758
0.192279
0.1908
0.189649
0.193922
0.192608
0.197374
0.193265
0.195073
0.195566
0.196881
0.199182
0.195895
0.196881
0.195237
0.200825
0.196552
0.198524
0.197867
0.19836
0.195566
0.195073
0.192936
0.198853
0.195073
0.198853
0.197703
0.194744
0.20099
0.204277
0.201647
0.201812
0.20099
0.199511
0.199511
0.198524
0.198524
0.197703
0.194416
0.197538
0.199018
0.19721
0.199346
0.198524
0.19836
0.201647
0.201812
0.20099
0.201976
0.199675
0.199839
0.200497
0.197374
0.196881
0.196552
0.200168
0.196388
0.196717
0.19721
0.199018
0.19458
0.200497
0.200661
0.200004
0.199675
0.199839
0.200661
0.200004
0.200661
0.196717
0.201154
0.195073
0.196223
0.200004
0.197867
0.200661
0.19836
0.199839
0.198853
0.203291
0.196717
0.202469
0.197538
0.201976
0.197374
0.201319
0.197374
0.19836
0.199018
0.197538
0.196223
0.199346
0.197045
0.197538
0.199511
0.196881
0.200332
0.198689
0.201483
0.199839
0.199018
0.198524
0.200168
0.196388
0.196388
0.200825
0.200004
0.197045
0.199346
0.199675
0.199018
0.200497
0.198689
0.20099
0.19836
0.19836
0.19836
0.202798
0.199182
0.201647
0.199018
0.197703
0.198031
0.199018
0.200825
0.196552
0.199839
0.200825
0.199675
0.195566
0.197703
0.196388
0.199018
0.198031
0.198689
0.199346
0.198524
0.19836
0.199511
0.198689
0.198196
0.199839
0.199182
0.198689
0.19836
0.197703
0.195073
0.200168
0.196059
0.200004
0.199346
0.197538
0.197703
0.197867
0.199018
0.199182
0.200825
0.198524
0.200825
0.19836
0.201483
0.200168
0.200168
0.198031
0.200004
0.197045
0.19836
0.198196
0.198524
0.200661
0.199839
0.198853
0.198196
0.203126
0.197867
0.199511
0.198689
0.199511
0.199675
0.200168
0.197538
0.198196
0.198689
0.199839
0.197538
0.199839
0.199839
0.197045
0.198031
0.200004
0.199018
0.198196
0.201154
0.200825
0.199346
0.200332
0.200332
0.198031
0.198524
0.197045
0.197867
0.197867
0.19573
0.198689
0.201483
0.199511
0.198689
0.201483
0.200332
0.200497
0.199018
0.200661
0.19836
0.197867
0.197374
0.200332
0.197703
0.198524
0.199675
0.199018
0.201976
0.199018
0.199182
0.199018
0.200004
0.19721
0.201154
0.199346
0.199018
0.200497
0.197538
0.199182
0.200168
0.198031
0.197867
0.196717
0.19573
0.19836
0.197703
0.198853
0.198853
0.200168
0.196059
0.202633
0.197867
0.19836
0.199511
0.198031
0.199346
0.197538
0.196059
0.197538
0.196223
0.195895
0.201812
0.19458
0.196388
0.19721
0.198853
0.199675
0.198689
0.199346
0.198853
0.200825
0.197703
0.198853
0.19836
0.197703
0.19721
0.196388
0.196717
0.205099
0.198031
0.199511
0.199675
0.199182
0.197703
0.199018
0.19836
0.19836
0.200004
0.200168
0.198031
0.195895
0.197867
0.197703
0.197703
0.196388
0.199018
0.197374
0.197703
0.195237
0.200332
0.197374
0.199511
0.198689
0.200661
0.200497
0.196552
0.198524
0.197045
0.200497
0.197045
0.197538
0.193265
0.196717
0.193594
0.197374
0.195566
0.197867
0.198524
0.19721
0.199018
0.197538
0.200168
0.198031
0.20099
0.198196
0.200004
0.198689
0.199675
0.195073
0.200168
0.199018
0.199018
0.196059
0.199018
0.199839
0.197867
0.198689
0.200497
0.199346
0.196717
0.199018
0.196881
0.198031
0.199346
0.197374
0.198031
0.198853
0.19721
0.194744
0.19573
0.195566
0.199346
0.19721
0.200497
0.199182
0.198689
0.199018
0.199511
0.197867
0.197867
0.195895
0.199182
0.198196
0.200661
0.196388
0.19836
0.200168
0.197703
0.200497
0.199839
0.197538
0.197867
0.200168
0.199675
0.199839
0.200004
0.201319
0.200004
0.197045
0.195402
0.198853
0.196223
0.19721
0.199182
0.197374
0.199346
0.197867
0.200004
0.19836
0.201812
0.200497
0.201319
0.200332
0.201154
0.199675
0.199511
0.200332
0.197867
0.199675
0.197703
0.199675
0.197045
0.200332
0.197867
0.197867
0.198689
0.198524
0.197703
0.198689
0.198196
0.201976
0.198524
0.195073
0.203948
0.198031
0.201154
0.19836
0.198196
0.198689
0.197703
0.202305
0.198031
0.197538
0.201319
0.20214
0.200825
0.199839
0.197045
0.204113
0.19721
0.198853
0.199511
0.199675
0.199182
0.200004
0.201154
0.200332
0.198196
0.200661
0.201647
0.200332
0.200004
0.205263
0.201154
0.202633
0.201319
0.203126
0.202798
0.200004
0.20099
0.200004
0.201647
0.198031
0.201976
0.200332
0.199511
0.200661
0.202469
0.200332
0.198031
0.198689
0.196881
0.197867
0.197045
0.20099
0.201647
0.203455
0.200332
0.203291
0.199839
0.202633
0.199346
0.200825
0.200825
0.198031
0.202962
0.201483
0.201976
0.200825
0.202798
0.203455
0.203126
0.199346
0.203126
0.202633
0.200004
0.202469
0.201483
0.202305
0.201812
0.202962
0.198689
0.203455
0.198853
0.200004
0.199511
0.202962
0.202798
0.202962
0.204113
0.20214
0.204934
0.201319
0.202469
0.201154
0.200825
0.201647
0.199839
0.200497
0.19836
0.200825
0.201483
0.200004
0.200004
0.201319
0.204277
0.201319
0.201812
0.203455
0.202798
0.201976
0.202962
0.202633
0.203291
0.199675
0.201154
0.200332
0.199675
0.200168
0.196223
0.201154
0.200825
0.202305
0.201976
0.204113
0.203784
0.201647
0.20099
0.20099
0.202962
0.199182
0.199346
0.198689
0.199675
0.193922
0.199182
0.197045
0.199839
0.200497
0.201154
0.200825
0.199675
0.203291
0.201154
0.201812
0.193922
0.19836
0.197374
0.196552
0.19573
0.197867
0.196059
0.199018
0.201976
0.200497
0.202633
0.200497
0.202633
0.20099
0.202469
0.199839
0.201812
0.197538
0.20477
0.200168
0.201812
0.198689
0.20099
0.201154
0.200004
0.199675
0.199018
0.201647
0.202305
0.205592
0.203291
0.204277
0.20099
0.20477
0.198689
0.199839
0.199182
0.199675
0.198689
0.196552
0.19836
0.199675
0.20099
0.199182
0.200332
0.199675
0.200825
0.198689
0.199839
0.197374
0.200661
0.197374
0.19836
0.196388
0.197374
0.197867
0.20214
0.198853
0.19836
0.198689
0.197045
0.200332
0.196552
0.200004
0.197867
0.199839
0.197703
0.199182
0.199182
0.198031
0.198524
0.198031
0.198031
0.19721
0.198031
0.199346
0.200004
0.195895
0.199182
0.195073
0.196717
0.197703
0.197374
0.199182
0.196717
0.19836
0.198196
0.198853
0.196552
0.198853
0.197703
0.197538
0.197867
0.197867
0.197703
0.200004
0.196223
0.196552
0.195073
0.200825
0.19836
0.19836
0.196552
0.195073
0.19721
0.196717
0.192936
0.195566
0.199511
0.197703
0.199346
0.197374
0.195895
0.196388
0.197374
0.197045
0.199018
0.197703
0.201319
0.198196
0.198689
0.200168
0.199675
0.199839
0.197374
0.200497
0.199675
0.196223
0.197867
0.199675
0.196717
0.196552
0.200332
0.200825
0.198031
0.197867
0.199346
0.200004
0.200661
0.198689
0.202469
0.200332
0.20099
0.201647
0.200661
0.198853
0.200004
0.201812
0.200168
0.201647
0.201483
0.205427
0.202633
0.201319
0.197538
0.202633
0.198853
0.200661
0.201319
0.202633
0.200661
0.200661
0.201483
0.202305
0.200168
0.199675
0.201154
0.198853
0.204441
0.200332
0.200497
0.202469
0.201812
0.201647
0.203455
0.201319
0.202633
0.202962
0.199346
0.200004
0.205427
0.202962
0.19836
0.201319
0.200661
0.201154
0.199182
0.199839
0.199346
0.200168
0.200004
0.20099
0.197045
0.202469
0.199182
0.200497
0.199675
0.199018
0.199839
0.193594
0.201319
0.194744
0.194251
0.198524
0.198031
0.195566
0.201647
0.201647
0.20214
0.199182
0.200661
0.200004
0.199182
0.200661
0.198689
0.200004
0.199675
0.200497
0.200004
0.20362
0.198689
0.198689
0.200661
0.201483
0.198689
0.201647
0.198196
0.197703
0.201483
0.199675
0.198689
0.201154
0.200168
0.201812
0.200497
0.198524
0.198853
0.199346
0.198196
0.19836
0.198853
0.199675
0.199182
0.198689
0.200332
0.199018
0.197538
0.201154
0.198689
0.201483
0.201319
0.20099
0.199839
0.197538
0.194087
0.19721
0.196717
0.19458
0.201154
0.198031
0.196552
0.198689
0.200497
0.198524
0.200168
0.196717
0.198196
0.193265
0.201483
0.196881
0.199675
0.198524
0.19458
0.198524
0.196881
0.199182
0.199182
0.199346
0.199182
0.199675
0.198524
0.197538
0.196059
0.199839
0.198196
0.199675
0.197867
0.197374
0.196223
0.195402
0.19573
0.198853
0.19836
0.197538
0.199511
0.198853
0.200168
0.200332
0.202633
0.200497
0.199346
0.200332
0.193922
0.196223
0.198196
0.197703
0.19836
0.195566
0.198196
0.197867
0.197867
0.199346
0.198524
0.200497
0.19836
0.200332
0.200497
0.202962
0.200497
0.198524
0.198031
0.19836
0.197867
0.196059
0.200332
0.197703
0.197374
0.197703
0.201976
0.199018
0.203948
0.202633
0.200497
0.199839
0.202798
0.198031
0.197867
0.19836
0.19836
0.199346
0.198031
0.201976
0.196552
0.200332
0.19836
0.199839
0.200168
0.200168
0.199675
0.200661
0.201154
0.199675
0.202962
0.197538
0.20099
0.198689
0.199018
0.199346
0.199511
0.197867
0.204441
0.200168
0.201154
0.202305
0.200825
0.203291
0.203126
0.202633
0.201976
0.201483
0.199839
0.202962
0.200497
0.203291
0.199018
0.203948
0.198196
0.20099
0.201319
0.199675
0.19836
0.204934
0.203455
0.199839
0.203784
0.203291
0.199839
0.199675
0.200332
0.200332
0.199346
0.201976
0.201483
0.199511
0.201319
0.199675
0.200497
0.197045
0.197538
0.200168
0.199839
0.196717
0.197703
0.200661
0.194087
0.198196
0.200497
0.201154
0.200168
0.201319
0.199839
0.202962
0.200004
0.200497
0.200661
0.20214
0.200497
0.201483
0.20099
0.198853
0.200825
0.200825
0.20214
0.200661
0.202305
0.201976
0.204113
0.201319
0.203291
0.201319
0.198031
0.20099
0.199018
0.200497
0.198689
0.200332
0.200004
0.196552
0.200332
0.201483
0.198853
0.200004
0.199018
0.201319
0.199346
0.200497
0.201812
0.192936
0.20099
0.19836
0.200168
0.197867
0.195073
0.195895
0.20099
0.199182
0.203455
0.199675
0.200497
0.200825
0.201647
0.201976
0.199018
0.199346
0.198689
0.20099
0.196717
0.200004
0.198524
0.196388
0.200004
0.200825
0.199018
0.203784
0.197703
0.199675
0.199346
0.199182
0.201812
0.198853
0.197374
0.198031
0.19836
0.198196
0.199182
0.198031
0.198853
0.199346
0.199346
0.198853
0.201647
0.199018
0.200661
0.20362
0.198031
0.202798
0.196388
0.201319
0.201483
0.202305
0.197538
0.202798
0.194087
0.197538
0.201319
0.200825
0.196552
0.198031
0.200332
0.201319
0.20099
0.200168
0.200661
0.198689
0.201319
0.201647
0.200168
0.19836
0.199675
0.198031
0.198524
0.200825
0.199839
0.204113
0.202798
0.201154
0.198196
0.201647
0.199511
0.199839
0.200168
0.198689
0.19721
0.199018
0.19836
0.197538
0.199018
0.198031
0.199511
0.197703
0.198524
0.198196
0.200497
0.198853
0.199675
0.197374
0.197538
0.201483
0.201647
0.200825
0.196717
0.198853
0.196717
0.196059
0.195895
0.196552
0.191786
0.196881
0.197867
0.196717
0.196717
0.200332
0.195566
0.20099
0.198196
0.199182
0.200825
0.198196
0.19836
0.198853
0.197867
0.198196
0.199675
0.195566
0.200332
0.198031
0.198196
0.200004
0.199018
0.195566
0.199839
0.198524
0.197703
0.200497
0.197045
0.198689
0.198689
0.199675
0.198689
0.199839
0.19721
0.201154
0.196552
0.199839
0.19836
0.199018
0.199018
0.205099
0.202305
0.201812
0.201154
0.199018
0.20099
0.199182
0.199018
0.196388
0.199018
0.203126
0.202798
0.199511
0.201483
0.201647
0.198853
0.200661
0.204606
0.202798
0.195237
0.201976
0.201154
0.204606
0.20099
0.201976
0.201154
0.200004
0.199675
0.201154
0.200661
0.192115
0.200168
0.202633
0.20362
0.200825
0.200661
0.20099
0.20362
0.201483
0.203784
0.201812
0.19573
0.200332
0.201319
0.199346
0.201319
0.200332
0.199839
0.200661
0.199018
0.203126
0.202962
0.20099
0.199182
0.202633
0.198689
0.201647
0.197867
0.199018
0.199346
0.203291
0.201647
0.19721
0.204113
0.197867
0.197703
0.198196
0.199675
0.200168
0.199018
0.196059
0.201319
0.197538
0.20099
0.203126
0.195895
0.197867
0.196717
0.195402
0.196552
0.198031
0.193922
0.197703
0.197703
0.198196
0.197703
0.195402
0.196717
0.196717
0.19573
0.197374
0.19573
0.197045
0.19721
0.196059
0.19573
0.196388
0.194416
0.194909
0.196552
0.190964
0.197867
0.196223
0.195237
0.196552
0.195566
0.19573
0.197045
0.192772
0.196552
0.197045
0.193758
0.194909
0.195237
0.19458
0.196223
0.199511
0.196388
0.198031
0.19721
0.197867
0.197703
0.197538
0.197867
0.201154
0.198196
0.198031
0.198853
0.19721
0.20099
0.192936
0.196059
0.197045
0.197045
0.196059
0.195895
0.196717
0.198031
0.197538
0.198031
0.199675
0.198031
0.198689
0.196881
0.199675
0.19836
0.200332
0.196059
0.203291
0.200825
0.197703
0.196881
0.199511
0.199675
0.199018
0.198196
0.198524
0.199675
0.198524
0.199675
0.199511
0.200168
0.200825
0.201812
0.201812
0.202469
0.203455
0.203126
0.202305
0.201812
0.200825
0.200825
0.201976
0.202633
0.202305
0.20214
0.202962
0.203455
0.204441
0.203126
0.201319
0.203784
0.205592
0.202798
0.20214
0.199839
0.199182
0.199675
0.198031
0.200004
0.199839
0.19836
0.199675
0.20099
0.199511
0.202305
0.199182
0.20214
0.200497
0.201483
0.199839
0.199346
0.19573
0.197045
0.19573
0.195237
0.199182
0.194251
0.197703
0.199018
0.199675
0.198853
0.201319
0.200661
0.203291
0.198689
0.202469
0.203126
0.199018
0.197045
0.19721
0.199675
0.195895
0.197374
0.194909
0.198689
0.197538
0.202305
0.200661
0.199346
0.198524
0.201647
0.199182
0.201976
0.204934
0.19721
0.201154
0.20099
0.196881
0.197703
0.19721
0.197045
0.200332
0.195237
0.197867
0.196552
0.196223
0.199018
0.203126
0.199018
0.201812
0.201154
0.198689
0.19836
0.196223
0.196223
0.197703
0.196059
0.196881
0.198689
0.200168
0.199839
0.202633
0.202469
0.203948
0.201483
0.202633
0.199839
0.199839
0.200004
0.201154
0.202469
0.199346
0.198689
0.200825
0.198524
0.20099
0.199675
0.200497
0.200004
0.201647
0.202305
0.201154
0.20214
0.201319
0.202469
0.200497
0.200661
0.199346
0.201647
0.199346
0.20099
0.198196
0.201647
0.199346
0.200497
0.201976
0.200497
0.20214
0.198031
0.199511
0.201154
0.205099
0.200332
0.201483
0.200825
0.200661
0.200004
0.200004
0.198524
0.200497
0.201154
0.199675
0.200825
0.201154
0.199346
0.201319
0.199346
0.200168
0.201976
0.200825
0.205263
0.202633
0.202305
0.203126
0.200825
0.201319
0.202469
0.199182
0.200332
0.200332
0.198689
0.200332

Kurve 2

0.000146
-0.000841
0.001296
0.000803
0.001296
0.002118
0.003268
0.000146
0.002775
0.001296
0.003433
0.003761
0.003104
0.00031
0.000803
-0.001334
0.00031
0.001132
0.00031
0.001789
-0.000347
0.000803
-0.000512
0.000967
0.001625
0.002118
0.002118
0.003597
0.00031
0.002282
0.000639
0.001954
0.00031
0.00031
0.000474
0.000474
0.001789
0.002611
0.00672
0.003104
0.00294
0.00294
0.004583
-0.000841
0.006884
0.00031
0.00031
0.00146
0.000474
-0.001662
0.001296
0.000474
0.003433
0.005076
0.002282
0.004419
0.001296
0.004748
0.002118
0.001132
0.000474
0.003268
0.003104
0.002775
0.002611
0.002447
0.002775
0.001132
0.000639
-1.9e-05
0.003761
-0.003799
0.003597
0.002118
0.004419
0.002118
0.003433
0.003597
0.001296
0.002447
0.000967
0.000474
-0.001169
0.002282
0.000146
0.002447
0.001132
0.002611
0.000803
0.00294
0.001789
0.003761
0.002775
0.004255
0.002611
0.002611
0.000639
0.001296
0.000639
-0.000841
0.003104
0.000639
0.003104
-0.001005
0.007213
0.00146
0.001789
0.002282
0.001954
-0.001005
0.003104
0.005569
0.006556
0.006227
0.005076
0.005076
0.004748
0.005241
0.004255
0.005076
0.005734
0.008035
0.004583
0.004419
0.004255
0.005405
0.005241
0.004419
0.002118
0.005569
0.005076
0.002775
0.005898
0.001954
0.003926
0.003268
0.002611
-1.9e-05
0.003926
-0.001334
0.001625
0.002775
0.002611
0.00294
-0.000512
-1.9e-05
0.001296
0.00146
-0.001662
0.003597
0.002611
0.004912
0.00294
0.001625
0.00294
0.00031
0.000474
0.000967
0.002447
0.000639
0.001132
0.001132
-0.001169
0.002447
0.001296
0.000803
0.000967
0.000803
0.000146
0.000639
0.00146
0.000639
-0.001662
-0.000841
-0.001005
-0.001662
0.000803
-1.9e-05
-0.001498
-0.000347
-0.001334
0.000474
-0.000347
0.000967
-0.001827
0.001625
0.001132
0.002282
-0.000183
-0.003635
-0.002977
-0.000841
-0.002977
-0.004785
-0.002813
-0.002813
-0.002813
-0.000512
0.002447
0.00031
0.002775
-0.001827
0.000146
-0.000512
-0.000347
-0.000512
0.000146
0.003433
0.000146
0.000639
-0.000676
-0.001991
-0.002977
0.001954
-0.005278
0.000474
0.000639
0.003761
-0.001498
0.000474
0.000639
-0.002813
-0.000183
-0.001498
0.000803
-0.002813
0.001132
-0.002648
-0.000841
-0.001991
-0.000347
-0.001005
-0.001334
-0.000183
0.000803
0.000474
0.000474
0.002447
-0.000347
0.00672
-0.001169
0.001789
0.000967
-0.002648
-0.002484
-0.000841
-0.004456
-0.000512
0.000146
0.002775
0.002118
0.00294
0.000146
-0.001662
0.00294
-0.000512
0.002611
0.00294
0.00146
0.004583
0.004912
0.001132
0.001954
-0.000676
0.00146
0.00031
0.002118
0.001625
0.004419
0.006556
0.000967
0.009185
0.00409
0.00409
0.005569
0.003104
0.000803
0.002611
0.002775
0.001625
0.00146
0.002447
0.005898
0.001296
0.005405
0.003761
0.002611
0.001789
0.003597
-0.000183
0.005569
0.000967
0.003761
0.003926
-0.000512
0.000803
-0.000512
-0.001169
0.000474
0.001296
0.002447
-0.001991
-0.001169
0.001789
0.001625
-0.003142
-0.000676
0.001789
0.00031
0.000146
0.000967
-0.001827
-0.002648
-0.000183
-0.001005
-0.000183
0.000639
-0.002155
0.000967
0.000803
-0.002155
0.000146
-0.000512
0.000967
-0.000512
0.004255
-0.000512
-0.000676
-0.001169
-0.001662
-0.002484
-0.004456
-0.00347
-0.002813
-0.002813
-0.001169
-0.001498
-0.001662
-0.004128
-0.004949
-0.0061
-0.002813
-0.004621
-0.004456
-0.003963
-0.003635
-0.006429
-0.005771
-0.002813
-0.004621
-0.006264
-0.005936
-0.001827
-0.005443
-0.002484
0.003433
0.001132
-0.003306
0.000146
-0.001169
-0.00232
-0.001169
-0.003635
-0.003142
-0.005936
-0.007908
-0.003799
-0.002155
-0.004949
-0.000183
-0.004456
-0.002484
-0.003635
-0.001662
-0.001991
-0.002813
-0.002484
-0.002977
-0.002155
-0.002813
-0.000183
-0.001005
-0.000183
-0.001334
-0.001498
-0.001662
-0.002813
-1.9e-05
-0.002648
-0.002648
-0.000183
-0.001334
-0.000512
0.001954
0.002775
0.005241
0.002118
0.003761
0.000639
0.000967
0.000639
0.000967
0.001296
0.001954
0.002447
-0.001169
-0.000512
0.001789
0.000803
0.000967
-0.000676
0.000474
0.001132
0.002447
0.004912
0.006391
0.002447
0.00146
0.002447
-0.000512
-0.000512
-1.9e-05
-0.000676
0.002118
0.001132
0.002282
0.003761
0.002611
0.00031
0.003104
-0.001334
0.001296
0.000474
0.00146
-0.000183
-0.000676
0.000803
-0.000183
-0.001991
-0.000512
0.000639
-0.003635
-0.001498
-0.000676
-0.006429
-0.003799
-0.000676
0.001132
0.001132
-0.000676
0.00146
0.003268
-0.000183
0.00031
-0.000676
-1.9e-05
-0.000841
0.00031
-1.9e-05
0.002282
-0.000676
0.00146
0.000474
-1.9e-05
-0.000512
-0.00347
-0.001662
0.00146
0.00031
-0.000183
0.002775
-0.002648
0.00146
-0.000183
0.001296
-0.002155
-0.000347
-0.000841
-0.001169
-0.001991
0.001132
-0.001827
0.00146
0.00146
0.000474
0.000803
-0.002648
0.001132
-0.000676
0.000967
-0.001827
0.001296
-0.002977
0.000639
0.000146
0.00294
-0.004456
-0.000676
0.000474
0.001625
0.002447
0.001296
0.003926
0.002447
0.004419
0.002118
0.002775
0.000803
0.002447
0.001296
0.001789
-1.9e-05
-0.001498
0.000146
-0.001334
0.001789
0.003926
0.000146
0.000967
0.001625
0.001625
0.002282
-0.002484
0.001132
0.003926
0.000967
-0.000183
0.002447
-0.000676
-0.000676
-0.001498
-0.000841
0.001789
0.000639
-0.000676
0.001625
0.001625
-1.9e-05
0.00409
0.001789
0.002282
0.000474
-0.000841
-0.004292
-0.000841
-0.00347
0.001625
-0.000676
0.000639
0.003268
0.00031
0.00031
0.001296
0.001789
0.000474
0.000639
0.000474
0.003104
0.001625
0.001954
0.002118
-0.000512
-0.001662
0.002282
0.001625
-0.000183
-0.000841
0.000803
0.00031
0.000146
0.002118
0.000639
0.003104
0.00031
0.002447
0.001296
-0.001498
-0.002813
0.001296
-1.9e-05
-0.001991
0.002118
-0.001827
0.00031
-0.000676
0.000146
0.00031
0.001789
0.001132
0.000967
0.001132
0.001296
0.002611
0.001789
-0.000183
-0.004785
-0.002484
-0.00232
-0.001662
-0.001498
0.000474
0.000639
0.000639
0.000474
0.000803
0.001625
0.001789
0.001132
-0.000183
0.00146
-0.001498
-0.001991
0.002775
0.002118
-0.000676
-0.000183
0.001954
0.003268
0.002282
-0.000512
0.000803
0.000474
-0.000183
0.001625
0.00146
0.00031
0.000967
-1.9e-05
-0.000183
-0.001498
0.000474
-0.000841
-0.002813
-0.000183
0.003597
0.00031
-0.000347
-0.000347
-0.000512
0.001789
-0.00232
-0.003635
-0.00347
-0.002813
-0.003306
0.00294
-0.002484
0.000146
-0.001169
0.000803
0.001954
-1.9e-05
-0.001005
-0.000183
0.00146
-1.9e-05
0.001954
0.000146
0.000639
-0.000347
0.002447
-1.9e-05
0.001789
-0.004949
-1.9e-05
0.00031
0.000146
0.000146
-0.004292
0.000146
-0.001498
0.001789
-0.000347
0.000967
-0.000512
0.001789
-0.002484
0.000474
-1.9e-05
0.002447
-0.002155
0.00031
0.001954
-0.001334
-0.000676
-0.001334
-0.000347
-1.9e-05
-0.002977
-0.000841
-0.000347
-0.001169
-0.001662
-0.000676
-0.001498
-0.002813
0.000803
0.002118
0.000803
0.000474
0.000967
0.000803
0.000639
-1.9e-05
0.001625
-0.001169
0.000474
0.000474
-0.00232
0.000146
-0.001827
0.001296
-0.001498
-1.9e-05
0.000803
0.003104
0.000803
-1.9e-05
0.003433
0.002118
0.00146
-0.003306
-1.9e-05
-0.000841
0.000639
-0.001991
0.001132
-0.000676
-0.001498
0.000474
0.000639
-0.000841
0.002282
0.002282
-1.9e-05
0.001954
-0.000347
0.002775
-0.000512
-0.001169
-0.00232
-0.001827
-0.000676
-0.001498
0.00031
-0.001005
-0.002813
0.004583
0.002447
0.001132
0.001954
0.003433
0.014938
0.018882
0.027758
0.035647
0.040249
0.046987
0.054548
0.060958
0.063916
0.071312
0.076407
0.081831
0.088241
0.090706
0.09876
0.103691
0.104019
0.112894
0.111744
0.115689
0.118976
0.121934
0.124235
0.128837
0.129495
0.134425
0.139685
0.139849
0.143629
0.146752
0.147903
0.149382
0.153655
0.152833
0.156942
0.156285
0.160065
0.162366
0.159079
0.158914
0.164996
0.163516
0.165324
0.170091
0.170748
0.176501
0.1742
0.178144
0.174693
0.17798
0.177651
0.17798
0.180281
0.180445
0.179295
0.18176
0.182582
0.182746
0.185212
0.182089
0.187677
0.187019
0.190142
0.184554
0.188499
0.188334
0.187677
0.192443
0.183404
0.189156
0.192115
0.1908
0.191786
0.191786
0.189814
0.1908
0.192115
0.19458
0.19195
0.193758
0.193594
0.193265
0.193429
0.195237
0.194416
0.195895
0.194087
0.198031
0.19836
0.194251
0.19458
0.193594
0.196223
0.194416
0.193758
0.194416
0.198853
0.195073
0.197045
0.195895
0.199182
0.19573
0.200661
0.19721
0.200004
0.199346
0.200661
0.200168
0.196552
0.199511
0.20099
0.200825
0.198196
0.200004
0.198031
0.19721
0.19836
0.199018
0.199675
0.200332
0.201647
0.199182
0.201154
0.198196
0.203948
0.200332
0.199839
0.199511
0.200004
0.197538
0.199182
0.197538
0.198689
0.19836
0.19721
0.201483
0.200497
0.201483
0.200168
0.200661
0.199675
0.200168
0.197867
0.198031
0.197703
0.197703
0.199018
0.200004
0.199511
0.200497
0.200497
0.199675
0.200661
0.199675
0.198031
0.199511
0.201812
0.200332
0.202305
0.199839
0.203948
0.206249
0.198031
0.199675
0.200825
0.199018
0.199018
0.201154
0.203948
0.205263
0.20099
0.200497
0.201976
0.20099
0.199839
0.201319
0.199675
0.200332
0.199675
0.202305
0.199346
0.200497
0.198853
0.20099
0.199018
0.19836
0.19836
0.19721
0.20099
0.197045
0.200332
0.199346
0.200332
0.198853
0.201483
0.199346
0.199839
0.201154
0.199511
0.200332
0.200168
0.201154
0.199839
0.202305
0.199675
0.202633
0.200168
0.201647
0.201812
0.202633
0.201483
0.203291
0.205756
0.199511
0.201319
0.201812
0.202798
0.200168
0.201483
0.198524
0.196881
0.196388
0.199182
0.199675
0.200332
0.200661
0.200497
0.201483
0.201154
0.201812
0.196881
0.201483
0.200168
0.201319
0.201319
0.203784
0.199182
0.201154
0.199346
0.197374
0.19721
0.197045
0.200168
0.20099
0.198524
0.200661
0.202305
0.200168
0.202798
0.200497
0.202633
0.200168
0.201154
0.199182
0.201647
0.199018
0.201154
0.200825
0.199675
0.198853
0.204441
0.202962
0.202469
0.199018
0.200661
0.202633
0.202469
0.203126
0.199839
0.204441
0.19721
0.201483
0.200004
0.199346
0.200497
0.199839
0.200825
0.198524
0.201483
0.199839
0.201154
0.199511
0.206249
0.199346
0.201483
0.205921
0.200825
0.198853
0.197703
0.198031
0.196223
0.196552
0.197538
0.201647
0.195073
0.198689
0.201154
0.200661
0.199511
0.200497
0.201647
0.200497
0.201154
0.199675
0.19836
0.199511
0.196552
0.198196
0.198689
0.19458
0.200661
0.201154
0.201154
0.199675
0.200825
0.200004
0.201647
0.198031
0.201976
0.202962
0.198031
0.198689
0.200332
0.201319
0.199675
0.198031
0.19573
0.201319
0.196552
0.19836
0.200004
0.200497
0.200825
0.201647
0.197538
0.199839
0.201647
0.19721
0.200004
0.198031
0.199346
0.195237
0.198031
0.196059
0.200332
0.193429
0.201154
0.199346
0.200661
0.20099
0.20099
0.200661
0.200661
0.201483
0.19721
0.204277
0.198524
0.200661
0.199346
0.198689
0.196223
0.203948
0.200004
0.200332
0.200332
0.198196
0.201647
0.202633
0.199839
0.199675
0.201154
0.199675
0.203455
0.199182
0.201319
0.199346
0.199018
0.199182
0.204934
0.200332
0.196881
0.200661
0.197374
0.200497
0.196881
0.200004
0.199182
0.199675
0.198689
0.200168
0.198853
0.200497
0.198196
0.198031
0.198689
0.202469
0.201154
0.20099
0.201483
0.201154
0.201154
0.201976
0.200497
0.197538
0.201319
0.199018
0.201319
0.199511
0.20099
0.199346
0.198031
0.199346
0.200168
0.199346
0.195895
0.199511
0.199511
0.200661
0.200661
0.200004
0.199511
0.199675
0.199018
0.198689
0.196552
0.199839
0.199018
0.198689
0.199839
0.201154
0.200332
0.199182
0.202798
0.197538
0.198196
0.196223
0.196881
0.196388
0.199839
0.199839
0.199839
0.196223
0.202305
0.202305
0.201812
0.205099
0.193265
0.199675
0.20099
0.200332
0.199018
0.200497
0.199675
0.200661
0.200825
0.201812
0.200497
0.194416
0.199511
0.200004
0.20362
0.196059
0.199018
0.199018
0.199675
0.199511
0.199839
0.199182
0.192772
0.196059
0.199346
0.200168
0.200332
0.196388
0.202305
0.199675
0.199839
0.203126
0.201812
0.191621
0.194087
-0.000183
-1.9e-05
0.009021
0.012965
0.023484
0.02973
0.036797
0.043371
0.05011
0.046001
0.05915
0.06934
0.073449
0.081667
0.082817
0.089391
0.092186
0.101554
0.101061
0.107799
0.100075
0.111744
0.115524
0.113552
0.117496
0.000146
0.000146
0.001789
0.011158
0.020197
0.030059
0.020526
0.037619
0.044851
0.050603
0.060958
0.064738
0.069011
0.075585
0.081338
0.083968
0.0935
0.084625
0.10139
0.107142
0.111744
0.112401
0.118154
0.118154
0.126043
0.126536
0.134918
0.135083
0.127522
0.011486
0.001954
0.01313
0.010829
0.018882
0.027758
0.00146
0.011158
0.021841
0.026278
0.008692
0.011486
0.015924
0.010993
0.019704
0.028744
0.034168
0.02595
0.033839
0.035975
0.044851
0.002118
0.017239
0.0271
0.034332
0.040577
0.048467
0.057013
0.059643
0.067861
0.072956
0.077722
0.075421
0.086433
0.090213
0.094651
0.098595
0.100568
0.107964
0.109936
0.118483
0.118811
0.115031
0.113881
0.120619
0.126372
0.130152
0.132124
0.136069
0.139192
0.139192
0.143465
0.144451
0.148396
0.141493
0.14971
0.149546
0.153819
0.153491
0.155299
0.158914
0.159901
0.164503
0.167954
0.166639
0.160229
0.169105
0.169926
0.17272
0.171899
0.176008
0.174528
0.175021
0.175843
0.178637
0.177815
0.168447
0.173378
0.18061
0.181596
0.18176
0.183732
0.184718
0.186526
0.185869
0.186855
0.184718
0.178637
0.185869
0.187019
0.186691
0.189485
0.186526
0.191457
0.185869
0.187841
0.189156
0.164338
0.15234
0.160887
0.166804
0.16401
0.166475
0.168118
0.168447
0.169105
0.171899
0.1742
0.176336
0.166968
0.17535
0.176665
0.17913
0.18061
0.179788
0.166968
0.164338
0.170748
0.169926
0.172885
0.162366
0.172392
0.169926
0.170419
0.173542
0.174364
0.175679
0.177487
0.177815
0.176008
0.180445
0.169598
0.179788
0.184225
0.18061
0.180774
0.185212
0.182582
0.183404
0.184061
0.186526
0.184225
0.176172
0.184554
0.186526
0.187841
0.186855
0.190142
0.190471
0.190307
0.189156
0.189978
0.190635
0.182582
0.188334
0.187677
0.188499
0.1908
0.188827
0.188006
0.191786
0.191293
0.194744
0.191786
0.184225
0.19195
0.193429
0.192115
0.191293
0.192608
0.048631
0.014445
0.025292
0.034003
0.038769
0.038112
0.050274
0.058657
0.064902
0.070819
0.07575
0.084789
0.085118
0.091035
0.094158
0.100239
0.093829
0.107799
0.109114
0.114867
0.121605
0.119797
0.124071
0.127358
0.131467
0.13459
0.137548
0.130645
0.141657
0.142643
0.147081
0.147409
0.148889
0.149382
0.150697
0.15875
0.152833
0.158421
0.153819
0.162202
0.16516
0.168283
0.165489
0.170584
0.169926
0.170748
0.173542
0.173378
0.174528
0.164667
0.177322
0.177651
0.178637
0.179952
0.182746
0.179952
0.182253
0.183568
0.184225
0.184225
0.178637
0.183732
0.187348
0.188006
0.186033
0.190471
0.187019
0.188006
0.186033
0.190142
0.1908
0.18439
0.189978
0.193101
0.190471
0.194251
0.192772
0.193758
0.189978
0.193265
0.193429
0.192279
0.182746
0.18932
0.195895
0.194744
0.193265
0.193758
0.197867
0.194744
0.198689
0.195073
0.200004
0.18932
0.195566
0.196717
0.195402
0.196059
0.194251
0.195895
0.193594
0.19721
0.195895
0.197703
0.190307
0.198196
0.196388
0.192443
0.191786
0.192279
0.193429
0.187513
0.19195
0.193265
0.194416
0.185705
0.190964
0.190964
0.193758
0.19195
0.194251
0.194744
0.193429
0.195566
0.198031
0.195895
0.189978
0.19458
0.194744
0.194416
0.194416
0.192772
0.190635
0.19573
0.192936
0.19573
0.17535
0.172885
0.17913
0.183404
0.186198
0.184061
0.187184
0.186526
0.185705
0.185376
0.188827
0.188334
0.179459
0.186691
0.189649
0.187348
0.191293
0.187677
0.188827
0.189814
0.189978
0.190964
0.190635
0.184554
0.188992
0.192936
0.191293
0.191457
0.187019
0.190307
0.190471
0.192115
0.192279
0.192608
0.186691
0.190964
0.194087
0.19458
0.193758
0.193758
0.195073
0.194251
0.196552
0.193758
0.194744
0.191128
0.191786
0.191786
0.191621
0.19458
0.196717
0.196552
0.19836
0.196223
0.197374
0.197703
0.192279
0.195402
0.195402
0.200332
0.196059
0.199346
0.198689
0.19836
0.199839
0.198853
0.199675
0.19458
0.193922
0.198031
0.199675
0.197703
0.199675
0.198853
0.197045
0.196881
0.200661
0.199182
0.197045
0.195895
0.198524
0.198689
0.198689
0.199018
0.201647
0.199018
0.198031
0.200004
0.195895
0.195237
0.196552
0.198853
0.198853
0.200661
0.198524
0.196552
0.195073
0.199839
0.200825
0.200497
0.191293
0.19836
0.199018
0.199346
0.200661
0.198031
0.200004
0.196717
0.199346
0.199182
0.200168
0.190471
0.198689
0.198524
0.203455
0.199182
0.197867
0.200825
0.198196
0.19836
0.196552
0.199346
0.188499
0.200661
0.196059
0.196059
0.196552
0.198689
0.202633
0.198689
0.199839
0.198689
0.200168
0.190964
0.197867
0.196059
0.19721
0.197045
0.198689
0.198196
0.195566
0.196223
0.197374
0.197374
0.194251
0.193265
0.197045
0.196552
0.19721
0.195237
0.193429
0.197374
0.196388
0.198853
0.197374
0.199511
0.198196
0.198031
0.197538
0.19836
0.196881
0.198196
0.199675
0.198853
0.199346
0.198689
0.204606
0.196717
0.198524
0.197867
0.198196
0.19458
0.198689
0.197703
0.201647
0.197703
0.19836
0.202469
0.193758
0.204441
0.196059
0.199675
0.199182
0.199675
0.197045
0.199018
0.198853
0.199511
0.199511
0.196717
0.197045
0.19836
0.197538
0.196223
0.198196
0.198689
0.200825
0.198196
0.199018
0.199346
0.198196
0.201647
0.199839
0.198689
0.200497
0.199182
0.198031
0.198853
0.197867
0.201154
0.199675
0.199018
0.197538
0.199018
0.200497
0.197867
0.198689
0.199675
0.198689
0.200497
0.199346
0.20099
0.198196
0.194909
0.199018
0.197867
0.199182
0.199182
0.19195
0.197045
0.20099
0.196552
0.199839
0.19836
0.198524
0.198524
0.19836
0.199675
0.199511
0.201812
0.198689
0.199018
0.199346
0.199839
0.200825
0.202469
0.197045
0.197045
0.196059
0.196223
0.199675
0.199182
0.199839
0.199182
0.200661
0.19836
0.200332
0.199511
0.200497
0.198524
0.200168
0.197867
0.200497
0.199018
0.198196
0.198524
0.19573
0.198196
0.196059
0.198853
0.19836
0.200661
0.199018
0.201976
0.199511
0.200168
0.199675
0.198031
0.197538
0.195895
0.194416
0.197867
0.195402
0.198031
0.197867
0.194909
0.200332
0.198031
0.199018
0.199018
0.197867
0.198524
0.200004
0.199346
0.199018
0.193594
0.196717
0.195566
0.193429
0.195073
0.194909
0.193594
0.196717
0.199675
0.197374
0.198853
0.19836
0.200661
0.198524
0.200168
0.197703
0.198689
0.199018
0.198853
0.199839
0.197374
0.197045
0.19721
0.198196
0.197538
0.199675
0.195237
0.200168
0.200497
0.19721
0.19836
0.20099
0.197374
0.198031
0.199675
0.194909
0.197374
0.196059
0.195566
0.197538
0.198031
0.196552
0.200825
0.19573
0.19836
0.197703
0.199018
0.196717
0.200004
0.196059
0.195402
0.192608
0.195237
0.196552
0.195402
0.197045
0.197374
0.205263
0.20099
0.200004
0.198196
0.198853
0.196717
0.199182
0.199018
0.199346
0.197703
0.199182
0.197703
0.199182
0.197867
0.197374
0.200168
0.19721
0.198031
0.19836
0.195402
0.195566
0.198196
0.198524
0.199675
0.197538
0.198196
0.198689
0.197703
0.198031
0.199182
0.19836
0.19573
0.200497
0.19836
0.201647
0.197045
0.197374
0.198196
0.198689
0.19721
0.19836
0.19573
0.194909
0.193265
0.19836
0.196717
0.19721
0.199839
0.200168
0.198689
0.198689
0.196552
0.197374
0.202305
0.194744
0.198689
0.198524
0.19573
0.198853
0.198031
0.199182
0.199182
0.202469
0.197374
0.201647
0.200168
0.202305
0.20099
0.199346
0.199675
0.19836
0.198524
0.198689
0.199675
0.197538
0.199675
0.199346
0.201319
0.200168
0.199182
0.198196
0.20099
0.198853
0.198524
0.202798
0.200168
0.199511
0.199839
0.198031
0.198031
0.199182
0.193758
0.193101
0.194416
0.158257
0.00294
0.007049
0.003268
0.014445
-0.000183
0.008035
0.016746
0.019868
0.03088
0.039591
0.044851
0.052575
0.061944
0.064245
0.069833
0.075092
-0.00347
0.004255
0.014609
0.022498
0.010664
0.007049
0.018882
0.02595
0.032031
0.038441
0.044358
0.050439
0.017896
0.019375
0.025621
0.034825
0.042057
0.048302
0.054712
0.060958
0.066546
0.071148
0.077886
0.082324
0.089391
0.087748
0.09613
0.097938
0.106649
0.10895
0.108786
0.111908
0.11651
0.120784
0.120619
0.124071
0.128673
0.131302
0.135576
0.138041
0.142479
0.146588
0.147081
0.148724
0.149875
0.15119
0.151354
0.154641
0.155792
0.155463
0.158093
0.162695
0.164174
0.162037
0.16516
0.169926
0.165653
0.167625
0.171241
0.170091
0.173707
0.128015
0.133439
0.133603
0.136069
0.138534
0.144122
0.140506
0.144122
0.147574
0.148067
0.152669
0.156778
0.157764
0.1576
0.160065
0.160558
0.165982
0.164667
0.16401
0.163845
0.167461
0.164831
0.169269
0.169269
0.171899
0.173707
0.171899
0.178144
0.175021
0.176336
0.18176
0.181431
0.180116
0.181924
0.184883
0.18439
0.184883
0.182911
0.186691
0.183732
0.185376
0.184883
0.187513
0.184554
0.188006
0.186691
0.187677
0.190635
0.189814
0.192115
0.191128
0.187184
0.194087
0.191786
0.189814
0.192443
0.190471
0.191293
0.191293
0.192279
0.193265
0.193429
0.191128
0.193101
0.192279
0.194416
0.194744
0.197374
0.196223
0.195566
0.191786
0.190964
0.19458
0.192443
0.1908
0.195073
0.195237
0.193265
0.197045
0.19721
0.195895
0.192936
0.19458
0.193429
0.196223
0.196881
0.197045
0.199182
0.197538
0.199675
0.197374
0.19836
0.198853
0.199182
0.19458
0.197045
0.195237
0.195895
0.198031
0.197867
0.199346
0.198853
0.199182
0.195402
0.199675
0.193265
0.198524
0.195402
0.193265
0.197374
0.199018
0.196881
0.198853
0.196223
0.196388
0.198524
0.197538
0.198524
0.19836
0.196223
0.198689
0.196717
0.197867
0.198196
0.193265
0.19836
0.19836
0.197045
0.195895
0.199675
0.196717
0.193922
0.196059
0.198524
0.199346
0.196881
0.199675
0.197867
0.200661
0.198524
0.199675
0.19836
0.20099
0.201812
0.199346
0.197867
0.200661
0.197374
0.199018
0.200661
0.197703
0.199346
0.197703
0.198524
0.19721
0.200661
0.197374
0.199675
0.199839
0.201319
0.198031
0.198853
0.195895
0.198196
0.197867
0.197538
0.198853
0.199182
0.198524
0.19836
0.200168
0.198524
0.196881
0.197045
0.198689
0.195566
0.19836
0.199675
0.199182
0.199346
0.198853
0.198196
0.196881
0.200825
0.199018
0.200497
0.19836
0.196881
0.197703
0.199511
0.200497
0.195895
0.199675
0.200004
0.198853
0.199018
0.199839
0.198853
0.198524
0.199511
0.200825
0.197538
0.199346
0.197538
0.199182
0.198196
0.197703
0.197703
0.199018
0.196717
0.200825
0.200168
0.198031
0.200168
0.197867
0.201319
0.196881
0.200332
0.197538
0.19836
0.19458
0.197867
0.201154
0.194909
0.19721
0.197867
0.197867
0.196388
0.199182
0.19458
0.198853
0.195566
0.201154
0.199511
0.203784
0.198689
0.199839
0.195402
0.198689
0.196388
0.195566
0.196552
0.193758
0.200332
0.197867
0.201319
0.199839
0.201154
0.196059
0.200497
0.196717
0.19721
0.196223
0.196388
0.196881
0.19458
0.195895
0.197374
0.197538
0.19458
0.196059
0.195895
0.197703
0.196059
0.197374
0.198196
0.199182
0.196552
0.195895
0.192279
0.193265
0.190471
0.1908
0.195237
0.191128
0.195566
0.197703
0.196881
0.19721
0.198689
0.196059
0.197374
0.198689
0.197538
0.200661
0.19721
0.195402
0.198689
0.196717
0.194909
0.198196
0.195073
0.197045
0.19458
0.197703
0.196881
0.197703
0.197538
0.201319
0.198524
0.199018
0.200004
0.196388
0.196717
0.194416
0.197703
0.195402
0.195895
0.195895
0.200004
0.19836
0.19836
0.198031
0.200332
0.195895
0.200497
0.197538
0.198196
0.198031
0.195402
0.197045
0.197867
0.198524
0.196552
0.198031
0.194744
0.197703
0.197045
0.198031
0.19836
0.197867
0.198524
0.197703
0.198689
0.199511
0.198031
0.194087
0.197538
0.194416
0.198853
0.198853
0.197867
0.197867
0.199346
0.197045
0.192443
0.155463
0.154477
0.156285
0.159079
0.013459
0.014773
0.022169
0.02332
0.030059
0.035975
0.044358
0.04896
0.054383
0.059643
0.069011
0.07197
0.077886
0.081009
0.085611
0.093665
0.096788
0.101718
0.105992
0.107635
0.112566
0.115689
0.117168
0.125386
0.123742
0.12933
0.132453
0.135904
0.136891
0.13837
0.141164
0.142807
0.147245

Kurve 3

0.000474
0.004748
0.003104
0.006391
0.002775
0.004583
0.002282
0.003597
0.00146
0.004583
0.002611
0.006227
0.005241
0.003597
-0.001169
0.000639
0.002611
-0.000841
0.004419
0.001625
0.00294
0.00672
0.003926
0.00409
0.001789
0.001625
0.002775
0.001789
0.00146
-0.000347
0.000967
0.001625
-0.000841
-0.000512
0.004419
0.002282
0.001789
0.000639
-0.000347
0.004912
0.00031
0.003433
0.003926
0.001789
0.002282
0.006556
-0.000347
0.001789
0.000639
0.000474
0.000803
0.000967
0.005076
0.002282
0.001296
-1.9e-05
0.006062
0.000146
0.000967
0.000967
0.001789
0.000967
-0.000841
-0.000512
-0.000841
-0.000183
-0.000841
0.005734
-0.002484
-0.001827
-0.000183
0.002447
-0.002155
0.001789
0.000639
0.00146
0.001625
-0.000676
0.005898
-0.001991
0.000474
-0.000841
0.000803
-0.002155
-0.000676
-0.000183
0.002282
0.001132
0.001954
0.00787
-0.000512
0.001132
0.004583
0.002611
0.00146
0.002118
0.000803
0.003104
0.000639
0.002282
0.004912
0.001789
-0.000347
0.004748
0.004255
-1.9e-05
0.002447
0.00146
0.002118
0.002775
0.000967
0.008692
0.000639
-0.001334
-1.9e-05
0.000146
0.003104
0.001789
0.001625
0.001625
0.003104
0.003433
0.009185
0.00031
0.003433
0.004419
0.003926
0.000803
0.001132
0.001954
0.001132
0.006556
0.003761
0.007049
0.000967
0.003761
0.002447
0.004419
0.007049
0.004255
0.005898
0.005898
0.005076
0.004583
0.010007
0.002282
0.006391
0.005241
0.005405
0.003761
0.004748
0.00409
0.002447
0.00409
0.006227
0.008035
-0.000512
0.006391
0.000803
0.004748
0.001789
0.003597
-0.000512
0.004255
0.000803
0.005241
0.006391
0.002118
-0.000183
0.001625
0.00146
0.00146
0.00031
-0.001498
0.001132
0.002282
0.004583
0.003597
-0.002484
-0.001827
0.000803
-0.001662
0.000967
-0.000512
0.00146
-0.000512
0.002775
0.001296
0.003597
-0.000183
-0.002155
-0.00232
-0.001005
-0.000183
-0.001169
-0.001662
-0.000183
-0.001334
0.00031
0.005569
-0.002813
-0.000183
0.000146
-0.004949
-0.001662
-0.00232
-0.002977
-0.001334
0.000803
-0.00232
0.003268
-0.003799
-0.002813
-0.00232
-0.001827
0.000474
0.002118
-0.003306
0.000803
0.001296
-0.001334
0.002611
-0.002977
-0.000183
-0.002155
0.00031
0.000639
0.000474
-0.003306
-0.002648
-0.001662
-0.00232
-1.9e-05
-0.002813
-0.001169
-0.002155
0.001789
-0.001498
-0.001827
-0.004621
0.003433
-0.002155
0.000803
0.002447
-0.000183
-0.001334
-0.002813
0.002118
-0.002484
-0.001334
-0.002155
0.00146
0.00031
0.000967
-0.001662
-0.001334
-0.001498
0.000803
0.00031
0.001954
-0.001662
-0.001169
-0.001498
-0.002648
0.000967
0.002447
0.001296
-0.001498
-0.000841
-0.000183
0.000639
-0.000512
-0.001827
-0.000841
0.003761
-0.000512
0.004419
-0.001662
0.000146
-0.001334
-0.003306
-0.000676
-0.002977
-0.00232
-0.002484
-0.000512
0.00031
-0.001169
-0.001991
0.002118
0.000474
0.001954
0.001625
-0.000347
-0.002977
0.001296
-1.9e-05
0.001296
0.00031
-0.003799
0.000474
0.001132
0.000803
-0.00347
0.004583
-0.001005
0.001954
0.001132
0.001954
0.002447
-0.001334
0.000146
-0.000676
-1.9e-05
-0.000512
0.000803
-0.002648
-0.003799
-0.001169
0.000967
0.000146
0.000639
-0.000512
0.003104
-0.000512
0.000803
0.001789
-0.005607
-0.000676
-0.000512
-0.001169
-0.003142
-0.000841
-0.001662
0.002611
0.002118
0.000146
-0.001498
0.003104
0.002447
0.002611
0.002775
-0.000183
0.000803
-1.9e-05
0.003761
0.000474
-0.000347
0.000146
0.000639
-0.002648
0.001789
-1.9e-05
-0.002648
0.00146
0.002611
0.001132
0.002775
0.000803
0.003104
0.001296
-0.001662
0.00146
-0.000183
-0.003142
-0.001498
0.001132
-0.003963
-1.9e-05
0.000146
0.002118
0.00031
0.002118
0.002118
0.000146
-0.005114
-0.001334
0.002282
-0.002648
0.001789
-0.000183
0.002118
0.00031
-0.001005
0.003433
-0.000512
-0.005607
0.004583
0.002447
0.002282
0.002775
-0.001991
0.002775
0.000803
0.003597
-0.000676
0.003104
-0.004292
0.000474
0.000639
0.002611
0.001954
0.002118
0.001954
-0.000841
0.004255
0.002282
0.002118
-0.004128
0.001296
-0.000347
0.002611
-0.000512
0.002447
0.002775
0.001296
0.002611
0.000803
0.000146
-0.001334
0.001789
0.000639
0.004419
0.001296
0.002282
0.000803
0.001296
0.000474
0.000803
0.000803
-0.003963
-0.001169
0.000967
-0.000183
0.003433
0.001625
0.00294
-0.001498
-0.002813
0.004748
-0.003635
-0.004292
-0.000676
0.000967
0.002611
0.003104
0.002611
0.003268
0.002611
0.00409
0.003268
0.001789
-0.000676
0.000146
0.003926
-0.00347
0.00031
-0.000841
0.001132
0.000146
0.001954
0.000146
0.002282
-0.002648
0.00146
0.002118
0.003268
0.002282
0.002447
0.005898
0.003761
0.00294
0.006062
0.002775
-0.00232
0.001789
-0.000347
0.00146
0.000146
-0.000512
0.00031
0.002775
0.001625
0.000803
0.002775
-0.001005
0.001132
0.001296
0.00294
0.001132
0.00294
0.002611
0.001954
0.000639
0.001132
0.003761
0.003104
0.001296
0.001296
0.003268
0.003268
0.003926
-0.000183
0.003268
0.00146
0.004583
0.003761
0.005405
0.000474
0.003268
0.001954
0.000967
0.001625
0.002447
0.003104
0.002611
0.002611
0.003268
0.006062
0.002775
0.004583
0.008035
0.004748
0.004748
0.003433
0.000967
0.001789
-0.001334
0.000146
0.005076
-0.000512
0.000474
0.003268
0.000474
0.001789
0.003104
0.002118
0.00294
0.00031
0.003104
0.00409
-0.000347
0.001296
0.001132
-0.001005
-0.003963
0.007049
-1.9e-05
0.000967
0.005241
0.000639
0.002611
-0.000512
-0.001827
0.002775
0.000146
0.000803
0.000639
-0.000676
-0.001662
-0.002648
-0.005114
-0.001334
-0.003306
-0.003799
-0.000183
-0.004456
-0.003635
-0.000676
-0.000347
-0.001498
0.00031
-0.001991
0.000803
-0.001169
-0.002813
-0.000512
-0.004456
-0.006922
-0.004456
-0.002813
-0.009058
-0.004621
-0.005114
-0.001169
-0.003306
-0.001169
-0.002155
-0.001662
0.000146
-0.000512
-0.001498
-0.000512
-0.000676
-1.9e-05
0.001954
-0.001991
-0.000347
-0.003635
0.000639
-0.005771
-0.001827
-0.001005
0.001625
-0.002484
0.001132
0.004255
-0.001169
-0.000676
-0.000841
0.002447
-0.001005
0.001296
-0.001827
-1.9e-05
-0.003142
-0.000841
-0.000512
-0.002484
-0.001169
-0.000512
-0.000347
0.001296
0.001132
0.000474
0.002447
-0.001498
0.00031
-0.000676
-0.000183
-0.000512
-0.002155
-0.001334
-0.000676
-0.003799
-0.002484
-0.001005
-0.000347
0.000639
0.002118
-0.000676
-0.000183
0.00146
-0.00232
0.002447
0.001132
0.001296
0.003433
0.006556
0.003597
0.003926
0.001789
0.002447
0.003104
0.002447
0.005569
0.004583
0.00672
0.003104
0.010664
0.005405
0.002447
0.002282
0.003268
0.002118
0.00146
0.000803
0.001789
0.001296
0.001625
0.000474
0.001625
0.004912
0.00146
0.001789
0.00146
0.002118
0.001954
0.002447
0.001296
-0.003963
0.002611
-0.001334
-0.001169
-0.001498
-0.000183
0.000474
0.001789
-0.000512
0.003433
-0.000676
0.00146
0.001296
0.002447
0.003268
0.002118
0.000967
0.001132
0.002447
0.000639
0.000639
-1.9e-05
0.000967
0.00031
0.00031
0.000146
0.00294
-0.000676
-0.001005
0.000639
-0.000676
0.001132
-0.002155
0.001132
-0.002648
0.000967
0.002118
0.002611
-0.000841
0.001132
0.00031
0.000967
0.000474
0.002775
0.000474
0.000803
-0.001169
-0.000676
-0.00347
-0.000183
-0.004292
-0.000512
-0.001827
0.001954
0.004419
-0.001334
0.002282
0.003268
0.000803
-0.000512
0.000474
-1.9e-05
-1.9e-05
-0.000676
0.00031
-1.9e-05
0.00146
0.001625
-0.000183
0.003597
-0.001498
0.006391
0.012801
0.021019
0.028251
0.03729
0.041399
0.048631
0.053397
0.063587
0.067532
0.070162
0.080352
0.081502
0.087255
0.091364
0.099253
0.100239
0.106813
0.112237
0.113881
0.119633
0.120126
0.121441
0.12818
0.127194
0.131138
0.13459
0.136562
0.139849
0.142479
0.144615
0.151847
0.153491
0.152176
0.15612
0.157107
0.159408
0.160065
0.162859
0.16138
0.164338
0.166475
0.166475
0.167625
0.167461
0.171899
0.173378
0.172885
0.176008
0.177158
0.175843
0.179788
0.178966
0.183568
0.180116
0.179952
0.180445
0.178802
0.18176
0.183075
0.184883
0.184883
0.188827
0.186526
0.189156
0.187348
0.188006
0.190471
0.191786
0.188992
0.189978
0.19721
0.189156
0.191621
0.192115
0.191293
0.19195
0.189485
0.196223
0.193101
0.190307
0.19195
0.192115
0.194416
0.195402
0.195402
0.196388
0.195895
0.196388
0.195237
0.196717
0.195402
0.197867
0.199675
0.198853
0.196223
0.198524
0.200332
0.198524
0.195402
0.198853
0.198031
0.199018
0.199182
0.199839
0.200825
0.200825
0.197045
0.200168
0.19836
0.197538
0.196223
0.198031
0.200825
0.197538
0.201319
0.199018
0.199182
0.200004
0.20099
0.197703
0.198853
0.200004
0.19573
0.201154
0.198689
0.202469
0.202469
0.193429
0.197374
0.203126
0.195237
0.197867
0.201154
0.200004
0.199018
0.20099
0.20099
0.20099
0.20099
0.199675
0.202305
0.198689
0.200825
0.198689
0.200332
0.199346
0.203291
0.199675
0.200661
0.200497
0.200004
0.201647
0.198524
0.201483
0.200004
0.203784
0.199839
0.203126
0.201976
0.203784
0.198689
0.196059
0.199346
0.200825
0.198196
0.199675
0.199511
0.198524
0.201319
0.201483
0.201154
0.199839
0.201154
0.199675
0.20099
0.199839
0.19836
0.198196
0.195073
0.200825
0.20099
0.198196
0.202469
0.198031
0.19836
0.20099
0.198853
0.200825
0.200004
0.20099
0.201154
0.203455
0.20099
0.202305
0.201976
0.201647
0.199511
0.200497
0.199182
0.199182
0.199346
0.201154
0.202305
0.198031
0.19721
0.199839
0.201154
0.199675
0.201647
0.202305
0.199018
0.194744
0.200332
0.201647
0.198524
0.199182
0.199182
0.203291
0.198689
0.201319
0.198524
0.199511
0.199839
0.20099
0.202633
0.198524
0.196059
0.198524
0.200825
0.19573
0.199511
0.200332
0.199018
0.197867
0.197374
0.201154
0.200661
0.199346
0.20099
0.201647
0.200497
0.201976
0.202633
0.201812
0.200661
0.199346
0.200332
0.202633
0.198853
0.201812
0.201647
0.199346
0.200168
0.202305
0.198853
0.199182
0.199675
0.203126
0.202305
0.200825
0.201812
0.199346
0.197374
0.197538
0.199018
0.198689
0.201483
0.200825
0.20099
0.199346
0.200332
0.199346
0.200661
0.198524
0.200497
0.199018
0.19573
0.199675
0.199018
0.200168
0.196881
0.20099
0.199675
0.201319
0.201812
0.202798
0.200332
0.201483
0.200497
0.198196
0.201647
0.199182
0.202633
0.200004
0.20099
0.199839
0.199346
0.197703
0.205263
0.197538
0.201976
0.200825
0.203126
0.202962
0.203126
0.203291
0.202305
0.199675
0.199839
0.202469
0.198524
0.196717
0.199182
0.200661
0.199511
0.201483
0.200332
0.203948
0.201483
0.199346
0.200332
0.200004
0.198524
0.201154
0.202305
0.19836
0.199182
0.197867
0.199675
0.199346
0.19836
0.197867
0.201154
0.198196
0.205263
0.203455
0.201319
0.202305
0.201812
0.199839
0.199346
0.201976
0.198689
0.201319
0.19721
0.201812
0.199346
0.202469
0.200332
0.204934
0.200661
0.197703
0.202305
0.200168
0.200825
0.199018
0.202305
0.20099
0.201154
0.197867
0.201647
0.196552
0.197867
0.197703
0.199018
0.199346
0.200332
0.202469
0.202305
0.201812
0.200661
0.203291
0.199839
0.204441
0.197538
0.197045
0.193429
0.200497
0.198853
0.199346
0.199839
0.197045
0.202798
0.202633
0.199346
0.198853
0.200825
0.198689
0.200168
0.201319
0.201812
0.199839
0.201483
0.200497
0.200004
0.197538
0.199675
0.201812
0.199182
0.200004
0.200497
0.200825
0.199675
0.203126
0.20099
0.200661
0.200168
0.201154
0.199675
0.200332
0.195895
0.199839
0.195073
0.198689
0.198524
0.200332
0.201319
0.200168
0.200661
0.200661
0.201976
0.198853
0.205427
0.200004
0.200825
0.197045
0.197045
0.198689
0.198196
0.197703
0.199346
0.198689
0.199675
0.202305
0.199839
0.200497
0.197867
0.205099
0.200004
0.201319
0.201976
0.20099
0.200332
0.19836
0.200168
0.200497
0.199346
0.200332
0.20214
0.200168
0.202633
0.199182
0.201154
0.199675
0.20099
0.200825
0.20214
0.200825
0.200497
0.201483
0.19836
0.196223
0.197867
0.198524
0.196717
0.20099
0.199346
0.202798
0.199511
0.201154
0.198524
0.200497
0.199018
0.199675
0.199839
0.19721
0.194909
0.19721
0.201647
0.197867
0.197538
0.199675
0.200661
0.198689
0.201483
0.199839
0.199511
0.202469
0.200332
0.203455
0.202305
0.201483
0.201319
0.201647
0.199346
0.203126
0.199346
0.200661
0.199675
0.200825
0.201976
0.201976
0.199018
0.200332
0.200661
0.200332
0.201154
0.201154
0.199675
0.198689
0.200497
0.196059
0.201483
0.198689
0.201483
0.201154
0.200004
0.199346
0.199839
0.199018
0.197374
0.201154
0.199018
0.201154
0.199839
0.198853
0.195402
0.196552
0.200497
0.200332
0.197538
0.19836
0.201319
0.202469
0.199511
0.200825
0.199018
0.200332
0.197538
0.198031
0.20099
0.198524
0.199839
0.202798
0.199839
0.200004
0.20362
0.20099
0.201647
0.197374
0.199018
0.20099
0.198853
0.196388
0.200332
0.200332
0.200168
0.201976
0.200497
0.200332
0.199018
0.199346
0.199346
0.201647
0.200004
0.201976
0.200497
0.199675
0.199182
0.199346
0.199346
0.197867
0.200332
0.197867
0.196223
0.196552
0.197538
0.195895
0.19836
0.197703
0.202962
0.200661
0.200004
0.201483
0.197374
0.200168
0.198524
0.199675
0.197538
0.197045
0.19836
0.201154
0.198524
0.199839
0.199346
0.201647
0.200004
0.200497
0.198853
0.198524
0.200661
0.197703
0.200004
0.196881
0.19721
0.198524
0.201319
0.199346
0.198524
0.195895
0.199018
0.199839
0.200825
0.199839
0.198524
0.199511
0.198689
0.200332
0.198524
0.199839
0.200004
0.198853
0.201319
0.199511
0.195237
0.197867
0.199675
0.197374
0.196717
0.199675
0.198196
0.199511
0.201976
0.200004
0.201154
0.199346
0.199018
0.200004
0.200004
0.197045
0.202469
0.196059
0.201154
0.199839
0.200168
0.201154
0.199182
0.200661
0.198031
0.198689
0.198689
0.199675
0.198689
0.201154
0.19836
0.20099
0.199839
0.19836
0.196552
0.200661
0.198524
0.19721
0.19836
0.196552
0.20099
0.197867
0.198853
0.199346
0.199511
0.198689
0.200168
0.198196
0.199182
0.199018
0.198689
0.198524
0.198196
0.202633
0.196717
0.197045
0.196059
0.199018
0.198196
0.199839
0.197538
0.200004
0.199675
0.202633
0.200661
0.200004
0.203455
0.201154
0.200004
0.200825
0.199346
0.199839
0.199839
0.200497
0.199182
0.198524
0.200497
0.199182
0.20099
0.199346
0.201483
0.200332
0.201483
0.200661
0.200332
0.198196
0.197867
0.196059
0.198524
0.194416
0.19721
0.200497
0.196552
0.198853
0.197538
0.200825
0.200497
0.199511
0.200004
0.200497
0.199511
0.198524
0.19458
0.192443
0.197703
0.195073
0.197538
0.19573
0.201647
0.19721
0.200004
0.198031
0.198853
0.199675
0.200332
0.199182
0.198853
0.204934
0.198524
0.19836
0.19573
0.20214
0.199018
0.197867
0.19573
0.199346
0.197703
0.196717
0.199346
0.198853
0.198853
0.200497
0.200497
0.199346
0.19836
0.194251
0.198689
0.19721
0.197538
0.197867
0.198689
0.092186
0.033346
0.039427
0.01313
0.018554
0.026771
0.038276
0.041892
0.046987
0.052904
0.0603
0.066053
0.069669
0.072463
0.080023
0.086104
0.091528
0.095473
0.10139
0.103033
0.109607
0.112566
0.116346
0.123085
0.124564
0.124564
0.129988
0.132453
0.133768
0.135576
0.137548
0.143465
0.146095
0.147245
0.14856
0.153491
0.151354
0.154148
0.121441
0.111744
0.116839
0.117496
0.123742
0.127029
0.130645
0.13196
0.136233
0.137877
0.141493
0.140835
0.14593
0.145437
0.149053
0.152833
0.153655
0.155956
0.155956
0.159408
0.16138
0.15875
0.162202
0.164667
0.16253
0.173049
0.169598
0.171406
0.1742
0.175515
0.173542
0.174693
0.176665
0.176501
0.17913
0.176336
0.178637
0.179623
0.180281
0.179952
0.179952
0.178637
0.18061
0.182746
0.18439
0.184554
0.185212
0.185869
0.186855
0.190307
0.191128
0.190471
0.186855
0.1908
0.18932
0.189156
0.188006
0.189485
0.189649
0.193594
0.1908
0.192115
0.194087
0.19195
0.193922
0.192608
0.193101
0.192115
0.193922
0.191457
0.194251
0.192443
0.195402
0.191293
0.19195
0.19573
0.194416
0.196223
0.197374
0.195237
0.198031
0.19721
0.195895
0.19836
0.195566
0.194909
0.193922
0.19836
0.194909
0.196717
0.197045
0.19721
0.198524
0.198031
0.197867
0.199182
0.198689
0.197374
0.201319
0.198853
0.196881
0.197045
0.19721
0.198689
0.198689
0.196881
0.19836
0.19721
0.19721
0.198853
0.197867
0.199018
0.199839
0.199675
0.200825
0.200661
0.19836
0.199346
0.19721
0.198524
0.197703
0.199511
0.198524
0.196717
0.194416
0.198196
0.198689
0.197538
0.198524
0.192443
0.200661
0.200168
0.202469
0.199346
0.201154
0.197045
0.198853
0.199018
0.197538
0.194416
0.197374
0.196717
0.198031
0.200332
0.19836
0.200004
0.198689
0.200825
0.198689
0.199018
0.18817
0.200332
0.198524
0.198689
0.198853
0.199346
0.19836
0.197374
0.200332
0.197867
0.200661
0.188006
0.198524
0.197045
0.199346
0.197538
0.199346
0.199182
0.198524
0.200661
0.199675
0.197867
0.187348
0.197867
0.197374
0.198524
0.197703
0.201976
0.199839
0.199018
0.20214
0.19721
0.199018
0.188499
0.20099
0.201319
0.199182
0.199018
0.201154
0.199182
0.201812
0.200497
0.201812
0.199675
0.192936
0.197374
0.198031
0.199018
0.199511
0.19721
0.201812
0.197045
0.196717
0.202633
0.200004
0.193594
0.198524
0.201319
0.198524
0.199839
0.197867
0.200661
0.197703
0.199182
0.199018
0.201812
0.196223
0.197703
0.200332
0.201154
0.20099
0.19721
0.199182
0.196717
0.199018
0.198196
0.200168
0.196881
0.196059
0.197538
0.200168
0.198031
0.195895
0.198524
0.198853
0.199675
0.201812
0.200168
0.198853
0.202469
0.198853
0.199182
0.199675
0.199018
0.198689
0.198689
0.201154
0.198689
0.198689
0.199839
0.201319
0.200497
0.202962
0.205592
0.202798
0.200497
0.201812
0.200497
0.200825
0.198689
0.198196
0.196717
0.199018
0.197867
0.198853
0.200004
0.196223
0.20099
0.200168
0.200497
0.200661
0.199675
0.196388
0.199018
0.199018
0.197703
0.197703
0.197538
0.198689
0.200332
0.198853
0.201483
0.202305
0.199018
0.200004
0.198853
0.199182
0.200004
0.200497
0.198689
0.202305
0.198689
0.203291
0.19836
0.196059
0.200004
0.198689
0.199346
0.198853
0.202469
0.194744
0.201976
0.197867
0.197374
0.201154
0.198031
0.198031
0.199018
0.199018
0.198853
0.198031
0.197867
0.200661
0.199018
0.199346
0.203126
0.198031
0.197867
0.200332
0.199018
0.199182
0.199182
0.199018
0.197045
0.197374
0.19836
0.20362
0.197374
0.197045
0.198853
0.197374
0.199839
0.201483
0.20099
0.199018
0.202305
0.199018
0.202633
0.199018
0.197867
0.197538
0.199018
0.199675
0.200332
0.198689
0.19836
0.200168
0.198196
0.202798
0.193265
0.197374
0.19721
0.198196
0.196223
0.201154
0.19721
0.200497
0.200332
0.196717
0.201647
0.195566
0.199675
0.19721
0.199511
0.199018
0.200004
0.197045
0.20099
0.19836
0.200168
0.201319
0.193265
0.196717
0.196223
0.19721
0.197374
0.198689
0.196717
0.198853
0.197867
0.200825
0.200332
0.197374
0.199511
0.19836
0.199182
0.202305
0.199346
0.197045
0.200825
0.198031
0.200168
0.200004
0.196717
0.197374
0.198031
0.197045
0.19836
0.196388
0.19836
0.199346
0.199346
0.19836
0.200497
0.198524
0.194416
0.195895
0.196881
0.195073
0.197045
0.19721
0.19836
0.199511
0.198031
0.205427
0.197045
0.199511
0.199346
0.198524
0.199182
0.197045
0.195073
0.196717
0.197867
0.19573
0.199839
0.195402
0.201319
0.200004
0.201319
0.20099
0.203455
0.196388
0.198524
0.200825
0.196881
0.20099
0.196881
0.198196
0.197538
0.200825
0.191786
0.199182
0.19573
0.198689
0.199018
0.199839
0.199182
0.200661
0.202469
0.20099
0.198689
0.198689
0.199018
0.19195
0.19573
0.197703
0.198031
0.197374
0.198031
0.196552
0.195402
0.199346
0.199182
0.196223
0.199675
0.200661
0.199675
0.199346
0.200004
0.197538
0.195895
0.197867
0.196223
0.198524
0.192772
0.192936
0.19573
0.197374
0.19721
0.200168
0.198031
0.200825
0.195237
0.19721
0.199018
0.196059
0.198689
0.199346
0.198031
0.199675
0.199511
0.197703
0.198031
0.198689
0.201154
0.196223
0.198689
0.200004
0.200825
0.199511
0.199018
0.199511
0.196223
0.199511
0.200332
0.20099
0.199182
0.198689
0.196552
0.198853
0.198853
0.19836
0.199018
0.196881
0.198196
0.198031
0.197538
0.197374
0.197374
0.195566
0.199182
0.19573
0.196717
0.197867
0.196881
0.193429
0.194909
0.192443
0.197374
0.199675
0.194744
0.199675
0.197867
0.198689
0.195895
0.196881
0.196717
0.198524
0.197867
0.197867
0.197867
0.196223
0.198853
0.199182
0.198689
0.196059
0.197045
0.19836
0.197703
0.195895
0.195073
0.19721
0.193758
0.198524
0.198196
0.188334
0.150039
0.154148
0.1576
0.160229
0.159243
0.163352
0.163188
0.164174
0.165817
0.168118
0.168447
0.168283
0.170091
0.173378
0.171899
0.173542
0.176829
0.176501
0.176501
0.181596
0.182089
0.180774
0.178966
0.178473
0.183568
0.182417
0.187019
0.184883
0.185376
0.183075
0.188827
0.187513
0.189485
0.185869
0.188334
0.191457
0.188992
0.191293
0.189978
0.192115
0.187019
0.192279
0.188334
0.191621
0.185376
0.189814
0.193101
0.191457
0.192443
0.188827
0.191457
0.190964
0.195073
0.195402
0.194416
0.189814
0.192608
0.194416
0.194909
0.194087
0.195566
0.193594
0.193265
0.195237
0.192772
0.197374
0.191621
0.191786
0.192936
0.196223
0.196223
0.198689
0.196717
0.19573
0.197867
0.197867
0.197538
0.195237
0.195895
0.197703
0.198689
0.196388
0.199346
0.197374
0.196223
0.199182
0.19573
0.197703
0.197867
0.196717
0.198853
0.196881
0.196223
0.197374
0.197045
0.19721
0.198689
0.199182
0.196881
0.198689
0.199018
0.198853
0.199182
0.20099
0.199018
0.198196
0.197703
0.198689
0.200661
0.19836
0.200661
0.197045
0.198853
0.198689
0.199346
0.196223
0.199018
0.196717
0.197374
0.195073
0.199511
0.202305
0.197703
0.199346
0.200661
0.201812
0.199511
0.20362
0.199346
0.201319
0.199839
0.201154
0.201154
0.199511
0.198853
0.198524
0.198689
0.200332
0.200825
0.200661
0.200661
0.202798
0.200332
0.202305
0.198689
0.200332
0.20099
0.20099
0.200332
0.200497
0.201154
0.201483
0.199018
0.200168
0.204277
0.200004
0.200332
0.203126
0.202633
0.200825
0.203948
0.203784
0.199675
0.205099
0.202798
0.207071
0.199511
0.202962
0.199675
0.197867
0.199346
0.201319
0.204277
0.202962
0.201154
0.204441
0.211673
0.20099
0.205921
0.203291
0.20477
0.201812
0.202798
0.20099
0.202469
0.20099
0.200168
0.206742
0.200825
0.201812
0.202305
0.201319
0.200825
0.204441
0.200004
0.203126
0.200661
0.202798
0.202469
0.19721
0.198853
0.195073
0.192443
0.193922
0.196388
0.194416
0.197045
0.197538
0.197703
0.198689
0.197374
0.19573
0.198196
0.194744
0.193922
0.194744
0.195073
0.191786
0.195402
0.195073
0.195073
0.193101
0.193429
0.19458
0.192772
0.19458
0.197045
0.194909
0.19458
0.196223
0.193429
0.194251
0.19458
0.19573
0.190964
0.191786
0.192608
0.193594
0.193265
0.191457
0.19836
0.193758
0.197867
0.19458
0.196717
0.195073
0.194087
0.192443
0.19458
0.194087
0.194087
0.194909
0.189978
0.19458
0.193101
0.195566
0.192772
0.197538
0.192115
0.19458
0.194909
0.195073
0.195402
0.194416
0.192608
0.191457
0.194416
0.190307
0.195895
0.196059
0.196059
0.193922
0.197703
0.19573
0.194416
0.199018
0.196717
0.195073
0.195402
0.197538
0.196388
0.197374
0.195402
0.199839
0.196059
0.198524
0.198196
0.197703
0.198031
0.196881
0.193594
0.200168
0.198031
0.199511
0.199346
0.200168
0.197703
0.199346
0.19836
0.197867
0.198031
0.196717
0.197538
0.199511
0.20099
0.200497
0.199346
0.198689
0.198689
0.196552
0.197538
0.197045
0.197538
0.199018
0.19195
0.196059
0.19836
0.197703
0.196059
0.197374
0.198196
0.199182
0.200168
0.19836
0.195073
0.200497
0.194251
0.196717
0.19836
0.196059
0.201812
0.196388
0.197374
0.197374
0.199346
0.199018
0.201319
0.198689
0.200661
0.199675
0.198853
0.197045
0.195402
0.196059
0.197538
0.19836
0.200004
0.200004
0.194744
0.199675
0.198524
0.199675
0.199675
0.201319
0.200497
0.20477
0.199018
0.199839
0.198689
0.196552
0.197867
0.198031
0.200661
0.197538
0.197374
0.195237
0.196388
0.196552
0.197538
0.197374
0.198853
0.198196
0.202469
0.201647
0.197045
0.197867
0.194087
0.198689
0.196717
0.200004
0.198689
0.197703
0.197538
0.19721
0.19836
0.198689
0.19836
0.20099

Kurve 4

0.002775
0.000146
0.002282
0.001954
0.002447
0.00146
0.002447
-0.000512
0.001789
0.001132
0.000146
0.001132
-0.002155
0.001789
-0.001005
0.002447
0.00146
0.002282
0.000803
0.001789
0.001625
0.000146
0.000474
0.000639
0.00146
0.00031
0.003104
0.00031
0.005076
0.000474
0.000967
0.002775
0.001625
0.000639
0.003761
0.001296
0.004912
0.000639
0.000146
0.001132
0.000967
0.002775
-0.001662
0.001954
-0.001991
0.005734
0.003268
0.003104
0.006227
0.004419
0.00146
0.004419
0.005734
0.003761
0.004583
0.003433
0.003761
0.002447
0.003433
0.003926
0.003597
0.002282
0.003104
0.003761
0.001625
0.003433
0.003926
0.00294
0.003761
0.001954
0.004419
0.005734
0.00146
0.002775
0.001954
0.001132
-0.001991
-0.001005
-0.002648
0.003268
-0.001991
0.00146
0.002447
0.002118
0.002611
0.005734
0.002447
0.002282
0.003104
0.000474
0.002118
0.000146
0.000803
0.002447
0.001954
0.001296
0.005898
0.00031
0.005405
-0.006264
-0.000676
0.003104
0.000803
0.002611
0.005241
0.003597
0.001954
0.002282
-0.000183
0.004255
0.000803
0.00146
-0.000841
0.000967
0.000639
0.00146
0.00294
0.000639
0.004583
0.002611
0.001132
0.001296
0.003926
0.003926
0.003104
0.00146
0.00294
0.001132
-0.000347
0.000639
0.001296
-0.001498
0.000146
0.000803
-0.000841
0.003268
0.001625
0.003104
0.002447
0.003926
0.002447
0.003268
-1.9e-05
0.002447
0.003104
-0.001334
-0.00347
-0.000347
0.00031
-0.000676
0.007542
0.003433
0.002611
0.002118
-0.001005
0.000146
0.003433
-0.000183
0.004255
0.000146
0.001625
0.002447
-0.000841
0.001954
-0.001169
0.000967
0.000639
0.003433
-0.000347
0.002611
-0.000347
0.000474
-0.001662
0.000146
-0.000676
0.000967
0.000639
0.003433
0.00294
-1.9e-05
0.001296
0.000803
-0.000183
0.002447
0.002282
-0.002155
0.002775
-0.001498
-0.003142
-0.001005
0.000474
-0.000512
0.00031
0.000639
0.00031
-0.000183
0.000146
0.001625
-1.9e-05
0.003926
0.00294
0.002447
0.000803
0.003104
-0.000347
-0.000841
0.001296
-0.002155
0.002118
0.004583
0.001625
0.003268
0.004419
0.000967
0.006062
0.000639
0.002775
0.002118
0.002775
0.001132
0.000803
0.002611
-0.002155
-0.000841
0.000474
0.002282
0.00146
0.002447
0.005569
0.004912
0.001625
0.003433
0.001296
0.003761
0.001789
0.002118
0.001132
0.001625
-0.002155
-0.000841
-0.000512
-0.000512
-0.000512
0.001789
-0.001827
0.000474
0.004419
0.000639
0.005241
0.001954
0.002775
-0.001827
0.001132
0.00031
0.000967
0.000967
0.001296
0.002447
0.00409
0.004583
0.002775
0.00409
0.002118
0.002611
0.004255
0.003104
0.004419
0.003433
0.006556
0.006391
0.004255
0.005076
0.001789
0.002611
0.003433
0.000639
0.004583
0.002611
0.005076
0.005241
0.005405
0.004912
0.006391
0.003104
0.003761
0.003268
0.002775
0.001789
0.001296
0.00031
0.001625
0.003433
-0.00232
0.000474
-0.003635
0.002282
0.004583
0.000474
0.00409
0.004583
-0.001005
0.003926
0.005241
0.004748
0.002611
0.001789
0.002447
0.001954
0.002447
0.002118
0.00294
0.00146
0.003268
0.003597
0.003926
0.002447
0.00409
0.002447
0.003597
0.003268
0.001789
0.002447
0.000639
0.00294
0.002611
0.000146
0.006391
0.003926
-0.001169
0.004912
0.00294
0.00409
0.001789
0.003597
0.003268
0.003597
0.003926
0.001296
0.001625
-1.9e-05
-0.000183
-0.000347
0.00031
-0.00232
-0.002813
0.00146
0.002611
0.002282
0.001296
0.000967
0.002775
0.005241
0.003597
0.005405
0.002282
0.003433
0.00146
0.004748
0.003597
0.002447
-0.001169
0.003926
0.000803
0.00146
0.001132
0.001625
0.002611
0.002282
0.003761
0.004583
-0.000347
-0.000183
0.00294
0.00146
0.002775
0.002118
0.003268
0.001789
0.003104
0.004255
0.004419
-0.000347
-0.000841
-0.001827
0.003268
0.002447
0.003433
0.003926
0.002447
0.004255
0.000474
0.00409
-0.001498
-1.9e-05
-0.004128
0.002447
0.002282
0.000474
0.003268
0.002282
0.004419
0.002282
0.004583
-0.004949
0.00146
0.001296
0.005569
0.002775
0.004748
0.00294
0.000803
0.004255
0.002775
0.000146
-0.005114
0.001132
0.000474
0.003268
0.001132
0.007213
0.001954
0.002282
0.001625
0.005241
0.002118
-0.003799
0.003104
0.002611
0.001625
0.003433
0.002775
0.002775
0.002447
0.000474
0.003268
0.000803
-0.005936
-0.001662
-0.002155
0.001789
0.002282
-0.002648
0.00294
0.002282
-0.003799
0.00146
0.000803
-0.009223
-0.001334
0.003268
-0.000841
-0.000183
-0.000512
-0.001662
-0.001991
0.001625
0.002118
0.002447
-0.005771
-1.9e-05
0.001789
-0.000183
0.000967
-0.000841
-1.9e-05
-0.000512
-0.000512
-1.9e-05
0.000474
-0.006922
-0.001005
-0.000841
-0.000347
-0.000347
0.002118
0.001789
-0.000841
0.002447
0.003268
0.004419
-0.008565
0.002447
0.001132
0.000967
-0.000183
0.002611
0.000803
0.000639
0.002118
0.001625
0.003597
-0.00988
-0.001005
0.00409
-1.9e-05
-0.000347
0.005076
0.003104
0.000474
0.005241
0.005076
0.002118
-0.005443
0.001296
0.005241
0.005898
0.005898
0.005076
0.00409
0.00409
0.004255
0.006556
0.00409
-0.004949
0.003268
0.004419
0.004912
0.002282
0.003761
0.004748
0.001132
0.003761
0.003433
0.004583
-0.004456
-0.000183
0.003597
0.004583
0.008692
0.005734
0.007377
0.004583
0.006391
0.008857
0.005241
-0.005771
0.004583
0.003433
0.000967
0.000967
0.002611
0.002611
-0.001991
0.003597
0.003433
0.002447
-0.007086
0.002775
0.001954
0.002775
0.007706
0.003761
0.001789
0.00294
0.005405
0.005241
0.000803
-0.008565
0.000967
-0.001827
0.000639
0.000967
0.001132
0.000474
0.000803
0.001789
0.00409
0.000639
-0.008894
-0.000183
-0.001005
-0.001005
-0.001169
0.000474
-0.00232
-0.000676
-0.001334
-0.000183
0.002282
-0.008237
-0.002813
0.003597
-0.001334
0.000639
0.000146
-0.001498
-0.003963
-0.003635
-0.00232
-0.004785
-0.012674
-0.004621
-0.001169
-0.002484
0.000967
-0.002484
-0.002813
-0.002155
0.000146
0.000146
-1.9e-05
-0.009551
-0.002648
-1.9e-05
-0.001169
-0.00347
-0.005771
-0.002813
-0.005443
-0.000841
-0.003142
-1.9e-05
-0.006922
-0.003799
-0.000676
0.001132
0.00409
0.00146
0.002118
-0.001005
0.000967
-0.002155
-0.000512
-0.010045
-0.001662
-0.00232
-0.000347
0.000803
-0.001005
-0.000183
-0.001662
0.002447
-0.000512
0.001132
-0.007086
0.001132
-0.001169
0.000474
-0.001169
0.000639
-0.001991
-1.9e-05
-0.001827
0.001625
0.001296
-0.005607
0.002118
0.001625
0.004419
0.001625
0.002775
0.001132
0.002775
0.003926
0.006062
0.003104
-0.006757
0.00294
0.004583
0.005569
0.003926
0.004583
0.001954
0.005734
0.003761
0.004748
0.005898
-0.003635
0.003104
0.007542
0.00409
0.004255
0.00409
0.005241
0.003597
0.003926
0.004419
0.003433
-0.006593
0.00146
0.003926
0.002775
0.00672
0.003761
0.003926
0.000803
0.001954
0.001954
0.002447
-0.004785
0.00031
0.002447
0.001625
0.005076
0.00294
0.004255
0.00409
0.003104
0.003104
0.004255
-0.004292
0.000803
0.000967
0.00294
0.001625
0.001789
0.000474
0.006062
0.005241
0.00146
0.004419
0.002282
0.000474
-0.000676
0.001625
-0.001005
0.000146
0.000474
0.000639
-0.000676
0.000474
0.002282
0.005405
-0.000512
0.001132
0.002282
-0.001005
0.004255
-0.001662
0.000803
0.000639
0.002775
-0.000512
0.006062
-0.002155
0.000146
0.000474
-0.001827
-0.001005
-1.9e-05
-0.000183
0.000474
-0.000676
0.00146
0.006391
-0.004949
0.002775
-0.001334
0.001625
-0.000183
-0.000347
0.003597
0.012965
0.022169
0.029401
0.040906
0.043207
0.054383
0.059314
0.067203
0.069997
0.07953
0.080681
0.083475
0.089885
0.096623
0.099746
0.101554
0.106813
0.112073
0.115524
0.119633
0.124564
0.1267
0.130809
0.133275
0.138699
0.138534
0.145437
0.144287
0.145602
0.147903
0.149217
0.15234
0.156778
0.156285
0.156613
0.161215
0.159901
0.163188
0.16401
0.168447
0.168447
0.171734
0.172063
0.175021
0.172063
0.175843
0.178309
0.17535
0.177322
0.179952
0.180281
0.18061
0.183897
0.180445
0.18554
0.184225
0.187348
0.189649
0.187348
0.186526
0.191293
0.188663
0.190471
0.19195
0.189814
0.189814
0.19195
0.189978
0.192279
0.195073
0.1908
0.194416
0.191293
0.191457
0.195895
0.196388
0.192443
0.19721
0.194416
0.196059
0.199018
0.195237
0.197045
0.192115
0.193429
0.193922
0.194416
0.19195
0.196717
0.194087
0.199346
0.199182
0.194416
0.199018
0.200332
0.198524
0.198196
0.198524
0.195237
0.199839
0.196717
0.198853
0.198524
0.198196
0.194909
0.19836
0.198689
0.193429
0.192772
0.19458
0.200825
0.199346
0.198689
0.199346
0.198524
0.19836
0.199675
0.197538
0.198196
0.19836
0.196223
0.197538
0.199346
0.198689
0.196059
0.196059
0.197867
0.198031
0.19836
0.199839
0.199018
0.199182
0.198689
0.199018
0.196223
0.200497
0.195895
0.19836
0.197538
0.199182
0.19458
0.19573
0.196881
0.198524
0.20099
0.199018
0.200168
0.196388
0.196881
0.19458
0.200004
0.198853
0.199346
0.199346
0.200497
0.199839
0.200004
0.199839
0.197045
0.199675
0.195895
0.199675
0.196717
0.200004
0.19836
0.201483
0.200332
0.202469
0.203126
0.205427
0.201647
0.200168
0.201154
0.19836
0.199182
0.197703
0.200332
0.199182
0.202305
0.20099
0.202469
0.20099
0.202633
0.201483
0.201483
0.199182
0.197703
0.203126
0.200004
0.201154
0.201647
0.20099
0.202633
0.202305
0.200332
0.202798
0.201812
0.201647
0.20477
0.209372
0.202962
0.205756
0.203126
0.204277
0.206249
0.200825
0.202798
0.201483
0.202305
0.200825
0.204277
0.20099
0.204606
0.201154
0.202305
0.203784
0.200825
0.205756
0.203291
0.199182
0.198853
0.202305
0.202305
0.201812
0.20362
0.202962
0.201976
0.203948
0.200661
0.204441
0.200825
0.203291
0.202633
0.200168
0.203455
0.201812
0.20362
0.199675
0.204441
0.202962
0.205263
0.201483
0.205921
0.204277
0.203455
0.20214
0.203291
0.201976
0.200168
0.204606
0.204934
0.203948
0.202305
0.204113
0.203126
0.20362
0.203455
0.203126
0.201154
0.202962
0.202469
0.204113
0.200661
0.204277
0.200497
0.201483
0.202469
0.203126
0.197703
0.197703
0.20362
0.201483
0.200004
0.198853
0.201319
0.201319
0.200661
0.203784
0.202798
0.20099
0.200661
0.199839
0.20099
0.199839
0.197703
0.199018
0.199018
0.199182
0.200661
0.204606
0.199346
0.204277
0.20099
0.20099
0.202633
0.201154
0.200168
0.204934
0.203291
0.200497
0.200004
0.199839
0.20214
0.20099
0.202633
0.200332
0.202633
0.199675
0.203784
0.202305
0.203291
0.202798
0.201154
0.20099
0.200661
0.200661
0.203126
0.199346
0.190635
0.202633
0.196717
0.196223
0.200168
0.199346
0.197538
0.20099
0.197045
0.200332
0.203126
0.198689
0.201483
0.200497
0.199346
0.199346
0.196717
0.19721
0.199346
0.195566
0.196717
0.199182
0.198853
0.201647
0.201976
0.20099
0.201483
0.197374
0.200661
0.198689
0.196223
0.20362
0.19458
0.197045
0.197703
0.199675
0.198853
0.200661
0.198853
0.200004
0.200332
0.201154
0.201647
0.201319
0.201647
0.198689
0.20099
0.199182
0.201647
0.197867
0.203455
0.19836
0.199182
0.202469
0.20099
0.197867
0.203291
0.201647
0.200004
0.20477
0.200497
0.202305
0.199839
0.197867
0.20099
0.199018
0.198524
0.201812
0.199018
0.200168
0.200004
0.200004
0.200497
0.20099
0.201976
0.202469
0.204113
0.203291
0.203948
0.203455
0.203455
0.205592
0.206085
0.202305
0.20099
0.201812
0.203126
0.199839
0.20214
0.202305
0.202962
0.203784
0.202305
0.202305
0.200661
0.201812
0.201812
0.201812
0.199839
0.200825
0.199182
0.199675
0.201976
0.197867
0.197045
0.199018
0.200004
0.198524
0.201812
0.200332
0.198031
0.200168
0.20099
0.198524
0.199839
0.196388
0.198031
0.20099
0.194744
0.197538
0.198853
0.200661
0.199839
0.200661
0.198524
0.201812
0.199018
0.194251
0.197374
0.200168
0.199511
0.200497
0.203126
0.202798
0.202469
0.200168
0.202962
0.200168
0.198524
0.198524
0.200497
0.198031
0.200332
0.199018
0.199018
0.200004
0.198853
0.201319
0.198853
0.196223
0.196223
0.200004
0.197538
0.201812
0.200661
0.203126
0.200497
0.201812
0.200661
0.201319
0.198031
0.199182
0.199346
0.199511
0.199675
0.200168
0.20099
0.199511
0.199675
0.201812
0.202305
0.201483
0.20099
0.202962
0.200332
0.202469
0.203126
0.201319
0.200661
0.201647
0.204441
0.202633
0.199511
0.204441
0.205921
0.204606
0.206085
0.206742
0.203291
0.20477
0.202305
0.204934
0.20099
0.201976
0.199346
0.201812
0.202962
0.204934
0.203948
0.200332
0.202469
0.205263
0.206414
0.20214
0.207564
0.201154
0.204441
0.202469
0.205921
0.202798
0.203455
0.201812
0.201483
0.203455
0.202305
0.20099
0.201483
0.202469
0.200168
0.203948
0.202798
0.206249
0.202305
0.204441
0.204441
0.199346
0.205592
0.200825
0.202305
0.203126
0.204441
0.201319
0.201154
0.199182
0.203126
0.204113
0.202469
0.201976
0.20362
0.201319
0.202469
0.204934
0.202633
0.201319
0.201812
0.202633
0.20362
0.201647
0.201976
0.205592
0.200497
0.202305
0.203126
0.204441
0.198196
0.200497
0.199182
0.202305
0.201483
0.200004
0.20214
0.199018
0.199018
0.200004
0.203126
0.197867
0.199346
0.19836
0.199018
0.197045
0.196059
0.19836
0.200332
0.199018
0.200168
0.199839
0.195237
0.20099
0.197045
0.200497
0.197867
0.199182
0.198031
0.198853
0.197703
0.197867
0.199018
0.199511
0.200168
0.199839
0.201154
0.199675
0.20214
0.200004
0.20214
0.200004
0.201319
0.203291
0.20362
0.202633
0.20214
0.199839
0.199182
0.199182
0.200497
0.20099
0.205427
0.199511
0.201647
0.204934
0.200332
0.204113
0.201154
0.201812
0.201812
0.202305
0.20099
0.199511
0.193922
0.199346
0.198031
0.200168
0.202798
0.201483
0.202305
0.202469
0.203291
0.201154
0.203948
0.201154
0.203455
0.20362
0.201647
0.203948
0.201483
0.199346
0.200497
0.203126
0.200004
0.203784
0.199182
0.204277
0.203784
0.205921
0.20362
0.207235
0.202469
0.202469
0.205921
0.199839
0.200332
0.200004
0.201319
0.20099
0.202469
0.201647
0.205921
0.199346
0.201319
0.202962
0.202798
0.202469
0.202798
0.202962
0.202798
0.199182
0.200825
0.200168
0.201319
0.200004
0.198524
0.20214
0.20099
0.20099
0.198689
0.204277
0.204113
0.203291
0.203126
0.205263
0.203948
0.20362
0.204277
0.203126
0.199675
0.199675
0.200497
0.200825
0.201154
0.199511
0.201319
0.19836
0.200497
0.200825
0.200661
0.200497
0.205099
0.201483
0.199346
0.197867
0.197703
0.200004
0.199182
0.198031
0.198196
0.200661
0.19573
0.199675
0.199675
0.200497
0.199018
0.199675
0.200332
0.201319
0.198031
0.196388
0.199018
0.195895
0.199675
0.197538
0.200004
0.198524
0.201812
0.197538
0.198853
0.196881
0.19721
0.199511
0.19836
0.203291
0.200168
0.197703
0.20362
0.202305
0.199182
0.200332
0.199346
0.199675
0.197538
0.198853
0.197867
0.201319
0.197374
0.20099
0.199839
0.200661
0.199182
0.200004
0.195895
0.194087
0.197045
0.200332
0.198689
0.19836
0.201319
0.199182
0.200661
0.200168
0.204113
0.200661
0.199839
0.199182
0.200004
0.199675
0.199346
0.199182
0.198196
0.199346
0.196223
0.200168
0.197703
0.200825
0.199675
0.201647
0.198031
0.201483
0.200332
0.199182
0.200332
0.197045
0.201483
0.199182
0.200168
0.199346
0.202469
0.199675
0.201154
0.202798
0.201812
0.20214
0.200168
0.201154
0.200661
0.200332
0.198031
0.201483
0.199346
0.202305
0.200168
0.199018
0.196881
0.201976
0.19836
0.201154
0.201976
0.197703
0.203784
0.199839
0.204441
0.199839
0.199182
0.199346
0.198524
0.19721
0.199182
0.197374
0.196223
0.198524
0.198853
0.201976
0.202962
0.203455
0.203784
0.204441
0.202305
0.203291
0.200661
0.200168
0.200825
0.201319
0.198689
0.202305
0.200332
0.201976
0.200332
0.202962
0.200332
0.200004
0.202962
0.203291
0.204441
0.199346
0.20099
0.200825
0.200332
0.199511
0.200004
0.197538
0.203126
0.196717
0.19836
0.199346
0.198524
0.200004
0.201154
0.200661
0.200661
0.200825
0.197867
0.197703
0.196059
0.198196
0.199839
0.197867
0.19721
0.198853
0.194909
0.195895
0.197538
0.195237
0.196223
0.197374
0.20099
0.199675
0.20099
0.196552
0.198689
0.196388
0.199346
0.197045
0.196717
0.196059
0.196881
0.193429
0.194909
0.196223
0.197045
0.19721
0.197703
0.196881
0.196223
0.196552
0.197374
0.199018
0.196881
0.193429
0.197867
0.197538
0.197867
0.200004
0.195895
0.195566
0.197374
0.19573
0.19836
0.198196
0.197703
0.196552
0.197867
0.196059
0.194416
0.199018
0.198689
0.197045
0.196223
0.194087
0.199018
0.194744
0.197538
0.197867
0.197374
0.196388
0.195895
0.197703
0.197045
0.199018
0.19721
0.199675
0.197045
0.200661
0.196388
0.197374
0.19836
0.19458
0.197374
0.197867
0.199346
0.196059
0.198689
0.196552
0.199018
0.196223
0.201647
0.196881
0.200168
0.19836
0.198031
0.197867
0.199511
0.19836
0.199346
0.20099
0.19836
0.201154
0.195402
0.19836
0.196717
0.197045
0.19721
0.197703
0.198689
0.204113
0.200825
0.199675
0.199839
0.195402
0.200004
0.197374
0.196881
0.194416
0.196059
0.195237
0.197867
0.194416
0.197374
0.198524
0.197045
0.197045
0.200332
0.20099
0.19836
0.198689
0.200497
0.20214
0.200168
0.199675
0.199675
0.197374
0.195566
0.197867
0.19721
0.195566
0.195237
0.197374
0.199511
0.19836
0.199018
0.198031
0.197045
0.195566
0.198853
0.196717
0.196881
0.196223
0.201647
0.198196
0.192772
0.196552
0.199346
0.196059
0.196059
0.20099
0.197374
0.195895
0.196059
0.196717
0.195566
0.198853
0.198031
0.199675
0.196552
0.196552
0.19573
0.197374
0.194909
0.194909
0.196881
0.195895
0.198196
0.198853
0.19573
0.199675
0.200004
0.196717
0.197867
0.197374
0.19721
0.19836
0.197867
0.196881
0.197045
0.199839
0.197867
0.199839
0.197703
0.197703
0.201154
0.197374
0.200825
0.199182
0.195073
0.199182
0.200004
0.198689
0.199839
0.199182
0.199675
0.199839
0.198689
0.199511
0.201154
0.204934
0.198031
0.197703
0.199346
0.19836
0.198524
0.198853
0.204277
0.201483
0.201812
0.203784
0.201154
0.200661
0.201812
0.200825
0.200004
0.201154
0.198853
0.201647
0.198031
0.201319
0.195402
0.200497
0.200332
0.201812
0.200661
0.20099
0.200825
0.200661
0.204277
0.200004
0.201976
0.20099
0.201976
0.19721
0.204441
0.198853
0.19836
0.200004
0.204606
0.200497
0.199346
0.204277
0.200004
0.199839
0.201647
0.204277
0.196552
0.199511
0.201154
0.198524
0.195895
0.19573
0.194909
0.198689
0.19458
0.193265
0.200332
0.19836
0.195237
0.19836
0.200168
0.197045
0.198196
0.198689
0.199346
0.198196
0.198196
0.197867
0.197703
0.197703
0.198524
0.198196
0.196223
0.197703
0.198031
0.196552
0.197703
0.19836
0.196717
0.195237
0.194087
0.197538
0.196223
0.195237
0.192279
0.194416
0.192936
0.191457
0.190471
0.192772
0.194909
0.19195
0.19458
0.194087
0.194087
0.191293
0.195402
0.195237
0.191128
0.194251
0.189814
0.188334
0.184225
0.187841
0.186855
0.186198
0.187184
0.190635
0.191457
0.19195
0.193101
0.188334
0.18932
0.192608
0.191128
0.191786
0.189156
0.188992
0.188663
0.18932
0.187677
0.188827
0.188499
0.186198
0.189156
0.188006
0.187184
0.188334
0.186691
0.187841
0.190142
0.187513
0.186033
0.185869
0.184883
0.187019
0.181267
0.182089
0.184554
0.181103
0.182089
0.182253
0.180116
0.180116
0.180116
0.180938
0.178966
0.179952
0.176994
0.175679
0.173378
0.173378
0.175679
0.172063
0.177651
0.175021
0.172063
0.170419
0.170913
0.166639
0.170419
0.167461
0.168118
0.166475
0.162859
0.16516
0.160722
0.16253
0.161873
0.160065
0.160229
0.161544
0.159572
0.160229
0.157928
0.159408
0.155299
0.154477
0.156778
0.157271
0.154148
0.153819
0.155792
0.152833
0.153984
0.152176
0.151683
0.152505
0.149875
0.14971
0.150039
0.14971
0.152669
0.149546
0.149217
0.148396
0.147574
0.147903
0.146259
0.146259
0.143958
0.145437
0.14593
0.146095
0.144451
0.147245
0.148067
0.149053
0.146423
0.148396
0.146752
0.147574
0.148231
0.145766
0.146916
0.152998
0.153819
0.153162
0.158421
0.157764
0.160394
0.161544
0.166475
0.167461
0.169598
0.174364
0.176172
0.177487
0.18176
0.186691
0.187677
0.192443
0.192608
0.197045
0.198689
0.203948
0.203948
0.207728
0.211016
0.21496
0.216768
0.217097
0.218905
0.217097
0.225315
0.222192
0.223835
0.222192
0.222849
0.22137
0.222028
0.220384
0.222192
0.221699
0.220713
0.219562
0.220877
0.222356
0.219727
0.221699
0.217919
0.218412
0.217097
0.220713
0.218412
0.214796
0.213974
0.215782
0.214796
0.215782
0.216111
0.215125
0.216111
0.218576
0.216768
0.214467
0.216439
0.213317
0.217261
0.21874
0.217426
0.215946
0.21759
0.217754
0.219069
0.21874
0.219562
0.218905
0.220877
0.222028
0.222028
0.223671
0.222192
0.220713
0.22022
0.222192
0.221699
0.221863
0.222028
0.223671
0.222028
0.223835
0.222849
0.223671
0.223835
0.223671
0.224986
0.223178
0.224
0.223342
0.226136
0.224822
0.227944
0.228602
0.225479
0.227123
0.23041
0.229259
0.228602
0.228766
0.228273
0.23041
0.231232
0.23156
0.231725
0.231396
0.23156
0.234026
0.233697
0.235505
0.235669
0.23797
0.232218
0.236162
0.232711
0.235834
0.235834
0.234847
0.237148
0.236327
0.233861
0.232053
0.232711
0.231889
0.236162
0.229752
0.232711
0.230245
0.230738
0.22515
0.228109
0.227616
0.22515
0.223014
0.224493
0.226465
0.224164
0.22778
0.224
0.225972
0.223178
0.22515
0.220548
0.220877
0.22137
0.223178
0.218247
0.220548
0.219233
0.218905
0.221863
0.220877
0.220384
0.218247
0.219398
0.216768
0.219562
0.217754
0.218412
0.217754
0.218576
0.215782
0.217754
0.216275
0.215782
0.214631
0.21233
0.212659
0.213152
0.214631
0.210523
0.212495
0.211837
0.211344
0.211837
0.215453
0.21118
0.209701
0.210194
0.207071
0.2074
0.207071
0.207235
0.205099
0.207564
0.20477
0.208057
0.204113
0.202798
0.205427
0.206578
0.202469
0.2074
0.208386
0.205592
0.203455
0.205592
0.206414
0.203455
0.202305
0.203291
0.202962
0.199182
0.20099
0.201812
0.200497
0.201812
0.201154
0.199511
0.200497
0.199182
0.197374
0.202305
0.199511
0.200661
0.198524
0.199182
0.200332
0.199675
0.197703
0.198196
0.198031
0.199346
0.200497
0.197703
0.199018
0.202469
0.198689
0.20099
0.201976
0.198689
0.200661
0.197374
0.197703
0.197538
0.198524
0.199182
0.20099
0.197374
0.199675
0.200661
0.201154
0.203455
0.197703
0.200332
0.199346
0.201647
0.197703
0.198689
0.197703
0.198689
0.199511
0.198689
0.199346
0.200004
0.198689
0.199675
0.20099
0.200497
0.200497
0.198853
0.201976
0.200332
0.200332
0.19836
0.198689
0.199839
0.199018
0.198689
0.200332
0.201319
0.198031
0.200332
0.200825
0.202305
0.198524
0.196881
0.198853
0.202305
0.199182
0.199675
0.198524
0.199675
0.199675
0.200661
0.19836
0.199675
0.199675
0.198689
0.200825
0.200004
0.200332
0.196223
0.198853
0.199346
0.199018
0.198524
0.198524
0.199182
0.201319
0.200497
0.201483
0.199346
0.199675
0.199675
0.200168
0.200332
0.201154
0.201812
0.195566
0.202305
0.198853
0.199182
0.197538
0.199182
0.197374
0.200332
0.199839
0.199839
0.201483
0.198196
0.201812
0.198853
0.19836
0.199182
0.202305
0.198689
0.199675
0.198031
0.199675
0.197867
0.193101
0.196717
0.198853
0.19573
0.197703
0.199018
0.197538
0.199018
0.199675
0.20099
0.19836
0.19458
0.197374
0.197867
0.195073
0.198853
0.202798
0.199182
0.199839
0.199182
0.20099
0.199182
0.199511
0.200168
0.201319
0.197867
0.20362
0.19836
0.198689
0.199839
0.200661
0.199018
0.197867
0.200497
0.199346
0.200332
0.201154
0.200168
0.198524
0.199675
0.200168
0.203784
0.200825
0.20214
0.201319
0.203948
0.201319
0.199675
0.199675
0.199675
0.199018
0.198689
0.19836
0.201976
0.202633
0.200497
0.20362
0.201483
0.202633
0.202633
0.200168
0.201154
0.202305
0.199182
0.20214
0.20099
0.197045
0.202633
0.195566
0.199839
0.199346
0.200332
0.199346
0.203126
0.201483
0.203784
0.201483
0.201483
0.20099
0.202633
0.201483
0.200332
0.199675
0.198524
0.20214
0.199018
0.202469
0.200825
0.201976
0.201483
0.201319
0.202469
0.201647
0.200825
0.200825
0.200497
0.202962
0.201647
0.198031
0.197703
0.198689
0.200497
0.195895
0.19836
0.201154
0.198853
0.201483
0.200332
0.202305
0.195895
0.199182
0.203291
0.201812
0.200497
0.201812
0.199346
0.200825

Kurve 5

-0.000512
0.004912
0.000146
0.004912
0.001954
0.004748
0.003926
0.004748
-1.9e-05
0.003104
0.002611
-0.001498
0.002118
-0.00347
-0.000183
-0.001827
0.000967
0.001789
0.003597
0.002118
0.004583
0.00294
0.005076
0.004583
0.003926
0.007049
0.011815
0.003761
0.009843
0.006062
0.003761
0.005734
0.003268
0.002775
0.002611
0.001625
-0.001991
0.003433
0.001296
0.002775
0.002282
0.003104
0.003268
0.003268
0.002118
0.003761
0.002447
-1.9e-05
0.001954
-0.001662
0.00146
0.000146
0.001132
0.000146
0.001954
-0.000512
0.00146
0.000474
0.001296
0.00146
-0.000347
0.00146
0.002447
-0.000512
-0.004785
-0.001827
-0.002484
-0.001169
-0.001827
0.000639
0.000474
-0.000841
0.000967
-0.001662
-0.001334
-0.001991
0.003926
-0.001005
-0.000841
0.00031
-0.000512
-0.002155
0.001296
-1.9e-05
0.000146
0.000639
-0.001991
-0.001334
-0.001334
-0.001005
-0.001005
0.00031
-0.00232
0.000146
-0.001005
0.000967
-0.000347
-0.001005
-0.00347
0.00146
-0.000512
0.000639
-0.000347
-0.000512
-0.001827
0.000639
0.000146
-0.001498
-0.000676
-0.002155
0.000803
-0.001498
-0.000347
-0.001005
0.000639
-0.001498
0.000474
-0.001827
0.000967
0.001954
-0.000676
0.000474
-1.9e-05
-1.9e-05
0.000474
-0.001005
0.000146
-0.000183
-0.002484
-0.001005
0.000967
0.00146
-0.001005
0.001789
0.001296
0.001625
0.000967
-1.9e-05
0.00294
0.002611
0.000474
-0.002484
0.003268
-0.000183
0.000474
-0.001169
-0.001334
0.003433
0.00146
0.003104
0.003268
0.000967
0.001625
0.002282
0.000474
0.000967
-0.000347
0.000639
-1.9e-05
-0.000347
-0.000183
0.00146
-0.001005
0.00031
-0.002155
0.001296
0.00146
0.001132
0.002118
-1.9e-05
-0.001005
0.000803
0.001789
0.00031
0.001132
0.001625
-1.9e-05
-0.003142
-0.000183
-0.004292
-0.000512
-0.001662
0.000474
0.004255
0.004255
0.004255
0.002447
0.001789
0.000967
0.002118
-1.9e-05
0.001132
0.001296
0.001296
-0.000676
-0.000512
0.000803
0.002611
-0.001991
-0.002813
0.001296
-1.9e-05
0.000474
0.000474
0.001296
0.000639
0.002447
0.000803
0.002611
-0.000183
0.000967
-0.000512
0.000639
-0.000841
-0.003306
-0.000183
-0.001991
0.00146
-0.000676
0.00031
0.000639
0.000639
-0.002155
0.002447
0.000803
0.00031
0.000146
0.003104
0.000474
0.000803
0.004583
-1.9e-05
0.001789
0.005734
0.002611
-0.000183
0.002447
0.000803
0.001625
0.00031
0.002775
0.002118
0.002611
0.001954
-1.9e-05
0.001296
-0.001169
-0.001169
-0.000183
0.000639
-0.000676
0.000474
-0.000512
-0.000183
-0.000512
0.001789
0.001132
0.001296
0.001789
0.00146
0.002282
0.001132
0.000474
-0.000841
-0.002648
0.002118
-0.002484
-0.004128
0.00146
-0.002813
0.000474
0.00031
0.001954
0.000474
0.003268
0.001296
0.001296
0.002447
0.001296
0.002611
0.007213
0.002775
0.00294
0.00146
-0.000183
0.002611
-0.001169
-0.000676
-0.001991
0.002775
0.00146
0.000146
0.002611
0.002118
0.002118
0.002118
0.005076
0.00031
0.000639
-0.000676
0.00031
-0.002484
-0.000347
-0.000347
0.000146
0.00031
0.00031
0.003597
0.002611
0.001296
0.000639
0.002775
-0.001827
0.001296
-0.00347
-1.9e-05
-0.002155
-0.000183
0.00031
0.000967
0.00031
-0.000347
-0.000183
-0.000347
0.000639
0.001954
0.001625
0.001132
0.003433
0.002282
-0.002484
-0.004292
0.001132
0.001954
0.000146
-1.9e-05
0.001296
-0.001991
0.00146
0.000967
-0.001005
0.000639
0.003433
0.003926
0.002775
0.002447
0.000639
0.002447
-0.000183
0.001296
0.000803
0.00146
-0.000183
0.000639
0.00031
-0.000347
0.000474
-0.000676
0.003268
0.001296
0.001789
0.000967
0.004748
-0.001991
0.00031
-0.002155
0.00146
-0.001662
-0.001991
0.00031
0.006391
0.007377
0.000146
0.005405
-0.000512
0.002447
0.000639
0.002611
0.001625
0.000474
0.00294
0.003268
0.002118
0.002775
0.00409
0.000967
0.002611
0.000967
-0.001005
-0.000841
-0.000676
-0.005278
-0.001005
-0.005114
-0.001498
0.000474
0.000146
-0.000183
0.003761
-0.000183
-0.001498
0.000803
0.001789
0.002118
-0.000183
0.001954
0.002118
0.001625
0.000146
0.002118
-0.000183
-0.000512
-0.000347
0.001132
-0.000347
-0.000183
-0.000512
0.001296
-0.000841
-0.002155
0.000967
0.000146
-0.000512
-0.002977
0.002611
-0.001334
0.002611
-0.002813
0.001625
-0.001169
0.000639
0.000639
-1.9e-05
0.000967
-0.000183
0.001954
-0.000841
0.002282
0.001132
-0.000841
-0.002484
-0.000841
-1.9e-05
-0.000347
-0.000347
-0.001498
-0.001827
-0.002155
-0.001827
-0.003963
-0.002155
-0.001334
-0.001827
-1.9e-05
-0.000512
-0.001169
-0.001827
0.000474
-0.002155
-0.00347
-0.000676
-0.004785
-0.003963
-0.002484
-0.002813
-0.001827
-0.004456
-0.004292
-0.001498
-0.000841
0.000474
0.001954
0.002611
0.002775
-0.001334
0.00031
-0.002813
-0.001498
-0.000512
-0.000512
-0.000512
-0.003635
-0.003142
-0.003799
-0.003142
-1.9e-05
-0.001169
-0.003635
0.001954
-0.001334
0.002282
-1.9e-05
-0.000512
-0.000512
-0.005771
-0.002484
-0.00347
-0.003142
-0.003306
-0.000512
-0.003142
-1.9e-05
-0.001662
0.001132
-0.001991
0.000474
-0.001334
-0.001827
-0.001498
-1.9e-05
-0.000183
-0.002484
-0.001334
-0.001991
-0.001498
-0.006264
-0.002977
-0.003306
-0.001005
-0.001498
0.000639
-1.9e-05
-0.002155
0.002611
0.00146
0.002118
-0.005771
-0.000841
-0.000183
0.001132
-0.001005
0.001296
-0.000841
0.00146
-0.00232
0.000639
0.000803
-0.007908
0.001132
0.002447
0.001625
-0.001005
-0.000841
0.001954
0.001296
0.001954
0.001296
0.000146
-0.007086
-0.003635
0.001625
-0.00232
-0.000347
-0.000676
0.00031
-1.9e-05
0.000474
0.000639
0.00031
-0.006757
-0.002813
0.001954
-0.005936
-0.000841
-0.002155
-0.002484
-0.001827
-0.001334
-0.002155
0.001132
-0.00347
-0.003306
-0.002813
-0.003306
-0.001498
-0.001334
0.000803
-0.002813
0.001625
-0.000676
0.000639
-0.00232
-0.00232
-0.003635
-0.000512
-0.001662
-0.00232
-0.001827
-0.002648
-0.002648
-0.003799
-0.002977
0.000474
0.000474
-0.001005
-0.000183
-0.001334
-0.001169
-0.001005
-0.002484
0.000639
0.000967
-0.002484
0.00294
-0.00232
-0.001334
0.000803
-0.001169
-1.9e-05
-1.9e-05
0.000967
0.000474
0.00031
0.000967
0.006062
-0.002648
-0.000676
0.002282
-0.005114
-0.00232
-0.000183
-0.002648
0.000967
0.003433
0.000639
0.006556
-0.000512
0.00146
0.001789
0.003761
0.002611
0.002775
0.002447
0.001625
0.00146
0.000967
0.005405
-0.001498
0.002282
-0.000183
0.004419
0.001296
-0.000347
0.002775
-1.9e-05
0.002775
0.003597
0.006227
-0.000347
0.001789
0.000474
-0.000512
-0.000512
0.00031
-0.000183
0.001625
0.000146
-0.000841
0.006391
-1.9e-05
0.000146
0.001625
0.000803
0.000803
-0.001169
0.000803
0.00146
-0.000183
0.003433
0.004419
0.000474
-0.002977
-0.000183
0.003268
0.004912
-1.9e-05
0.000967
0.001954
0.002118
0.003761
0.008363
0.001296
0.002282
0.001789
-1.9e-05
0.001625
0.000474
0.002775
0.001625
0.003926
-0.001334
0.005898
-0.001169
-0.001662
0.002282
0.002775
0.002282
0.000967
0.000474
-0.001005
0.002447
-0.000841
0.006884
-0.002813
0.000639
0.003597
0.000474
0.000146
0.000803
0.000474
-0.000347
0.001296
-0.000183
0.007377
-0.003306
-0.001005
-0.001662
-0.002648
0.00031
-0.000347
-0.002977
0.000803
-0.001498
0.00031
0.004419
0.000639
-0.000676
-0.001827
-1.9e-05
-0.002484
0.003433
-0.002977
0.001625
-1.9e-05
0.001625
0.004583
0.00031
0.00031
-0.000183
0.000639
-0.001498
-0.001662
-0.000347
-0.000183
0.000146
-0.001334
-0.001827
-0.002813
-0.001334
-0.00232
-0.001662
0.004912
0.010993
0.020362
0.028251
0.039591
0.044029
0.05274
0.054383
0.060793
0.067203
0.071805
0.079037
0.080023
0.084132
0.093829
0.093336
0.097445
0.106813
0.107471
0.114209
0.119633
0.120784
0.123578
0.126372
0.129988
0.133275
0.138041
0.138534
0.143794
0.140835
0.145766
0.144451
0.150204
0.000803
0.010171
0.021348
0.030387
0.036469
0.039427
0.053562
0.055205
0.063752
0.060958
0.066875
0.072298
0.078215
0.081009
0.090871
0.090542
0.097609
0.103526
0.104019
0.110265
0.114702
0.11799
0.122427
0.126865
0.126865
0.133439
0.134261
0.137877
0.138534
0.140013
0.141493
0.146423
0.152669
0.148724
0.149875
0.154641
0.157928
0.159408
0.163681
0.163188
0.162859
0.163188
0.16894
0.166639
0.170419
0.167954
0.172392
0.171899
0.173707
0.175679
0.177158
0.175679
0.177487
0.181103
0.177158
0.17798
0.181267
0.184883
0.183239
0.185705
0.183568
0.187677
0.183075
0.187513
0.185869
0.186033
0.186198
0.186362
0.185869
0.188334
0.191786
0.190471
0.191786
0.190307
0.192608
0.190635
0.19458
0.191786
0.191786
0.189485
0.189814
0.190471
0.192443
0.193922
0.191621
0.192936
0.197045
0.19573
0.193758
0.200332
0.194416
0.198031
0.193101
0.198524
0.19721
0.196717
0.198196
0.195237
0.196552
0.196388
0.19721
0.194744
0.199675
0.196717
0.195402
0.19721
0.197374
0.197867
0.199018
0.198689
0.200168
0.198031
0.197703
0.201154
0.191786
0.198031
0.197703
0.19721
0.197867
0.009185
0.01576
0.026114
0.032031
0.037126
0.04633
0.053562
0.060793
0.066217
0.06934
0.075421
0.078544
0.083475
0.089556
0.094487
0.099089
0.105992
0.109607
0.111908
0.116839
0.11914
0.122098
0.124893
0.126043
0.132782
0.136069
0.136891
0.142479
0.145602
0.144615
0.150039
0.148889
0.153326
0.153655
0.155792
0.154312
0.155134
0.158093
0.163516
0.161709
0.166146
0.168118
0.167954
0.172392
0.170255
0.170419
0.173049
0.176336
0.174364
0.177487
0.17798
0.179459
0.178966
0.179788
0.180774
0.180445
0.182253
0.183404
0.185212
0.183568
0.188499
0.186526
0.188827
0.186033
0.187019
0.187348
0.189156
0.187841
0.187677
0.188992
0.190142
0.188334
0.189814
0.191128
0.189978
0.193101
0.191786
0.192936
0.192772
0.196059
0.195402
0.193922
0.19836
0.195402
0.194087
0.19458
0.188827
0.194416
0.194251
0.195237
0.193594
0.196059
0.199346
0.197045
0.19721
0.196388
0.200661
0.197538
0.199346
0.196552
0.198689
0.197703
0.196881
0.197045
0.197374
0.198853
0.198524
0.198031
0.196388
0.199018
0.200332
0.198689
0.197703
0.20099
0.197374
0.198853
0.196223
0.200004
0.200332
0.199346
0.197374
0.19573
0.198031
0.19836
0.200661
0.19836
0.201319
0.198196
0.199675
0.200497
0.200168
0.199346
0.200497
0.199018
0.201483
0.203455
0.199346
0.198524
0.197867
0.201483
0.198524
0.20099
0.197374
0.200332
0.19836
0.19836
0.202305
0.203455
0.198853
0.200332
0.200825
0.200497
0.201319
0.198853
0.201154
0.199675
0.202469
0.200497
0.201483
0.196552
0.200004
0.198689
0.20099
0.197867
0.196881
0.200332
0.200825
0.200825
0.201319
0.200825
0.198689
0.200004
0.200332
0.202469
0.199675
0.20099
0.198196
0.20099
0.199511
0.200497
0.201483
0.199511
0.201154
0.19836
0.202633
0.202469
0.202469
0.201319
0.202633
0.20099
0.200825
0.201647
0.205099
0.198689
0.200661
0.200004
0.197703
0.199675
0.193758
0.199182
0.197703
0.199018
0.200332
0.202469
0.199346
0.203455
0.202962
0.200825
0.197867
0.197538
0.19836
0.198031
0.197867
0.199182
0.199675
0.196717
0.201154
0.20099
0.199346
0.19836
0.200825
0.201647
0.201812
0.201812
0.202798
0.201812
0.200004
0.199675
0.197867
0.197703
0.005241
0.009678
0.014938
0.024635
0.014773
0.022991
0.032688
0.041892
0.047152
0.055698
0.058821
0.065067
0.07049
0.074599
0.079694
0.083639
0.093172
0.091199
0.097116
0.101061
0.109114
0.108128
0.11651
0.120455
0.124235
0.126372
0.131467
0.135083
0.13459
0.139192
0.139192
0.141821
0.141821
0.146095
0.146752
0.149875
0.150368
0.159079
0.156449
0.161873
0.164174
0.165817
0.166968
0.168283
0.16779
0.169105
0.170419
0.170419
0.173707
0.1742
0.175679
0.175021
0.177158
0.178966
0.178144
0.178966
0.177322
0.179459
0.182089
0.18439
0.184718
0.186691
0.185212
0.187513
0.185212
0.186362
0.184883
0.187841
0.187019
0.189485
0.191786
0.189156
0.187677
0.193429
0.191128
0.192279
0.193922
0.196059
0.192936
0.191786
0.19573
0.192772
0.195073
0.193265
0.192772
0.192279
0.193594
0.192115
0.193101
0.194251
0.193922
0.194909
0.196717
0.199018
0.19458
0.197703
0.196717
0.197867
0.196223
0.197538
0.197538
0.198031
0.197867
0.198524
0.198196
0.198689
0.197374
0.198524
0.198031
0.195566
0.198031
0.198031
0.19836
0.199018
0.199839
0.198031
0.200168
0.199018
0.199675
0.202962
0.199511
0.201976
0.200168
0.20099
0.19836
0.201154
0.193429
0.201483
0.200661
0.197374
0.19721
0.198853
0.19573
0.198689
0.19721
0.20099
0.20214
0.200004
0.198853
0.197703
0.199675
0.200332
0.198689
0.197045
0.198853
0.197538
0.200332
0.200168
0.200825
0.196552
0.20362
0.200332
0.200825
0.200825
0.201154
0.201319
0.197703
0.20362
0.201812
0.200332
0.199182
0.20214
0.198031
0.197374
0.198524
0.200004
0.199018
0.200825
0.200168
0.200825
0.20477
0.201483
0.203126
0.200168
0.200168
0.197045
0.200497
0.19836
0.201976
0.197045
0.199675
0.197867
0.200497
0.200497
0.199675
0.200825
0.201812
0.202305
0.198853
0.205099
0.20099
0.202798
0.200332
0.200497
0.199018
0.200332
0.199511
0.199182
0.200661
0.199675
0.200825
0.201812
0.201976
0.199839
0.202633
0.20099
0.199346
0.198853
0.198524
0.200004
0.200168
0.199511
0.201483
0.196717
0.195895
0.201154
0.198689
0.200332
0.200332
0.199839
0.200004
0.202798
0.195402
0.200168
0.197374
0.197374
0.198196
0.200168
0.197703
0.200168
0.199182
0.196552
0.199346
0.197703
0.199511
0.198524
0.200825
0.196881
0.203126
0.197374
0.200332
0.199018
0.199511
0.200004
0.198031
0.200497
0.199675
0.20099
0.202469
0.199018
0.198853
0.201483
0.198524
0.199839
0.198853
0.200332
0.196717
0.202962
0.200332
0.201812
0.20099
0.200168
0.203291
0.193594
0.196059
0.197538
0.19836
0.19721
0.201319
0.198031
0.198689
0.198689
0.200332
0.20099
0.199839
0.198853
0.199346
0.200661
0.20099
0.204441
0.19836
0.198031
0.198853
0.195895
0.199182
0.197703
0.193922
0.199511
0.198196
0.199511
0.199511
0.202305
0.199511
0.201483
0.201647
0.200332
0.201976
0.200004
0.199511
0.200004
0.201154
0.200168
0.201319
0.199182
0.199182
0.199675
0.199839
0.20099
0.20099
0.201812
0.201319
0.202962
0.202962
0.203126
0.201154
0.201976
0.202469
0.201647
0.197538
0.202633
0.201812
0.200168
0.199511
0.201976
0.201812
0.200825
0.20099
0.200004
0.200497
0.200825
0.201812
0.200004
0.201976
0.197867
0.010993
0.010664
0.020033
0.028086
0.035975
0.044686
0.049946
0.058328
0.065067
0.07049
0.077722
0.082982
0.087255
0.093993
0.094158
0.100568
0.104677
0.105992
0.111415
0.115524
0.117661
0.120948
0.126536
0.129495
0.133439
0.13459
0.138205
0.142479
0.146095
0.143794
0.14856
0.149875
0.15234
0.153491
0.157107
0.157271
0.159736
0.161544
0.162037
0.162859
0.163516
0.169105
0.169926
0.170091
0.173871
0.173378
0.171406
0.174364
0.175679
0.176501
0.181267
0.175679
0.179788
0.18061
0.181103
0.184061
0.185376
0.182253
0.185376
0.184225
0.186691
0.18554
0.187019
0.187677
0.189485
0.183075
0.191457
0.191786
0.188992
0.190635
0.188499
0.190964
0.189978
0.192443
0.191293
0.193265
0.191457
0.195402
0.192936
0.191786
0.191786
0.191457
0.191786
0.192443
0.194251
0.192443
0.194909
0.196059
0.197374
0.196388
0.197703
0.195402
0.196717
0.196059
0.195073
0.19458
0.193758
0.191457
0.195895
0.196552
0.192608
0.191621
0.196223
0.198196
0.197045
0.198031
0.197867
0.197374
0.196388
0.198524
0.198853
0.199182
0.197867
0.198689
0.198689
0.19721
0.200004
0.200004
0.198524
0.19721
0.199675
0.199675
0.201483
0.198853
0.199839
0.19836
0.199182
0.201319
0.199511
0.200004
0.200004
0.201976
0.199839
0.201154
0.199018
0.200004
0.19836
0.199346
0.199346
0.200004
0.198031
0.200168
0.199182
0.201483
0.197867
0.198689
0.198689
0.195073
0.199839
0.199018
0.198524
0.201647
0.200332
0.19836
0.204113
0.201483
0.200825
0.200497
0.201483
0.198689
0.198031
0.199511
0.197538
0.199346
0.197703
0.203784
0.199839
0.198689
0.199511
0.200004
0.20099
0.199839
0.201483
0.201319
0.201483
0.199839
0.197867
0.198689
0.199018
0.19836
0.194087
0.199018
0.198689
0.196059
0.199346
0.200168
0.202798
0.199511
0.200825
0.200661
0.200497
0.200825
0.200004
0.198853
0.198031
0.196552
0.196388
0.201154
0.196717
0.20099
0.198031
0.198031
0.197045
0.202798
0.199346
0.199346
0.203784
0.199839
0.200168
0.197045
0.20214
0.200004
0.19836
0.199182
0.200004
0.199182
0.200497
0.198031
0.199675
0.199346
0.199182
0.201812
0.199511
0.200497
0.200497
0.203291
0.20099
0.200497
0.199839
0.203455
0.197703
0.194087
0.197374
0.200497
0.198031
0.198524
0.200825
0.199346
0.200825
0.200004
0.200168
0.200332
0.197538
0.200332
0.20099
0.198196
0.200168
0.199675
0.195402
0.196717
0.197538
0.197374
0.20214
0.19721
0.201647
0.202633
0.199182
0.199182
0.201647
0.200332
0.197374
0.201483
0.199018
0.198196
0.19836
0.200168
0.200661
0.199182
0.199346
0.199839
0.200661
0.198196
0.199839
0.199018
0.198196
0.195895
0.202469
0.201483
0.201647
0.200661
0.200332
0.200332
0.197045
0.195073
0.200004
0.198031
0.19836
0.199839
0.194909
0.199182
0.199511
0.20099
0.198524
0.198689
0.200004
0.200332
0.197374
0.195566
0.201154
0.199675
0.197538
0.199018
0.202633
0.195566
0.197374
0.19721
0.197374
0.197374
0.199182
0.199839
0.200497
0.200004
0.201319
0.201976
0.201154
0.201319
0.199511
0.199675
0.200825
0.20099
0.197703
0.201483
0.196552
0.201154
0.198853
0.196717
0.198524
0.199839
0.199675
0.20099
0.200497
0.201647
0.201154
0.19836
0.201647
0.198524
0.201319
0.196059
0.20099
0.200004
0.202469
0.197867
0.198524
0.198853
0.200661
0.20099
0.202469
0.198689
0.200168
0.200825
0.198031
0.200332
0.19458
0.198196
0.199346
0.200497
0.197045
0.200497
0.199018
0.200004
0.200661
0.200168
0.200825
0.200004
0.202962
0.199511
0.202962
0.200004
0.202962
0.199182
0.200004
0.200825
0.200004
0.200168
0.200825
0.199346
0.202633
0.202633
0.200661
0.201319
0.202305
0.203455
0.201319
0.201647
0.200168
0.200497
0.200497
0.200497
0.201319
0.200497
0.200332
0.199839
0.201976
0.195237
0.198853
0.198524
0.19836
0.206414
0.198196
0.197703
0.199511
0.199675
0.201812
0.199346
0.203126
0.200497
0.200168
0.20099
0.200497
0.199346
0.199182
0.200497
0.199675
0.200168
0.198031
0.199675
0.199511
0.199511
0.198031
0.200825
0.199018
0.201154
0.199675
0.198031
0.199511
0.199346
0.199839
0.199675
0.199511
0.196717
0.199018
0.201812
0.200168
0.199675
0.198689
0.200004
0.200004
0.197867
0.199839
0.200168
0.198031
0.200661
0.199018
0.199511
0.199018
0.199018
0.195566
0.203126
0.195566
0.197538
0.197703
0.200497
0.199675
0.200332
0.20362
0.199675
0.202305
0.200168
0.199675
0.197045
0.199839
0.199511
0.199018
0.198853
0.20099
0.199675
0.200168
0.20099
0.199018
0.199675
0.200497
0.200497
0.199675
0.196552
0.200332
0.201647
0.199346
0.201154
0.202469
0.200825
0.196552
0.202962
0.199182
0.199839
0.199346
0.200825
0.201483
0.201319
0.202962
0.201483
0.200004
0.201647
0.201154
0.20099
0.201319
0.200168
0.201812
0.203455
0.199839
0.196388
0.200004
0.199346
0.197374
0.199346
0.199018
0.19836
0.197538
0.201812
0.200004
0.201647
0.201319
0.202305
0.199018
0.203948
0.197045
0.199511
0.200332
0.199511
0.200497
0.199182
0.201647
0.202798
0.203784
0.200332
0.201319
0.200168
0.203291
0.200497
0.199675
0.200825
0.198689
0.202633
0.201812
0.200661
0.198689
0.199675
0.198853
0.20099
0.200004
0.20099
0.20099
0.202305
0.200661
0.202305
0.203784
0.203455
0.198689
0.203291
0.197867
0.198689
0.198524
0.198853
0.200004
0.200004
0.202305
0.201812
0.201976
0.203126
0.20214
0.20099
0.201647
0.199839
0.20099
0.202469
0.198524
0.20099
0.20362
0.198031
0.199675
0.197867
0.201976
0.202798
0.200168
0.202469
0.201154
0.202469
0.200332
0.203784
0.199182
0.200497
0.201976
0.200332
0.201483
0.198196
0.201812
0.198853
0.200661
0.006062
0.014773
0.019211
0.026936
0.034825
0.040742
0.049124
0.055041
0.059314
0.066381
0.074271
0.076736
0.085611
0.087419
0.093172
0.095144
0.103033
0.105827
0.10895
0.11536
0.121441
0.120784
0.123249
0.128837
0.12933
0.13196
0.136069
0.138863
0.139192
0.144451
0.146095
0.147245
0.152505
0.147903
0.157107
0.155134
0.155627
0.157271
0.160722
0.158421
0.165324
0.165489
0.166311
0.166804
0.170913
0.169598
0.17157
0.171241
0.172556
0.175021
0.176008
0.174693
0.178473
0.176994
0.178802
0.180281
0.181596
0.181431
0.179295
0.180774
0.17913
0.184718
0.182911
0.186362
0.187677
0.189156
0.185869
0.189649
0.188499
0.188827
0.188827
0.186691
0.187184
0.187677
0.191128
0.190307
0.191293
0.191128
0.195073
0.192772
0.193758
0.194744
0.193758
0.190471
0.191128
0.191457
0.194744
0.192115
0.192608
0.194744
0.19195
0.195402
0.195237
0.192279
0.193758
0.193758
0.193101
0.196717
0.197045
0.197045
0.197703
0.195073
0.195895
0.195073
0.196552
0.195566
0.195895
0.196388
0.196881
0.190964
0.194087
0.195237
0.19721
0.194909
0.198196
0.197703
0.198524
0.19836
0.197538
0.199182
0.196059
0.197703
0.194416
0.196552
0.197538
0.199018
0.199511
0.199018
0.197045
0.200497
0.199346
0.200497
0.20099
0.195566
0.199511
0.197703
0.19836
0.198031
0.197703
0.197045
0.199182
0.19573
0.200332
0.196717
0.193429
0.197374
0.198031
0.198689
0.198853
0.199511
0.197538
0.200661
0.19836
0.198524
0.197538
0.199182
0.198196
0.198853
0.196388
0.199839
0.195566
0.194251
0.197703
0.195402
0.197703
0.196717
0.196552
0.196552
0.198853
0.19836
0.199346
0.198524
0.196059
0.201154
0.200332
0.198196
0.201647
0.197045
0.196552
0.199346
0.199511
0.202469
0.200661
0.198689
0.200332
0.200332
0.198524
0.198196
0.196717
0.199346
0.197867
0.199511
0.197703
0.196552
0.198031
0.198524
0.199675
0.194416
0.193594
0.196717
0.198853
0.197374
0.197538
0.196223
0.201319
0.197867
0.200497
0.197867
0.197045
0.190635
0.197867
0.192608
0.193594
0.19836
0.196059
0.198196
0.196717
0.199182
0.198853
0.199839
0.189649
0.198524
0.200168
0.203784
0.201319
0.197703
0.200332
0.199182
0.198853
0.198689
0.19573
0.189978
0.199675
0.195566
0.199346
0.197867
0.198524
0.200497
0.199511
0.199839
0.200168
0.200004
0.189978
0.200004
0.199839
0.19721
0.19721
0.198853
0.196059
0.198196
0.197703
0.197374
0.199346
0.193429
0.19721
0.199346
0.199346
0.200332
0.197374
0.19458
0.200825
0.20099
0.196881
0.197867
0.195237
0.19573
0.198689
0.19836
0.198031
0.197045
0.200332
0.19836
0.200661
0.203784
0.198689
0.19836
0.197703
0.198524
0.197538
0.199675
0.194087
0.198031
0.196059
0.199018
0.19836
0.198689
0.197045
0.201483
0.200497
0.20099
0.198031
0.201154
0.200332
0.19721
0.200168
0.196388
0.200332
0.200497
0.197374
0.19836
0.199182
0.198524
0.198853
0.199839
0.199182
0.203455
0.200332
0.202305
0.20362
0.197045
0.199346
0.199511
0.199675
0.198524
0.200661
0.198853
0.200332
0.201319
0.199182
0.206578
0.198689
0.199839
0.20214
0.201154
0.199346
0.199182
0.198031
0.198524
0.201812
0.199346
0.205921
0.199182
0.200004
0.199346
0.200661
0.20099
0.20099
0.200332
0.198853
0.204113
0.199346
0.206085
0.197538
0.197703
0.199182
0.200661
0.199346
0.200825
0.200332
0.199511
0.201154
0.20099
0.205921
0.199182
0.201812
0.199018
0.203784
0.199018
0.199182
0.198031
0.198196
0.196552
0.197703
0.201647
0.196388
0.200661
0.200825
0.20214
0.197538
0.201647
0.198853
0.202469
0.198853
0.199839
0.20099
0.195402
0.19721
0.198853
0.202633
0.198196
0.199018
0.197867
0.199839
0.200004
0.197374
0.20214
0.197374
0.196388
0.197374
0.195073
0.196552
0.193594
0.193922
0.19721
0.196717
0.196717
0.200004
0.195237
0.195073
0.196388
0.193265
0.199511
0.194744
0.195566
0.198524
0.192936
0.193101
0.199675
0.192115
0.194087
0.192936
0.194416
0.19195
0.193101
0.193758
0.194416
0.196223
0.194909
0.202305
0.193265
0.195402
0.194087
0.195073
0.192443
0.195237
0.193265
0.192115
0.19721
0.197045
0.202305
0.195402
0.195895
0.195566
0.19573
0.196223
0.197867
0.199511
0.198031
0.197045
0.196388
0.199511
0.195895
0.192279
0.193101
0.195073
0.193101

Kurve 6

0.004583
0.003433
0.004255
0.004419
-0.001005
-0.000841
0.000967
0.001132
0.000639
0.000639
0.00146
0.003104
0.003268
0.003597
0.002447
0.000803
0.000639
0.001296
0.003104
0.002611
0.002447
0.002118
0.003597
0.00146
0.002775
0.002775
0.001789
0.000146
0.000474
-0.001169
0.000803
0.005405
-0.001498
0.001132
0.001296
0.001625
0.004912
0.00294
-0.000676
0.002447
-0.000512
0.001625
0.000146
0.003433
0.002775
0.001789
0.002611
-0.000512
-0.001991
-0.000841
0.000803
-0.000183
0.000803
0.002447
0.00146
-0.001827
0.000967
0.000474
0.001789
-0.003963
-0.002484
0.003268
-0.003635
-0.004128
0.003597
-0.000512
0.000803
0.001296
0.00146
0.003926
-1.9e-05
0.000803
-0.000183
0.002447
0.000639
0.003597
0.002282
0.002118
0.000803
0.000639
0.000639
0.002118
0.001789
0.001789
0.003761
-0.001169
0.004419
0.00146
0.001296
0.00031
0.001625
-0.000183
-0.000183
0.005569
0.001789
0.00146
0.000967
0.000967
0.002118
0.00146
0.001132
0.001625
0.000474
0.001296
-0.000512
-0.000676
-0.002813
-0.000512
0.000967
0.002775
-0.000512
0.002118
0.001625
0.00409
0.002118
0.00146
0.001625
0.002611
0.002447
0.002118
0.000967
-0.001827
-0.002648
-0.000347
0.003433
-0.000841
0.00146
0.001132
0.000474
0.002282
0.000639
0.003597
0.00031
0.002282
0.001132
0.005405
0.000474
0.001954
-0.001005
0.000146
0.000967
0.000639
0.002611
0.00031
0.003926
0.001789
0.003433
-0.000347
0.003268
0.001625
0.003104
-0.000676
0.001789
0.001296
-0.000183
-0.001991
-0.001169
0.003268
-0.003963
0.001625
0.000146
0.00409
0.00146
0.003433
0.002611
0.003926
0.002611
0.001296
0.002775
0.001625
-0.001827
0.001954
-0.001169
0.000639
0.001296
0.001132
0.004419
-0.002648
0.002775
0.003433
0.00146
0.001132
0.002118
0.00146
0.002775
0.001625
0.006062
0.000967
0.000474
-0.001169
0.001296
-0.000676
-0.000676
0.000474
-0.001498
0.002447
0.002611
0.003268
0.002118
0.004255
-0.000676
0.004583
0.001132
0.000967
0.000146
0.000474
-0.001827
-0.006429
-0.001334
-0.002813
0.00031
0.000146
-1.9e-05
0.000146
0.002611
0.000474
0.002611
0.000639
0.002775
0.003597
0.000803
0.001789
0.000474
0.002118
-0.001169
0.002775
-0.001662
0.002118
0.00031
0.00294
0.00146
0.002118
0.002611
0.00294
0.001789
-0.002484
0.003104
0.002118
0.003597
0.001789
0.001132
0.001625
0.00146
0.001954
0.000967
-0.001662
0.00031
0.000474
0.00146
0.00031
-1.9e-05
0.000967
0.002282
0.00294
0.000803
-1.9e-05
-0.001005
0.005241
0.00409
0.000967
-0.000512
0.005076
0.000639
0.001789
0.001625
0.001954
-0.000841
0.001789
0.002447
0.00146
0.002118
-1.9e-05
0.002282
0.001132
0.003104
0.001132
0.00146
-0.000347
0.000803
-0.000183
-0.000512
-0.000841
-0.000183
0.001625
0.002447
0.00409
0.001625
-0.000512
-0.00347
0.000967
-0.001169
0.00409
-0.001005
0.000967
-1.9e-05
0.003104
0.00146
-0.000512
0.001625
-0.000512
0.002282
-0.000183
0.00031
-0.000512
0.002775
0.002118
0.003104
-0.001662
0.00031
-0.00232
-0.000841
0.000474
-0.000347
-0.001169
-0.001991
0.001296
-1.9e-05
0.002611
0.001954
0.00146
0.002118
0.000639
0.003761
0.002775
0.001789
0.001789
0.002775
0.000474
0.000803
0.002118
0.00031
0.000146
0.000474
0.000639
0.000639
-0.000512
0.005734
0.000146
0.00294
-0.001005
0.001954
0.002611
0.001132
0.001789
0.00146
-0.000841
-0.000676
0.000639
0.002775
0.001625
-0.001827
0.003268
-0.000841
0.001296
0.000967
-0.000841
-0.001498
-0.001334
-0.000512
0.00672
0.003597
0.001954
0.003268
0.00146
0.002611
0.000803
0.002611
-1.9e-05
0.002775
0.000967
0.001625
0.001789
0.002447
0.006391
0.003597
0.002447
0.004419
0.002611
0.00146
0.003104
0.000146
0.00146
0.001954
0.001954
0.000639
0.00031
0.001132
0.003104
0.003926
0.003597
0.002447
0.001625
0.003761
0.002118
0.003268
0.002447
0.005076
0.002775
0.003597
0.001625
0.002447
0.001789
0.003597
0.001625
-0.00232
-0.00232
0.005241
0.002447
0.002775
0.002282
0.00146
0.002611
0.003597
0.003597
0.003104
0.006391
0.006391
0.005569
0.003433
0.006062
0.002447
0.005734
0.004748
0.005076
0.006391
0.002775
0.005241
0.005076
0.007706
0.006062
0.005898
0.003104
0.00935
0.007049
0.007213
0.004748
0.005734
0.002775
0.007377
0.008528
0.005734
0.005898
0.005076
0.006556
0.004419
0.00672
0.004419
0.009843
0.004748
0.007049
0.005241
0.006227
0.006391
0.005076
0.005569
0.003926
0.00672
0.00146
0.003433
0.001132
0.000803
0.002775
0.003268
-0.000512
0.005734
0.003761
0.003268
0.003268
0.002282
0.001789
0.00146
0.003433
0.001625
0.002775
-0.001005
0.001625
-0.001005
0.000474
0.000146
0.000146
-1.9e-05
0.001132
-0.001334
0.003433
0.001789
-0.002813
-0.000347
0.001132
-0.005278
-0.002648
-0.001334
-0.005114
-0.002155
-0.00347
-0.002155
-0.002813
-0.001827
-0.002977
-0.000347
-0.002977
-0.003142
-0.001991
-0.003306
-0.004292
-0.003306
0.003268
-0.004785
-0.003799
-0.005607
-0.003963
-0.006593
-0.001498
-0.003635
-0.002977
-0.002155
-0.001827
-0.000347
-0.001991
-0.001169
-0.004949
0.002447
-0.003963
-0.004292
-0.002813
-0.0061
-0.005607
-0.002648
-0.002155
-0.001498
-0.002977
-0.003142
-0.001334
-0.001827
-0.003306
-0.001991
-0.002155
-0.001827
-0.000841
-0.003306
-0.001662
-0.003799
-0.004292
-0.000512
-0.00232
-0.003142
-0.002977
-0.001334
-0.00232
0.000967
0.000967
-0.000183
0.00031
0.000146
-0.002484
0.000967
0.000146
0.000967
-0.002155
-0.002813
-0.002155
0.001954
-0.00232
-0.005114
-0.001334
-0.000841
-0.000183
-0.000183
-0.000512
-0.001005
0.001954
-0.001005
0.003433
-0.000512
0.000639
-0.000841
-1.9e-05
-0.001991
0.000803
-0.000841
-1.9e-05
0.001789
0.003761
0.003597
0.002118
-0.000676
-0.000347
0.002611
-0.000676
0.003104
-0.004785
0.000803
0.00031
-0.000676
0.001625
0.000474
0.000639
0.003926
0.000474
-0.001334
0.001954
-0.000512
0.000639
-0.000841
0.001296
0.001954
-0.002484
-0.000841
-1.9e-05
0.001132
-1.9e-05
0.001954
0.001132
-0.002484
0.003926
0.003926
0.001954
0.001132
-0.000183
-0.000512
0.000146
0.002118
0.00031
0.001132
0.001954
0.000474
0.004255
0.00294
0.002118
0.001789
0.002118
0.000639
0.000967
0.00146
0.001296
-0.00232
0.002118
-0.000512
0.005734
0.00146
-0.00347
0.000639
0.003268
0.000146
-0.000183
0.002447
0.000474
0.001789
0.002447
0.002447
-0.000183
0.002118
-0.002155
0.002447
0.001296
-0.000512
-0.003306
-0.000841
0.000967
0.000146
0.001954
-0.001334
0.004419
0.003597
0.008199
0.001954
-0.000183
0.00031
0.001132
0.001132
0.001625
0.00146
0.001789
0.000639
0.003597
0.002447
0.00146
0.004912
0.001296
0.003761
0.001625
0.00294
0.001625
0.001625
-0.000512
0.000146
0.001296
0.001132
0.000474
-0.001169
-0.00232
-0.002155
0.001296
0.002118
0.003268
0.000967
0.001954
0.007706
0.000967
0.000803
0.00146
0.000803
0.002118
-0.001662
0.003268
0.00031
-0.003142
0.002775
0.001789
-0.000512
-0.001662
0.002775
0.000967
0.001954
-0.004456
0.000803
0.000967
0.001625
-0.000347
0.003926
0.000639
0.00031
0.00146
0.000639
0.002611
-0.001827
0.001625
0.002775
0.003761
0.003597
0.008857
0.001625
0.001296
0.003433
0.000639
0.001789
-0.002648
0.003268
0.001625
0.000146
-0.002155
0.003104
-0.001662
-0.000183
0.000639
0.001954
0.000474
0.000967
0.001789
0.003597
0.00146
-0.000676
0.009843
0.014938
0.020362
0.025128
0.033017
0.038934
0.046987
0.053726
0.062108
0.069176
0.073942
0.080681
0.081995
0.088077
0.0935
0.099582
0.101718
0.107964
0.113223
0.114867
0.118483
0.122592
0.126372
0.128673
0.129823
0.132946
0.135247
0.13952
0.143465
0.145437
0.14856
0.150697
0.152505
0.155956
0.156778
0.156285
0.160722
0.161215
0.159243
0.159408
0.166475
0.164996
0.166475
0.170255
0.171734
0.172063
0.172392
0.175679
0.175843
0.177651
0.1742
0.181103
0.179295
0.178966
0.178144
0.181431
0.178637
0.179295
0.17913
0.183239
0.184225
0.182911
0.188992
0.187513
0.190471
0.190471
0.19458
0.188827
0.192772
0.189978
0.192936
0.192608
0.190964
0.192772
0.191786
0.192279
0.191457
0.192115
0.191786
0.195073
0.193429
0.194909
0.195402
0.19573
0.195402
0.199675
0.196881
0.196059
0.195237
0.195237
0.196059
0.196881
0.196388
0.196059
0.196388
0.196388
0.198524
0.197374
0.198524
0.198689
0.197538
0.198031
0.199675
0.200825
0.196388
0.197703
0.197703
0.195073
0.196388
0.198031
0.201154
0.198524
0.197703
0.197374
0.201647
0.199346
0.194744
0.201976
0.200497
0.199346
0.199839
0.203126
0.201154
0.199346
0.199182
0.199182
0.200497
0.196881
0.201647
0.199182
0.201483
0.198853
0.202798
0.199511
0.201319
0.202469
0.200004
0.198689
0.199182
0.202633
0.197867
0.202469
0.198689
0.20214
0.198853
0.201812
0.199346
0.197703
0.200168
0.198853
0.200661
0.200168
0.201483
0.203784
0.20362
0.199346
0.200168
0.199018
0.200497
0.198524
0.201154
0.200497
0.201647
0.199675
0.201647
0.200825
0.196223
0.200661
0.199182
0.197703
0.200661
0.199182
0.20214
0.203784
0.203126
0.201812
0.203948
0.201647
0.201812
0.20099
0.201812
0.201647
0.199018
0.201812
0.201154
0.20099
0.200004
0.202962
0.201812
0.20099
0.201647
0.200497
0.202305
0.199018
0.203455
0.200661
0.201647
0.201319
0.201483
0.199018
0.200332
0.201483
0.19836
0.201976
0.199675
0.203455
0.197867
0.201647
0.200825
0.201976
0.199346
0.201647
0.201976
0.201812
0.201319
0.199839
0.199511
0.200825
0.201647
0.199018
0.203948
0.199839
0.200004
0.198853
0.203291
0.200497
0.203784
0.202633
0.200497
0.205099
0.201483
0.202798
0.201483
0.201319
0.199182
0.201154
0.200004
0.201647
0.201319
0.200825
0.201154
0.201154
0.202305
0.201976
0.201976
0.203291
0.202305
0.20099
0.201647
0.20099
0.200168
0.200004
0.201154
0.197703
0.193758
0.200332
0.198853
0.196717
0.202305
0.202305
0.202962
0.204606
0.202633
0.204606
0.20362
0.203126
0.200497
0.203126
0.202469
0.202633
0.201154
0.202962
0.200004
0.199675
0.202633
0.204606
0.202798
0.203291
0.202962
0.201483
0.203948
0.197538
0.200661
0.203948
0.202469
0.201647
0.202305
0.200661
0.199675
0.199346
0.200661
0.20099
0.200497
0.203948
0.203126
0.204277
0.203126
0.205592
0.20099
0.202469
0.201483
0.203126
0.201483
0.201647
0.195895
0.198689
0.198689
0.199018
0.202469
0.198853
0.202633
0.199346
0.205756
0.178802
0.178144
0.178144
0.182253
0.181924
0.18817
0.184883
0.180938
0.185047
0.18439
0.180116
0.184883
0.186198
0.185869
0.188663
0.188499
0.187513
0.189814
0.18932
0.188992
0.193265
0.187841
0.190142
0.188006
0.189485
0.190964
0.191621
0.190635
0.193429
0.192115
0.188663
0.196552
0.193594
0.192279
0.191128
0.195073
0.192772
0.195566
0.194087
0.197538
0.194416
0.19573
0.195237
0.193265
0.194416
0.192608
0.193429
0.194251
0.196552
0.19573
0.198196
0.195073
0.196223
0.194909
0.197538
0.201319
0.19458
0.19836
0.195566
0.199018
0.195073
0.199346
0.19573
0.201319
0.195566
0.198031
0.195402
0.196881
0.198524
0.199018
0.199346
0.200332
0.202962
0.200004
0.20214
0.19836
0.199511
0.197703
0.199511
0.198524
0.198689
0.196059
0.199346
0.198524
0.196388
0.198689
0.199018
0.19836
0.201319
0.199346
0.197538
0.199675
0.196388
0.199839
0.199839
0.200004
0.200004
0.200004
0.197703
0.200332
0.198524
0.199182
0.199511
0.199675
0.200497
0.20362
0.197703
0.195895
0.199511
0.198524
0.201812
0.200168
0.205427
0.197538
0.201647
0.200004
0.201976
0.198524
0.201976
0.200825
0.199346
0.201483
0.199018
0.199675
0.201319
0.202798
0.200661
0.204277
0.199346
0.200168
0.200168
0.200004
0.201483
0.199182
0.200004
0.200004
0.20362
0.201647
0.202962
0.199182
0.201812
0.202962
0.200004
0.196552
0.199182
0.199018
0.199675
0.199018
0.200332
0.202305
0.200497
0.200004
0.200661
0.202469
0.199182
0.203455
0.200497
0.206742
0.203291
0.203455
0.201154
0.202305
0.200168
0.201647
0.201647
0.200004
0.199511
0.203126
0.202305
0.201812
0.199839
0.199346
0.201812
0.198853
0.197867
0.199839
0.199182
0.198031
0.199511
0.200004
0.201319
0.200332
0.199018
0.198853
0.198524
0.199346
0.197374
0.200168
0.200661
0.199346
0.196881
0.196881
0.197374
0.19836
0.196388
0.198031
0.19573
0.197374
0.19836
0.198031
0.200825
0.198524
0.200168
0.201154
0.199675
0.19836
0.200332
0.198196
0.199018
0.19836
0.198031
0.199346
0.201319
0.199675
0.199018
0.200497
0.199675
0.202633
0.203291
0.202962
0.202962
0.200004
0.200004
0.202305
0.196552
0.194416
0.196388
0.198196
0.196717
0.200661
0.200332
0.199511
0.200661
0.199346
0.200497
0.199839
0.199839
0.199839
0.200168
0.198689
0.199675
0.197045
0.196059
0.19721
0.199018
0.197538
0.196881
0.199511
0.198524
0.202962
0.20099
0.202962
0.200497
0.201483
0.199839
0.201976
0.199839
0.200168
0.193429
0.197538
0.198031
0.200168
0.200661
0.199018
0.199839
0.199839
0.201319
0.200825
0.199839
0.189649
0.196223
0.199018
0.200004
0.197538
0.199839
0.19836
0.197867
0.200497
0.199346
0.202305
0.189978
0.197045
0.201812
0.199182
0.201812
0.20362
0.200661
0.201812
0.200661
0.199346
0.198196
0.188334
0.197703
0.196717
0.198031
0.198853
0.198689
0.198689
0.196223
0.198196
0.199018
0.200661
0.197703
0.198524
0.203948
0.200004
0.199839
0.200825
0.199182
0.199675
0.199839
0.201319
0.199182
0.198689
0.19721
0.199675
0.197374
0.20099
0.199839
0.205592
0.203455
0.204606
0.20362
0.201483
0.201154
0.197867
0.198853
0.199511
0.200332
0.199018
0.201154
0.199018
0.201976
0.200004
0.200825
0.205099
0.199839
0.198853
0.200497
0.198853
0.199675
0.197045
0.198524
0.199675
0.197703
0.201483
0.206742
0.201319
0.202469
0.200168
0.200661
0.200332
0.201154
0.199346
0.201319
0.201483
0.201319
0.204277
0.200825
0.199511
0.202469
0.20099
0.201483
0.198689
0.200332
0.19836
0.203126
0.201976
0.206085
0.201319
0.201483
0.196223
0.200168
0.201976
0.198689
0.199839
0.200168
0.201483
0.202469
0.201976
0.199675
0.199346
0.199511
0.199346
0.199675
0.199182
0.200497
0.200825
0.200825
0.20099
0.20477
0.199018
0.202469
0.202962
0.197045
0.196223
0.198853
0.197538
0.198853
0.201976
0.202305
0.202305
0.198524
0.201319
0.199018
0.202305
0.198853
0.200825
0.199675
0.204113
0.200661
0.201812
0.205427
0.197538
0.200332
0.20099
0.201483
0.19836
0.199018
0.198031
0.200825
0.200497
0.202469
0.200825
0.199675
0.199182
0.20099
0.200661
0.201319
0.20099
0.199346
0.200825
0.202633
0.199839
0.199346
0.201483
0.196223
0.201647
0.197867
0.198524
0.200825
0.200004
0.199346
0.201483
0.202633
0.203126
0.199182
0.201812
0.197538
0.196881
0.20099
0.198689
0.201319
0.199018
0.201319
0.199675
0.201483
0.199675
0.200825
0.201319
0.201154
0.201976
0.20214
0.202962
0.200004
0.202962
0.197045
0.199018
0.199839
0.199675
0.198031
0.204441
0.197374
0.200004
0.199675
0.200661
0.200497
0.202469
0.202633
0.199346
0.200497
0.198524
0.201812
0.198689
0.20099
0.199182
0.203291
0.200004
0.202962
0.200004
0.196059
0.197374
0.202469
0.19721
0.196717
0.201647
0.200332
0.201647
0.199675
0.201812
0.19721
0.198689
0.199018
0.202469
0.200332
0.200004
0.199018
0.200004
0.200168
0.20099
0.202305
0.201483
0.200168
0.199346
0.201647
0.197867
0.199839
0.199346
0.200661
0.200332
0.201319
0.198524
0.199018
0.19836
0.198853
0.20099
0.19721
0.202633
0.199346
0.19836
0.201483
0.201483
0.199839
0.202798
0.199511
0.201154
0.201483
0.201319
0.200168
0.199346
0.197045
0.19721
0.200332
0.199018
0.199182
0.19721
0.199675
0.199346
0.20099
0.199346
0.202305
0.199675
0.202305
0.202469
0.200168
0.20099
0.198196
0.203455
0.198524
0.198853
0.201154
0.198689
0.200004
0.200004
0.199675
0.201812
0.203291
0.20214
0.199675
0.20214
0.202798
0.199839
0.205427
0.201812
0.201976
0.200661
0.200004
0.19836
0.202469
0.197374
0.197867
0.198853
0.198524
0.199675
0.199839
0.200825
0.201647
0.203455
0.201812
0.20099
0.199675
0.198196
0.198524
0.202305
0.19836
0.196552
0.19721
0.200497
0.199839
0.201647
0.203126
0.201812
0.201976
0.201647
0.201154
0.200332
0.201976
0.198853
0.202962
0.200497
0.199182
0.198031
0.20214
0.196552
0.200004
0.199346
0.202962
0.19836
0.201812
0.201976
0.200332
0.202798
0.198853
0.202469
0.19721
0.199018
0.198524
0.198689
0.194909
0.198853
0.197538
0.200168
0.200497
0.196552
0.20099
0.200825
0.200497
0.200497
0.20362
0.197867
0.202305
0.197867
0.199511
0.199346
0.197703
0.195237
0.197374
0.198524
0.195566
0.197538
0.196552
0.204113
0.20099
0.201647
0.20214
0.201319
0.19836
0.201483
0.199511
0.199182
0.200168
0.197867
0.200332
0.198853
0.203455
0.20214
0.201647
0.197374
0.202305
0.198524
0.200332
0.198031
0.201154
0.195073
0.20099
0.20099
0.201812
0.199346
0.198031
0.197703
0.199839
0.199018
0.199346
0.199182
0.198853
0.201319
0.198196
0.202469
0.199346
0.199675
0.197045
0.199675
0.198689
0.197538
0.196059
0.201319
0.200332
0.198689
0.201812
0.19721
0.198524
0.199018
0.201976
0.198196
0.200004
0.197538
0.200004
0.199839
0.200661
0.201319
0.199346
0.199346
0.198031
0.200332
0.200497
0.202305
0.199346
0.201154
0.199018
0.200168
0.200332
0.203948
0.197374
0.19721
0.202305
0.201483
0.199839
0.20099
0.201812
0.19836
0.202798
0.201483
0.200661
0.199511
0.200168
0.198689
0.200332
0.199839
0.197867
0.198524
0.197374
0.201154
0.202798
0.20214
0.197703
0.199839
0.19836
0.201976
0.20099
0.199346
0.199675
0.201319
0.200004
0.200825
0.19836
0.197867
0.199018
0.198196
0.199182
0.198689
0.199018
0.198853
0.201647
0.200004
0.204606
0.200497
0.201647
0.199839
0.199839
0.197045
0.200661
0.199182
0.198031
0.198689
0.199018
0.204277
0.192772
0.197867
0.201976
0.19721
0.198524
0.204113
0.201319
0.201976
0.199182
0.199675
0.200168
0.197538
0.199018
0.195895
0.196717
0.197374
0.199346
0.200497
0.199839
0.199675
0.199675
0.199511
0.200004
0.200168
0.201483
0.200497
0.199839
0.202469
0.200497
0.199675
0.199182
0.200825
0.198524
0.198031
0.200497
0.199346
0.199511
0.201483
0.20214
0.206085
0.202798
0.201319
0.201319
0.196388
0.201976
0.199182
0.199182
0.198853
0.200661
0.200168
0.19836
0.196552
0.198031
0.197867
0.200168
0.199346
0.199018
0.198031
0.200497
0.201812
0.198196
0.201976
0.200661
0.197538
0.197538
0.199018
0.195402
0.197867
0.197374
0.198689
0.197703
0.200332
0.201154
0.201812
0.201154
0.201647
0.201976
0.198853
0.20099
0.199675
0.200168
0.199675
0.201483
0.199018
0.202305
0.198524
0.200004
0.200004
0.19721
0.200168
0.201483
0.201483
0.200004
0.204441
0.199346
0.200661
0.200332
0.201812
0.199675
0.199839
0.194251
0.198689
0.198031
0.200004
0.199182
0.198853
0.202305
0.19836
0.199182
0.199346
0.200004
0.198524
0.203455
0.197374
0.199675
0.201154
0.200004
0.201812
0.197538
0.197045
0.196223
0.197045
0.196552
0.200332
0.202962
0.199346
0.201154
0.202798
0.199511
0.202798
0.200332
0.201154
0.199511
0.200497
0.199346
0.199182
0.199839
0.197703
0.201154
0.195402
0.200168
0.199675
0.199675
0.19836
0.201319
0.198524
0.200661
0.201154
0.201483
0.199182
0.197703
0.201319
0.201647
0.200497
0.197538
0.200497
0.198689
0.200168
0.198196
0.201319
0.201319
0.200004
0.20477
0.203455
0.200497
0.19836
0.19836
0.197538
0.198524
0.19721
0.199675
0.202305
0.200004
0.200332
0.201154
0.196388
0.199511
0.198853
0.200004
0.200004
0.200825
0.200661
0.201812
0.202305
0.200332
0.199839
0.201154
0.198689
0.198689
0.200497
0.195237
0.19836
0.198031
0.200497
0.201154
0.202305
0.200497
0.203948
0.201647
0.198689
0.200661
0.20099
0.201319
0.201319
0.199675
0.197703
0.200004
0.197538
0.201976
0.198853
0.198689
0.198031
0.201319
0.201154
0.202305
0.201976
0.199018
0.199018
0.199675
0.200497
0.195895
0.198689
0.200332
0.200497
0.195402
0.200168
0.200825
0.19836
0.201319
0.200825
0.200825
0.202305
0.200661
0.198031
0.202469
0.198524
0.20099
0.200332
0.200497
0.20362
0.201812
0.200004
0.199346
0.199182
0.198853
0.199018
0.199511
0.202798
0.201647
0.200004
0.197538
0.20214
0.197538
0.199511
0.196223
0.19836
0.199511
0.200332
0.199839
0.201319
0.19836
0.19721
0.200661
0.199346
0.200168
0.198196
0.198853
0.196717
0.198031
0.199018
0.199511
0.195566
0.199018
0.19836
0.206578
0.200004
0.200168
0.201483
0.199018
0.199675
0.198853
0.200825
0.198524
0.200004
0.199675
0.201154
0.198689
0.200168
0.198524
0.202469
0.200004
0.202305
0.202633
0.199675
0.201154
0.200497
0.201154
0.197538
0.199346
0.197703
0.197867
0.199182
0.19836
0.199511
0.195073
0.199675
0.199675
0.19836
0.200332
0.199018
0.198031
0.198524
0.199346
0.198196
0.201483
0.195895
0.195073
0.197703
0.196388
0.197867
0.197867
0.200661
0.201483
0.203291
0.200168
0.200168
0.201647
0.199346
0.199839
0.200825
0.197374
0.195895
0.201319
0.197867
0.197867
0.199675
0.199839
0.199839
0.199511
0.20099
0.200661
0.196717
0.197374
0.200332
0.197867
0.200332
0.196717
0.20214
0.198524
0.199018
0.197867
0.200004
0.198524
0.197867
0.19721
0.198031
0.199839
0.20099
0.204934
0.200332
0.200004
0.198524
0.20099
0.197374
0.200004
0.196717
0.200004
0.200332
0.197045
0.199839
0.198196
0.199675
0.196223
0.197538
0.198853
0.199182
0.199018
0.201319
0.198524
0.20099
0.201154
0.199675
0.200497
0.199346
0.198853
0.199018
0.203455
0.19721
0.200497
0.199346
0.203126
0.203455
0.202962
0.197867
0.201647
0.199675
0.199182
0.200497
0.198689
0.199018
0.198031
0.199511
0.199839
0.201319
0.196059
0.200497
0.203291
0.203126
0.201154
0.203455
0.198524
0.200004
0.200661
0.201483
0.201812
0.199346
0.198524
0.198031
0.198689
0.200661
0.198853
0.198853
0.202305
0.200168
0.202962
0.201647
0.199839
0.199839
0.202305
0.198031
0.200497
0.19836
0.200497
0.199675
0.199839
0.203126
0.200332
0.200661
0.197538
0.202962
0.198196
0.198196
0.199182
0.201154
0.199182
0.205921
0.203784
0.203455
0.200825
0.200332
0.201976
0.198031
0.199182
0.198031
0.200497
0.197867
0.200497
0.199346
0.199182
0.197045
0.198031
0.201812
0.198196
0.201647
0.200825
0.197867
0.203455
0.199182
0.201319
0.201647
0.198031
0.197045
0.196059
0.19836
0.198689
0.19721
0.199018
0.198853
0.200332
0.199346
0.201647
0.198853
0.201154
0.198031
0.200497
0.198853
0.200004
0.200168
0.199346
0.198853
0.199839
0.19836
0.19836
0.199675
0.198031
0.201483
0.195566
0.198196
0.19836
0.204441
0.199018
0.203126
0.199018
0.199675
0.199675
0.197867
0.197538
0.198196
0.197867
0.197538
0.197703
0.19836
0.201976
0.198853
0.200332
0.19573
0.201319
0.192115
0.200332
0.200168
0.200661
0.198031
0.200497
0.199839
0.198524
0.198031
0.199182
0.200497
0.197045
0.197374
0.196223
0.199018
0.198689
0.199675
0.201647
0.200332
0.199018
0.198853
0.199346
0.19721
0.197045
0.197703
0.198196
0.196552
0.200825
0.199346
0.195566
0.197867
0.196881
0.19836
0.196881
0.197374
0.198689
0.196059
0.196552
0.202798
0.197374
0.198689
0.196717
0.198689
0.198031
0.197867
0.197703
0.199182
0.196223
0.193758
0.196881
0.194744
0.195566
0.193265
0.19721
0.197867
0.19836
0.198031
0.199675
0.196388
0.200332
0.19721
0.200661
0.199675
0.199346
0.198524
0.199346
0.197538
0.196388
0.19573
0.199839
0.199018
0.196717
0.200004
0.198524
0.197538
0.19836
0.200168
0.199182
0.201319
0.198196
0.202305
0.200332
0.201319
0.200004
0.19836
0.198853
0.197538
0.198853
0.19721
0.199511
0.19721
0.199346
0.198524
0.197703
0.199839
0.200332
0.196223
0.199675
0.197538
0.201483
0.199182
0.200332
0.200497
0.198689
0.19836
0.19836
0.198853
0.19573
0.199346
0.198689
0.199511
0.199346
0.197045
0.19721
0.199839
0.197045
0.198524
0.197867
0.197045
0.199839
0.198031
0.198524
0.19836
0.197703
0.201976
0.200332
0.195402
0.202633
0.196881
0.199182
0.195073
0.19573
0.198196
0.196717
0.196717
0.19721
0.19836
0.194909
0.199675
0.199018
0.200004
0.198853
0.200332
