Ladekurvenmessung

Zeit: 2018_05_04 09.59.12

Info: FVA3, v = 1.05, T = 23, F = 20, h = 587.3

Ladewiderstand[Ohm]: 1012700

Störkapazität[pF]: 0.000000

Entladezeit[ms]: 200

Abtastrate[Hz]: 250000

Anzahl der Messwerte: 2500.000000

Verzögerung[ms]: 3

Ladespannung[V]: 0.200000


Kurve 1

-0.001169
0.004583
0.005734
0.003761
0.006062
0.003433
0.006556
0.000803
0.003268
0.000146
0.002775
0.00146
-0.000347
-0.001827
0.001296
0.003761
0.004748
-0.001169
0.00409
0.003597
0.00031
0.003761
0.003268
0.00294
0.005734
0.004419
0.002611
0.00409
0.001296
0.002611
0.001954
0.002118
0.003433
0.004419
0.00146
-0.000183
0.006062
0.00146
-0.000183
0.000803
0.001296
0.001789
0.000146
0.001625
0.002611
-0.001991
-0.000183
0.002611
0.005076
0.006556
0.00409
0.003104
0.003761
0.003268
0.002118
0.003597
0.002611
0.006227
0.003268
0.002282
0.000474
0.003433
0.004583
0.001954
0.002118
0.000474
0.002118
0.003104
-1.9e-05
0.001954
0.000146
0.001132
0.003104
0.00146
0.003926
-0.000347
-0.001005
-0.001827
-0.002155
-0.00347
0.000967
-0.002155
-0.003963
-0.001662
-0.00347
0.001789
-0.004292
-0.000841
0.000639
0.003433
-0.001991
0.000474
-0.001334
-0.001498
-0.00232
-0.003306
-0.001169
-0.005114
-0.002484
-0.00347
-0.004785
-0.00725
-0.001334
-0.002813
-0.000676
-0.001334
0.00146
-0.001827
-0.001005
0.000474
-0.002484
-0.002813
-0.001498
-0.00232
-0.004621
-0.001991
0.002447
0.002611
-0.001005
-0.002484
-0.000512
-0.000183
0.000146
0.000146
0.000639
-0.002484
0.000474
-1.9e-05
-0.000512
-0.000512
-0.000512
-0.001991
0.000146
-0.002648
0.002447
0.002118
-0.004128
-0.001005
0.003597
0.00146
-0.00232
-0.000347
0.001625
0.000803
-0.002813
-1.9e-05
-0.000512
0.002611
-0.003963
0.000146
-0.000512
0.004912
0.002118
-0.004292
0.003104
-0.000183
0.00294
0.00146
0.000146
0.003926
0.002447
-0.000183
0.001296
-0.001005
0.002611
-0.000512
0.003104
0.004255
0.005241
0.000639
0.002775
0.003761
0.000639
0.005405
0.002775
0.00031
0.002611
0.003597
0.00031
0.004583
0.000146
0.003104
0.001954
0.00294
0.008199
0.002447
0.001789
0.001132
0.001132
-0.002813
-0.003306
0.001625
0.001789
-0.001498
0.002775
-0.000512
0.002447
0.000146
0.002118
0.002282
-0.001827
-0.001005
-0.001334
-1.9e-05
0.001954
-0.001005
-0.001334
0.001296
-0.00232
0.002447
-0.000841
0.003104
-0.001169
0.00031
0.001132
0.00031
-0.001662
0.000639
-0.000676
-1.9e-05
-0.001005
-0.001827
0.000474
-0.003799
0.000146
-0.003306
-0.000347
-0.001991
-0.000183
-0.003963
0.001954
-0.001991
-0.000183
0.00031
0.005734
0.00031
-0.001498
0.000474
-0.001498
0.001296
-0.002155
0.005898
-0.001169
-0.000347
-0.004292
-0.000841
-0.001005
0.000474
-0.000676
-0.000183
0.002118
-0.0061
0.002447
-0.000347
-1.9e-05
-0.000347
0.000639
-0.002484
0.000146
-0.001662
-0.001827
0.003104
-0.001005
-0.001662
0.002282
0.003761
-0.000183
0.001789
0.002611
0.006227
0.00031
0.003104
0.004583
0.000803
-0.000676
0.001296
-0.000512
0.000146
0.000146
0.000967
0.001625
0.001625
0.001789
0.004912
0.005734
0.000639
0.004912
-0.000183
0.000967
0.000803
0.003926
0.000474
-0.001005
-0.002648
-0.000841
-0.002648
-0.001005
-0.001005
-0.000183
0.00146
0.003433
0.003104
0.002447
0.00294
0.003597
0.002282
-0.000183
-0.000841
-0.000512
-0.001662
-0.00232
-0.000183
-0.000183
-0.001662
0.003104
-0.001005
0.003761
-0.001662
0.003433
0.003761
0.000639
0.004419
0.000474
-0.002155
0.001954
-0.001827
-1.9e-05
0.003926
-0.003963
-0.001498
-0.003963
-0.001005
-0.003306
0.001954
-0.000512
-0.000512
-0.003142
0.000639
-0.00725
-0.000347
-0.002648
-0.005771
-0.001662
-0.001827
-0.004621
-0.001334
-0.00232
-0.002813
-0.000183
-0.01629
-0.005114
-0.005771
-0.00232
-0.000841
0.001296
-0.001169
-0.002813
0.003104
0.003597
0.000146
-0.006429
-0.002155
0.000639
-0.002484
0.000803
-0.001827
-0.003142
-0.000347
0.002282
0.00146
0.000146
0.002447
-0.000512
0.000146
0.003761
-0.002484
0.001296
0.001625
-0.002648
0.00031
-0.000347
-0.002813
-0.000676
-0.000183
0.000967
-0.000841
0.000803
0.00031
-0.000512
0.00146
0.004748
0.003268
-0.002813
0.003926
0.000474
-0.000183
-0.001334
0.00146
-0.005278
0.001296
-0.001005
-0.000512
0.00031
0.000803
0.002118
0.00031
0.000146
0.00031
0.004419
0.001625
0.00294
0.000146
0.004255
-0.00232
0.001132
0.000967
0.000639
-1.9e-05
0.000803
0.003268
-0.000347
0.002775
0.000639
0.00146
0.002118
0.001789
-0.000183
0.003926
-0.001005
0.001132
-0.00347
0.000639
0.000146
0.004748
0.00294
0.000639
0.002282
-1.9e-05
0.003268
-0.001169
0.000639
0.00146
-1.9e-05
0.00146
0.002775
-0.000183
0.001132
-0.000841
0.000146
0.003104
0.000474
0.000803
0.00146
0.001132
-0.000676
0.003104
-0.002648
-0.00232
0.000474
-0.000183
0.002611
0.000967
0.00146
0.001789
0.00146
-1.9e-05
-1.9e-05
0.003433
0.004255
0.000474
0.005569
0.000474
-0.000841
0.001132
-0.000512
-0.000347
0.000967
-0.000347
0.00294
-0.000183
0.001132
0.001132
0.002775
0.003761
0.006556
0.001625
0.002118
0.001625
-0.001991
0.000474
-0.000512
-0.001005
0.000803
-0.000841
-0.005771
-0.001334
0.000146
-0.00232
0.000967
0.000967
0.001954
0.001296
0.002447
0.000803
0.002447
-0.000676
0.001954
-0.003306
-1.9e-05
-0.000512
-0.00347
0.002775
0.001296
0.001789
0.002611
0.00409
0.001789
0.004255
0.002611
0.002118
0.001132
0.000474
0.00031
-1.9e-05
-0.000347
0.000146
-0.000512
-0.00347
0.003268
-0.001827
0.001132
0.00031
0.001789
0.001132
0.008528
0.002775
0.00294
0.002282
0.00031
0.000474
0.000146
-0.001334
-0.003799
-0.001827
-0.001169
0.003104
0.002447
-0.001827
0.001789
0.003597
-0.000841
0.004748
0.001296
0.001625
0.00031
0.004419
0.003761
0.00146
0.002447
-0.000347
0.00031
0.00031
0.00294
0.000639
0.000639
0.000639
0.002282
0.003926
0.003926
0.001296
0.001625
0.001625
-0.000676
0.002282
0.001625
-0.000183
-1.9e-05
0.003433
-0.000841
0.002118
-0.001169
0.000803
0.002282
0.003268
0.00031
0.003597
0.000474
0.002611
0.004255
0.001789
0.000474
0.000803
0.002775
0.000803
0.001789
-0.001005
0.006884
0.000803
0.001132
0.003104
0.003761
0.00146
0.009185
0.002118
0.002447
0.007049
0.00294
0.005734
0.003926
0.001132
0.006227
0.007213
0.001625
0.001132
-0.002155
-0.001991
-0.002813
-0.003142
-0.001662
-0.000183
-0.003306
0.003104
0.004419
-1.9e-05
0.003433
0.001789
0.003104
0.000639
-0.000512
0.001789
0.001789
-0.004785
0.002282
-0.001334
-0.005443
-0.001169
-0.002155
-0.00725
0.000146
-0.00232
-0.002155
0.000967
-0.001991
0.003597
0.005405
0.00409
0.003926
-0.000347
-0.000676
-0.000183
-1.9e-05
-0.001169
0.003104
-0.001991
0.000639
-0.000841
-0.000841
0.000639
0.011322
-0.001498
-0.001005
0.003761
0.000146
-0.002813
0.001789
-0.005607
-0.005443
0.000803
0.00031
0.008035
-1.9e-05
0.00146
0.003104
0.002775
-0.004621
0.007377
0.006062
0.000146
-0.000841
-0.000841
-0.001991
-0.002977
-0.002648
-0.002484
-0.004292
-0.007744
-0.002155
-0.00347
-0.001334
-0.002813
0.00031
-0.002155
0.001296
-0.003963
0.001296
-0.003799
-0.001827
-0.004949
-0.004456
-0.004128
-0.003799
-0.001827
-0.003963
-0.000841
-0.005771
-0.003799
-0.004292
-0.001498
-0.000676
-0.001334
-0.00347
0.002447
-0.003799
-0.003306
-0.003142
-0.002813
-0.000841
-0.001334
-1.9e-05
-0.000841
0.001789
-0.003142
-0.000676
-0.001827
0.000639
-0.002484
0.001789
-0.001334
-0.000841
-0.000183
-0.000512
0.000474
-0.001005
-0.000512
0.001132
0.002282
-0.003963
0.000639
-0.001991
-0.000183
-0.000512
0.000474
0.00294
-0.003306
0.002775
-0.002155
-0.003142
-0.0061
-0.00725
0.002447
-0.000183
0.005898
0.018225
0.018225
0.026936
0.03236
0.039427
0.047973
0.050932
0.059807
0.06408
0.070162
0.075585
0.083968
0.08594
0.093336
0.092186
0.100403
0.104512
0.10632
0.108786
0.113716
0.115853
0.119797
0.126043
0.127194
0.131467
0.132946
0.136233
0.142643
0.140506
0.142314
0.147738
0.148067
0.151518
0.153819
0.156613
0.15612
0.159736
0.160229
0.164174
0.160558
0.160394
0.164667
0.165489
0.167132
0.167297
0.169762
0.1742
0.178309
0.176008
0.181103
0.178637
0.177651
0.178966
0.182582
0.178309
0.182582
0.180938
0.181267
0.184718
0.181267
0.18439
0.183732
0.186033
0.182417
0.187677
0.187841
0.190307
0.190635
0.190142
0.191786
0.186855
0.185376
0.188827
0.190635
0.187019
0.19195
0.18554
0.193758
0.189814
0.193922
0.192936
0.193922
0.186691
0.191621
0.189814
0.192115
0.195566
0.195237
0.196059
0.192936
0.197045
0.193594
0.19573
0.182911
0.190635
0.195237
0.189978
0.196223
0.202469
0.193265
0.194416
0.198689
0.195895
0.198689
0.191293
0.194909
0.197374
0.197045
0.195237
0.187841
0.192936
0.195566
0.197045
0.198689
0.198524
0.195237
0.197045
0.199346
0.201483
0.199511
0.200661
0.197538
0.198853
0.199346
0.199018
0.197045
0.195566
0.195566
0.19836
0.197538
0.198689
0.200004
0.196388
0.197867
0.202305
0.201319
0.199346
0.197374
0.190635
0.197045
0.198689
0.192279
0.19721
0.198031
0.194744
0.19721
0.199182
0.199018
0.200497
0.198196
0.200661
0.199839
0.20214
0.199346
0.198524
0.201647
0.201647
0.20214
0.19836
0.203455
0.202633
0.199675
0.201812
0.200168
0.198031
0.201483
0.199018
0.197538
0.202469
0.199182
0.199839
0.201319
0.200004
0.200332
0.20099
0.200168
0.199018
0.198524
0.199182
0.19721
0.200168
0.200661
0.197867
0.199018
0.198524
0.199346
0.201647
0.200332
0.207564
0.202305
0.201319
0.200497
0.200004
0.197538
0.199182
0.198524
0.19721
0.201483
0.197867
0.201483
0.200825
0.200497
0.199346
0.201319
0.200004
0.201154
0.200168
0.204606
0.205099
0.195402
0.20099
0.20214
0.203291
0.196388
0.203455
0.197703
0.200332
0.199346
0.200661
0.199346
0.199675
0.201319
0.202469
0.203126
0.201319
0.201647
0.199511
0.200497
0.198853
0.20477
0.200168
0.200168
0.199675
0.203126
0.197867
0.201154
0.201812
0.196223
0.197045
0.203948
0.203291
0.197374
0.204934
0.199182
0.20214
0.199675
0.202962
0.203455
0.200825
0.199839
0.201319
0.197703
0.201319
0.201154
0.200661
0.202962
0.200332
0.201647
0.198853
0.202469
0.204113
0.202962
0.200004
0.202798
0.20099
0.200497
0.201483
0.200661
0.200004
0.20099
0.201319
0.200168
0.201319
0.203291
0.199839
0.197703
0.192936
0.193594
0.195073
0.193265
0.194087
0.191293
0.19195
0.19458
0.192936
0.194416
0.194416
0.198524
0.194416
0.192936
0.193429
0.195073
0.194251
0.192772
0.193265
0.19836
0.196388
0.19836
0.196552
0.19721
0.196552
0.196223
0.19836
0.196223
0.19721
0.196717
0.195895
0.193922
0.19573
0.197703
0.199182
0.19195
0.199839
0.196059
0.196881
0.198689
0.195566
0.198853
0.195073
0.19836
0.195402
0.197045
0.197374
0.199511
0.194251
0.19573
0.193922
0.198689
0.195566
0.197538
0.196223
0.195566
0.200661
0.197045
0.196388
0.197045
0.197538
0.195237
0.199346
0.196223
0.193101
0.194909
0.195073
0.196717
0.196717
0.197703
0.195895
0.198689
0.194744
0.198196
0.199018
0.198689
0.19721
0.201154
0.196881
0.199346
0.197045
0.200168
0.204441
0.199839
0.200497
0.197703
0.201647
0.200332
0.197045
0.200497
0.202305
0.197867
0.201647
0.201319
0.201154
0.20099
0.199182
0.197703
0.199182
0.193758
0.197703
0.19836
0.197374
0.198524
0.199346
0.198031
0.200168
0.199839
0.199018
0.204113
0.197374
0.201647
0.200661
0.202305
0.20099
0.20099
0.196388
0.195237
0.197538
0.19573
0.200004
0.197374
0.199018
0.200497
0.200661
0.199839
0.204441
0.200004
0.200661
0.201483
0.203455
0.203291
0.200168
0.200004
0.204606
0.197867
0.195895
0.199675
0.196223
0.199182
0.20099
0.200004
0.199675
0.202305
0.19836
0.20099
0.202798
0.200168
0.200004
0.197538
0.197703
0.198031
0.201154
0.197374
0.203126
0.197703
0.200661
0.199182
0.199675
0.200168
0.200497
0.201647
0.201319
0.201319
0.201319
0.203291
0.200004
0.198689
0.196881
0.199511
0.197703
0.201319
0.198031
0.199018
0.199182
0.199182
0.203784
0.202798
0.202633
0.200661
0.201319
0.198689
0.198524
0.198853
0.200168
0.197538
0.200825
0.204934
0.203948
0.200004
0.197867
0.20099
0.201976
0.200168
0.200497
0.19836
0.201647
0.20099
0.201154
0.202962
0.198689
0.199839
0.200168
0.201154
0.198689
0.200661
0.199182
0.200497
0.201319
0.20099
0.203291
0.200332
0.199182
0.19836
0.197045
0.196717
0.202469
0.198524
0.200497
0.201154
0.203784
0.201154
0.201647
0.198853
0.200825
0.200825
0.199675
0.20214
0.195566
0.200825
0.198031
0.200332
0.201154
0.202469
0.199675
0.20477
0.204441
0.201483
0.199675
0.199511
0.199346
0.197703
0.203291
0.201812
0.204113
0.19836
0.200661
0.20099
0.199511
0.200332
0.201154
0.201976
0.200497
0.204934
0.201812
0.201647
0.200332
0.202305
0.201976
0.203126
0.199018
0.201319
0.197374
0.19721
0.199675
0.198031
0.201483
0.198689
0.197538
0.198853
0.202305
0.20099
0.200497
0.200661
0.201647
0.201647
0.202633
0.199346
0.200825
0.200168
0.197045
0.201154
0.202469
0.200497
0.202633
0.203126
0.201483
0.200661
0.195566
0.202305
0.200168
0.202469
0.20214
0.202305
0.196388
0.203126
0.199182
0.200168
0.198031
0.199675
0.201319
0.201976
0.20214
0.201483
0.206085
0.201154
0.20099
0.200497
0.199018
0.198031
0.199018
0.199675
0.201319
0.200497
0.197867
0.198689
0.198524
0.202798
0.196388
0.199675
0.201647
0.20099
0.199346
0.19836
0.20099
0.200004
0.201647
0.201647
0.199675
0.198689
0.200661
0.202633
0.204113
0.201154
0.203948
0.202469
0.200661
0.199675
0.20362
0.203291
0.207728
0.200004
0.199018
0.201812
0.20099
0.20099
0.204606
0.199182
0.200004
0.199839
0.201976
0.202469
0.199675
0.199839
0.200661
0.203126
0.20362
0.202469
0.200661
0.202469
0.201319
0.197374
0.204441
0.199018
0.199182
0.198689
0.201319
0.197867
0.199018
0.201483
0.201319
0.201647
0.202962
0.202962
0.204606
0.199346
0.205263
0.202469
0.19836
0.205263
0.203126
0.204277
0.201154
0.20362
0.201647
0.201483
0.197538
0.202962
0.200168
0.201812
0.202305
0.200168
0.199182
0.201812
0.203126
0.20099
0.202633
0.19573
0.202469
0.200168
0.201647
0.200661
0.201154
0.198689
0.200332
0.199018
0.19836
0.199182
0.200497
0.201976
0.201647
0.202469
0.200825
0.200825
0.201154
0.201483
0.198031
0.198031
0.198853
0.19721
0.200004
0.199675
0.199511
0.200825
0.201319
0.199675
0.200661
0.200661
0.200825
0.202305
0.204277
0.203784
0.204277
0.201976
0.20362
0.196388
0.200825
0.198196
0.198853
0.197045
0.194416
0.199839
0.201154
0.197867
0.200825
0.210687
0.199018
0.20214
0.201154
0.202469
0.200825
0.202469
0.198031
0.198853
0.201154
0.196717
0.199018
0.198524
0.198689
0.201154
0.201647
0.200661
0.204441
0.201319
0.206578
0.202469
0.202469
0.193758
0.198031
0.196223
0.198196
0.20099
0.201812
0.201647
0.199182
0.203948
0.201319
0.202798
0.193758
0.200168
0.203784
0.207071
0.203455
0.20362
0.202633
0.20099
0.200168
0.198524
0.201812
0.196388
0.198196
0.199182
0.202798
0.199182
0.201812
0.199675
0.199511
0.198853
0.199675
0.198689
0.197867
0.196552
0.195895
0.196881
0.197374
0.194416
0.195895
0.197045
0.193429
0.195566
0.195237
0.196059
0.19458
0.196388
0.199839
0.195073
0.193429
0.195073
0.195073
0.193758
0.193922
0.196552
0.195566
0.189978
0.197538
0.193758
0.197867
0.193594
0.195073
0.195237
0.197867
0.200004
0.198853
0.196388
0.196552
0.196717
0.195402
0.199839
0.195402
0.196717
0.199675
0.204113
0.196552
0.199675
0.196388
0.198031
0.197374
0.197374
0.198853
0.196059
0.196717
0.196881
0.19836
0.197867
0.203948
0.199018
0.202798
0.19836
0.196223
0.197538
0.200332
0.197867
0.197867
0.200332
0.196223
0.195566
0.195566
0.196223
0.19573
0.19836
0.195895
0.201319
0.200168
0.199839
0.201812
0.200661
0.200497
0.200332
0.199182
0.197538
0.196059
0.195402
0.198524
0.197374
0.198853
0.201812
0.199346
0.199018
0.201647
0.20099
0.199182
0.200332
0.200332
0.198524
0.200004
0.197703
0.200332
0.199018
0.19721
0.198689
0.198524
0.200168
0.198196
0.198853
0.202469
0.202305
0.200004
0.202469
0.200825
0.200004
0.19836
0.201319
0.200168
0.19836
0.194744
0.193429
0.199018
0.195073
0.198196
0.201812
0.200168
0.199018
0.204606
0.200168
0.202469
0.200497
0.199675
0.201154
0.19836
0.199182
0.199018
0.195895
0.195073
0.200168
0.194744
0.200661
0.199675
0.200825
0.199018
0.201483
0.199511
0.202469
0.198524
0.195073
0.201154
0.200332
0.19721
0.197538
0.199675
0.197538
0.198524
0.197374
0.192608
0.197045
0.20214
0.198031
0.199839
0.199675
0.199018
0.202305
0.198031
0.202962
0.19836
0.195237
0.197045
0.198689
0.198524
0.198853
0.196717
0.19721
0.198853
0.200168
0.200332
0.201483
0.202633
0.200004
0.201976
0.197703
0.200168
0.200497
0.202798
0.203126
0.19836
0.196717
0.201812
0.199675
0.198524
0.201647
0.197538
0.202633
0.199839
0.201812
0.200497
0.201483
0.204277
0.205756
0.19836
0.20362
0.200661
0.200004
0.200004
0.200497
0.197538
0.196717
0.200661
0.198031
0.202305
0.196717
0.196552
0.19573
0.195237
0.196059
0.19573
0.196881
0.201154
0.194251
0.193758
0.198853
0.195073
0.193265
0.195402
0.199182
0.196059
0.199346
0.196717
0.196223
0.196881
0.19721
0.198031
0.199675
0.196881
0.202962
0.206414
0.196881
0.201483
0.200497
0.19721
0.199675
0.199018
0.198031
0.198524
0.197867
0.196717
0.200661
0.201976
0.200168
0.199675
0.200825
0.198853
0.198853
0.201483
0.203784
0.199675
0.198524
0.19836
0.19721
0.195895
0.197867
0.194744
0.195402
0.195566
0.199511
0.198196
0.199018
0.195895
0.196059
0.199511
0.194087
0.19836
0.198524
0.200004
0.194909
0.19836
0.194416
0.197045
0.198031
0.197374
0.197538
0.198196
0.199839
0.197867
0.197538
0.195402
0.200004
0.199346
0.200004
0.201976
0.198196
0.19721
0.197867
0.195402
0.197867
0.197703
0.197538
0.20362
0.201976
0.200661
0.19836
0.201154
0.199346
0.202633
0.199839
0.202469
0.200004
0.201976
0.200168
0.198524
0.198031
0.19721
0.201976
0.200825
0.20099
0.196717
0.19836
0.198524
0.200661
0.199346
0.201647
0.198524
0.201647
0.197867
0.19836
0.201154
0.199839
0.197374
0.19721
0.201812
0.200661
0.202305
0.199675
0.201319
0.204277
0.203291
0.197538
0.202962
0.008528
0.014773
0.024799
0.034661
0.039427
0.045179
0.052575
0.058821
0.065724
0.07312
0.073613
0.076079
0.085283
0.089227
0.097774
0.099253
0.10632
0.106813
0.113059
0.116839
0.118318
0.122592
0.096294
0.007049
0.00146
0.005405
0.010171
0.021676
0.017403
0.01428
0.019868
0.018389
0.015102
0.00787
0.018061
0.0105
0.003433
0.011815
0.003597
0.012308
0.022991
-0.00232
0.004748
0.013459
0.022334
0.026278
0.037783
0.039756
0.052575
0.055534
0.060465
0.060465
0.064738
0.069833
0.074435
0.082982
0.081831
0.092186
0.094487
0.099089
0.102211
0.107799
0.110265
0.11273
0.115524
0.117332
0.121934
0.123906
0.128673
0.127358
0.133768
0.140178
0.141493
0.142972
0.145437
0.146916
0.151683
0.150368
0.150204
0.152505
0.152833
0.152998
0.157928
0.155956
0.157435
0.157435
0.160229
0.166146
0.16779
0.169433
0.165324
0.170091
0.17272
0.174035
0.175186
0.175186
0.172885
0.176336
0.175843
0.176665
0.18061
0.182253
0.182417
0.179952
0.187348
0.182746
0.186033
0.00031
0.013459
0.018718
0.027593
0.035975
0.038769
0.044522
0.052411
0.057671
0.062766
0.069997
0.073778
0.084625
0.086926
0.091528
0.097281
0.108621
0.108457
0.115195
0.11273
0.119469
0.119797
0.121277
0.125386
0.125221
0.129495
0.132124
0.139849
0.140671
0.146259
0.146259
0.149217
0.152011
0.15234
0.153819
0.158093
0.157928
0.161709
0.163023
0.158421
0.167132
0.164338
0.166475
0.168447
0.170419
0.166639
0.165817
0.17157
0.172392
0.172392
0.17535
0.179952
0.177322
0.177815
0.182582
0.179295
0.17798
0.181103
0.178637
0.005569
0.014116
0.02069
0.029566
0.038112
0.04255
0.049288
0.051425
0.0603
0.06408
0.072134
0.07838
0.079366
0.086762
0.08857
0.101225
0.09613
0.105498
0.108128
0.1101
0.114867
0.119633
0.122263
0.126043
0.129823
0.022498
0.033017
0.039591
0.046166
0.05011
0.058657
0.062766
0.07049
0.077229
0.082817
0.085776
0.091857
0.094487
0.099582
0.104019
0.105005
0.108786
0.112566
0.116346
0.120784
0.122592
0.126043
0.129988
0.131302
0.138699
0.138041
0.138205
0.143794
0.146095
0.147738
0.14856
0.152833
0.15234
0.160887
0.158586
0.159079
0.160887
0.160229
0.16138
0.16516
0.16779
0.166968
0.165653
0.16894
0.171241
0.170748
0.175843
0.174693
0.171734
0.175021
0.178802
0.174857
0.176336
0.177487
0.179623
0.181103
0.184225
0.181924
0.186526
0.181267
0.18554
0.188663
0.188663
0.185705
0.184225
0.187513
0.186855
0.188663
0.186691
0.189649
0.184225
0.189156
0.1908
0.193101
0.188992
0.192443
0.192608
0.194416
0.196881
0.193101
0.195073
0.195402
0.196059
0.191128
0.19195
0.191786
0.194251
0.190471
0.197703
0.194251
0.193594
0.201976
0.194251
0.195895
0.19573
0.199839
0.195073
0.199182
0.196552
0.196552
0.196388
0.197045
0.20099
0.192115
0.19836
0.196717
0.196223
0.19721
0.200004
0.200497
0.200168
0.197703
0.200004
0.207564
0.19836
0.196388
0.198689
0.196881
0.196717
0.195237
0.199182
0.196717
0.196388
0.196388
0.194251
0.196059
0.196552
0.197045
0.196223
0.20099
0.197538
0.194251
0.194087
0.171077
0.086104
0.074928
0.089227
0.095473
0.097774
0.101554
0.110429
0.107306
0.115689
0.122427
0.123249
0.12555
0.120126
0.128508
0.13459
0.136562
0.138534
0.142314
0.144287
0.147245
0.146588
0.150204
0.151683
0.152505
0.149382
0.159079
0.158586
0.16138
0.1576
0.16138
0.163188
0.168283
0.16779
0.170748
0.171406
0.170584
0.172556
0.173049
0.1742
0.175021
0.175843
0.176172
0.181431
0.178144
0.180116
0.179623
0.176665
0.177815
0.184554
0.181267
0.181924
0.181924
0.184554
0.18176
0.184883
0.185705
0.185047
0.18554
0.185376
0.189485
0.186691
0.190142
0.187348
0.189814
0.192772
0.190964
0.19195
0.192115
0.191621
0.192115
0.192608
0.190142
0.192443
0.193101
0.194416
0.190635
0.193758
0.190635
0.190142
0.193265
0.191786
0.195566
0.192115
0.19573
0.194744
0.195895
0.196223
0.197703
0.195073
0.196223
0.197374
0.197045
0.19458
0.194251
0.193429
0.194251
0.193594
0.198853
0.197374
0.197374
0.19836
0.202798
0.198196
0.199018
0.198196
0.194251
0.196223
0.19573
0.19836
0.192443
0.199675
0.196223
0.19836
0.196059
0.196388
0.197538
0.199346
0.196223
0.19573
0.200661
0.19721
0.202469
0.198524
0.201319
0.199675
0.198031
0.194744
0.197867
0.199675
0.198524
0.197374
0.197374
0.199018
0.19721
0.20099
0.195895
0.197703
0.200497
0.197538
0.199511
0.195237
0.197045
0.196552
0.19573
0.197045
0.198196
0.200168
0.198853
0.194087
0.199839
0.197538
0.195237
0.194087
0.196717
0.198196
0.197867
0.196388
0.197538
0.195402
0.192936
0.19836
0.196223
0.193922
0.193758
0.199346
0.192936
0.201154
0.195073
0.196717
0.196552
0.200661
0.196552
0.199018
0.196552
0.199511
0.196388
0.197045
0.197538
0.198031
0.202305
0.200004
0.199675
0.198196
0.200497
0.196223
0.198524
0.197538
0.199675
0.196388
0.19721
0.198196
0.198196
0.198196
0.195237
0.202633
0.197703
0.20099
0.197867
0.199346
0.196717
0.197867
0.196717
0.19573
0.200168
0.196059
0.197538
0.196717
0.197045
0.197045
0.201154
0.195895
0.200168
0.198031
0.199018
0.196717
0.200497
0.197703
0.199182
0.196881
0.198853
0.200661
0.195073
0.203784
0.198689
0.200004
0.203948
0.198689
0.200497
0.199839
0.199675
0.204934
0.201319
0.199675
0.200661
0.199346
0.197703
0.197045
0.196388
0.195566
0.198196
0.197374
0.199346
0.199511
0.200004
0.198196
0.203455
0.194909
0.199346
0.199675
0.199511
0.193758
0.199182
0.204277
0.197538
0.196223
0.194744
0.197045
0.194744
0.196881
0.199018
0.200332
0.19721
0.202305
0.199346
0.200332
0.200168
0.200661
0.200004
0.197867
0.196388
0.197867
0.196223
0.197538
0.201976
0.19836
0.200661
0.199018
0.200825
0.197374
0.199346
0.202305
0.201812
0.198196
0.198853
0.203455
0.19573
0.198853
0.19721
0.199346
0.195566
0.198196
0.196552
0.197045
0.197538
0.198196
0.198031
0.197374
0.197867
0.199018
0.199675
0.196881
0.199346
0.195566
0.195237
0.193429
0.193429
0.197045
0.196881
0.194744
0.197703
0.197867
0.199018

Kurve 2

-0.006264
-0.007744
-0.00347
-0.002484
-0.005278
-0.005114
-0.005771
-0.008894
-0.00347
-0.004621
-0.000512
-0.003142
-0.003799
-0.000676
-0.004128
-0.002484
-0.003799
-0.003963
-0.005936
-0.001498
-0.003963
-0.004456
-0.004128
-0.004128
-0.001991
0.001296
-0.005114
-0.001498
-0.004949
-0.004456
0.00031
-0.004621
-0.002484
-0.001991
-0.004128
-0.002155
-0.000841
-0.005278
-0.00232
-0.004456
-0.002977
-0.004621
-0.001005
-0.001498
-0.002155
0.002282
0.000146
-0.004621
0.00146
-0.004456
-0.003306
-1.9e-05
-0.003799
0.003761
-0.004128
-0.002155
-0.003635
-1.9e-05
-0.005443
0.001296
-0.000347
-0.002648
0.001789
-0.003306
-0.001169
-0.001005
0.002775
-0.002155
0.00031
-0.002155
-0.001498
-0.003306
-0.000512
0.000146
-0.005936
-0.002813
-0.000183
-0.001169
-0.004128
0.004255
-1.9e-05
0.000967
0.000803
0.00031
-0.001169
-0.000512
-0.003963
-0.000841
-0.003142
-0.003963
-0.000512
-0.002155
-1.9e-05
-0.001334
0.000146
0.000803
0.002282
0.000146
0.002118
-0.001662
0.001132
0.00409
-1.9e-05
-0.002484
0.002118
0.000639
0.001296
0.002775
0.001625
0.001296
0.002282
-0.000841
0.001296
0.004255
-0.003963
0.003926
-0.000347
0.002447
0.000639
-0.000512
-0.001334
-0.000347
0.000146
-0.001005
0.001296
0.001132
0.001954
0.00146
0.004419
-0.000512
0.003104
-0.001662
0.001132
-0.002813
0.000803
0.000803
-0.000841
-0.000841
-0.001169
-0.001827
-1.9e-05
0.000474
-0.004785
0.000803
-0.001827
0.000474
0.002282
0.003433
0.001296
0.004748
-0.000841
0.00031
0.000474
-0.000841
-0.001662
-0.001498
-0.000183
-0.001005
0.003597
0.00031
0.003597
-0.000183
-0.000512
0.002118
0.001954
0.001789
0.000639
0.000639
0.004419
-0.002155
-0.000512
0.003268
-0.001334
0.000967
0.001132
0.00294
-0.001498
0.005076
-0.002155
-0.002484
0.00146
0.000474
0.000967
0.001132
-1.9e-05
0.00146
-0.001334
-0.001169
-0.000676
-0.003306
-0.00232
-0.001498
0.001296
0.000803
0.00031
-0.000841
-0.001662
0.000803
-1.9e-05
0.000803
0.001296
-0.001334
0.005076
0.004748
0.00294
0.003104
0.00031
-0.002813
-0.000841
0.000146
-0.002155
0.001789
-0.000183
-0.000183
-0.000347
0.00146
0.000639
-0.000347
0.00146
-0.000183
-0.001169
0.000146
0.003104
0.000474
0.004583
-0.005114
0.001789
-0.000512
-0.001827
-0.001169
0.004255
0.000474
-0.002484
0.00031
-0.000841
0.002447
0.000146
0.003104
-0.002155
0.003104
0.000474
0.00146
-0.000676
-0.003142
0.00146
0.001625
0.000803
-0.000676
0.002611
-0.001827
0.00146
-0.004292
-0.000183
0.000474
-0.001005
0.003104
0.00409
-0.001169
-0.001991
0.00146
0.000146
-0.000183
-0.001991
0.000146
-0.002977
0.000146
0.001954
0.001296
-0.000676
-0.000676
0.002118
0.000803
-1.9e-05
0.003597
-0.002155
-0.003799
-0.001334
0.000146
-0.001169
0.004912
-0.000183
-0.001827
-0.001005
-0.002813
-0.001169
-0.000676
-0.000183
0.000146
-0.000512
-0.003963
0.001789
-0.001005
0.002118
0.001789
-0.001334
0.001132
-0.000183
0.003926
-1.9e-05
0.001954
-1.9e-05
0.00031
-0.00347
0.002118
-0.002155
0.00031
0.000146
0.000803
-0.002648
0.001625
0.003104
-0.001169
0.002118
-0.000183
0.002282
-1.9e-05
0.000803
-0.001005
0.000967
-0.001334
0.002447
-0.000512
-0.001005
0.00146
-0.002155
-0.003142
-0.003142
-0.000841
-0.002155
-0.000183
-0.003799
-0.000676
0.002282
0.001954
0.000146
-0.002484
-0.002648
-0.002813
-0.001334
-0.000512
-1.9e-05
-0.001827
0.000146
0.000803
0.004583
0.00294
0.001789
0.001296
0.001296
-0.000347
0.003433
0.00146
0.001625
0.00409
-0.002648
0.003926
-0.001169
0.00146
-0.000183
-0.002155
-0.000183
-0.000347
-0.000347
0.002775
0.003104
0.004419
0.003926
0.001296
0.002775
-0.000512
0.001954
-0.001662
0.00031
-0.002155
-0.004128
0.000803
0.003761
-0.000841
0.002118
0.00294
0.002775
0.00294
0.004255
0.002282
-0.000347
0.002118
0.002447
0.00409
0.003433
-0.003142
-0.001827
-0.002977
-0.002813
-0.004949
-0.000183
0.001132
0.000639
0.006884
0.003597
0.001296
0.001954
0.000803
0.002282
0.000146
0.000803
0.000639
-0.000512
-0.000347
0.004912
-0.003306
0.002118
0.000474
-0.000676
0.003104
0.001296
0.000474
0.002118
0.002447
-0.000347
0.002775
-0.000183
0.00146
0.000639
-0.001498
-0.00232
0.000967
-0.002813
-0.000841
0.000803
-0.000676
0.003597
0.001625
0.000146
-0.002155
0.00146
-0.000512
0.000967
-0.001991
-0.002648
-0.001827
0.000474
-0.002977
-0.001005
-0.002813
0.000639
0.003597
-0.001827
0.003268
0.000639
0.001954
-0.004456
0.002611
-0.000183
0.001789
-0.001005
0.001954
-0.001169
0.001789
0.000803
-0.001991
-0.000841
-0.001662
-0.001005
0.001625
-0.000841
0.001132
0.002775
-1.9e-05
0.00294
0.00146
0.002282
0.000803
0.002282
-0.001169
-0.002155
-0.000347
0.000474
0.001954
0.001296
0.000803
-0.001169
0.00031
-0.002484
-0.001169
0.000967
0.003433
-0.002813
0.005076
0.001789
0.001132
0.000474
-0.001169
-0.001334
-0.002484
-0.001169
0.002775
0.003926
-0.00232
0.003761
0.003104
0.001954
0.002447
0.001789
-0.001005
0.002611
0.001132
0.001789
0.00031
0.001132
0.001132
-0.000183
-0.000183
0.001789
0.000967
-0.001827
0.002775
-0.001334
0.002282
-0.001334
0.000967
0.001132
0.00409
0.002447
0.001296
0.001132
0.000474
0.00294
-1.9e-05
0.002775
0.000803
-0.000512
-0.001169
0.00294
0.000803
0.004748
0.000474
0.001954
0.000967
-0.000512
-0.000512
0.000803
-0.002813
-0.000512
0.002775
0.00146
0.001789
0.001625
-0.000183
-0.001827
0.001296
-0.001005
-0.000512
-0.000676
-0.000347
0.002447
0.00146
0.002611
0.000474
0.003597
-0.004456
0.002611
-0.000841
0.001296
-0.000512
-1.9e-05
-0.000347
0.001296
0.001789
-0.000676
0.001296
0.001954
0.000967
-0.001991
-1.9e-05
-0.004456
0.00409
-0.000841
0.002282
0.001296
0.000474
-0.001169
0.002447
-0.002484
0.00294
-0.001005
-0.005443
-0.001498
-0.001169
-0.001827
-0.002484
-0.001334
-0.001662
0.002775
-0.000512
0.002282
0.001789
0.000639
0.000146
0.000474
-1.9e-05
0.000803
-0.001498
-0.001169
0.000803
-0.003142
0.001132
-0.000841
0.001954
-0.003635
0.000967
-0.000183
0.005569
-0.001005
0.000967
0.001132
-0.001005
-0.000676
0.000967
0.000146
0.00146
0.00146
-0.000676
0.004912
-0.007086
-0.005278
-0.001005
-0.000676
-0.000512
0.003597
0.00146
0.000639
0.003268
-0.001169
-0.001498
-0.004128
-0.003142
-0.001498
0.004748
-0.004621
0.001296
-0.000841
-0.000676
-0.002155
0.000146
-0.011852
0.001954
-1.9e-05
-0.001662
0.000803
-0.000512
0.002447
0.000474
0.002282
0.001132
0.000803
-0.008565
-0.000676
-0.002813
-0.003635
-0.001169
-0.000676
0.002775
-0.001334
0.002611
-0.000183
0.002611
-0.000676
-0.000183
-0.000841
-1.9e-05
0.000639
-0.000841
-0.001662
0.000639
-0.004128
-0.003963
-0.001498
-0.002977
-0.000841
-0.000347
-0.001334
0.000639
0.001954
-0.003635
0.003761
0.000967
0.003268
0.003597
0.001296
-0.002155
-0.001169
-0.004292
-0.003306
0.000639
-0.005936
0.00146
0.003761
0.000474
0.001296
0.002611
-0.001498
0.003433
0.000803
0.002447
0.000146
0.000803
0.000639
-0.000183
0.001132
0.000803
-0.000676
-0.001827
0.000967
-0.001334
-0.000183
-1.9e-05
-0.000512
-0.000183
0.001296
0.000803
0.003104
0.000803
0.000474
-0.000676
0.000474
-0.000841
-0.005278
0.000474
-0.004785
0.000967
-1.9e-05
0.000474
0.001625
0.00409
-0.001169
0.000803
0.006062
0.003926
0.002775
-0.001827
0.001789
-0.001498
-0.001827
-0.001662
-0.003963
-0.000183
0.003433
-0.00232
-0.001005
-0.000183
0.000967
0.005241
0.012965
0.019375
0.031538
0.037948
0.040413
0.052082
0.054219
0.063094
0.065067
0.070326
0.076736
0.082817
0.084461
0.089227
0.097445
0.096952
0.104677
0.108293
0.114209
0.115524
0.120784
0.122427
0.127851
0.13311
0.131467
0.137055
0.135411
0.137877
0.142479
0.142314
0.146095
0.147574
0.150532
0.153655
0.156778
0.156613
0.157107
0.158586
0.157928
0.159572
0.16253
0.162366
0.164338
0.167132
0.168612
0.170913
0.173378
0.173871
0.174693
0.176665
0.175843
0.175843
0.179459
0.179952
0.182089
0.181431
0.182253
0.183075
0.181431
0.183732
0.183568
0.184061
0.183404
0.186691
0.18554
0.18817
0.18932
0.190471
0.189156
0.188992
0.188334
0.188827
0.189485
0.189485
0.193265
0.19195
0.193758
0.192279
0.191293
0.192608
0.19195
0.192608
0.193429
0.192115
0.194744
0.192115
0.189485
0.189978
0.192608
0.190635
0.195073
0.19573
0.192772
0.196059
0.193594
0.196059
0.195237
0.19721
0.194909
0.196881
0.197374
0.194909
0.193922
0.19836
0.19458
0.191786
0.199675
0.198524
0.196717
0.199182
0.201319
0.199675
0.201319
0.196881
0.197703
0.198524
0.199018
0.197703
0.19836
0.196059
0.195895
0.197867
0.19836
0.196552
0.196059
0.197045
0.199018
0.200168
0.19836
0.201319
0.197538
0.201647
0.198689
0.199346
0.196717
0.199346
0.195895
0.19573
0.200497
0.201319
0.202962
0.198853
0.199182
0.201154
0.199839
0.197538
0.20099
0.198031
0.199675
0.199018
0.200497
0.194744
0.196717
0.199182
0.199675
0.207071
0.198031
0.201319
0.197045
0.203291
0.199346
0.201976
0.195237
0.200004
0.201483
0.201647
0.199346
0.197867
0.202469
0.198524
0.196552
0.200168
0.197538
0.201483
0.203291
0.199675
0.202305
0.197867
0.201483
0.200004
0.201483
0.200168
0.19836
0.201319
0.198524
0.200168
0.200004
0.197538
0.199346
0.201483
0.198853
0.200004
0.198689
0.201319
0.199018
0.20099
0.201319
0.205263
0.203455
0.201483
0.202798
0.200825
0.199839
0.199839
0.200332
0.198031
0.200004
0.198031
0.202469
0.198031
0.199018
0.204277
0.201483
0.197538
0.199675
0.199182
0.20214
0.200004
0.201154
0.20099
0.198689
0.202305
0.198853
0.20099
0.195566
0.20099
0.198524
0.200168
0.205099
0.20362
0.201483
0.201647
0.200168
0.200497
0.201319
0.197867
0.203126
0.19458
0.199346
0.199675
0.199346
0.20099
0.199675
0.199018
0.200661
0.200004
0.199018
0.200168
0.20099
0.198853
0.201812
0.204606
0.20214
0.203455
0.20099
0.200661
0.199018
0.199018
0.198853
0.201976
0.19721
0.199675
0.199346
0.197045
0.201483
0.199182
0.200332
0.200004
0.201812
0.200004
0.201976
0.200497
0.198196
0.20099
0.200332
0.196881
0.198031
0.199511
0.199182
0.198689
0.19573
0.198689
0.199511
0.199839
0.200168
0.200661
0.200661
0.200332
0.199346
0.200497
0.199018
0.199675
0.198196
0.197867
0.197045
0.198689
0.200004
0.200332
0.201812
0.199018
0.206907
0.197867
0.198689
0.199675
0.201154
0.199346
0.201319
0.199018
0.200661
0.20099
0.199346
0.19836
0.196881
0.199839
0.197703
0.200661
0.200497
0.197703
0.198196
0.200332
0.200825
0.201976
0.200825
0.200004
0.200825
0.199346
0.199018
0.198031
0.202469
0.200825
0.199018
0.199182
0.198524
0.200661
0.199346
0.198196
0.201319
0.198853
0.201647
0.198524
0.196881
0.202633
0.198196
0.200168
0.198031
0.199839
0.199675
0.201319
0.197538
0.205263
0.199839
0.198196
0.202798
0.202469
0.202305
0.202305
0.20099
0.201154
0.201812
0.199182
0.201812
0.199675
0.199675
0.201812
0.200661
0.199182
0.201976
0.198524
0.200004
0.200168
0.201647
0.201647
0.200661
0.200004
0.199346
0.202305
0.200332
0.199511
0.197867
0.201812
0.196059
0.197703
0.198689
0.20099
0.196881
0.200168
0.203126
0.202469
0.195073
0.201976
0.19836
0.19836
0.20099
0.196717
0.200168
0.198524
0.202305
0.203126
0.205427
0.203784
0.202469
0.202469
0.198524
0.199839
0.199018
0.201976
0.198524
0.200661
0.199675
0.201976
0.20099
0.20214
0.199675
0.200661
0.200661
0.20099
0.200332
0.199018
0.201483
0.20099
0.200825
0.19836
0.199018
0.198689
0.197703
0.200332
0.202633
0.200825
0.204113
0.203291
0.209208
0.203126
0.201647
0.200661
0.200497
0.199839
0.199839
0.200332
0.195073
0.197538
0.197703
0.198524
0.195402
0.203455
0.205263
0.198853
0.202305
0.20099
0.203455
0.196881
0.200497
0.19836
0.199839
0.199511
0.20099
0.196552
0.201154
0.197703
0.198524
0.201319
0.198689
0.199346
0.202305
0.201483
0.201812
0.204441
0.199018
0.201647
0.200661
0.201319
0.199346
0.199839
0.196388
0.200497
0.19836
0.200661
0.198196
0.196552
0.200825
0.199182
0.198524
0.201976
0.202798
0.199511
0.203784
0.200661
0.201154
0.202798
0.197538
0.195402
0.20099
0.197538
0.196552
0.197538
0.197867
0.201976
0.200661
0.20099
0.202469
0.198524
0.197703
0.206249
0.201319
0.201812
0.20099
0.199511
0.199839
0.200168
0.199839
0.205263
0.200332
0.199839
0.201647
0.19836
0.201319
0.201319
0.20362
0.202305
0.200168
0.201647
0.197867
0.200168
0.199675
0.198853
0.199182
0.200168
0.202305
0.201154
0.200661
0.202798
0.19721
0.187513
0.197867
0.200825
0.198524
0.201976
0.200661
0.20214
0.200825
0.200497
0.197867
0.200332
0.18817
0.198853
0.196388
0.196552
0.201812
0.198689
0.203948
0.201647
0.202305
0.20214
0.202305
0.190142
0.198689
0.201154
0.198196
0.200332
0.204277
0.198689
0.196223
0.201483
0.199511
0.20214
0.198689
0.199839
0.199182
0.20099
0.201154
0.201154
0.201812
0.199182
0.204606
0.201154
0.200168
0.196881
0.198524
0.199675
0.199346
0.200497
0.204113
0.196717
0.196717
0.201647
0.200497
0.199675
0.200497
0.200168
0.198689
0.199182
0.200168
0.200004
0.198689
0.201319
0.200332
0.203455
0.199839
0.205756
0.199182
0.200661
0.200004
0.200332
0.20214
0.206578
0.203126
0.201319
0.205921
0.200825
0.201812
0.203784
0.201976
0.200332
0.20099
0.201319
0.199346
0.198524
0.201812
0.201483
0.20099
0.201319
0.199511
0.202962
0.199675
0.201812
0.201483
0.204113
0.198853
0.202962
0.201647
0.200332
0.199675
0.207071
0.200825
0.198689
0.201483
0.198031
0.201812
0.200168
0.201647
0.200825
0.201483
0.200332
0.205427
0.19836
0.199675
0.200004
0.200825
0.201647
0.199511
0.199018
0.200168
0.20099
0.196717
0.202305
0.198853
0.196717
0.199182
0.200497
0.199182
0.203291
0.201976
0.203126
0.201154
0.198853
0.201154
0.199018
0.199346
0.197703
0.201812
0.201483
0.200497
0.200168
0.200497
0.200332
0.198853
0.20477
0.200825
0.200661
0.201647
0.200661
0.199346
0.201483
0.199346
0.202962
0.200661
0.200825
0.201483
0.199675
0.19836
0.199839
0.199675
0.198689
0.19573
0.201976
0.199511
0.199346
0.201647
0.200168
0.198853
0.19721
0.200332
0.199346
0.199675
0.196223
0.200661
0.203126
0.200497
0.200497
0.201483
0.202633
0.19836
0.200004
0.198524
0.200332
0.198196
0.203291
0.197538
0.20099
0.200332
0.200497
0.198853
0.199839
0.197867
0.200661
0.196223
0.196881
0.200168
0.198689
0.199675
0.199839
0.20214
0.199018
0.202633
0.200497
0.201154
0.199839
0.199511
0.199511
0.200661
0.198689
0.198031
0.20099
0.196552
0.197703
0.196881
0.198853
0.20099
0.194744
0.199511
0.201812
0.199018
0.202305
0.199839
0.19836
0.199346
0.203784
0.200332
0.199346
0.201154
0.201976
0.198031
0.198196
0.201154
0.200332
0.20099
0.198689
0.201154
0.199346
0.201483
0.200332
0.200661
0.199675
0.202633
0.20362
0.199675
0.199018
0.198853
0.200168
0.198196
0.20099
0.196552
0.199675
0.199346
0.202798
0.200168
0.20099
0.201154
0.20214
0.198196
0.19836
0.200168
0.195402
0.197538
0.198031
0.201647
0.197867
0.201154
0.193758
0.200661
0.200004
0.199675
0.202305
0.19721
0.202633
0.202633
0.200168
0.197045
0.198524
0.19721
0.200661
0.194251
0.201319
0.19836
0.200497
0.199182
0.198689
0.20214
0.200661
0.20362
0.200332
0.201976
0.199839
0.199182
0.199346
0.198689
0.201154
0.201154
0.197538
0.20099
0.200004
0.198196
0.197703
0.198524
0.201483
0.199346
0.200497
0.202633
0.201154
0.196388
0.200004
0.198196
0.198524
0.198853
0.201319
0.19836
0.20477
0.196059
0.19721
0.199182
0.198689
0.201483
0.201976
0.201319
0.200661
0.200004
0.201319
0.19836
0.195402
0.203126
0.200661
0.203126
0.201483
0.202469
0.200661
0.196059
0.199675
0.196552
0.202633
0.198524
0.202633
0.20099
0.199675
0.196059
0.20099
0.196717
0.19836
0.203784
0.200332
0.19836
0.198853
0.197703
0.198524
0.201483
0.199675
0.201154
0.199675
0.198853
0.199839
0.201154
0.200004
0.200168
0.200825
0.200004
0.200825
0.199839
0.196552
0.196717
0.198689
0.199675
0.198689
0.198689
0.201483
0.199839
0.201647
0.196552
0.202633
0.200332
0.204277
0.204934
0.20099
0.199511
0.203455
0.200825
0.201483
0.201647
0.199018
0.200168
0.200332
0.200168
0.201812
0.202962
0.200497
0.19721
0.201483
0.201812
0.201319
0.201319
0.201154
0.201812
0.200497
0.198031
0.200497
0.199182
0.202798
0.198196
0.201976
0.198196
0.199182
0.200332
0.200661
0.196881
0.199182
0.198524
0.199018
0.199511
0.200004
0.205592
0.202798
0.201154
0.20099
0.202469
0.197374
0.199346
0.199675
0.195402
0.201812
0.202305
0.204277
0.202962
0.201647
0.199839
0.20362
0.19721
0.202469
0.200661
0.199839
0.199675
0.20099
0.199675
0.200497
0.204277
0.203126
0.201154
0.200332
0.200332
0.202633
0.200004
0.199839
0.200661
0.200661
0.204277
0.205592
0.202469
0.201647
0.201154
0.200004
0.201154
0.198689
0.196388
0.200332
0.198031
0.199511
0.198031
0.201319
0.200332
0.20099
0.200661
0.205592
0.202633
0.202962
0.203291
0.199675
0.19836
0.200332
0.200497
0.199675
0.199675
0.199018
0.200661
0.19458
0.199839
0.199018
0.201154
0.200497
0.201812
0.199346
0.205263
0.200168
0.194416
0.200332
0.203126
0.19836
0.200332
0.198689
0.198524
0.202633
0.198524
0.201483
0.197703
0.202962
0.200004
0.202633
0.200332
0.201319
0.200332
0.197867
0.204277
0.198853
0.198689
0.196059
0.198689
0.196881
0.199839
0.198196
0.197538
0.200168
0.201976
0.197538
0.203126
0.202633
0.199839
0.203291
0.20099
0.200825
0.199839
0.201483
0.199182
0.20099
0.198853
0.198689
0.195402
0.20099
0.199018
0.199346
0.201154
0.199675
0.197867
0.199346
0.200497
0.197867
0.200497
0.199839
0.19836
0.200825
0.202633
0.195237
0.201483
0.200497
0.196059
0.20214
0.199018
0.197703
0.202305
0.198524
0.199182
0.199839
0.200497
0.200825
0.199182
0.199511
0.203455
0.199839
0.197703
0.203291
0.196223
0.199182
0.199018
0.198031
0.196059
0.196059
0.196059
0.190635
0.190471
0.187513
0.191621
0.179459
0.179295
0.174693
0.172556
0.170091
0.16894
0.170419
0.166475
0.168118
0.165817
0.174693
0.165817
0.169926
0.165324
0.168776
0.169433
0.173214
0.170748
0.173542
0.176336
0.174857
0.180774
0.174528
0.176008
0.176994
0.179952
0.178637
0.182089
0.180445
0.187513
0.182253
0.183897
0.187184
0.185705
0.182582
0.186526
0.190142
0.184554
0.186691
0.186198
0.187348
0.187019
0.192443
0.190471
0.1908
0.188992
0.192772
0.191128
0.193101
0.192443
0.193922
0.193265
0.197703
0.193265
0.188334
0.193922
0.197374
0.19573
0.193429
0.197045
0.19195
0.197045
0.199675
0.197045
0.19573
0.187184
0.194909
0.195895
0.19836
0.195895
0.197703
0.195402
0.195073
0.196717
0.200004
0.201154
0.186198
0.194909
0.198031
0.195566
0.196388
0.197538
0.197538
0.192443
0.199182
0.196717
0.195895
0.18932
0.194087
0.20214
0.19458
0.201319
0.196881
0.197374
0.199839
0.200825
0.19836
0.196388
0.189978
0.197045
0.201319
0.197538
0.197867
0.198689
0.200332
0.197045
0.202798
0.198196
0.197703
0.193101
0.197703
0.198689
0.201483
0.198196
0.199018
0.198853
0.198689
0.199182
0.198524
0.198689
0.195073
0.199018
0.197867
0.201483
0.19836
0.19836
0.198524
0.197703
0.198689
0.198031
0.199018
0.196388
0.198524
0.193429
0.196388
0.198031
0.198524
0.197703
0.200004
0.200825
0.200497
0.200168
0.199839
0.197374
0.193265
0.201319
0.195402
0.198689
0.199675
0.198689
0.198524
0.200497
0.197374
0.201154
0.199346
0.200661
0.198524
0.199018
0.194087
0.196717
0.195237
0.200332
0.201154
0.198689
0.203291
0.198524
0.197703
0.196717
0.198689
0.196059
0.198524
0.19721
0.198853
0.198196
0.199675
0.200004
0.200332
0.199839
0.19836
0.199839
0.200004
0.199346
0.19721
0.198031
0.199018
0.197045
0.198031
0.197374
0.194416
0.198524
0.199182
0.200825
0.199018
0.199346
0.201154
0.198853
0.202962
0.195402
0.199511
0.203948
0.200332
0.195566
0.203784
0.198031
0.196388
0.200332
0.200332
0.201483
0.198853
0.198689
0.199675
0.200168
0.201319
0.200661
0.199018
0.197538
0.200661
0.199839
0.195073
0.19573
0.197703
0.195895
0.196059
0.198524
0.200825
0.199511
0.197867
0.200332
0.203126
0.197703
0.199675
0.200661
0.200497
0.198524
0.198196
0.196223
0.19836
0.19458
0.197538
0.198196
0.19458
0.201812
0.199839
0.200497
0.198853
0.200004
0.198524
0.200004
0.199675
0.198689
0.199675
0.199511
0.196059
0.200661
0.195073
0.198196
0.197867
0.197867
0.197374
0.197374
0.201154
0.19836
0.199018
0.200004
0.202305
0.195895
0.201483
0.197867
0.194416
0.19836
0.197045
0.19573
0.195566
0.200825
0.196388
0.201154
0.201319
0.194416
0.198196
0.199018
0.197703
0.198689
0.200661
0.199839
0.198689
0.19573
0.200661
0.197045
0.196881
0.196717
0.197374
0.196552
0.199346
0.198524
0.199182
0.19836
0.198524
0.197867
0.201319
0.20099
0.198031
0.198031
0.19836
0.199346
0.199182
0.20099
0.198524
0.199018
0.196552
0.199675
0.197045
0.196388
0.198031
0.197045
0.202305
0.199839
0.201154
0.199839
0.200825
0.20362
0.199675
0.202305
0.201319
0.200168
0.201483
0.199346
0.199675
0.19721
0.199839
0.196881
0.199839
0.199182
0.195073
0.195402
0.200661
0.19721
0.200497
0.202305
0.200004
0.199839
0.200497
0.199675
0.197374
0.197867
0.197703
0.19836
0.199511
0.200661
0.202962
0.200497
0.204606
0.201154
0.203455
0.198524
0.201812
0.19836
0.201154
0.197703
0.200004
0.199675
0.19836
0.199182
0.197867
0.197374
0.199511
0.19836
0.19836
0.198853
0.198031
0.200825
0.199675
0.197538
0.19721
0.19836
0.201154
0.195895
0.198853
0.197538
0.19836
0.199839
0.202633
0.199018
0.199675
0.197045
0.196881
0.199675
0.197538
0.196552
0.199839
0.200004
0.198853
0.200825
0.202305
0.199018
0.198853
0.198689
0.197045
0.197374
0.19573
0.198689
0.189978
0.197703
0.201154
0.200497
0.200497
0.202962
0.199346
0.198196
0.202798
0.197374
0.20099
0.197538
0.199018
0.202633
0.201812
0.197045
0.200004
0.195566
0.195566
0.199182
0.197867
0.196223
0.201812
0.200168
0.202962
0.202962
0.19721
0.200332
0.198689
0.201319
0.195237
0.202962
0.195895
0.199018
0.194744
0.198689
0.200168
0.194744
0.199018
0.199675
0.199839
0.198524
0.199346
0.198524
0.200004
0.19573
0.202798
0.201976
0.202305
0.199675
0.201483
0.196059
0.19836
0.197045
0.196881
0.198689
0.198031
0.200825
0.201483
0.200497
0.200168
0.20214
0.198853
0.198524
0.201154
0.199346
0.196552
0.199839
0.203784
0.199511
0.199346
0.200004
0.196059
0.197374
0.197703
0.197538
0.200004
0.198196
0.199346
0.199839
0.200332
0.200168
0.196552
0.196717
0.196717
0.19458
0.196059
0.195237
0.199511
0.200004
0.196552
0.200825
0.199675
0.201812
0.199018
0.198853
0.196717
0.197703
0.199182
0.195895
0.199839
0.201976
0.198524
0.195402
0.203455
0.195402
0.201647
0.196717
0.198031
0.196552
0.199018
0.19836
0.199675
0.19721
0.201483
0.199346
0.197867
0.201319
0.194251
0.193922
0.197374
0.197538
0.192115
0.202305
0.196552
0.198853
0.200825
0.196717
0.198524
0.198524
0.199182
0.201154
0.200004
0.197045
0.198853
0.193429
0.19721
0.197703
0.19721
0.197374
0.197538
0.196552
0.197538
0.199839
0.19836
0.206578
0.199018
0.201154
0.201976
0.200004
0.200661
0.199018
0.19721
0.200332
0.201976
0.197867
0.198689
0.198031
0.199182
0.197703
0.198524
0.203948
0.198524
0.198853
0.204113
0.19573
0.200168
0.19458
0.19573
0.19721
0.197374
0.19573
0.201483
0.196717
0.197374
0.196388
0.199346
0.19721
0.197045
0.200661
0.199182
0.199346
0.199182
0.187677
0.194744
0.199839
0.196223
0.195895
0.197374
0.199839
0.195895
0.200004
0.198524
0.19836
0.185376
0.193922
0.20099
0.19573
0.199018
0.199182
0.200332
0.191457
0.199675
0.201812
0.198524
0.197374
0.198689
0.196881
0.197867
0.199018
0.197045
0.198031
0.200004
0.19836
0.196388
0.198853
0.195402
0.195073
0.197703
0.198853
0.199675
0.200661
0.197045
0.194087
0.198196
0.197703
0.19836
0.200168
0.198031
0.19458
0.196223
0.198031
0.201976
0.195402
0.194744
0.19836
0.200168
0.19836
0.198031
0.19836
0.19836
0.200168
0.197867

Kurve 3

0.006062
0.00146
0.003104
0.003761
-1.9e-05
0.001954
-1.9e-05
0.002118
-0.000347
0.003268
0.002775
0.00409
0.003104
0.003104
0.006227
0.000639
0.000967
0.002447
-1.9e-05
0.002118
0.000146
-0.000676
0.002775
-0.001827
0.000803
0.000146
0.000146
0.001296
0.000803
0.000803
0.002118
0.002118
0.002775
0.002118
0.00294
0.000967
-1.9e-05
-0.001334
0.000474
-0.001169
-0.002813
-0.001991
0.000967
0.00294
0.00031
-0.004292
0.002611
0.00031
0.002611
0.000967
-0.001005
0.000639
0.000803
-0.002155
0.001954
-0.002648
0.003268
0.001296
0.000803
0.000803
-1.9e-05
0.001296
0.000967
0.000474
0.00146
0.003104
-0.001005
0.00294
-0.000347
0.001625
0.001789
-0.002648
0.001789
-0.001334
-0.001662
-0.001498
-0.001498
-0.00232
0.005898
-0.001169
0.001789
0.000803
0.002118
-0.002813
-0.001827
-0.002484
-0.000676
-0.003799
-0.005114
-0.001169
-0.002484
-0.004292
-0.001662
-0.001827
-0.004621
-0.000347
-0.002155
-0.000347
-0.001498
-0.002977
-0.001005
0.000639
-0.00347
0.002447
-0.001827
-0.000841
-0.000347
-0.002484
-0.001662
-0.001827
-0.001827
-0.002484
0.000803
-0.001827
0.001132
-0.001334
-0.001169
-0.001991
0.000803
-1.9e-05
-0.000183
-0.000841
-0.000347
0.001789
0.000967
0.001132
-0.002484
0.000639
-0.004128
0.003761
-0.000512
0.000967
0.000146
0.000146
-0.001498
0.00146
0.002118
-0.001334
0.002611
-0.001334
-0.001498
-0.001827
-0.000183
-0.002813
-0.001005
-0.002977
0.003104
0.000803
-0.000676
-0.000347
0.003761
0.001954
0.00294
0.00294
0.002447
0.001625
-0.000841
0.000803
0.00146
-0.004621
0.001789
0.000967
-0.000841
0.001789
-0.002484
0.000474
0.000474
0.001625
0.001132
0.004583
-0.001334
0.00031
-0.001827
-0.001169
0.002447
-0.001005
0.001296
-0.000512
0.00031
0.001296
0.006227
-0.004456
0.004748
-0.001827
0.00146
0.000967
-0.001169
0.001132
0.001296
0.002611
-0.002155
0.0105
0.001132
0.000639
0.004255
0.006556
0.001789
-0.000347
0.000803
0.002118
0.000967
-0.001169
0.008528
-0.002648
0.000967
0.000474
0.004255
0.001132
0.002611
0.00031
0.003268
0.00294
0.001954
0.004255
-1.9e-05
-0.001334
-0.00232
0.00146
-0.001334
0.001132
-0.001005
0.002447
0.000474
0.001954
-0.001334
0.002611
-0.000347
0.001789
-0.002155
-0.001498
0.000146
-0.001498
0.000474
0.001132
0.001132
-0.013167
0.000967
-0.000347
-0.003963
0.000146
0.001296
0.000146
0.003268
0.003104
0.007213
0.00409
-0.014318
0.003761
0.001625
0.001132
0.001132
-0.002484
-0.000512
0.002611
0.000474
0.000967
0.001132
-0.003963
-0.001991
0.001954
0.001296
-0.000676
0.001625
-0.001498
0.000639
0.000474
0.000639
-0.000841
-0.000676
-0.004292
-0.000183
-0.004949
0.001954
-0.000183
0.000639
0.000146
0.002118
0.001954
-0.001662
-0.001662
-0.003635
0.000474
-0.001991
0.000146
-1.9e-05
-1.9e-05
-0.004456
0.001132
-0.001827
-0.002977
-0.005278
-0.001662
0.002775
0.000803
0.004583
0.004255
0.001954
0.00146
0.001789
-1.9e-05
0.001954
0.000639
0.005898
0.000639
0.000474
0.001789
-0.000183
0.000967
-1.9e-05
0.003104
0.001789
0.003761
0.00146
0.003597
-0.003142
0.004255
0.00031
0.000967
0.001132
-1.9e-05
-0.002648
-0.001991
-0.002484
-0.002155
0.001132
-0.003306
0.001954
0.00031
-0.001334
-0.001991
-0.000841
0.003104
0.000474
-0.000512
-0.000347
0.001625
-0.001334
-0.002813
-0.002813
-0.004456
-0.003635
-0.002813
-0.001991
0.007213
0.002447
-0.001827
0.002118
0.002447
0.000146
0.00294
0.001132
0.002447
-0.000183
0.003268
-0.001662
0.00031
0.000146
0.002611
0.001132
-0.003635
0.001296
-0.001169
0.001296
-0.000183
0.003433
0.001296
0.003761
0.00146
0.004583
0.002775
0.000639
-0.001662
0.000146
-0.000841
-0.000676
0.001789
-0.001498
0.004583
-0.000841
-1.9e-05
-0.002484
0.00031
0.00146
0.001132
0.003104
0.00146
0.005898
-0.000512
-0.001827
0.001132
0.003268
-0.001991
0.001954
0.00294
0.006556
0.002447
-1.9e-05
0.007542
0.001954
0.001296
0.004583
0.006391
0.001132
0.002775
-0.00232
0.003433
0.000803
0.000146
0.003268
0.003268
0.001132
0.00294
0.003597
0.004583
-0.000347
0.003433
0.004419
0.002611
0.003104
0.007213
0.005569
0.003761
0.005076
0.002282
0.002775
0.002611
0.002447
-1.9e-05
-1.9e-05
-0.001662
0.000803
0.001625
0.000639
0.003597
0.000474
-0.000512
0.001132
0.00031
-0.000841
0.001954
0.000474
0.004912
0.001789
0.003926
0.005405
0.007213
-0.000183
0.005734
0.00409
0.002282
0.002447
0.002447
0.004583
-0.002484
0.011158
0.003926
0.007706
0.003104
0.005569
0.003597
0.002282
0.003926
0.00031
0.003268
0.001132
0.004419
0.000474
0.00294
-0.002155
-0.001991
0.00146
0.003268
0.002447
0.002775
0.004912
0.006062
0.004912
0.005076
-0.000512
0.000967
0.002118
0.000639
0.00294
0.00146
0.001132
0.001132
0.003761
0.003104
0.000639
-1.9e-05
0.002447
0.002775
0.004583
0.005569
0.006227
0.005076
0.006062
0.006062
0.003268
0.003926
0.004419
0.005405
-0.000841
0.001296
0.007706
0.003104
0.006227
0.003761
0.003268
0.005241
0.005898
0.003268
0.004912
0.003104
0.003926
0.00146
0.004912
-0.001334
0.001954
-0.000676
0.001954
-1.9e-05
0.00409
0.002775
0.000967
0.003104
0.002775
0.003597
-0.001334
0.003926
0.002775
0.001296
0.004419
0.000146
-1.9e-05
0.00146
-0.001827
-0.000512
-0.000183
-0.001827
0.001625
-0.000183
0.004583
-0.001169
0.004255
0.003761
0.00409
0.002282
0.003597
-0.000512
0.002447
0.000474
0.002447
-0.000512
-1.9e-05
0.002447
-0.007579
-0.001991
0.001296
0.001132
-0.001005
0.007706
0.001789
0.00146
0.001954
0.000639
0.003926
0.00409
-0.001334
0.001296
-0.000183
-0.002813
0.003104
-0.000183
0.003433
0.00031
0.000474
-0.001827
-0.001005
-0.000841
0.003433
-1.9e-05
0.00146
0.001789
-0.002155
0.000474
-0.000512
-0.002484
-0.002155
0.000474
-0.000512
-0.000183
0.00146
0.000803
-0.000183
0.005569
0.003761
0.003926
0.001789
0.002447
0.002611
-0.001005
0.002282
0.001789
0.000639
0.001625
0.003926
-0.000841
0.003761
-0.000512
0.005241
0.000967
0.00146
0.003761
0.00409
0.001789
0.006884
0.006884
0.007213
0.003597
0.00146
0.002775
0.001789
0.001625
0.002775
0.003433
0.001625
0.00294
0.00409
0.005241
0.003268
0.00294
0.003104
0.00294
0.001954
0.001954
0.001954
-0.001662
0.003761
0.003433
0.003104
-0.000676
0.003104
0.002611
0.00031
-0.005278
0.000639
0.004255
0.000146
0.005241
0.004583
0.002447
0.002282
0.003926
0.003433
0.001132
-0.000676
0.004912
0.006884
0.003433
0.003926
0.002611
0.002282
0.000639
0.001296
0.001789
0.003433
0.001789
0.001789
0.002775
0.001954
0.002282
0.005734
0.002282
0.003268
-0.001498
0.003926
0.000803
0.004583
0.00146
0.000146
0.001954
0.002118
0.002611
0.000474
0.00146
-0.000183
0.005405
-0.002484
-0.000183
0.002118
0.001625
-0.000512
0.003761
-1.9e-05
0.003104
-0.001662
-0.000347
0.008528
-0.001827
-0.000512
0.000146
0.00146
-0.000347
0.005241
0.002611
0.001789
0.008035
0.004748
-0.001005
-1.9e-05
0.000967
0.000146
0.000474
-0.00347
0.002447
0.001954
0.000803
-0.002813
0.003597
-0.011359
0.001296
0.00146
0.002447
0.002775
-0.000841
0.004255
0.001954
-0.000512
-0.000841
0.001296
-0.008072
-0.001005
0.002775
-0.000512
-0.003142
0.001132
0.00031
0.000474
0.000146
0.001789
0.001954
0.000474
-0.000512
-0.000512
0.004419
0.003104
0.003104
0.001132
0.000639
-0.001498
0.003926
0.014116
0.020197
0.027429
0.035647
0.044522
0.048631
0.056191
0.061615
0.066217
0.070655
0.078873
0.083803
0.087419
0.08857
0.096459
0.099582
0.102211
0.107142
0.114209
0.117168
0.120784
0.124071
0.127522
0.130809
0.130152
0.134754
0.135904
0.142807
0.142972
0.146916
0.144451
0.149382
0.151518
0.153655
0.155463
0.153984
0.160722
0.161051
0.163188
0.166475
0.167954
0.167297
0.173049
0.168776
0.170913
0.175021
0.174364
0.174035
0.178473
0.177322
0.178802
0.180281
0.180938
0.182253
0.179623
0.183239
0.183568
0.184883
0.179295
0.186033
0.189814
0.191786
0.1908
0.188499
0.190307
0.189485
0.189814
0.191293
0.192608
0.188499
0.192608
0.192936
0.192443
0.192443
0.194909
0.19721
0.199346
0.196059
0.196552
0.19836
0.192443
0.194251
0.1908
0.195566
0.193922
0.192443
0.189978
0.199018
0.19458
0.197045
0.19836
0.195402
0.197867
0.199182
0.200661
0.193265
0.19836
0.198031
0.197374
0.196552
0.198853
0.196223
0.197045
0.19458
0.197045
0.195566
0.195566
0.194416
0.200661
0.196388
0.199182
0.199018
0.198853
0.199839
0.196223
0.199346
0.196059
0.196717
0.196223
0.198031
0.195073
0.196388
0.195895
0.197703
0.199018
0.19458
0.195402
0.197374
0.199182
0.195237
0.202633
0.198031
0.198689
0.19721
0.201154
0.199182
0.195566
0.197045
0.196059
0.193922
0.196552
0.200168
0.200332
0.200004
0.19836
0.200497
0.198031
0.199839
0.197374
0.20214
0.197867
0.198689
0.199839
0.201976
0.198689
0.201976
0.200332
0.198853
0.199839
0.19836
0.202305
0.199346
0.202798
0.199018
0.203948
0.198196
0.201319
0.201154
0.202633
0.203126
0.19721
0.202633
0.201647
0.201647
0.202798
0.203455
0.199018
0.204934
0.201812
0.205921
0.201483
0.201647
0.200004
0.203784
0.200497
0.202962
0.203291
0.202305
0.203455
0.203784
0.204113
0.202962
0.202469
0.202305
0.204277
0.204441
0.205592
0.20362
0.202305
0.205756
0.209208
0.20477
0.204934
0.206742
0.203948
0.20855
0.204113
0.203948
0.202962
0.204441
0.206085
0.207071
0.202469
0.203291
0.202305
0.203291
0.203126
0.205427
0.20362
0.201812
0.206414
0.208715
0.209043
0.206578
0.20477
0.203291
0.204441
0.20099
0.203948
0.201976
0.202633
0.202633
0.201647
0.204277
0.199839
0.204113
0.207071
0.203291
0.20362
0.203126
0.205921
0.204606
0.203455
0.205921
0.201812
0.200661
0.201154
0.20362
0.20362
0.201647
0.199182
0.200825
0.201647
0.20214
0.203126
0.204606
0.204934
0.202798
0.204934
0.202469
0.202962
0.199675
0.204606
0.200825
0.201647
0.200825
0.201483
0.203948
0.205921
0.204934
0.202305
0.199675
0.199018
0.202962
0.200497
0.202798
0.200004
0.202962
0.199511
0.200168
0.200661
0.197374
0.198853
0.196059
0.202305
0.198853
0.201647
0.201976
0.20362
0.200168
0.203291
0.199511
0.205263
0.201319
0.198689
0.202962
0.19836
0.200825
0.201976
0.205921
0.20099
0.202305
0.199346
0.20099
0.199675
0.201976
0.201812
0.202633
0.201976
0.202469
0.201154
0.201976
0.200825
0.200332
0.200497
0.200004
0.200661
0.202305
0.20099
0.197703
0.199839
0.199182
0.203291
0.202305
0.204606
0.204606
0.200661
0.202962
0.201647
0.202633
0.200825
0.19836
0.199675
0.201483
0.197374
0.198031
0.197374
0.201647
0.201319
0.202633
0.202798
0.201154
0.202798
0.201812
0.202469
0.200497
0.20477
0.200332
0.201483
0.198853
0.205263
0.204441
0.204113
0.201154
0.202962
0.202305
0.200332
0.201647
0.201483
0.202633
0.203455
0.204441
0.202305
0.204113
0.201812
0.203948
0.199839
0.198689
0.195566
0.202962
0.201319
0.203126
0.201976
0.200004
0.203291
0.200661
0.200825
0.201319
0.202798
0.200004
0.204113
0.201319
0.205592
0.205921
0.202469
0.197867
0.20099
0.198031
0.200004
0.197703
0.19836
0.202305
0.201319
0.203455
0.203291
0.203455
0.203455
0.207728
0.202798
0.20362
0.201483
0.200332
0.200004
0.202305
0.204113
0.20214
0.201319
0.199675
0.201976
0.201812
0.201483
0.200004
0.202633
0.201319
0.202633
0.204113
0.203455
0.204441
0.206907
0.203291
0.200661
0.198196
0.19721
0.201319
0.19836
0.203455
0.202633
0.202469
0.202469
0.202798
0.200004
0.203126
0.201483
0.200825
0.201647
0.200332
0.203948
0.203455
0.202633
0.197374
0.206742
0.199182
0.203948
0.199511
0.202798
0.201976
0.199018
0.201812
0.204441
0.202305
0.202962
0.201319
0.20099
0.200497
0.199675
0.199839
0.202633
0.203455
0.199346
0.204606
0.201976
0.201154
0.202633
0.202469
0.202633
0.201812
0.201483
0.207235
0.206742
0.198853
0.205921
0.202798
0.205099
0.201483
0.202633
0.204441
0.200168
0.200004
0.202798
0.20099
0.199018
0.201812
0.199839
0.202962
0.200825
0.202633
0.202962
0.202633
0.201812
0.203291
0.202798
0.201976
0.201154
0.201647
0.202962
0.204277
0.203455
0.199675
0.204113
0.201154
0.207893
0.201812
0.200825
0.201647
0.202305
0.201647
0.203948
0.201976
0.201812
0.202305
0.200004
0.201976
0.201647
0.201319
0.200168
0.20099
0.205592
0.201154
0.198689
0.201483
0.199839
0.203126
0.200168
0.199182
0.199839
0.203455
0.197867
0.200004
0.201483
0.200497
0.199346
0.198524
0.201319
0.198031
0.19836
0.198689
0.201319
0.20099
0.204441
0.20099
0.20477
0.205263
0.199346
0.202962
0.197703
0.201647
0.200332
0.202305
0.197374
0.20214
0.198031
0.20362
0.203948
0.200168
0.205592
0.202305
0.203784
0.200661
0.201647
0.199675
0.206085
0.199511
0.201812
0.199018
0.199675
0.198853
0.197867
0.19573
0.19721
0.199675
0.19836
0.20214
0.202305
0.202305
0.204606
0.204277
0.200825
0.20362
0.201319
0.202469
0.201154
0.197045
0.196059
0.201812
0.196059
0.203291
0.197867
0.199675
0.202633
0.20099
0.202469
0.201647
0.200661
0.20099
0.205592
0.198689
0.202305
0.200497
0.200004
0.196881
0.199675
0.199346
0.201319
0.201483
0.20099
0.20099
0.200497
0.202469
0.200825
0.202633
0.201483
0.200168
0.199839
0.200168
0.199018
0.200825
0.199675
0.196388
0.205099
0.194744
0.203784
0.199675
0.203455
0.202633
0.205099
0.199182
0.202798
0.201976
0.203126
0.200332
0.201483
0.198689
0.199018
0.19836
0.197867
0.199182
0.199511
0.202469
0.201647
0.20362
0.205263
0.200661
0.201976
0.206578
0.202798
0.202633
0.201154
0.204113
0.202469
0.20099
0.202633
0.203126
0.19836
0.201812
0.200661
0.200004
0.201319
0.199839
0.201976
0.200497
0.202962
0.19836
0.200661
0.197374
0.199511
0.201154
0.199511
0.199511
0.199675
0.200661
0.202469
0.202305
0.200168
0.18817
0.197703
0.195237
0.199182
0.199018
0.198196
0.197538
0.20099
0.200661
0.198689
0.198524
0.190964
0.199675
0.200332
0.200168
0.201647
0.200004
0.201812
0.202305
0.196552
0.197867
0.199675
0.198031
0.19836
0.201812
0.199675
0.201812
0.200332
0.198196
0.198689
0.204113
0.199839
0.201154
0.199675
0.199511
0.199182
0.198031
0.202962
0.196717
0.201154
0.200332
0.200332
0.201319
0.202962
0.201812
0.202469
0.199346
0.20214
0.200497
0.201812
0.199675
0.196552
0.200332
0.204113
0.200332
0.200497
0.196717
0.199346
0.196223
0.200168
0.199018
0.199346
0.201319
0.200332
0.202305
0.200825
0.200332
0.198689
0.198524
0.199346
0.196552
0.199018
0.198689
0.198196
0.201647
0.200497
0.200661
0.200825
0.198524
0.200332
0.201319
0.200497
0.200168
0.200661
0.198689
0.202305
0.199182
0.199346
0.200661
0.200004
0.201647
0.19836
0.200497
0.200168
0.203455
0.200825
0.20362
0.20214
0.202469
0.203126
0.201483
0.19836
0.199018
0.201647
0.19836
0.199511
0.195566
0.198853
0.196717
0.200332
0.200004
0.199675
0.199511
0.203455
0.198524
0.203784
0.199346
0.201319
0.202962
0.198031
0.200825
0.200168
0.202798
0.198524
0.201647
0.199018
0.199018
0.201483
0.199346
0.201319
0.202798
0.201647
0.202305
0.202962
0.197538
0.203455
0.200004
0.200332
0.200004
0.199675
0.19836
0.200661
0.199346
0.198196
0.201483
0.200168
0.201483
0.201812
0.199839
0.19721
0.198524
0.200497
0.199839
0.199675
0.196552
0.195895
0.194909
0.196059
0.198031
0.192115
0.198524
0.199511
0.200004
0.202798
0.19836
0.201154
0.198524
0.202633
0.201154
0.202633
0.200332
0.201319
0.199839
0.201647
0.199839
0.201319
0.198853
0.199018
0.201483
0.202469
0.201812
0.200661
0.200825
0.200497
0.202469
0.202469
0.202469
0.201647
0.201976
0.20099
0.198031
0.198524
0.200825
0.196552
0.194909
0.201483
0.198196
0.201647
0.200168
0.197538
0.199346
0.201812
0.199839
0.201319
0.199675
0.194251
0.20362
0.20099
0.196388
0.199346
0.201976
0.197045
0.19836
0.197045
0.200661
0.199018
0.197045
0.198853
0.198031
0.199675
0.203291
0.200825
0.20099
0.199675
0.20099
0.200497
0.199182
0.201976
0.204113
0.200004
0.198031
0.201319
0.199839
0.19836
0.199346
0.201319
0.199182
0.202305
0.200168
0.201812
0.20099
0.200825
0.20099
0.199346
0.194087
0.195237
0.200004
0.197045
0.200004
0.198196
0.200661
0.199511
0.200497
0.200497
0.201483
0.202305
0.204606
0.201976
0.198853
0.200497
0.197045
0.198689
0.199182
0.200168
0.196223
0.201483
0.193101
0.198524
0.198689
0.197538
0.199839
0.199675
0.202962
0.202305
0.198689
0.201319
0.200825
0.19836
0.199018
0.197703
0.198853
0.196881
0.199511
0.199182
0.198524
0.196717
0.201319
0.202633
0.198031
0.200332
0.199182
0.201154
0.197538
0.200497
0.197867
0.195402
0.199182
0.200497
0.199346
0.199346
0.199839
0.198853
0.200661
0.198689
0.199675
0.199182
0.202469
0.19836
0.197374
0.199675
0.197374
0.19721
0.199018
0.200332
0.20099
0.200168
0.200168
0.196717
0.199511
0.20099
0.197703
0.199018
0.200004
0.199018
0.196717
0.200004
0.199511
0.201812
0.197045
0.200825
0.203948
0.198853
0.199182
0.201319
0.200004
0.199511
0.200332
0.200332
0.201812
0.198524
0.199346
0.198853
0.197374
0.19836
0.20362
0.20362
0.201812
0.201812
0.200168
0.201647
0.200497
0.200497
0.199182
0.200497
0.197867
0.198689
0.196717
0.199346
0.195073
0.197045
0.201812
0.200825
0.200661
0.201976
0.205263
0.202305
0.201154
0.201154
0.198689
0.200825
0.199839
0.200497
0.200332
0.196223
0.196881
0.199839
0.195237
0.201154
0.203291
0.201812
0.202305
0.202305
0.202798
0.201976
0.199182
0.201483
0.199675
0.203455
0.194909
0.199018
0.198196
0.198031
0.200168
0.200497
0.199346
0.197538
0.203455
0.203784
0.202305
0.198689
0.201976
0.201483
0.200168
0.201319
0.200004
0.198031
0.19573
0.196223
0.196881
0.192279
0.198689
0.198689
0.198524
0.201812
0.205263
0.203126
0.200168
0.203784
0.199675
0.202962
0.19836
0.198524
0.198196
0.199018
0.197538
0.200825
0.202633
0.201976
0.200004
0.198689
0.199346
0.197374
0.198853
0.199018
0.200825
0.199675
0.199182
0.199839
0.199018
0.199346
0.199346
0.200168
0.197374
0.202305
0.198853
0.196552
0.196717
0.198524
0.196717
0.199675
0.199675
0.201647
0.200004
0.199346
0.199182
0.197867
0.199346
0.200825
0.19836
0.193265
0.201812
0.195895
0.199182
0.19458
0.196223
0.199018
0.199839
0.200497
0.200332
0.198689
0.196881
0.199511
0.200004
0.200497
0.157271
0.128344
0.121441
0.126865
0.129659
0.136562
0.134425
0.136891
0.143301
0.143958
0.146423
0.150368
0.149053
0.152176
0.155792
0.155627
0.158914
0.159408
0.161051
0.163352
0.164996
0.16401
0.172885
0.166804
0.170748
0.173707
0.168447
0.171077
0.173214
0.170419
0.174035
0.175515
0.174528
0.176665
0.173707
0.179295
0.184061
0.181924
0.180938
0.182746
0.17913
0.185705
0.182746
0.184554
0.18439
0.185705
0.183897
0.186198
0.192115
0.187677
0.190964
0.188827
0.193922
0.189978
0.191128
0.191293
0.189814
0.188334
0.188663
0.189814
0.185705
0.194087
0.190635
0.193101
0.193429
0.19573
0.194909
0.193922
0.196223
0.191621
0.195566
0.1908
0.190471
0.194416
0.192443
0.193265
0.195402
0.195895
0.195402
0.193265
0.197045
0.193101
0.199346
0.195402
0.196552
0.19458
0.195895
0.191786
0.195566
0.194744
0.192608
0.196552
0.194744
0.198689
0.194909
0.198196
0.195895
0.196059
0.195895
0.199346
0.196223
0.196388
0.198031
0.200332
0.199346
0.19721
0.19836
0.197538
0.197867
0.199346
0.202469
0.196881
0.200661
0.19836
0.196059
0.201483
0.200332
0.196552
0.201812
0.197374
0.200825
0.203126
0.19721
0.199675
0.196059
0.202962
0.197703
0.196059
0.195237
0.199675
0.196223
0.196552
0.203126
0.19721
0.197867
0.198689
0.198853
0.200497
0.199182
0.196388
0.201319
0.200497
0.199839
0.205756
0.197867
0.197045
0.201319
0.199346
0.195895
0.19195
0.19573
0.199018
0.198196
0.20099
0.199182
0.1908
0.196717
0.201647
0.197374
0.200497
0.196388
0.19836
0.197374
0.19836
0.197538
0.188334
0.196881
0.19573
0.198853
0.195073
0.195237
0.198196
0.196552
0.200661
0.199839
0.198524
0.192608
0.195237
0.194909
0.201154
0.196388
0.19458
0.194087
0.197538
0.198196
0.196059
0.194909
0.189156
0.195073
0.200168
0.197703
0.20099
0.197374
0.199839
0.199346
0.200332
0.195073
0.193429
0.192772
0.197867
0.201976
0.197867
0.198524
0.19721
0.197045
0.198689
0.200825
0.197867
0.199675
0.19836
0.200168
0.201812
0.20362
0.196881
0.194416
0.198031
0.196717
0.198853
0.19458
0.197374
0.196388
0.200661
0.196059
0.200661
0.198689
0.199511
0.202633
0.202469
0.208222
0.198031
0.200332
0.199675
0.196552
0.197867
0.198853
0.19721
0.194251
0.197703
0.196717
0.196881
0.198031
0.199839
0.199182
0.199675
0.201812
0.196388
0.200661
0.203126
0.19836
0.199839
0.193594
0.197045
0.195895
0.199182
0.197045
0.196223
0.198689
0.198689
0.200661
0.20099
0.198689
0.198853
0.199839
0.196881
0.19721
0.197703
0.198524
0.198689
0.197045
0.194744
0.201319
0.195402
0.198196
0.196717
0.199675
0.198689
0.199675
0.192772
0.195073
0.201976
0.19573
0.199182
0.194251
0.199018
0.196059
0.199018
0.196881
0.199511
0.197867
0.196881
0.200825
0.197703
0.202305
0.197867
0.201154
0.199018
0.20362
0.196552
0.19836
0.196717
0.204113
0.20099
0.199182
0.200168
0.19836
0.198524
0.198853
0.199018
0.198689
0.201647
0.196717
0.199018
0.19836
0.200332
0.19721
0.198524
0.19836
0.199839
0.199675
0.198031
0.200004
0.200332
0.197867
0.197867
0.198689
0.197045
0.201483
0.202962
0.198689
0.198524
0.192443
0.200661
0.195895
0.200661
0.19573
0.19836
0.19721
0.199346
0.200825
0.199839
0.198689
0.200168
0.200661
0.200004
0.19836
0.196552
0.191786
0.197045
0.195895
0.200661
0.200332
0.198031
0.200332
0.199839
0.197703
0.195895
0.20099
0.196552
0.199675
0.196552
0.201154
0.198031
0.197538
0.198031
0.19721
0.198853
0.196388
0.19836
0.199018
0.199346
0.19721
0.200497
0.19721
0.201812
0.197538
0.194909
0.197374
0.200004
0.196388
0.199182
0.197045
0.198031
0.197045
0.200661
0.203291
0.197867
0.196388
0.196059
0.202469
0.197538
0.199839
0.200332
0.200004
0.195895
0.201483
0.195566
0.198853
0.200497
0.19721
0.201812
0.19573
0.197374
0.199182
0.200825
0.198689
0.201647
0.199346
0.200497
0.201812
0.199182
0.197374
0.19836
0.19721
0.197538
0.197045
0.19836
0.200332
0.196388
0.199839
0.197538
0.199511
0.198524
0.200004
0.199675
0.203455
0.200825
0.196388
0.199182
0.200004
0.198524
0.200497
0.200661
0.197703
0.197703
0.199511
0.193922
0.194744
0.198689
0.198853
0.204113
0.200004
0.202633
0.194909
0.200004
0.198689
0.20099
0.202305
0.194416
0.205099
0.197703
0.201647
0.200661
0.20099
0.197703
0.200004
0.196717
0.201812
0.199675
0.198031
0.201319
0.19836
0.200497
0.198524
0.198031
0.19721
0.197703
0.196552
0.19721
0.19458
0.195402
0.199346
0.199346
0.198524
0.19721
0.198196
0.197703
0.199511
0.198524
0.19721
0.194416
0.195237
0.19836
0.199018
0.19573
0.199839
0.196881
0.19573
0.19573
0.197867
0.199675
0.197867
0.197703
0.199675
0.201647
0.20362
0.202633
0.19721
0.199675
0.198031
0.198689
0.192772
0.197703
0.194744
0.196881
0.198031
0.196717
0.198689
0.198689
0.199018
0.198524
0.200332
0.197374
0.201976
0.200004
0.201154
0.199182
0.198853
0.196552
0.200661
0.19836
0.195566
0.197538
0.198031
0.199346
0.19836
0.199675
0.199346
0.200497
0.198689
0.199018
0.194909
0.196388
0.197374
0.19836
0.197538
0.19836
0.200497
0.193429
0.198524
0.197538
0.200004
0.196552
0.19573
0.19836
0.200332
0.199675
0.201319
0.197045
0.199675
0.200168
0.195402
0.197538
0.196388
0.202633
0.198196
0.198853
0.19836
0.20214
0.199346
0.200497
0.198524
0.200497
0.199511
0.20099
0.19836
0.19836
0.200332
0.197374
0.199182
0.20099
0.198689
0.199018
0.198524
0.200497
0.198031
0.197538
0.199511
0.197538
0.200332
0.199346
0.200332
0.197703
0.197703
0.199346
0.200497
0.197045
0.197045
0.19573
0.198031
0.199018
0.197867
0.203291
0.200497
0.196881
0.199346
0.198031
0.19721
0.198524
0.20214
0.197867
0.201812

Kurve 4

0.003268
0.000146
0.003761
0.001789
0.00031
0.001296
-0.001827
0.003597
0.002611
0.002775
-1.9e-05
0.00031
0.002118
0.002775
0.000146
0.003104
0.002282
0.004255
0.004748
0.005241
0.001132
0.002775
0.001625
-0.000183
0.002775
0.000146
0.001954
-1.9e-05
0.00294
0.000474
0.003433
0.000967
0.003104
0.000967
-1.9e-05
-1.9e-05
-0.001827
-0.001005
-0.001827
0.003104
-0.000347
0.001789
-0.001827
0.001296
0.00031
0.000967
0.000803
0.001296
-0.000183
0.002118
0.000146
0.002118
0.00031
0.000474
0.00146
-0.000347
-0.000841
-0.002648
0.001789
-0.004949
-0.002648
-0.002977
0.001625
0.001132
0.003761
0.002775
0.002611
-0.001005
-0.000676
0.002282
-0.001991
0.001625
-0.001498
0.001296
-0.000347
-1.9e-05
0.000639
-0.001169
-0.001334
0.001954
0.00031
0.001296
0.001296
-1.9e-05
0.005076
0.00294
-0.000676
0.00146
-0.003799
-0.002484
0.000474
-0.002977
-0.00347
-0.000347
-0.000347
0.000967
0.001296
0.00146
0.002611
0.000474
0.001954
-1.9e-05
-0.000676
0.000146
-0.000347
-0.000183
0.000474
0.000803
-0.004292
-0.001169
-0.001498
-0.001334
0.00031
-0.000183
0.00146
0.002118
-0.001005
0.005405
0.001132
-1.9e-05
0.00409
0.000803
0.001132
-0.001169
0.000803
-0.002813
-1.9e-05
0.001625
0.001789
0.000474
0.00146
0.002775
0.002447
0.001296
0.001789
0.00409
0.002775
0.005734
0.003597
0.007706
0.001625
0.002775
-1.9e-05
0.000639
-0.000841
0.000146
-0.000347
0.002611
0.00146
-0.001005
0.003104
0.001789
0.002282
0.000474
0.002447
-0.002648
-0.003306
0.001789
-0.000183
-1.9e-05
0.000639
0.002282
0.000967
0.001789
0.00146
0.003104
0.001954
0.000967
0.005569
0.005241
0.001625
0.004419
0.003926
0.00146
0.003104
0.00031
0.001132
-0.000347
-0.000676
0.000803
-1.9e-05
-0.002484
0.00294
0.002447
0.003926
-1.9e-05
0.004583
-0.001498
-0.000183
0.000803
-0.000676
-0.002648
-0.000841
0.003104
0.000803
0.000639
-0.001005
0.002611
-0.002813
0.001625
0.00031
0.000146
-0.000841
-0.002155
0.003268
0.001625
0.000639
0.00031
0.002447
-1.9e-05
-0.001827
-0.001334
-0.001005
-0.000841
-0.002977
0.000146
0.000639
-0.001662
-0.002484
0.001296
-0.000347
-0.000347
0.001625
0.00146
-0.000183
0.002118
0.002282
0.001296
0.000474
0.002775
-1.9e-05
0.001132
-0.001991
0.003926
0.00031
-0.002155
-0.005443
-1.9e-05
-0.003306
-0.002155
0.005241
-1.9e-05
0.001296
-0.000841
0.003433
-0.000841
0.001954
0.001954
0.003104
-0.001662
0.001296
0.000803
-0.003142
-0.001498
-0.003799
0.00294
-0.001334
-0.000183
0.001132
0.002447
-0.00347
0.001625
0.001954
0.001296
0.005734
-0.00232
-0.001498
-1.9e-05
-0.004128
-0.002813
-0.000841
-0.002977
0.000639
0.000803
0.001954
0.001296
0.001789
0.000803
0.001954
0.002118
0.001625
0.000803
0.000967
0.001296
0.001296
-0.001827
0.000967
0.004255
-0.001827
0.005734
0.002118
-0.001005
-0.000676
-0.000512
-0.001334
0.004583
0.001625
-0.000183
0.000474
-0.000512
0.000639
0.000474
0.000474
-0.002155
-0.004621
-0.004949
0.002282
-0.002484
0.001296
0.00031
-1.9e-05
0.001296
0.002447
0.001954
0.001954
0.001296
0.000474
0.004583
0.001789
0.005076
-0.000676
0.000803
-0.001334
0.000639
-0.000676
-0.000512
0.000967
0.00294
-0.001334
0.004419
0.000639
0.002775
0.000803
-0.001662
0.002447
0.002118
0.004748
0.000474
0.003268
-0.001498
-0.001498
-0.006593
-0.001334
-0.004128
0.001296
0.002611
0.00031
-0.000347
-0.001005
0.003268
-0.001005
0.003104
0.000803
0.001296
-0.00232
-0.002648
-0.001827
0.001625
-0.002648
-0.002484
0.001296
0.000639
0.003597
0.004748
-0.00232
0.001296
0.002118
-0.002648
0.004583
0.007377
0.001954
0.001625
0.003268
0.000803
0.008199
-0.001498
-0.000841
0.00146
-0.000841
0.002611
0.000803
0.001296
0.00031
0.002775
0.005569
0.003433
-0.001498
0.003433
0.001625
0.00294
-0.001334
0.003268
0.003761
0.001132
0.003433
0.000639
-0.011524
-0.001169
0.001132
0.00146
-0.001169
0.001954
0.003104
-0.000183
0.003268
0.000474
0.001132
-0.006757
-0.00232
0.001132
-0.002484
0.000146
-0.000183
0.005734
-1.9e-05
0.003268
0.000803
0.002447
-0.000512
0.001625
0.003597
0.004912
0.003433
-0.000183
0.002775
-0.000183
0.002611
-1.9e-05
-1.9e-05
0.000146
0.00146
-0.000512
0.000639
-0.001498
0.000967
-0.001498
-0.000183
0.002282
0.003104
0.001954
-0.000183
0.002775
0.002118
-0.003963
-0.001169
0.001789
-0.002484
-0.001169
0.002118
0.00031
-0.000512
0.002447
0.001296
0.000639
0.001789
0.00146
0.004419
-0.00232
-0.001827
0.001625
-0.000347
-0.003306
-0.002813
0.000474
-0.000347
0.00031
0.000474
0.000967
-0.001991
0.00031
0.003268
0.001789
0.001789
0.003268
0.002118
0.001789
0.000639
0.005569
0.001296
-0.000347
-0.001334
0.002447
0.000639
-0.000183
0.000639
-0.002813
0.000639
0.000967
0.000967
0.000639
0.003433
-0.001005
0.000474
-0.001827
0.001625
0.000639
0.002775
0.000967
-0.001005
0.002118
0.001954
0.000146
-0.000183
0.001296
0.00146
-0.001498
0.001625
0.002447
-0.003963
0.001789
0.000967
0.002775
-0.000183
-1.9e-05
0.00294
-1.9e-05
0.002447
0.00294
-0.00232
0.000967
0.00031
-0.000183
0.001296
-0.000347
0.004255
0.002611
0.004583
0.002118
0.00409
0.005241
0.00031
0.001789
0.00146
0.003926
-0.00232
-0.003963
0.000803
0.00409
0.000146
0.001625
0.001132
0.001625
0.002447
0.006391
0.003761
0.00294
0.00294
0.001132
0.002775
0.000639
0.001625
0.002447
0.000474
-0.000512
0.000803
-0.002155
-0.000183
-0.001991
0.000474
0.005076
0.006062
0.003104
0.006391
0.003104
0.00294
0.002447
0.003268
0.003104
-0.003635
-0.00347
-0.007744
-0.002155
-0.010045
-0.00347
-0.007415
-0.003635
-0.002813
-0.00232
-0.00232
-0.002813
-0.000347
-0.002977
-1.9e-05
-0.001991
-0.00232
-0.00347
-0.002648
-0.003799
-0.002977
-0.00232
-0.007086
-0.001169
-0.00232
-0.001991
-0.000512
-0.001827
-0.003306
-0.001991
-0.003306
0.00146
-0.001991
-0.000183
0.000146
-0.001169
-0.00347
-0.002977
-0.003963
-0.004456
-0.002484
-0.004456
-0.000676
0.000803
0.000803
-0.000347
0.003597
-0.000841
0.003597
0.000639
0.003433
-0.001991
-0.002813
-0.002484
-0.001334
-0.002813
-0.001498
0.00031
0.002282
-0.002648
0.001296
-0.000183
0.003104
0.001789
0.00031
0.002118
-0.00347
0.000474
0.000474
0.000146
-0.000676
-0.000183
-0.001498
-0.001827
-1.9e-05
-0.001662
-0.000676
-0.004292
0.002118
-0.000841
0.002282
0.001296
0.003433
-0.001005
0.00146
0.000474
-1.9e-05
-0.001498
-0.002977
0.000146
-0.001662
-0.002813
-0.004785
0.002447
-0.000841
0.000146
0.001625
0.001132
0.001132
0.000474
0.001789
-1.9e-05
-0.00232
-0.001169
0.000146
-0.001169
-0.001991
0.000639
0.001132
-0.002484
-0.000512
-0.000512
0.000639
0.00146
0.000803
0.000967
-0.001005
-0.005607
-0.001662
0.002118
-0.004621
-0.001991
-1.9e-05
0.000803
-0.000512
-0.000183
-0.001498
-0.000512
-0.001498
0.001789
0.001789
0.001789
-0.00347
0.001789
0.00031
-0.001827
0.002611
-0.001005
-0.002813
-0.003306
0.001789
-0.002484
-0.003963
-0.00232
0.002611
-0.001827
-0.001169
-0.001005
-0.00232
-0.001991
0.001132
-0.003142
-0.001169
0.000639
-0.001827
0.003433
-0.000347
0.002282
-0.001498
0.001132
-0.003142
0.00031
-0.001169
-0.002813
-0.001498
-0.003142
0.003597
-0.006922
-0.00347
-0.000347
0.00031
-0.002813
0.002775
-0.002813
-1.9e-05
-1.9e-05
0.000639
0.002118
0.003597
0.00031
-0.001991
0.000803
-0.002813
0.004748
0.010664
0.017074
0.023156
0.037783
0.039427
0.048467
0.057999
0.062437
0.068354
0.071312
0.0769
0.080187
0.085118
0.088405
0.096623
0.09991
0.102869
0.106485
0.110429
0.116182
0.118811
0.121605
0.129166
0.1267
0.131796
0.137384
0.136069
0.139685
0.140178
0.143958
0.144615
0.147574
0.150039
0.155627
0.150204
0.155299
0.15612
0.162202
0.158914
0.166146
0.166639
0.164338
0.170913
0.167132
0.169433
0.16779
0.172556
0.175021
0.17272
0.17272
0.178637
0.1742
0.175186
0.176665
0.177322
0.176665
0.180116
0.185212
0.183732
0.183897
0.185047
0.185376
0.185047
0.188663
0.18554
0.190142
0.18554
0.18817
0.188499
0.190471
0.189485
0.191293
0.190964
0.191621
0.19458
0.190471
0.19195
0.190964
0.192443
0.194251
0.193265
0.1908
0.196388
0.196388
0.197045
0.193922
0.193429
0.194087
0.19195
0.195566
0.195566
0.196059
0.193922
0.197045
0.19721
0.196388
0.191786
0.195895
0.195073
0.196223
0.196388
0.198031
0.19573
0.1908
0.194087
0.193922
0.196388
0.194909
0.195895
0.19721
0.199511
0.197045
0.199839
0.200168
0.197374
0.197867
0.196881
0.201976
0.200004
0.19836
0.196552
0.199675
0.198853
0.198524
0.196717
0.197045
0.198689
0.201812
0.198031
0.20099
0.196717
0.199511
0.201483
0.196388
0.200332
0.199839
0.195073
0.201483
0.199839
0.196223
0.199018
0.196552
0.199018
0.198689
0.199511
0.201154
0.198524
0.200332
0.20214
0.202305
0.19721
0.199839
0.197045
0.197867
0.195402
0.194909
0.198031
0.200332
0.19836
0.201812
0.202305
0.200497
0.200661
0.201976
0.200497
0.200825
0.202305
0.197374
0.202633
0.196717
0.203784
0.19836
0.198524
0.19836
0.199675
0.196552
0.197374
0.200497
0.200661
0.199675
0.201483
0.201483
0.201976
0.201976
0.196717
0.19836
0.198689
0.199346
0.198853
0.20099
0.195073
0.200497
0.20099
0.197703
0.199511
0.202962
0.19836
0.20099
0.203784
0.202962
0.201976
0.20099
0.206085
0.198524
0.198031
0.200168
0.199182
0.195895
0.197867
0.198853
0.200497
0.201976
0.199018
0.201319
0.201812
0.200168
0.19721
0.202798
0.199675
0.20099
0.200497
0.202305
0.199839
0.201319
0.196552
0.200497
0.201154
0.198853
0.200004
0.19836
0.201976
0.198689
0.201812
0.204934
0.202962
0.199675
0.20099
0.200004
0.201154
0.200004
0.199511
0.199839
0.199018
0.200497
0.200004
0.199675
0.197703
0.203784
0.201154
0.203455
0.201976
0.200168
0.203126
0.20099
0.19836
0.200332
0.201483
0.200004
0.200661
0.200661
0.201647
0.20214
0.198031
0.200168
0.200332
0.199346
0.20362
0.197703
0.202469
0.200004
0.204113
0.197867
0.202469
0.199839
0.19721
0.20099
0.199675
0.201319
0.199346
0.201976
0.19836
0.201812
0.200825
0.197703
0.196059
0.199018
0.199182
0.200661
0.200825
0.200825
0.20099
0.199675
0.202798
0.200332
0.199018
0.200168
0.198524
0.200332
0.200661
0.19836
0.193758
0.193101
0.200004
0.199839
0.200168
0.203291
0.194744
0.204606
0.199675
0.200661
0.199511
0.200004
0.20214
0.202633
0.199839
0.199018
0.200497
0.196881
0.199018
0.197045
0.201154
0.199839
0.201976
0.200825
0.20362
0.201154
0.200497
0.201812
0.198031
0.201154
0.20099
0.198031
0.199346
0.19836
0.198196
0.200497
0.199018
0.199839
0.191786
0.199018
0.193922
0.199675
0.196223
0.201647
0.198689
0.203126
0.200661
0.199675
0.199346
0.185047
0.199018
0.196717
0.196223
0.195895
0.200497
0.197374
0.199675
0.200004
0.204441
0.199018
0.190471
0.201154
0.201154
0.205427
0.198196
0.201319
0.199018
0.199182
0.199511
0.204934
0.200661
0.196717
0.197374
0.198689
0.199675
0.202633
0.200168
0.202469
0.200497
0.20214
0.200825
0.20362
0.199675
0.195895
0.199839
0.198853
0.200168
0.197374
0.201647
0.196552
0.206085
0.203948
0.200661
0.204277
0.20099
0.200497
0.200661
0.204606
0.198689
0.198853
0.197703
0.199839
0.199675
0.198853
0.194416
0.20362
0.198031
0.201812
0.201154
0.202633
0.206085
0.200004
0.200332
0.200661
0.200825
0.198853
0.201976
0.199182
0.028744
0.034168
0.043536
0.046823
0.05652
0.061286
0.068189
0.075421
0.077886
0.085776
0.08709
0.094322
0.098102
0.105992
0.105498
0.11158
0.114045
0.118811
0.120784
0.124728
0.129495
0.129001
0.129001
0.135083
0.141164
0.138205
0.144451
0.147903
0.147081
0.151025
0.153984
0.156449
0.158421
0.156613
0.161051
0.157107
0.163023
0.162037
0.164667
0.165489
0.166146
0.16894
0.16894
0.174693
0.173214
0.175679
0.1742
0.179459
0.174364
0.181103
0.179788
0.179459
0.180774
0.183568
0.180445
0.181924
0.186198
0.184554
0.182253
0.182911
0.186526
0.186033
0.187348
0.186855
0.192772
0.187841
0.190307
0.189978
0.191621
0.192279
0.187513
0.193265
0.192608
0.18932
0.190635
0.194909
0.191128
0.193101
0.191293
0.196552
0.189978
0.192115
0.19836
0.194087
0.193594
0.195237
0.19573
0.193594
0.196059
0.195073
0.192936
0.192936
0.196881
0.195895
0.191293
0.19721
0.197045
0.193101
0.198524
0.199182
0.197538
0.198031
0.201154
0.199511
0.198196
0.199839
0.197045
0.200168
0.196388
0.19836
0.197045
0.197045
0.194251
0.200497
0.196552
0.198524
0.199182
0.200168
0.199346
0.201647
0.200004
0.195402
0.201976
0.200825
0.200661
0.199511
0.200661
0.199346
0.19836
0.199511
0.197703
0.196223
0.19721
0.199182
0.198196
0.197867
0.202469
0.198196
0.199182
0.202469
0.199511
0.206249
0.200661
0.202633
0.201319
0.202798
0.199839
0.199511
0.20214
0.198196
0.203126
0.199675
0.204113
0.197867
0.200825
0.199675
0.201976
0.200004
0.201154
0.20214
0.200497
0.199346
0.200168
0.199675
0.199511
0.200004
0.197045
0.201154
0.196552
0.19836
0.199511
0.20099
0.201647
0.199182
0.202962
0.20362
0.201154
0.199511
0.200825
0.200825
0.196552
0.198853
0.199018
0.198524
0.197538
0.196552
0.19721
0.200825
0.201483
0.200497
0.203948
0.195073
0.200332
0.204934
0.195237
0.199018
0.199675
0.199511
0.196881
0.202633
0.198524
0.201319
0.196388
0.201647
0.200332
0.201319
0.204441
0.202305
0.201812
0.201976
0.201319
0.199675
0.203291
0.195566
0.201483
0.200004
0.200661
0.196881
0.199346
0.198031
0.197703
0.198689
0.199511
0.199018
0.191293
0.201483
0.199675
0.202469
0.199018
0.201319
0.199839
0.201483
0.199018
0.19721
0.196881
0.196552
0.196881
0.199346
0.199346
0.19573
0.198196
0.199675
0.20099
0.198031
0.202798
0.20362
0.204441
0.203455
0.202633
0.200661
0.199346
0.200825
0.198196
0.198524
0.197867
0.199511
0.199675
0.201319
0.200825
0.20099
0.201154
0.201976
0.203455
0.202798
0.200661
0.197374
0.199346
0.198689
0.198853
0.202305
0.199018
0.199675
0.201319
0.200661
0.204277
0.198031
0.199511
0.200168
0.201483
0.200825
0.204441
0.20099
0.200004
0.200168
0.199018
0.197867
0.196059
0.200004
0.19836
0.198689
0.200497
0.203291
0.201319
0.201647
0.201154
0.203291
0.197538
0.200332
0.197867
0.200168
0.200661
0.198853
0.201647
0.199018
0.199182
0.198689
0.202469
0.197538
0.199346
0.200168
0.200825
0.199839
0.203291
0.201976
0.200825
0.199182
0.202962
0.20214
0.194416
0.19836
0.19721
0.198524
0.199182
0.203291
0.20362
0.204277
0.199346
0.200825
0.200497
0.200168
0.197374
0.197703
0.198689
0.197538
0.201154
0.199182
0.199018
0.201319
0.20214
0.200661
0.204441
0.199182
0.201154
0.200004
0.199182
0.196059
0.19458
0.199511
0.200497
0.200332
0.198853
0.199675
0.202798
0.201812
0.199675
0.200661
0.200332
0.200497
0.200168
0.201154
0.199839
0.199346
0.199182
0.19836
0.200168
0.195402
0.201647
0.201812
0.197867
0.200497
0.199839
0.19836
0.205263
0.197045
0.198689
0.205263
0.200004
0.198196
0.198196
0.197867
0.19721
0.198196
0.19836
0.202962
0.196388
0.198853
0.19836
0.202305
0.199182
0.204606
0.19836
0.200004
0.200004
0.196388
0.204441
0.197374
0.200168
0.201319
0.202962
0.20099
0.201154
0.198853
0.200497
0.19836
0.20362
0.206742
0.198689
0.202798
0.200004
0.199018
0.199018
0.199346
0.199018
0.200004
0.198524
0.201647
0.202798
0.201319
0.200332
0.202469
0.200004
0.201976
0.199018
0.197374
0.202633
0.201976
0.200661
0.20214
0.196552
0.202469
0.197045
0.195073
0.201154
0.195402
0.197703
0.198196
0.199511
0.201647
0.200004
0.201647
0.19836
0.198853
0.199511
0.200332
0.199346
0.199511
0.201319
0.201319
0.195566
0.19458
0.19836
0.19721
0.200332
0.201483
0.201319
0.201154
0.202798
0.200661
0.199675
0.199018
0.193101
0.198031
0.202305
0.199839
0.199018
0.197045
0.194909
0.198196
0.198853
0.200497
0.198853
0.192115
0.200168
0.199182
0.198031
0.203948
0.200004
0.201812
0.200332
0.201812
0.197374
0.200332
0.190307
0.195895
0.196388
0.197045
0.197703
0.200661
0.200004
0.199511
0.197538
0.197374
0.202633
0.188663
0.200497
0.199018
0.20099
0.199346
0.196388
0.19721
0.199511
0.199675
0.19836
0.201976
0.191621
0.197374
0.19836
0.200332
0.198524
0.201154
0.197045
0.201319
0.20099
0.200168
0.199839
0.19573
0.195402
0.198196
0.195402
0.19836
0.199182
0.196388
0.199018
0.198689
0.200661
0.201647
0.199839
0.198196
0.20099
0.201319
0.199182
0.200661
0.197374
0.196717
0.198031
0.199182
0.19836
0.194087
0.198196
0.20099
0.196223
0.197703
0.198853
0.196388
0.198853
0.201976
0.200332
0.200332
0.202469
0.198524
0.203291
0.200497
0.201319
0.198524
0.198524
0.198196
0.201647
0.198689
0.19836
0.200661
0.200004
0.199182
0.200825
0.203291
0.202305
0.201483
0.19836
0.201976
0.198524
0.199839
0.199018
0.198524
0.19836
0.200168
0.202962
0.200825
0.200661
0.200332
0.201647
0.201319
0.198031
0.198524
0.200332
0.196552
0.200168
0.199182
0.199839
0.200004
0.199182
0.20214
0.20099
0.198524
0.201812
0.195895
0.197374
0.20214
0.200168
0.200168
0.20362
0.201154
0.205921
0.202633
0.200497
0.200661
0.198853
0.199675
0.199018
0.199182
0.19836
0.200661
0.199511
0.200332
0.201319
0.200004
0.203784
0.199675
0.200661
0.199018
0.198196
0.200661
0.200661
0.19836
0.201154
0.200825
0.202633
0.199182
0.198031
0.201647
0.199675
0.201154
0.195895
0.196388
0.197045
0.200004
0.197374
0.200004
0.199346
0.201319
0.200168
0.200661
0.204606
0.20099
0.201647
0.198524
0.200661
0.199511
0.204113
0.199346
0.201976
0.200004
0.201976
0.195895
0.204441
0.200168
0.19836
0.202305
0.198524
0.202633
0.199839
0.20214
0.199182
0.201812
0.197374
0.197538
0.199182
0.198524
0.199182
0.201483
0.201319
0.200497
0.202798
0.201319
0.202798
0.199018
0.202469
0.19836
0.196717
0.201812
0.202305
0.200497
0.201976
0.19721
0.197538
0.200004
0.200661
0.201319
0.197045
0.202305
0.204277
0.205099
0.202798
0.206085
0.204441
0.203126
0.202633
0.204113
0.200332
0.203126
0.199182
0.201976
0.20362
0.198853
0.201483
0.204606
0.202305
0.202962
0.204934
0.201483
0.20362
0.205099
0.207728
0.201154
0.205099
0.198853
0.204934
0.200332
0.201812
0.203291
0.199182
0.203291
0.201154
0.204113
0.203291
0.205099
0.197867
0.206578
0.202633
0.206085
0.202633
0.199839
0.199346
0.198689
0.201154
0.201319
0.201319
0.203291
0.204934
0.200661
0.201647
0.199018
0.200004
0.201976
0.20362
0.201976
0.203291
0.199511
0.200497
0.20099
0.199018
0.196388
0.198689
0.194251
0.195566
0.201976
0.198853
0.199018
0.197867
0.199511
0.197867
0.199839
0.199839
0.200004
0.19573
0.196552
0.198031
0.19573
0.194416
0.196388
0.195895
0.192443
0.196552
0.193594
0.194744
0.195073
0.199018
0.198853
0.198031
0.197703
0.196717
0.195073
0.192936
0.192936
0.1908
0.194087
0.193101
0.194744
0.191786
0.19721
0.195073
0.19836
0.195402
0.194251
0.194744
0.19195
0.195566
0.19458
0.198853
0.197867
0.199182
0.196059
0.197703
0.195402
0.198031
0.197867
0.197703
0.197703
0.196717
0.199511
0.198196
0.200661
0.200004
0.199839
0.198689
0.197703
0.196717
0.196388
0.194744
0.199182
0.19836
0.201319
0.196223
0.198196
0.198853
0.200332
0.195566
0.197045
0.198689
0.19836
0.197045
0.196717
0.200168
0.198524
0.199511
0.194087
0.197045
0.199675
0.198524
0.197867
0.198524
0.19836
0.198689
0.205756
0.200332
0.199675
0.19836
0.19836
0.199018
0.200004
0.192608
0.201812
0.198689
0.19836
0.204113
0.203948
0.203784
0.199182
0.199018
0.197703
0.196717
0.196881
0.201976
0.199346
0.199511
0.198524
0.204113
0.198031
0.200825
0.199182
0.198524
0.200168
0.201154
0.19836
0.198196
0.195566
0.196388
0.201976
0.193101
0.199675
0.197703
0.199182
0.195566
0.20099
0.197703
0.197538
0.197538
0.199346
0.207235
0.198031
0.200168
0.200168
0.198689
0.196388
0.202305
0.196881
0.200332
0.199182
0.200168
0.198031
0.201647
0.198853
0.201319
0.201647
0.20099
0.200004
0.199018
0.198524
0.193922
0.201483
0.195895
0.19458
0.199511
0.199511
0.196388
0.197045
0.197374
0.19721
0.19721
0.200168
0.201976
0.195073
0.199675
0.179295
0.067039
0.069997
0.07197
0.001132
0.006884
0.014609
0.01954
0.023484
0.031373
0.039591
0.04633
0.047152
0.042221
0.025457
0.011322
0.011979
0.003433
0.002282
-1.9e-05
0.000639
-0.000841
-1.9e-05
-0.001334
0.000474
-0.000676
-0.000347
-0.000183
0.000146
0.000474
0.000803
-1.9e-05
-0.000676
-0.000676
-0.001334
0.000146
0.000967
0.004255
0.010993
0.022663
0.027429
0.032195
0.000474
-0.000183
0.001132
0.002118
0.005076
-0.000841
0.000474
0.006391
0.017239
0.022169
0.029566
0.035482
0.045179
0.047809
0.057013
0.060465
0.060958
0.069997
0.073449
0.081995
0.083639
0.091364
0.091528
0.096294
0.103033
0.107799
0.114374
0.115195
0.119797
0.124399
0.123742
0.128015
0.130481
0.130481
0.138205
0.136726
0.141493
0.141
0.146095
0.145108
0.148889
0.150039
0.152833
0.156449
0.158421
0.164667
0.161544
0.164831
0.163188
0.165817
0.164831
0.172556
0.166311
0.169269
0.169433
0.167461
0.169105
0.173707
0.1742
0.180116
0.176336
0.176829
0.180774
0.181267
0.182746
0.182253
0.18176
0.181596
0.186362
0.182746
0.192772
0.180116
0.185376
0.184554
0.184554
0.187513
0.189649
0.18817
0.191786
0.191786
0.192443
0.193429
0.190964
0.197045
0.197374
0.195895
0.195073
0.194909
0.18817
0.194909
0.192772
0.192936
0.183897
0.192772
0.195237
0.196388
0.195073
0.194744
0.19836
0.194087
0.199018
0.196881
0.19836
0.189978
0.198031
0.199346
0.198031
0.199182
0.196717
0.200004
0.194744
0.200168
0.200168
0.199675
0.201319
0.198689
0.198853
0.199018
0.198524
0.199839
0.199182
0.196717
0.199675
0.20362
0.200825
0.198031
0.200168
0.198524
0.201976
0.200497
0.201319
0.202633
0.203126
0.201154
0.205099
0.201483
0.202798
0.201976
0.199675
0.203126
0.200332
0.201647
0.201483
0.200004
0.201976
0.203126
0.200168
0.201812
0.200004
0.201647
0.200661
0.202633
0.198031
0.200332
0.19458
0.194909
0.197703
0.198196
0.198031
0.198196
0.196881
0.199018
0.201976
0.197374
0.198689
0.194744
0.19721
0.198031
0.195566
0.19721
0.201647
0.198031
0.196881
0.199182
0.197374
0.197867
0.19721
0.198524
0.194744
0.194087
0.197538
0.200004
0.19458
0.193429
0.196223
0.197867
0.19721
0.197374
0.199346
0.195402
0.19721
0.19573
0.199839
0.195402
0.197867
0.194416
0.198031
0.194087
0.194909
0.195237
0.194251
0.196881
0.197045
0.200497
0.191621
0.198689
0.197703
0.19573
0.196552
0.199346
0.195237
0.197374
0.197045
0.197703
0.195237
0.192115
0.193922
0.19836
0.19195
0.196717
0.19573
0.19836
0.197538
0.197703
0.200168
0.199346
0.201647
0.197045
0.199018
0.199182
0.195895
0.195895
0.197538
0.192936
0.195073
0.202962
0.196717
0.196717
0.198853
0.199511
0.19573
0.199675
0.196223
0.197538
0.199182
0.197703
0.19458
0.196059
0.194087
0.193922
0.195566
0.192608
0.194416
0.188499
0.195073
0.192936
0.194087
0.194251
0.19836
0.194087
0.196388
0.196388
0.194251
0.195566
0.196388
0.192115
0.193265
0.194251
0.192936
0.197867
0.191621
0.189978
0.195402
0.19836
0.197867
0.19721
0.197867
0.197867
0.19836
0.19573
0.201647
0.198196
0.198524
0.194744
0.196388
0.192772
0.196717
0.196552
0.196059
0.197374
0.197538
0.201154
0.194251
0.198689
0.197374
0.197538
0.197703
0.196717
0.197703
0.199346
0.197703
0.195566
0.19836
0.199346
0.196059
0.193594
0.199839
0.201483
0.199511
0.200332
0.198689
0.197045
0.199675
0.199346
0.200168
0.195895
0.197538
0.198689
0.198524
0.193265
0.197374
0.196223
0.192115
0.194416
0.199839
0.197703
0.200497
0.19836
0.196388
0.198853
0.195237
0.201647
0.195895
0.199675
0.19721
0.200332
0.194087
0.196552
0.195402
0.196881
0.197867
0.195073
0.199675
0.196717
0.202305
0.197045
0.200661
0.198196
0.201319
0.195237
0.199675
0.200661
0.200825
0.200825
0.199182
0.199182
0.200497
0.201976
0.193429
0.197867
0.19458
0.197867
0.199675
0.199346
0.197867
0.202469
0.197703

Kurve 5

0.002282
0.008035
0.001789
0.004583
0.003104
0.006227
0.005898
0.006556
0.003597
0.010336
0.006556
0.003268
0.003761
0.004583
0.003761
0.001789
0.003926
0.00031
0.007542
0.001789
0.005076
0.007377
0.006556
0.003761
0.005898
0.00294
0.006884
0.007213
0.00146
0.000474
0.000146
0.003926
0.007706
0.000146
0.001132
0.004419
0.005241
0.004583
0.004748
0.003926
0.006227
0.004912
0.004255
0.012965
0.004912
0.005734
0.004583
-0.001498
0.00294
0.004748
-0.000347
0.001296
0.004912
0.001132
0.007049
0.001296
0.001789
0.005898
0.005734
0.002118
0.00294
0.002775
0.002282
0.001954
0.00294
0.005569
-0.003799
0.000474
-0.002977
-1.9e-05
-0.002977
-0.001991
-0.004456
0.000146
0.001625
0.000146
-0.001169
-0.004128
-0.001827
-0.005771
-0.0061
-0.003963
-0.002484
-0.005936
-0.001662
-0.000841
-0.00232
-0.006757
-0.00347
-0.004128
-0.003635
-0.004949
-0.001662
-0.001498
-0.003963
-0.001005
-0.004785
-0.001827
-0.007579
-0.00725
-0.004949
-0.000841
-0.003635
-0.00232
-0.001991
-0.00232
0.000146
-0.003306
0.000639
-0.010045
-0.003142
-0.002648
-0.000841
-0.003963
-0.000841
-0.000841
-0.002813
-0.001991
-0.001169
-0.002813
-0.011688
0.000967
-0.00347
-0.000841
-0.003306
0.00294
-0.000841
-0.001169
0.002447
0.000639
-0.002813
-0.011031
-0.001334
-0.001827
-0.005278
-1.9e-05
-0.000183
-0.000841
0.000967
-0.000841
0.000803
-0.001827
-0.008565
-0.003799
-0.001169
-0.001662
-0.001498
0.00409
0.001789
0.001625
0.006556
0.006556
0.00031
-0.004949
-0.002813
-1.9e-05
-0.000183
0.00146
-0.000183
-0.000183
-0.001662
0.000146
0.001296
0.000474
-0.006922
-0.001005
0.00031
0.00031
0.001132
-0.000512
0.005241
-0.002977
0.001789
0.001789
-0.0061
-0.005114
-0.000841
-0.002648
-0.001334
0.002775
0.000474
-0.000183
0.001296
0.005076
-0.002484
-0.000183
-0.001827
0.000474
0.000639
-0.000512
0.001789
-0.000183
-0.001827
0.000967
0.000967
-0.000841
0.005241
-0.000512
0.001789
0.00146
0.000639
0.000803
-0.001498
-0.002648
0.003433
0.000474
-1.9e-05
0.00031
0.003926
0.000146
-0.001827
-0.001169
-0.000676
0.00031
-0.002648
0.000474
0.00031
-1.9e-05
0.000146
0.001954
-0.000512
0.001954
0.00146
0.002611
0.000474
-0.000841
0.000803
-0.001991
-0.004785
-0.004949
0.005734
-0.000841
0.00031
-0.001991
-0.001827
-0.000841
0.000474
-1.9e-05
0.004748
-0.001005
0.000967
0.001132
-0.000183
-1.9e-05
-0.001827
0.005405
0.005241
-0.000183
-0.001662
0.001132
-0.000841
0.000474
-0.001827
0.003433
0.000146
0.004255
0.002282
0.00031
0.001625
-0.001498
0.001625
-0.000183
-0.000512
-0.000183
-0.000347
-0.000676
-0.000183
-0.001005
-0.000347
-0.000676
0.000474
0.001625
0.001296
0.003433
0.002611
0.002775
0.000967
0.001789
-0.001827
-0.003963
0.000803
0.001132
-1.9e-05
-0.001005
0.00031
-0.001498
0.003597
-0.001169
0.00146
-0.000676
0.001132
0.00146
0.001132
0.001625
0.000639
0.003597
0.001625
-0.002813
0.000803
-0.000841
-0.000676
-0.001334
0.004748
0.003104
0.000639
0.000967
0.003104
0.000146
0.002611
0.001296
0.000803
0.004583
0.000639
0.00146
-0.000183
0.001789
-0.001334
0.000967
0.000967
0.001132
-0.001169
-0.002484
-0.004621
-0.002484
0.001954
-0.00232
0.00294
-0.000183
0.003433
-0.003963
0.002118
-0.000183
-0.001169
-0.001827
-0.001827
-0.001827
-0.001827
0.00146
-0.000512
0.002775
-0.001827
0.002775
-0.000512
0.00294
-1.9e-05
0.005405
-0.002648
-0.004292
0.00294
0.002118
0.000146
0.00031
-0.001334
-0.003963
-0.003306
-0.001498
-0.000183
-0.002977
-0.000512
0.000967
0.004255
0.002611
0.003104
0.003926
0.001625
0.00146
-0.000347
0.000474
0.000146
-0.002813
0.003104
0.003104
-0.001662
0.001789
0.003761
-0.001169
-0.000676
0.001625
0.000967
0.001625
-0.006757
0.002282
0.003433
-0.00232
0.000474
0.001132
0.001132
0.000146
0.001296
-0.000841
0.002447
-0.001005
0.003597
0.003761
0.001132
0.003104
0.002118
-0.002813
0.00409
0.001789
-1.9e-05
0.005076
0.000146
0.004419
0.000474
0.004748
0.002118
0.001789
0.00146
0.001296
0.003433
0.004419
0.00409
0.003597
0.006227
0.001132
0.002775
0.002611
0.004583
-0.000183
0.004912
0.005898
0.004255
0.00409
0.005734
0.00409
0.002775
0.003268
0.001296
0.001132
-0.000841
0.00031
0.001789
0.003597
0.002611
0.00787
0.006062
0.006391
0.00294
0.005076
0.003268
0.002611
0.004583
0.005241
0.007049
0.001625
0.006227
0.004583
0.00409
0.004255
0.004583
0.004255
0.006391
0.005898
0.009021
0.010171
0.005405
0.007049
0.006062
0.002447
0.003268
0.004583
-0.000183
0.001789
-1.9e-05
-0.000347
0.002447
0.00294
0.00409
0.005241
0.000146
0.006227
0.002611
0.002775
0.00146
-0.00347
-0.003635
-0.000183
-0.003635
-0.00347
0.001132
-0.002813
-0.000183
-0.001334
0.00031
-0.002155
0.000639
0.001625
0.000639
0.00146
0.00294
0.003597
0.000803
0.00294
0.004583
-0.001662
-0.0061
-0.001005
-0.002977
-1.9e-05
-0.003799
0.004419
0.002611
0.003104
0.004583
-0.001827
0.000803
-0.002813
-1.9e-05
-0.001991
0.000146
0.000967
0.000967
-0.000183
-0.002648
-0.00232
-0.001498
-0.001662
-0.001334
-0.000183
-0.000676
-0.000512
-0.001334
0.004912
-0.000183
0.001625
0.000474
0.000803
-0.002155
-0.003963
-0.002977
-1.9e-05
-0.00347
-0.000676
-0.000841
0.001132
0.002611
0.001132
0.002447
0.00294
0.000474
-0.000183
0.003597
-0.000512
0.002611
0.000967
-0.002648
-0.00347
0.000803
-0.003306
-1.9e-05
0.000967
-0.000841
-0.001005
0.002611
-0.00232
-0.001662
0.001954
0.001954
0.002611
-0.000183
0.002447
-0.001991
0.00031
0.000146
-0.003963
-0.001991
-0.000183
0.000967
0.001132
0.002447
0.001789
0.000474
0.00031
0.001296
0.00146
0.001132
-0.001169
0.001132
-0.002813
0.00031
-0.000512
-0.000676
-0.000183
-0.00232
-0.000347
-0.001498
0.001132
-0.001334
0.001789
-0.001334
0.001954
0.000967
0.003104
0.000639
0.003268
0.000967
0.00031
0.00146
-1.9e-05
-0.000676
-0.001498
0.000803
-0.003142
0.002775
0.000967
0.001789
0.003761
0.002118
0.003268
0.001789
0.001132
-0.000841
0.004419
-0.000512
0.002118
-0.002813
-0.000841
0.001789
0.002775
-0.001662
0.002447
0.00031
-0.001662
-1.9e-05
0.001296
0.001296
0.00031
-0.001662
0.001789
0.002118
0.00031
0.000639
0.000803
-0.000676
0.001625
0.001296
-0.000841
0.003104
-0.002813
-0.000676
-1.9e-05
0.002447
0.000803
0.001789
0.002447
0.007377
0.003104
0.002611
0.004912
0.000967
0.001132
-1.9e-05
0.002282
-0.000183
0.001954
-0.00725
0.003926
0.001296
-0.000347
0.001296
0.00031
-1.9e-05
0.000639
0.002118
-0.000512
0.001132
-0.007908
0.003268
0.001132
-0.000841
0.001954
-0.001827
-0.000512
-0.001662
0.000639
-0.001169
0.000474
-0.002648
0.002611
0.001296
0.00031
0.004912
0.000803
0.000803
0.00294
0.001789
-1.9e-05
0.000639
-0.002813
0.001625
-0.000183
0.000639
0.004748
0.001789
-0.001005
0.002118
0.001296
0.003761
0.002282
0.002118
0.004419
0.001954
0.002282
-0.001005
-0.002977
-0.001334
0.00294
-0.000183
-0.002813
-0.003635
0.000474
-0.002155
-1.9e-05
0.000639
-0.009058
-0.003635
-0.001005
0.000474
-0.000183
0.000803
-0.001991
0.000639
0.004748
0.001625
-0.000676
-0.004621
-0.002977
0.00146
-0.00347
-0.001991
-0.000347
-0.001498
0.000146
0.001954
-0.001005
-0.000347
0.001789
-1.9e-05
0.000967
0.00146
0.002118
0.000146
0.002447
-0.001991
0.00146
-0.003799
0.001789
0.002447
0.000803
0.001954
0.006556
0.013294
0.02069
0.030223
0.035482
0.045508
0.04748
0.054055
0.058492
0.064245
0.071477
0.075092
0.080845
0.090049
0.094815
0.094158
0.100239
0.10895
0.110429
0.113552
0.116675
0.120784
0.124564
0.127029
0.129495
0.13196
0.13574
0.134918
0.140013
0.140178
0.146259
0.144451
0.148231
0.149217
0.154312
0.158093
0.158093
0.16138
0.161709
0.166639
0.166639
0.167461
0.167625
0.168612
0.172392
0.171077
0.169269
0.17157
0.173707
0.174693
0.179459
0.17798
0.180281
0.182911
0.183568
0.181267
0.186691
0.183404
0.183075
0.182417
0.188827
0.186198
0.187513
0.192115
0.188334
0.190964
0.187513
0.190471
0.187019
0.190964
0.192608
0.193429
0.193101
0.19458
0.193265
0.196552
0.193922
0.196717
0.192772
0.193758
0.192115
0.191786
0.195237
0.194251
0.196223
0.191128
0.198196
0.197374
0.196881
0.19573
0.198689
0.197703
0.198524
0.19836
0.195895
0.200004
0.202633
0.200004
0.19721
0.19836
0.195895
0.19836
0.19721
0.198031
0.19836
0.199511
0.201319
0.201976
0.201812
0.200332
0.20477
0.19721
0.202798
0.198689
0.199018
0.199018
0.199839
0.197045
0.203126
0.202305
0.195895
0.199675
0.20214
0.199511
0.201812
0.201319
0.200004
0.200004
0.19573
0.200661
0.19721
0.193101
0.193758
0.195237
0.195566
0.196717
0.195895
0.19836
0.198031
0.198524
0.200825
0.199675
0.199346
0.20099
0.198196
0.19721
0.198853
0.19721
0.200497
0.199018
0.20099
0.200825
0.201976
0.199018
0.199182
0.199018
0.199511
0.202305
0.199839
0.201647
0.200004
0.204113
0.195237
0.199839
0.199346
0.199018
0.197703
0.198689
0.200332
0.195895
0.200168
0.193265
0.196388
0.196223
0.199182
0.198196
0.195566
0.19721
0.19458
0.194909
0.197374
0.194416
0.198689
0.19721
0.197374
0.198031
0.195895
0.19573
0.198853
0.196059
0.194744
0.196552
0.196223
0.197045
0.195237
0.19836
0.19573
0.199675
0.195073
0.200332
0.198196
0.191786
0.191128
0.196059
0.196388
0.193101
0.199839
0.197538
0.197374
0.195237
0.196717
0.19573
0.197045
0.196059
0.197538
0.198853
0.197703
0.198524
0.197538
0.19836
0.195237
0.199182
0.19721
0.198689
0.190635
0.199018
0.196059
0.198031
0.195237
0.200004
0.201647
0.196717
0.19721
0.199182
0.197703
0.196223
0.200004
0.199675
0.200497
0.199511
0.199346
0.196388
0.198689
0.197045
0.199675
0.198031
0.198853
0.200168
0.200497
0.201319
0.200004
0.198031
0.197374
0.200825
0.200825
0.200825
0.198031
0.198524
0.195237
0.200332
0.19573
0.197867
0.197538
0.199018
0.200168
0.198524
0.200168
0.201483
0.198853
0.200497
0.202633
0.199018
0.199182
0.20099
0.199839
0.20099
0.198853
0.197538
0.199675
0.195895
0.199839
0.200168
0.200825
0.201319
0.202962
0.200004
0.198524
0.204113
0.199182
0.201154
0.199018
0.201483
0.200332
0.200661
0.200004
0.200497
0.199839
0.198689
0.201647
0.199675
0.199839
0.201483
0.203291
0.199018
0.200168
0.200168
0.200497
0.201976
0.203291
0.197703
0.20099
0.199182
0.20099
0.200661
0.198524
0.207235
0.19721
0.201154
0.199675
0.204606
0.199675
0.193922
0.201154
0.203455
0.20099
0.199675
0.198853
0.197703
0.199839
0.197538
0.199346
0.19721
0.202469
0.199182
0.202305
0.202962
0.200497
0.199675
0.203126
0.199839
0.200661
0.201976
0.201154
0.201154
0.200168
0.202962
0.20099
0.202305
0.199182
0.202305
0.201319
0.201812
0.199346
0.198853
0.200497
0.200661
0.204934
0.205263
0.201976
0.20214
0.20362
0.200661
0.202305
0.200661
0.202305
0.198524
0.201647
0.201976
0.201976
0.198689
0.202305
0.203784
0.205756
0.19836
0.205427
0.20477
0.197045
0.205592
0.201976
0.20214
0.201812
0.199346
0.196717
0.201319
0.19721
0.199675
0.200004
0.200332
0.202633
0.203126
0.202633
0.201812
0.204606
0.201483
0.200004
0.191786
0.196223
0.199346
0.19458
0.197374
0.19573
0.193922
0.19836
0.197538
0.194416
0.198524
0.196552
0.19721
0.197867
0.198853
0.197045
0.200661
0.198031
0.202633
0.19836
0.197538
0.195566
0.197538
0.198031
0.199018
0.197538
0.196388
0.200661
0.199018
0.20099
0.197538
0.199839
0.19836
0.197045
0.196388
0.198524
0.196223
0.19573
0.196881
0.194909
0.200825
0.196059
0.199018
0.198031
0.198853
0.196717
0.197374
0.198031
0.199839
0.198853
0.199346
0.199346
0.200004
0.199839
0.200825
0.204441
0.198689
0.195237
0.202798
0.200332
0.19836
0.199839
0.197867
0.199839
0.19836
0.202305
0.199675
0.201647
0.198524
0.199346
0.20099
0.196717
0.198031
0.20099
0.201154
0.196717
0.196223
0.199675
0.197538
0.195237
0.197703
0.193429
0.19721
0.197703
0.20099
0.201154
0.199182
0.198196
0.195566
0.20099
0.198196
0.201812
0.202469
0.199346
0.196881
0.20362
0.197045
0.198689
0.202633
0.200168
0.202469
0.199018
0.201154
0.198853
0.199675
0.197045
0.202798
0.198196
0.200004
0.20362
0.199346
0.202305
0.201812
0.200497
0.199346
0.201647
0.197538
0.201483
0.200825
0.200168
0.203291
0.201319
0.199182
0.203455
0.198196
0.198031
0.198196
0.199675
0.200332
0.202798
0.202469
0.204441
0.198689
0.200497
0.200332
0.196059
0.199839
0.119797
0.120455
0.124728
0.131631
0.129823
0.136069
0.13574
0.137219
0.141164
0.142972
0.146423
0.147409
0.148724
0.150697
0.154477
0.155627
0.161215
0.155134
0.162695
0.161215
0.165653
0.163188
0.164338
0.167461
0.005734
0.015924
0.023977
0.027922
0.035647
0.043043
0.049124
0.057671
0.063423
0.067039
0.071641
0.080516
0.084954
0.088241
0.099089
0.096788
0.102869
0.107471
0.110922
0.112401
0.114538
0.112894
0.122592
0.119797
0.129001
0.133275
0.133768
0.13574
0.140342
0.141328
0.141164
0.149382
0.147903
0.153162
0.15234
0.155627
0.160065
0.158257
0.158914
0.161051
0.158257
0.16516
0.165489
0.167132
0.170419
0.170584
0.17272
0.173707
0.172556
0.176336
0.175843
0.176994
0.178144
0.17798
0.180116
0.18061
0.182582
0.180774
0.174035
0.179295
0.185047
0.186362
0.185376
0.191457
0.192608
0.189814
0.192115
0.190964
0.188006
0.183732
0.187019
0.193922
0.191128
0.188663
0.192772
0.192115
0.190471
0.192608
0.194251
0.196059
0.190142
0.194087
0.194416
0.19458
0.199182
0.196223
0.199346
0.197703
0.199839
0.199182
0.198524
0.196552
0.19573
0.19721
0.197374
0.197538
0.19836
0.201647
0.201647
0.202633
0.19836
0.200661
0.197867
0.19836
0.198196
0.199018
0.199511
0.198031
0.199346
0.195895
0.198689
0.198853
0.200825
0.197867
0.02973
0.03729
0.045837
0.049781
0.055534
0.060958
0.066217
0.076572
0.079037
0.082653
0.090706
0.092021
0.097116
0.102376
0.105498
0.110265
0.111251
0.11536
0.115031
0.123249
0.126043
0.128673
0.133603
0.136069
0.137219
0.143136
0.144615
0.147245
0.147574
0.151354
0.152998
0.152011
0.154477
0.15612
0.160229
0.1576
0.158586
0.160722
0.162695
0.163023
0.167954
0.168118
0.168283
0.170748
0.171406
0.17272
0.171077
0.175515
0.17798
0.178802
0.1742
0.179952
0.177815
0.179459
0.176501
0.181924
0.179952
0.179295
0.176994
0.183075
0.184225
0.178802
0.183239
0.186033
0.18554
0.188499
0.188827
0.186198
0.185212
0.186526
0.188663
0.187513
0.189485
0.192772
0.186855
0.189814
0.191621
0.197374
0.190964
0.194251
0.192115
0.194416
0.194087
0.192936
0.196059
0.196552
0.193265
0.195073
0.19721
0.192608
0.196552
0.193265
0.195402
0.194744
0.19721
0.195237
0.198196
0.197374
0.200004
0.200497
0.195237
0.195402
0.195895
0.195237
0.19721
0.198853
0.195073
0.197867
0.198524
0.196388
0.194251
0.19573
0.196552
0.198853
0.198031
0.200332
0.199346
0.198689
0.199839
0.201154
0.198196
0.200332
0.199182
0.199018
0.199182
0.195895
0.197867
0.197045
0.201647
0.197538
0.202469
0.199839
0.200168
0.201154
0.201319
0.205099
0.198524
0.201154
0.202798
0.200497
0.197374
0.200661
0.198853
0.197374
0.198196
0.200332
0.200004
0.200004
0.201483
0.202305
0.201976
0.197538
0.20099
0.197538
0.198689
0.198196
0.198196
0.196388
0.19836
0.19721
0.197374
0.198689
0.196552
0.195073
0.197045
0.20214
0.196059
0.197703
0.197045
0.198031
0.196881
0.199511
0.197538
0.200497
0.199346
0.196552
0.197374
0.196717
0.19573
0.194087
0.196717
0.196552
0.195895
0.198524
0.199839
0.199018
0.199839
0.198524
0.19836
0.197703
0.19721
0.194416
0.198524
0.195237
0.195895
0.197867
0.196388
0.197867
0.197374
0.200168
0.200497
0.199511
0.19836
0.201647
0.197867
0.199839
0.196552
0.197867
0.196717
0.199839
0.197867
0.193594
0.197867
0.196059
0.199018
0.19721
0.199675
0.201647
0.200497
0.198689
0.203126
0.199018
0.204441
0.202962
0.198853
0.201483
0.198853
0.199839
0.198853
0.198853
0.199511
0.198853
0.19836
0.199675
0.200497
0.201976
0.199018
0.20099
0.200332
0.200661
0.201319
0.199346
0.198196
0.19721
0.197538
0.19721
0.19836
0.199182
0.196881
0.19721
0.202305
0.200825
0.20099
0.20099
0.199839
0.194744
0.200168
0.200497
0.195895
0.196881
0.199675
0.195237
0.197867
0.198689
0.197045
0.200497
0.196717
0.197703
0.196717
0.201647
0.198031
0.199511
0.199346
0.201154
0.200825
0.200497
0.200004
0.197374
0.200661
0.196388
0.203126
0.197374
0.200825
0.200168
0.197703
0.198853
0.199511
0.200497
0.199675
0.197374
0.199182
0.200497
0.197867
0.200168
0.19721
0.200332
0.199346
0.201812
0.196223
0.195566
0.194744
0.19836
0.19836
0.199675
0.198853
0.196388
0.188006
0.170913
0.155956
0.130809
0.129166
0.134754
0.133768
0.135083
0.133932
0.136069
0.131631
0.133932
0.129823
0.132617
0.134261
0.136069
0.135247
0.136562
0.140506
0.142479
0.145273
0.149217
0.149875
0.153326
0.150532
0.153162
0.153162
0.153655
0.156613
0.15875
0.158421
0.161873
0.162037
0.163023
0.164503
0.163023
0.167132
0.164667
0.169762
0.169105
0.168283
0.170091
0.170584
0.169762
0.172392
0.169105
0.173707
0.174693
0.171734
0.177487
0.175843
0.174857
0.177158
0.178473
0.180445
0.179623
0.179952
0.187019
0.186198
0.184554
0.183897
0.186691
0.18554
0.187841
0.190471
0.183732
0.188334
0.185705
0.190635
0.187677
0.189814
0.190142
0.19195
0.189485
0.195073
0.194087
0.190964
0.193429
0.194744
0.196388
0.191621
0.197867
0.189814
0.195237
0.192279
0.196223
0.192608
0.196388
0.194744
0.196059
0.201976
0.197374
0.198689
0.195566
0.201319
0.198524
0.19721
0.196388
0.19721
0.192443
0.19573
0.197703
0.193758
0.194251
0.194087
0.19721
0.200661
0.203948
0.20099
0.202798
0.197374
0.20099
0.200004
0.198196
0.201976
0.200497
0.197703
0.197374
0.198689
0.196388
0.197867
0.198853
0.201319
0.200825
0.200332
0.197867
0.202305
0.205263
0.202633
0.198524
0.200004
0.199675
0.200004
0.198524
0.200825
0.194744
0.197703
0.197538
0.19721
0.20099
0.199839
0.197374
0.200004
0.202962
0.198031
0.203126
0.194251
0.202962
0.199839
0.196388
0.196223
0.197374
0.197867
0.196881
0.199018
0.198524
0.200168
0.198853
0.203126
0.197374
0.198853
0.198689
0.199839
0.197703
0.203455
0.20099
0.198196
0.203126
0.194416
0.199346
0.20214
0.197045
0.197538
0.202633
0.198196
0.200332
0.197045
0.197538
0.196388
0.199182
0.19836
0.201319
0.200004
0.19836
0.200004
0.197374
0.201812
0.198031
0.201154
0.198524
0.199182
0.195237
0.199018
0.19836
0.19836
0.201647
0.19721
0.199675
0.199839
0.200332
0.198524
0.197867
0.200497
0.199511
0.196059
0.199346
0.196552
0.201319
0.198524
0.195895
0.196059
0.197374
0.195402
0.199182
0.20099
0.198524
0.200825
0.198853
0.202305
0.200332
0.201154
0.200332
0.202305
0.197703
0.197867
0.200661
0.19721
0.200168
0.199182
0.202305
0.20099
0.200004
0.198853
0.204934
0.199675
0.200661
0.199839
0.201154
0.200168
0.20214
0.198031
0.20099
0.199839
0.199675
0.207564
0.202633
0.198689
0.196388
0.201154
0.200168
0.204113
0.199511
0.202798
0.199839
0.203291
0.207728
0.197867
0.198853
0.195237
0.201154
0.203291
0.203455
0.199018
0.204606
0.200004
0.199675
0.208222
0.201154
0.200661
0.20362
0.200825
0.201976
0.200661
0.199675
0.198196
0.199675
0.201976
0.204113
0.19836
0.199511
0.198689
0.19721
0.201812
0.199018
0.198853
0.19573
0.202469
0.200332
0.198031
0.198524
0.195402
0.196059
0.196552
0.196881
0.195402
0.196881
0.195073
0.198524
0.193758
0.1908
0.195895
0.19573
0.194416
0.197045
0.196059
0.196388
0.197703
0.193922
0.198524
0.196552
0.18554
0.195402
0.197045
0.194416
0.198524
0.195895
0.196223
0.195402
0.196717
0.197374
0.199675
0.186691
0.197538
0.198524
0.196059
0.198524
0.196388
0.19721
0.195237
0.198196
0.196388
0.199346
0.189649
0.196223
0.199346
0.199018
0.199346
0.198031
0.19573
0.195895
0.199839
0.197703
0.200497
0.194744
0.196881
0.19721
0.199182
0.196552
0.197374
0.193922
0.192115
0.198196
0.197045
0.194744
0.193758
0.195237
0.199182
0.198689
0.197538
0.201812
0.197045
0.198031
0.200661
0.200168
0.197538
0.199346
0.196223
0.196717
0.197538
0.198524
0.192772
0.190471
0.19573
0.197867
0.197538
0.199182
0.197374
0.196388
0.200004
0.198689
0.197538
0.198853
0.198196
0.19836
0.199346
0.197867
0.195237
0.199346
0.195402
0.196717
0.196717
0.205099
0.193265
0.201647
0.199182
0.20099
0.200168
0.200168
0.200497
0.200332
0.196388
0.196388
0.195237
0.193101
0.197045
0.193758
0.200825
0.199182
0.20099
0.201319
0.202633
0.196717
0.202633
0.200168
0.198689
0.202798
0.197045
0.199018
0.197703
0.198196
0.198031
0.205592
0.199839
0.200332
0.198853
0.199346
0.200661
0.20099
0.201319
0.20214
0.202633
0.201154
0.202962
0.197538
0.19836
0.199839
0.198031
0.198524
0.199346
0.198853
0.198853
0.200004
0.20214
0.203455
0.203291
0.201483
0.200497
0.205099
0.197045
0.198689
0.198853
0.201812
0.202469
0.20099
0.201154
0.198031
0.198524
0.200332
0.201976
0.202305
0.200332
0.203948
0.203291
0.203291
0.203126
0.205592
0.200497
0.197045
0.203126
0.203784
0.206085
0.199346
0.200497
0.198853
0.203784
0.201812
0.20477
0.203126
0.201154
0.203455
0.201483
0.203784
0.197538
0.204441
0.20214
0.201976
0.200332
0.20362
0.199346
0.200497
0.201483
0.198196
0.202633
0.198031
0.203455
0.201976
0.200497
0.199675
0.201647
0.200004
0.198196
0.197374
0.199018
0.195566
0.194744
0.199839
0.198196
0.199346
0.197045
0.197045
0.195895
0.198853
0.195237
0.195237
0.195895
0.19458
0.196388
0.197867
0.196881
0.19573
0.194251
0.190142
0.198853
0.191621
0.195402
0.193429
0.192608
0.196223
0.194251
0.192279
0.19458
0.193922
0.195073
0.192608
0.19573
0.19458
0.194087
0.193101
0.195073
0.195073
0.194416
0.195895
0.195402
0.195237
0.193265
0.194909
0.193101
0.195402
0.188992
0.194251
0.193594
0.193922
0.190307
0.194087
0.190635
0.195402
0.199182
0.196881
0.193265
0.198689
0.197538
0.193758
0.198524
0.195073
0.198031
0.194909
0.195895
0.197538
0.193922
0.195237
0.198853
0.199018
0.194251
0.197374
0.195237
0.200497
0.194909
0.196223
0.19836
0.197538
0.19573
0.197045
0.199182
0.195895
0.199346
0.19721
0.198853
0.197374
0.199346
0.19721
0.198689
0.19836
0.200332
0.198196
0.198524
0.196388
0.199346
0.19721
0.196717
0.197703
0.19573
0.19836
0.199182
0.198524
0.197374
0.198853
0.196388
0.201812
0.196223
0.20099
0.195895
0.19836
0.19721
0.198689
0.202798
0.198689
0.199675
0.194909
0.199675
0.202469
0.19836
0.197703
0.20099
0.199182
0.203291
0.201483
0.200825
0.198031
0.197045
0.198031
0.198031
0.196552
0.19573
0.195566
0.195237
0.198031
0.199511
0.200004
0.195402
0.196223
0.195895
0.197045
0.196881
0.196552
0.197538
0.196881
0.195895
0.200825
0.199346
0.197703
0.19573
0.192608
0.201483
0.19721
0.19573
0.19721
0.197867
0.197045
0.200497
0.199675
0.19836
0.199839
0.199839
0.198689
0.196388
0.199511
0.196717
0.199018
0.199511
0.202305
0.195566
0.20099
0.197374
0.197045
0.19721
0.193758
0.196223
0.197538
0.199346
0.197374
0.202633
0.198853
0.199675
0.197867
0.198689
0.198196
0.197703
0.197374
0.197045
0.197538
0.197045
0.198853
0.20214
0.200825
0.198031
0.19836
0.194744
0.199018
0.195402
0.197045
0.196059
0.195895
0.195402
0.20214
0.198689
0.197374
0.199182
0.199346
0.197703
0.198853
0.199511
0.197703
0.200004
0.199182
0.201319
0.198524
0.200497
0.201812
0.199018
0.196388
0.193101
0.195073
0.195895
0.196388
0.199675
0.19721
0.201154
0.200004
0.199182
0.201812
0.198196
0.20099
0.198524
0.198689
0.199182
0.199675
0.194087
0.197374
0.196552
0.19836
0.198524
0.197374
0.200825
0.196388
0.198853
0.199839
0.202962
0.198031
0.201812
0.198031
0.194744
0.208386
0.190471
0.197703
0.197374
0.195566
0.197045
0.199675
0.195895
0.200661
0.197045
0.199018
0.205921
0.197703
0.200004
0.199839
0.199675
0.202798
0.197867
0.191128
0.199346
0.197045
0.197374

Kurve 6

-0.002648
-0.002813
0.003433
-1.9e-05
0.000967
0.003104
0.003597
0.004419
0.001789
0.003268
0.005241
0.002611
-0.000183
0.002775
-0.000183
-0.001662
0.001789
0.00409
0.003268
0.001789
0.003268
0.002611
0.001296
0.001789
0.000803
0.003268
0.005898
0.003268
0.004748
0.004583
0.004419
0.003104
0.008692
0.00409
0.000639
0.003926
0.002611
0.002611
0.004748
0.00146
0.00031
0.003597
0.003926
0.004748
0.002282
0.006391
0.002447
0.006391
0.003433
0.002611
0.004255
0.004419
0.005898
0.00294
0.005405
0.002611
0.000967
0.00146
0.00409
0.001625
0.001625
0.003926
0.004583
0.004419
0.005569
0.003104
0.001789
0.00672
-0.000347
0.002611
0.003433
0.002282
0.003761
0.004583
0.000474
0.008528
0.007377
0.004583
-0.002155
0.003597
0.001954
0.001625
0.002775
0.003433
0.003761
0.001789
0.002775
0.004255
0.002447
0.001132
0.002611
-0.002484
0.002447
-0.003306
-0.003142
0.00146
-0.001334
0.002118
0.003104
0.00031
-0.000183
0.003761
0.001132
0.004912
0.000146
0.00409
-0.000512
-0.000512
-0.001498
0.00146
-0.003306
-0.002648
0.000474
0.000474
0.002611
0.000639
-0.001991
0.000967
0.003926
-0.000676
0.003433
-0.000512
0.002611
0.001954
0.002775
0.001625
-0.000676
-0.001991
-0.000841
0.000967
-0.001991
0.003597
0.002775
-0.001827
0.003761
0.005405
0.001954
0.004912
0.004419
0.008035
0.004419
0.002447
0.001625
0.001132
0.000967
0.001625
0.001954
0.004748
0.003268
0.003268
0.005241
0.004748
0.005569
0.003597
0.003761
0.001625
0.004419
0.002118
0.000639
-1.9e-05
0.001296
-0.001662
-0.000512
0.002611
0.000803
0.004583
0.003104
0.000639
0.000639
0.003104
0.003268
0.004583
0.00294
0.003761
0.003597
-0.000347
-0.000512
-0.002484
-0.003142
0.000474
0.001132
-0.00232
0.004255
0.001296
0.001954
0.00294
0.005898
0.00031
0.006884
0.001625
0.004583
0.005734
-0.001334
0.001789
0.00146
0.002611
-0.000841
0.003597
-0.000183
0.005569
0.002118
0.001789
0.001296
-0.001005
0.005241
0.006556
-0.001662
0.002447
0.003433
-0.001827
0.002118
-0.000841
0.00146
-0.001334
0.002118
0.00294
0.00672
0.00409
0.001625
0.004419
0.001625
0.002775
0.001954
0.003104
0.001296
0.004255
0.002447
0.00409
-0.001991
0.005898
0.006062
0.001625
0.001625
0.001625
0.000639
0.003268
-0.000183
0.000639
0.002775
0.002611
0.002118
0.000803
0.005569
-0.0061
0.005734
0.001954
0.002118
0.005898
0.004912
0.000967
-0.000676
-0.000512
0.000639
0.000803
-0.001169
0.001954
0.00146
0.002611
0.000803
0.002775
0.000474
0.001789
0.002118
0.00409
0.00146
-1.9e-05
-0.001991
0.003433
0.001625
0.000967
0.003926
-0.000676
0.003761
0.000967
0.00146
-1.9e-05
0.002282
0.000967
0.002775
0.005898
0.008363
0.005405
0.001789
0.003104
0.000803
0.002282
-0.004785
-0.002155
-0.002977
-0.000347
-0.001662
0.001296
0.000803
0.001296
0.000474
0.002775
0.000474
-0.001991
0.002447
0.000967
0.001625
-0.001169
0.001789
-0.001827
0.001954
-0.002155
-0.003306
-0.004456
-0.000183
-0.002977
0.000146
-0.000347
0.002611
0.003433
0.000967
0.005076
0.000803
0.000639
-0.002813
0.004912
-0.002484
-0.002155
0.000146
0.000803
-1.9e-05
0.000474
-0.001005
0.00146
0.001132
0.003597
0.001954
-0.001334
0.001625
-0.001991
0.000967
0.004583
0.000146
-0.000512
-0.000183
-0.00232
0.000146
-0.003142
-1.9e-05
-0.001334
-0.001662
-0.000512
-0.000183
0.00146
0.001954
0.005569
0.000474
0.001789
0.003268
0.002118
-0.000841
0.000803
-0.001498
-0.000183
-0.005607
-0.000676
-0.001005
-0.001662
0.001625
-0.001334
0.00031
0.000146
0.005076
-0.001005
0.00146
-0.002977
0.00146
0.001132
0.00031
-0.002155
-0.001169
-0.002484
-0.007086
0.001625
-0.001005
0.001132
-0.001005
-0.003142
-0.002977
-0.000183
-0.001169
0.005898
-1.9e-05
0.002611
-1.9e-05
-0.001827
0.000967
-0.00232
-0.001334
-0.001498
-0.000347
-0.001169
-0.001169
-0.000512
-0.000512
-0.004949
-0.001169
-0.002977
-0.001169
-0.001169
0.001954
0.000146
-0.002155
-1.9e-05
-0.004128
-0.002648
-0.001827
-0.002484
-0.005114
-0.003142
-0.001498
-1.9e-05
-0.001169
-1.9e-05
0.002118
0.001789
-1.9e-05
0.002118
0.001954
-0.001334
-0.002648
0.000146
0.001789
-0.000512
0.000146
-0.003306
-1.9e-05
-0.005771
-0.001169
-0.001662
-0.001991
0.002447
0.003597
0.003268
0.002118
0.005241
-0.000512
0.002775
0.001625
0.000967
0.002447
0.002611
-0.002484
0.002118
-0.000676
0.002118
0.004748
0.000474
0.003597
0.003926
0.003761
0.000803
0.002282
0.00031
-0.000512
-0.001498
0.002775
0.002282
0.004255
-0.002155
0.001296
0.00146
0.000474
0.001296
-1.9e-05
0.003433
0.002611
0.000146
0.004419
0.007049
0.003433
0.006556
0.001132
0.005569
0.002775
0.000803
0.001296
0.002282
0.003433
-0.002484
0.002611
0.000967
0.002282
0.002447
0.00146
0.00409
0.00146
0.001296
-0.004128
0.001132
0.001296
0.000146
0.002118
0.000146
0.001789
0.000146
-0.000841
0.000803
0.001132
0.003433
0.000146
0.003104
-1.9e-05
0.00294
0.00031
0.002447
0.000803
0.001132
-0.000676
0.001789
0.002447
0.002282
0.000803
0.001954
0.004583
-0.001169
0.00294
-0.000347
0.002775
-0.002977
0.003761
0.001625
0.002447
0.000474
0.000803
0.003104
-0.000512
0.002611
0.000967
0.000803
0.000474
0.003761
-0.001827
-0.000183
0.000639
-0.001662
0.000967
0.00146
0.00146
0.004912
-0.001334
0.005734
0.003433
0.001954
-0.000841
0.004419
0.001132
0.00031
-0.001334
0.000474
-1.9e-05
-1.9e-05
-0.003306
-0.001005
0.002611
-1.9e-05
0.005898
-0.003306
0.001296
0.002447
0.000639
0.003104
-0.000183
0.000803
0.000474
0.002118
-0.001498
0.007213
-0.00232
0.000639
0.000474
-0.002155
0.001789
0.002775
0.000474
0.00031
0.001625
0.00031
-0.008565
0.000803
0.00146
0.001789
0.000474
0.00031
-0.000347
-0.000676
-0.000183
0.00146
-0.004128
-0.00988
0.001132
0.000474
0.001296
0.003761
0.001296
0.003597
0.000639
0.003268
0.006556
0.00146
-0.004456
0.000967
0.000146
-0.004621
0.002775
-0.002484
0.000146
-0.003963
0.002447
0.00294
0.003761
0.002611
0.002447
0.001625
0.003268
0.001954
0.002447
0.001296
0.00294
0.000474
0.000146
0.005241
-0.001005
0.005898
0.000967
0.003433
0.001132
0.003268
0.003433
0.004748
0.004748
0.003104
0.004748
0.003104
0.001954
0.000474
0.00146
-1.9e-05
-0.001498
0.001625
-0.002155
0.005241
0.003104
0.003433
0.004583
0.003104
0.003104
0.001789
0.003104
0.004912
-0.002155
0.001625
-0.001334
0.002282
0.003268
0.000146
-0.000183
0.00031
0.004419
0.003268
-0.000183
0.004583
-0.002155
0.004748
0.001132
0.00146
0.004255
0.002775
-0.001169
-0.001662
0.001132
-0.00347
0.004419
-0.000841
0.00146
0.000474
-0.000347
-0.000676
0.003597
0.003433
0.000967
0.000474
0.002447
0.000967
-0.000512
0.003597
-0.000183
0.003268
0.004255
0.001625
-0.000841
-0.000183
-0.00232
-0.000183
-0.001334
-0.002484
0.002611
-0.000512
-0.000512
0.00031
0.001625
-0.004621
-0.001005
-0.000512
-0.002813
-0.002648
-0.002648
0.000803
-0.001005
-0.002484
0.000474
-1.9e-05
-0.001005
0.002118
-0.001334
0.000474
0.001789
0.00409
0.001625
0.009514
0.003268
0.00672
0.003761
0.001625
0.00146
-0.000347
0.001132
-0.002648
0.003926
0.000803
0.002118
0.000803
0.002282
0.00031
0.001789
0.001625
0.00672
0.000803
-0.000676
0.001132
-0.001005
-0.001662
0.00146
0.003104
-1.9e-05
0.001954
0.000639
0.006391
0.012637
0.022005
0.028579
0.038605
0.044193
0.052411
0.057177
0.061451
0.066875
0.072791
0.078215
0.081995
0.08972
0.091692
0.097445
0.10139
0.106978
0.107964
0.109607
0.116839
0.120619
0.124564
0.134261
0.136562
0.140013
0.141657
0.141164
0.146752
0.143301
0.14971
0.150204
0.154148
0.152505
0.1576
0.156778
0.162037
0.165489
0.162202
0.164338
0.164831
0.166968
0.170091
0.173378
0.172063
0.182253
0.175843
0.176008
0.177815
0.178473
0.177158
0.179788
0.179295
0.17913
0.181267
0.181267
0.182253
0.184554
0.183732
0.185212
0.185869
0.185869
0.190142
0.188334
0.188663
0.187677
0.189156
0.190635
0.192115
0.189485
0.190471
0.192772
0.192279
0.191457
0.19195
0.197374
0.193429
0.196717
0.196388
0.196223
0.192443
0.198689
0.196223
0.196552
0.196717
0.196059
0.191293
0.196059
0.197867
0.195073
0.198524
0.197374
0.197045
0.198524
0.202798
0.194744
0.19573
0.194909
0.197045
0.195402
0.198853
0.196552
0.194744
0.197045
0.194909
0.19573
0.195895
0.196881
0.192443
0.197538
0.197538
0.197867
0.196717
0.19836
0.198196
0.197703
0.198031
0.195237
0.200004
0.19458
0.196717
0.195895
0.197045
0.192772
0.190142
0.19195
0.195073
0.192936
0.194416
0.196388
0.19836
0.192443
0.196059
0.194744
0.191128
0.195073
0.194416
0.194909
0.192772
0.195895
0.196717
0.194251
0.192936
0.190471
0.1908
0.194251
0.190964
0.199346
0.192115
0.19573
0.195566
0.190964
0.193594
0.191786
0.191786
0.188827
0.193758
0.187184
0.193101
0.188992
0.1908
0.191786
0.191457
0.191621
0.191786
0.190964
0.19195
0.19195
0.18817
0.192115
0.189156
0.191786
0.189649
0.188006
0.186855
0.188006
0.183075
0.186362
0.186691
0.18817
0.190635
0.189156
0.190471
0.189649
0.190635
0.190471
0.189485
0.191128
0.190471
0.194416
0.200332
0.191621
0.196388
0.194744
0.195073
0.197867
0.199346
0.201483
0.198196
0.201812
0.200332
0.196717
0.20362
0.202633
0.201812
0.201154
0.201976
0.199182
0.196717
0.197538
0.197867
0.20214
0.201319
0.199839
0.20214
0.199839
0.201976
0.20214
0.200168
0.199675
0.199675
0.198689
0.199675
0.198031
0.199346
0.197374
0.196059
0.197374
0.198196
0.198031
0.194416
0.197867
0.196717
0.197867
0.197374
0.19721
0.196059
0.19721
0.194744
0.200332
0.195402
0.193922
0.192936
0.193922
0.192279
0.196059
0.195566
0.1908
0.191128
0.193101
0.19458
0.193101
0.194744
0.19458
0.195895
0.19458
0.197867
0.19573
0.187348
0.195073
0.192936
0.194909
0.192608
0.192115
0.193101
0.19458
0.194909
0.198524
0.194744
0.197045
0.197538
0.196552
0.198031
0.195402
0.199182
0.196717
0.197374
0.193594
0.197867
0.19836
0.198853
0.198031
0.20099
0.19836
0.19836
0.199346
0.199839
0.200168
0.198524
0.201976
0.197703
0.201154
0.201647
0.203291
0.199675
0.201647
0.201976
0.199839
0.200497
0.202798
0.201647
0.201483
0.203784
0.200004
0.202633
0.199839
0.200661
0.201154
0.203948
0.203455
0.205756
0.204441
0.203948
0.205099
0.204277
0.19836
0.208057
0.202798
0.202305
0.205099
0.201483
0.205756
0.205427
0.203126
0.203455
0.203948
0.203948
0.206085
0.203455
0.206085
0.20477
0.203948
0.20362
0.205592
0.202469
0.203948
0.203784
0.201483
0.203948
0.203784
0.203291
0.201154
0.203455
0.201647
0.204277
0.200497
0.202962
0.203784
0.202305
0.208715
0.20099
0.199182
0.199511
0.19836
0.197867
0.199018
0.193265
0.198524
0.197703
0.199675
0.199346
0.199182
0.197703
0.198524
0.200332
0.195073
0.197538
0.193594
0.196388
0.194744
0.196223
0.194909
0.196059
0.186033
0.195073
0.191457
0.195895
0.195402
0.191293
0.19721
0.19573
0.197538
0.195073
0.194909
0.192936
0.196552
0.194087
0.194744
0.19195
0.19721
0.197538
0.195237
0.19573
0.196059
0.195402
0.195566
0.196881
0.197045
0.200168
0.195402
0.193101
0.197867
0.200332
0.197703
0.199675
0.194909
0.197867
0.196717
0.195237
0.197538
0.197374
0.202962
0.202305
0.205263
0.2074
0.20477
0.203784
0.205592
0.202469
0.205427
0.203784
0.20362
0.204277
0.20477
0.200168
0.202633
0.205592
0.203291
0.206085
0.203784
0.203784
0.209043
0.206578
0.205592
0.209701
0.207235
0.20855
0.208386
0.204934
0.205263
0.211837
0.208057
0.205921
0.208222
0.205592
0.20855
0.207564
0.207235
0.209865
0.205756
0.200497
0.205263
0.207893
0.206742
0.207893
0.20214
0.205099
0.205592
0.202798
0.210194
0.205427
0.205592
0.204113
0.205263
0.209372
0.202798
0.206578
0.207564
0.207564
0.207071
0.212495
0.206578
0.206414
0.205921
0.203126
0.207728
0.204113
0.205921
0.205592
0.206907
0.203948
0.204606
0.205263
0.204606
0.205921
0.208715
0.207564
0.205921
0.202305
0.204441
0.206249
0.206249
0.200004
0.203948
0.205921
0.201319
0.204606
0.203291
0.203455
0.20362
0.204113
0.205263
0.20855
0.193101
0.205592
0.202469
0.200497
0.204277
0.202305
0.203291
0.201319
0.200332
0.197703
0.203126
0.194087
0.199346
0.201976
0.198853
0.203455
0.207071
0.202305
0.20362
0.205099
0.199675
0.208222
0.201976
0.202305
0.201812
0.203291
0.201319
0.201319
0.200332
0.198689
0.202962
0.201483
0.204277
0.201647
0.20214
0.200004
0.203126
0.198196
0.20477
0.200332
0.201976
0.203784
0.202305
0.198853
0.203126
0.197867
0.199675
0.20099
0.200825
0.208057
0.198524
0.200168
0.200004
0.20099
0.20099
0.203455
0.200332
0.202962
0.203291
0.200497
0.200004
0.201154
0.201483
0.203291
0.203291
0.200168
0.204113
0.200825
0.203291
0.203455
0.205592
0.208057
0.204441
0.203291
0.208222
0.203948
0.201154
0.204606
0.201976
0.203291
0.201976
0.20362
0.199511
0.205099
0.20214
0.202798
0.198196
0.200168
0.19836
0.202962
0.202633
0.201154
0.203455
0.202962
0.202469
0.199675
0.205756
0.202305
0.20099
0.205427
0.203455
0.196059
0.201154
0.200332
0.200661
0.20214
0.199018
0.206742
0.205756
0.205592
0.20214
0.206414
0.201976
0.202469
0.201812
0.201647
0.20099
0.200497
0.200497
0.204441
0.203126
0.201647
0.202962
0.200168
0.203126
0.200661
0.204441
0.20099
0.199675
0.201976
0.203126
0.202469
0.199182
0.201647
0.201154
0.19721
0.200497
0.196717
0.195073
0.198031
0.19836
0.199675
0.198853
0.200825
0.200168
0.199675
0.197045
0.198689
0.198031
0.199182
0.191293
0.196059
0.192443
0.194087
0.198689
0.198524
0.193429
0.197045
0.20214
0.194087
0.197867
0.197538
0.201483
0.198689
0.198853
0.19836
0.199018
0.196717
0.195402
0.195237
0.193758
0.19573
0.194087
0.199018
0.196717
0.197867
0.197867
0.198853
0.198196
0.198196
0.197867
0.198524
0.197703
0.197703
0.198524
0.195895
0.196881
0.200332
0.19721
0.19573
0.196223
0.195566
0.195895
0.196388
0.197045
0.197045
0.195566
0.198853
0.19836
0.197703
0.192608
0.192608
0.196552
0.193922
0.193101
0.194087
0.19836
0.19836
0.196223
0.196552
0.198196
0.199018
0.197374
0.196223
0.19836
0.19721
0.192936
0.198524
0.197045
0.194744
0.197374
0.196059
0.197374
0.193758
0.198853
0.196388
0.19721
0.192443
0.198031
0.201319
0.198524
0.200004
0.198689
0.19836
0.196388
0.198524
0.197538
0.198031
0.197703
0.20099
0.197867
0.201812
0.197703
0.200661
0.197867
0.19836
0.20099
0.199346
0.198031
0.200004
0.204934
0.200661
0.203455
0.199182
0.201319
0.195566
0.19836
0.197045
0.199839
0.198853
0.204606
0.203455
0.200332
0.203126
0.200497
0.202305
0.200497
0.20214
0.203126
0.206085
0.201154
0.20362
0.204277
0.202633
0.200661
0.201976
0.201812
0.200497
0.202962
0.201812
0.202633
0.203291
0.204606
0.203455
0.202305
0.201976
0.203948
0.200168
0.199182
0.199675
0.200332
0.199346
0.202633
0.20477
0.202305
0.202305
0.200661
0.201647
0.203455
0.202305
0.200168
0.20099
0.202305
0.208715
0.206249
0.202962
0.204113
0.200004
0.200825
0.202469
0.200332
0.200497
0.200661
0.193758
0.194744
0.200825
0.201483
0.195402
0.202798
0.200497
0.201154
0.199675
0.201483
0.200332
0.198853
0.200168
0.202962
0.199182
0.199346
0.202305
0.195402
0.200004
0.19573
0.197703
0.198196
0.19721
0.198853
0.202305
0.201483
0.196717
0.200168
0.19836
0.200332
0.201812
0.202633
0.194416
0.199018
0.193265
0.201319
0.197045
0.196388
0.195402
0.194744
0.198853
0.194087
0.192608
0.195895
0.19721
0.195237
0.200168
0.196059
0.198524
0.194909
0.197374
0.199839
0.19573
0.193758
0.19573
0.195073
0.194909
0.19836
0.198524
0.19573
0.193594
0.200497
0.196223
0.195237
0.19458
0.195402
0.19458
0.195402
0.193922
0.199675
0.194416
0.193594
0.194416
0.195402
0.197374
0.192772
0.195402
0.194909
0.196717
0.196717
0.197374
0.190964
0.198031
0.19195
0.199018
0.193594
0.191621
0.191621
0.195073
0.193758
0.19458
0.199839
0.19573
0.196717
0.196552
0.197867
0.194087
0.196059
0.196717
0.199511
0.198524
0.195895
0.197703
0.199182
0.196388
0.195895
0.199018
0.193594
0.197703
0.196223
0.197867
0.196223
0.198524
0.19573
0.198524
0.198524
0.199839
0.199511
0.19836
0.19836
0.19721
0.196388
0.196717
0.200004
0.189978
0.200332
0.195895
0.195402
0.200497
0.196552
0.197867
0.200661
0.193758
0.197538
0.19721
0.193594
0.197703
0.189978
0.197703
0.198689
0.193922
0.193429
0.199511
0.194251
0.19573
0.19458
0.195237
0.19573
0.199018
0.196059
0.201483
0.197867
0.196223
0.195073
0.194416
0.197703
0.194087
0.193758
0.196059
0.194909
0.194251
0.197045
0.195073
0.195073
0.195073
0.197703
0.197045
0.196881
0.196552
0.197703
0.196388
0.195073
0.190635
0.19458
0.194744
0.196059
0.194909
0.19458
0.195402
0.19721
0.19195
0.198689
0.194416
0.186526
0.19573
0.195895
0.195073
0.197703
0.199018
0.196552
0.192115
0.198031
0.194909
0.196223
0.182089
0.193101
0.194744
0.19721
0.199346
0.191621
0.194909
0.193429
0.197045
0.195237
0.199346
0.193265
0.196552
0.197045
0.19721
0.195073
0.197703
0.199018
0.195073
0.199675
0.196881
0.201154
0.196552
0.198689
0.199346
0.199839
0.19721
0.200332
0.20099
0.19836
0.200168
0.200168
0.201319
0.198689
0.201154
0.204934
0.203455
0.201483
0.205099
0.203291
0.204934
0.200332
0.202962
0.198853
0.201812
0.199511
0.200825
0.20099
0.19836
0.201812
0.201483
0.202633
0.204113
0.201319
0.200332
0.201976
0.203784
0.203126
0.198524
0.208386
0.206414
0.203291
0.204934
0.203291
0.202962
0.203784
0.204441
0.201483
0.202305
0.201319
0.203784
0.201483
0.204934
0.203126
0.202798
0.203455
0.203784
0.20362
0.201154
0.203291
0.202633
0.204606
0.20362
0.203784
0.199675
0.203784
0.203291
0.201812
0.199182
0.202469
0.203455
0.20099
0.205427
0.197538
0.200825
0.202305
0.201976
0.201976
0.204113
0.201647
0.200332
0.199346
0.202633
0.200825
0.20214
0.201812
0.201647
0.200497
0.202469
0.200661
0.192443
0.197538
0.19573
0.19836
0.195237
0.201647
0.195566
0.200004
0.198689
0.200332
0.199839
0.197703
0.19721
0.19836
0.198689
0.196059
0.197045
0.196223
0.199839
0.197703
0.198853
0.19721
0.199839
0.199346
0.199511
0.197045
0.198524
0.19836
0.193429
0.196223
0.199018
0.193922
0.195073
0.19721
0.195402
0.19721
0.197538
0.200004
0.199511
0.200004
0.195402
0.20362
0.200004
0.201483
0.203291
0.203126
0.199018
0.199018
0.199018
0.199346
0.202633
0.202305
0.205099
0.20099
0.205592
0.202633
0.205592
0.200004
0.203291
0.204277
0.202633
0.208057
0.202469
0.204441
0.204277
0.204934
0.201976
0.205263
0.201812
0.204113
0.202469
0.203455
0.202962
0.203291
0.209536
0.205427
0.205427
0.209043
0.206742
0.199675
0.205099
0.201647
0.199346
0.203291
0.202633
0.200332
0.203455
0.201812
0.203455
0.205099
0.202798
0.20477
0.203455
0.206742
0.198853
0.20477
0.202305
0.203126
0.201319
0.204441
0.209372
0.204113
0.200497
0.201976
0.20214
0.201319
0.20214
0.202633
0.203126
0.205263
0.205099
0.204606
0.204441
0.203784
0.202469
0.203948
0.20362
0.204441
0.202633
0.200825
0.200497
0.201319
0.202962
0.19836
0.200825
0.203126
0.201976
0.201319
0.202798
0.204277
0.201483
0.205099
0.201976
0.202798
0.202798
0.199675
0.19836
0.201319
0.200168
0.197538
0.200168
0.203291
0.20477
0.200661
0.203455
0.194087
0.201812
0.201483
0.203126
0.200825
0.198196
0.201154
0.195073
0.202633
0.198853
0.202305
0.199346
0.202962
0.197374
0.201812
0.201812
0.19836
0.201647
0.201976
0.202305
0.200168
0.202798
0.200661
0.203455
0.199018
0.199839
0.200168
0.198853
0.206414
0.200332
0.197374
0.200497
0.201319
0.200332
0.203455
0.198689
0.194909
0.199511
0.197538
0.200332
0.200661
0.199346
0.202305
0.198524
0.201319
0.199182
0.198689
0.196552
0.197703
0.194909
0.197045
0.199018
0.197867
0.199675
0.199675
0.197867
0.196552
0.199675
0.199018
0.20362
0.197045
0.202798
0.196717
0.19721
0.19836
0.198196
0.196059
0.198689
0.195237
0.198524
0.196552
0.198524
0.200332
0.196717
0.199018
0.195237
0.201483
0.198689
0.196717
0.19721
0.199018
0.194909
0.199346
0.206249
0.200004
0.195566
0.197045
0.198196
0.195237
0.196059
0.196059
0.198031
0.19836
0.200661
0.198031
0.198196
0.197867
0.197538
0.19458
0.194251
0.195566
0.196881
0.196223
0.19573
0.200497
0.196388
0.197538
0.199346
0.20362
0.195073
0.195895
0.194744
0.195895
0.196223
0.197374
0.197045
0.19836
0.197867
0.195895
0.195895
0.192772
0.196717
0.194744
0.194087
0.19721
0.194744
0.194909
0.198853
0.196223
0.196881
0.198196
0.197538
0.194416
0.194416
0.200168
0.196717
0.195073
0.198196
0.198196
0.196881
0.19836
0.195566
0.197703
0.19573
0.198853
0.197374
0.197374
0.199018
0.199018
0.19836
0.19836
0.201483
0.199182
0.201154
0.19836
0.199346
0.198196
0.199182
0.197703
0.196881
0.20099
0.201483
0.200661
0.201319
0.200168
0.200168
0.199511
0.19836
0.199182
0.201812
0.20099
0.20362
0.20099
0.197703
0.20214
0.200004
0.20099
0.200332
0.20099
0.201647
0.199511
0.202962
0.201483
0.203948
0.202962
0.202305
0.199839
0.199018
0.200332
0.197867
0.197045
0.196223
0.200332
0.199182
0.203455
0.202633
0.202305
0.20099
0.199839
0.198524
0.203291
0.201483
0.201319
0.20477
0.200168
0.201154
0.201483
0.200825
0.201812
0.200332
0.202305
0.202469
0.200661
0.20099
0.202469
0.203455
0.201154
0.201483
0.200825
0.203126
0.201483
0.200332
0.198853
0.194909
0.200825
0.200497
0.199346
0.19836
0.202305
0.199182
0.199346
0.199346
0.200825
0.200497
0.203784
0.201319
0.201647
0.199018
0.196552
0.198524
0.196223
0.195895
0.196059
0.197374
0.199018
0.201154
0.197374
0.198689
0.195073
0.196881
0.197703
0.200497
0.200825
0.200004
0.202469
0.196059
0.196717
0.198853
0.197867
0.196223
0.200825
0.199675
0.199346
0.199182
0.199346
0.197374
0.199511
0.19721
0.19836
0.199018
0.193758
0.199511
0.197045
0.195073
0.195895
0.198524
0.198196
0.199346
0.195402
0.197374
0.197867
0.194744
0.198524
0.201976
0.202633
0.196059
0.195895
0.197703
0.197045
0.196881
0.198689
0.198031
0.197374
0.198689
0.199675
0.196717
0.199182
0.19721
0.196059
0.197703
0.192936
0.197538
0.198196
0.196223
0.199182
0.199511
0.198853
0.200004
0.19836
0.199182
0.201483
0.200168
0.193594
0.197867
0.196552
0.197374
0.200497
0.20099
0.19573
0.197538
0.198031
0.198031
0.20099
0.195895
0.199018
0.197703
0.201319
0.199346
0.200661
0.199511
0.199675
0.197867
0.195566
0.201812
0.200004
0.199511
0.195073
0.199511
0.196717
0.197867
0.199018
0.197538
0.200168
0.199346
0.200004
0.199346
0.199018
0.19836
0.200825
0.194416
0.195402
0.195237
0.197703
0.193758
0.19721
0.198196
0.19836
0.198524
0.200332
0.201154
0.203784
0.198031
0.199511
0.192936
0.19573
0.199182
0.194909
0.19721
0.195237
0.195566
0.199018
0.197703
0.198853
0.199675
0.199018
0.198196
0.198524
0.199675
0.200004
0.197538
0.199018
0.198689
0.19721
0.199182
0.192115
0.192443
0.19573
0.193101
0.19573
0.196717
0.196717
0.197538
0.196881
0.200497
0.20099
0.187513
0.197538
0.201812
0.196717
0.202469
0.200004
0.198524
0.194744
0.199018
0.196388
0.197703
0.193594
0.196388
0.198853
0.199839
0.198689
0.198031
0.19836
0.199675
0.201647
0.197374
0.20099
0.195073
0.196552
0.198196
0.200332
0.192936
0.200004
0.197538
0.19573
0.198031
0.200332
0.200004
0.197045
0.200004
0.196881
0.197867
0.199675
0.196881
0.194087
0.197374
0.196223
0.196388
0.194416
0.196881
0.19836
0.196552
0.199839
0.197538
0.200004
0.199839
0.199839
0.201483
0.200825
0.198689
0.20362
0.206249
0.199675
0.198031
0.200825
0.199182
0.198853
0.200168
0.197867
0.202633
0.200168
0.200497
0.199675
0.202633
0.202962
0.202305
0.200661
0.200825
0.200004
0.19836
0.198196
0.20099
0.199346
0.198689
0.200004
0.20099
0.200168
0.199675
0.197703
0.198853
0.200168
0.20099
0.201976
0.199018
