Ladekurvenmessung

Zeit: 2018_05_04 10.03.32

Info: FVA3, v = 0.747, T = 23, F = 20, h = 457.0

Ladewiderstand[Ohm]: 1012700

Störkapazität[pF]: 0.000000

Entladezeit[ms]: 200

Abtastrate[Hz]: 250000

Anzahl der Messwerte: 2500.000000

Verzögerung[ms]: 1

Ladespannung[V]: 0.200000


Kurve 1

-0.001991
-0.002813
0.002775
-0.00232
0.004748
-0.000512
0.004255
0.001954
0.000639
0.001789
0.000967
0.001625
-0.000676
0.004419
-1.9e-05
0.000146
-0.001498
0.001625
-0.001005
-0.000183
0.00409
-0.000676
0.000803
0.001954
0.00146
-1.9e-05
0.001296
-0.002977
0.002282
0.000474
0.000803
-0.001498
-0.00232
-0.002155
-0.004292
-0.000183
0.000474
-0.002484
-0.000676
0.000474
0.000146
-0.004621
0.000146
0.001789
-0.003799
0.001789
-0.000841
-0.001334
-0.003799
-0.002977
-0.000183
-0.000841
-0.001005
-0.000841
-0.000347
-0.001662
-0.000512
-0.000676
-0.000347
0.004912
0.000146
-0.002484
0.000803
-0.000183
-0.001498
-0.000183
-0.000841
-1.9e-05
0.001296
-0.002484
-0.001662
0.001954
-0.002155
-0.000347
-0.000841
-0.000183
-0.002813
0.003433
-0.000512
0.00031
-0.001498
-0.000676
-0.000512
-0.004292
-0.001498
-0.001498
-0.001169
-0.001827
-0.001827
-0.001662
-0.003635
-0.000841
-0.000347
-0.001334
0.000474
-0.005443
-0.00232
-0.001334
-0.002155
-0.003306
-0.003306
-0.000841
-0.002813
-0.000183
-0.001169
0.001625
-0.002648
-0.001334
-0.002648
-0.002484
-0.000183
-0.002648
-0.000512
-0.001991
-0.002155
0.002282
0.003104
-0.005278
0.00031
-0.004785
-0.000676
-0.0061
0.001132
-0.00347
-0.002155
0.000474
-0.000841
-0.002155
-0.003142
-0.001169
-0.001498
-0.001498
-0.001334
-0.002155
-0.002813
0.000803
-0.001169
0.00031
-0.001498
-0.000841
0.001132
-0.000512
-0.003963
-0.001991
-0.001498
-0.001334
-0.003142
-0.001005
-0.001169
-0.002484
-0.002648
-0.003635
-0.000347
-0.001498
-0.000183
-0.002484
-0.000676
-0.000841
0.00031
-0.002648
-0.001169
-0.001991
-0.00232
0.000474
-0.000183
-0.004128
-0.00232
0.002118
-0.001005
-0.002648
0.000967
0.000146
-0.004128
0.001954
-0.002977
0.001954
-0.007579
-0.003142
-0.000512
-0.004621
0.003268
-0.006264
-0.001827
-0.002155
-0.001662
-0.00232
0.000146
-0.002813
-0.001991
0.002775
-0.002813
-0.003142
0.000146
-0.002813
-0.004621
0.000474
-0.005771
-0.004785
-0.004292
-0.0061
-0.001827
-0.002648
-0.002648
0.000146
0.000474
0.000639
-0.000512
-0.003799
-0.001005
-0.002813
-0.001991
-0.001005
-0.001005
-0.004128
-0.001005
0.00031
-0.001498
-0.004621
-0.003142
-0.001169
-0.001498
-0.001334
0.003761
0.000474
-0.002813
0.002611
0.001296
-0.001169
-0.003635
-0.001169
-0.002648
-0.002648
-0.002155
-0.001334
-0.000183
-0.00347
-0.003306
0.00031
-0.004456
-0.004949
-0.000347
-0.001827
0.000474
-0.001991
0.001789
-0.003142
-0.002155
-0.002155
-0.006429
-0.004621
-0.003963
0.000474
0.008528
0.018882
0.027265
0.034496
0.03992
0.04748
0.051918
0.059643
0.062766
0.070162
0.074599
0.077886
0.082653
0.091199
0.097774
0.097938
0.101718
0.105663
0.11273
0.110758
0.110593
0.120126
0.124728
0.124893
0.133275
0.134097
0.136562
0.136562
0.141821
0.141164
0.142314
0.146588
0.147574
0.148724
0.153491
0.156285
0.155627
0.16138
0.160722
0.164174
0.164667
0.169433
0.160722
0.165489
0.164174
0.167297
0.171077
0.167461
0.173214
0.176008
0.175843
0.173707
0.176665
0.176501
0.178637
0.178309
0.180938
0.181596
0.181924
0.182253
0.183897
0.187348
0.183075
0.183404
0.184554
0.188663
0.18439
0.185869
0.186855
0.186362
0.188992
0.187019
0.187677
0.190471
0.188499
0.1908
0.190142
0.190471
0.191457
0.190471
0.190142
0.192279
0.1908
0.192115
0.199182
0.189156
0.194251
0.194251
0.194744
0.192608
0.193594
0.189814
0.192279
0.193594
0.196717
0.199675
0.193101
0.192772
0.187513
0.195073
0.193922
0.196223
0.191786
0.197374
0.194087
0.19458
0.199839
0.193429
0.197867
0.194416
0.196717
0.196552
0.198031
0.192772
0.19573
0.195895
0.197374
0.187841
0.194909
0.197374
0.196552
0.196881
0.19458
0.19573
0.191293
0.195895
0.198196
0.196717
0.185212
0.196881
0.196552
0.19836
0.197045
0.199182
0.196881
0.195895
0.199346
0.193922
0.19573
0.188499
0.193265
0.193265
0.19721
0.202305
0.198196
0.195566
0.198689
0.196552
0.198031
0.193758
0.19721
0.196388
0.196388
0.197374
0.197703
0.195237
0.19573
0.198196
0.196881
0.199346
0.195402
0.19721
0.193265
0.203948
0.200332
0.199675
0.198689
0.197867
0.199511
0.199018
0.201483
0.199018
0.198524
0.199346
0.199182
0.194744
0.199511
0.196552
0.197867
0.19721
0.198031
0.197045
0.200168
0.197867
0.197538
0.199839
0.19573
0.194909
0.197045
0.197374
0.19573
0.199182
0.196388
0.194251
0.187841
0.195402
0.194744
0.194087
0.197703
0.201483
0.198196
0.199511
0.200332
0.197867
0.199346
0.20099
0.199018
0.196388
0.199839
0.196059
0.198853
0.197045
0.197374
0.196552
0.198853
0.199839
0.198853
0.199346
0.194909
0.19836
0.200004
0.203784
0.198196
0.198853
0.199675
0.199839
0.196059
0.197867
0.199346
0.19458
0.196717
0.19721
0.199511
0.19721
0.198031
0.198689
0.19721
0.194909
0.200497
0.198853
0.198196
0.198853
0.197703
0.193101
0.192936
0.19721
0.196552
0.195566
0.198853
0.198853
0.201647
0.198689
0.197703
0.20099
0.194416
0.202962
0.198689
0.200825
0.200332
0.197867
0.194087
0.200332
0.191128
0.196223
0.199018
0.195402
0.199675
0.197374
0.198689
0.200332
0.200825
0.200497
0.207564
0.199511
0.19836
0.199839
0.197867
0.195237
0.198031
0.19836
0.196881
0.198853
0.195402
0.202305
0.196059
0.195566
0.19458
0.197538
0.199018
0.199182
0.199839
0.200332
0.199511
0.197703
0.198031
0.199511
0.198031
0.195237
0.19721
0.195402
0.198524
0.199018
0.198689
0.199182
0.199018
0.197374
0.199346
0.199675
0.198524
0.199675
0.201483
0.201647
0.198853
0.202305
0.196223
0.201647
0.196388
0.19721
0.19836
0.196881
0.199675
0.201647
0.199675
0.200497
0.199675
0.198689
0.201319
0.199839
0.197703
0.198853
0.200332
0.197703
0.196717
0.198524
0.199839
0.196552
0.194744
0.196388
0.197703
0.19721
0.196881
0.199018
0.198031
0.200661
0.196717
0.200004
0.195566
0.196717
0.19721
0.195237
0.196059
0.199018
0.197538
0.198524
0.198196
0.196059
0.200497
0.195566
0.199346
0.199018
0.199346
0.199839
0.202305
0.200004
0.202305
0.198853
0.198196
0.199675
0.199018
0.199182
0.204113
0.200661
0.193101
0.20099
0.196717
0.19836
0.19836
0.198196
0.199018
0.200168
0.199018
0.200497
0.199675
0.196388
0.200497
0.197374
0.196223
0.193594
0.195402
0.196552
0.199675
0.196881
0.197867
0.195073
0.197045
0.194416
0.19458
0.195073
0.199346
0.19836
0.200332
0.200332
0.19721
0.199018
0.196552
0.197538
0.19573
0.196717
0.196388
0.195237
0.193594
0.200332
0.199346
0.198196
0.199839
0.201319
0.199018
0.197867
0.200825
0.198689
0.200825
0.193429
0.198524
0.197045
0.201483
0.196881
0.201483
0.194744
0.198524
0.197867
0.197045
0.200661
0.19721
0.201319
0.197045
0.201154
0.200004
0.195073
0.195895
0.197703
0.194909
0.201154
0.195073
0.195402
0.198031
0.196223
0.198689
0.197703
0.201319
0.199182
0.20099
0.198853
0.200004
0.198689
0.201154
0.199346
0.199511
0.19836
0.198524
0.196717
0.195073
0.196717
0.196552
0.200661
0.195895
0.201154
0.199839
0.20099
0.199018
0.201154
0.198524
0.19836
0.20099
0.197374
0.19836
0.198524
0.200004
0.198853
0.198689
0.198031
0.199182
0.196223
0.199182
0.196059
0.200168
0.198524
0.20477
0.204277
0.202962
0.20099
0.19836
0.198689
0.198031
0.198196
0.195402
0.197703
0.195566
0.199346
0.200661
0.205099
0.196059
0.200332
0.199346
0.201812
0.198689
0.199182
0.20214
0.199839
0.20099
0.199839
0.202798
0.198524
0.199675
0.199346
0.201319
0.194744
0.197538
0.199182
0.200004
0.197867
0.197045
0.202633
0.200661
0.199182
0.200004
0.202305
0.196552
0.200004
0.19721
0.198524
0.197045
0.199511
0.193758
0.198689
0.198853
0.196388
0.202962
0.200332
0.202469
0.199675
0.201483
0.199346
0.20099
0.198196
0.199346
0.196717
0.197703
0.199182
0.196388
0.192443
0.19573
0.198524
0.197045
0.199346
0.198689
0.200661
0.198196
0.201154
0.2074
0.200661
0.198524
0.201483
0.198524
0.201319
0.196388
0.195895
0.197045
0.198524
0.198689
0.192608
0.199511
0.200497
0.200661
0.199182
0.201647
0.199675
0.199675
0.200497
0.201319
0.197538
0.186526
0.196717
0.196717
0.19721
0.197703
0.199018
0.194744
0.193594
0.200825
0.19836
0.197703
0.197045
0.195237
0.200332
0.19721
0.197538
0.198196
0.196059
0.192608
0.197045
0.19836
0.197538
0.197045
0.196388
0.200661
0.196388
0.196717
0.197538
0.200004
0.198853
0.200332
0.20099
0.199182
0.201976
0.197045
0.196717
0.196059
0.198524
0.197538
0.201154
0.197045
0.200497
0.199182
0.200004
0.197703
0.199018
0.198196
0.198853
0.19836
0.200004
0.199511
0.197703
0.199018
0.200661
0.198031
0.197374
0.198853
0.192936
0.196388
0.195566
0.196552
0.196223
0.19721
0.196717
0.193758
0.197045
0.198853
0.196717
0.196059
0.199182
0.19573
0.202633
0.197374
0.19836
0.197703
0.198524
0.194087
0.195895
0.19836
0.195237
0.197867
0.198524
0.198524
0.199018
0.197045
0.19721
0.201319
0.196552
0.200497
0.206249
0.193758
0.193922
0.199346
0.197374
0.196881
0.199018
0.197538
0.198689
0.197538
0.198524
0.200168
0.198689
0.19721
0.200825
0.197867
0.199182
0.197538
0.201647
0.197703
0.196388
0.195566
0.200168
0.196717
0.195073
0.200825
0.193594
0.197538
0.19573
0.198031
0.200497
0.198853
0.204441
0.203455
0.200332
0.200332
0.199346
0.195895
0.197703
0.195237
0.19836
0.197045
0.200168
0.197045
0.198031
0.196388
0.198196
0.198524
0.199675
0.197703
0.197538
0.199182
0.19836
0.199182
0.198524
0.199182
0.19721
0.201647
0.193265
0.19836
0.19836
0.196223
0.197045
0.197374
0.202469
0.198196
0.199018
0.198689
0.200661
0.202798
0.199675
0.197703
0.199346
0.198031
0.199675
0.196552
0.195402
0.195237
0.196717
0.196059
0.196388
0.196552
0.203455
0.196717
0.195402
0.206578
0.199346
0.200661
0.198853
0.199346
0.197045
0.199182
0.198524
0.198031
0.195237
0.198196
0.198524
0.199018
0.199182
0.200168
0.201483
0.198853
0.201483
0.197374
0.199511
0.19836
0.201319
0.19721
0.198524
0.19836
0.198031
0.196717
0.196881
0.19458
0.199182
0.196223
0.199675
0.200661
0.19573
0.195566
0.198031
0.20099
0.197867
0.199018
0.196059
0.19573
0.196388
0.196388
0.195566
0.198689
0.19836
0.19721
0.19721
0.193101
0.193758
0.194909
0.199346
0.196388
0.200497
0.197538
0.199182
0.200168
0.199182
0.194909
0.197045
0.19721
0.19721
0.200004
0.197374
0.199182
0.19721
0.199018
0.197538
0.201319
0.202633
0.199182
0.198196
0.200497
0.198524
0.196717
0.198524
0.196717
0.199018
0.195402
0.200661
0.197374
0.197374
0.198196
0.196717
0.198524
0.196552
0.199511
0.202469
0.200661
0.19836
0.202633
0.196223
0.203784
0.195402
0.199018
0.197703
0.198196
0.19573
0.200825
0.197867
0.198524
0.198524
0.199511
0.196717
0.20099
0.200168
0.201319
0.200004
0.196223
0.207564
0.196552
0.195566
0.198689
0.200497
0.195237
0.199511
0.196552
0.197374
0.19721
0.197867
0.202962
0.199839
0.200004
0.201319
0.202469
0.194909
0.200661
0.197867
0.198689
0.19721
0.198031
0.19836
0.197867
0.197703
0.199018
0.196388
0.19836
0.200825
0.203291
0.196881
0.195237
0.196717
0.196552
0.201154
0.198031
0.196059
0.196388
0.197703
0.200661
0.196717
0.197374
0.199182
0.197374
0.198196
0.200497
0.198853
0.200825
0.200661
0.196223
0.195402
0.204277
0.200497
0.199018
0.198853
0.199182
0.198031
0.199182
0.198689
0.200168
0.196552
0.196059
0.200661
0.196717
0.199675
0.197867
0.201483
0.198524
0.200497
0.198196
0.200332
0.198689
0.199511
0.199675
0.198524
0.198196
0.198524
0.200168
0.196059
0.197374
0.199346
0.203784
0.19458
0.200332
0.193594
0.199839
0.19573
0.198689
0.200661
0.198524
0.20099
0.198196
0.199346
0.198031
0.19721
0.197703
0.198689
0.199675
0.199839
0.197538
0.200497
0.198689
0.195237
0.202469
0.200661
0.199182
0.196717
0.201154
0.197867
0.200661
0.200825
0.199346
0.197703
0.198689
0.206249
0.19573
0.197867
0.197867
0.197867
0.198689
0.20099
0.200661
0.201154
0.198524
0.200332
0.204113
0.199018
0.199182
0.201647
0.200661
0.199018
0.195237
0.19836
0.198689
0.197703
0.20099
0.196552
0.197045
0.19836
0.20099
0.195073
0.20362
0.20099
0.199839
0.199018
0.200004
0.199839
0.189156
0.194744
0.199511
0.20214
0.200168
0.204277
0.202798
0.197867
0.203291
0.199675
0.198853
0.191293
0.197045
0.200661
0.197703
0.198689
0.196223
0.200332
0.196059
0.198196
0.19836
0.195895
0.191293
0.196388
0.19836
0.198196
0.202305
0.197867
0.200497
0.198853
0.199018
0.19836
0.196552
0.195402
0.190635
0.193429
0.19721
0.194416
0.194416
0.198524
0.194909
0.199182
0.199839
0.200497
0.198853
0.201154
0.200168
0.201812
0.200332
0.197538
0.198853
0.199839
0.200661
0.197867
0.198524
0.196552
0.194744
0.193101
0.198853
0.197045
0.199675
0.200004
0.197703
0.200497
0.198689
0.201976
0.199675
0.19836
0.198196
0.199346
0.19836
0.200661
0.195073
0.19836
0.197538
0.197867
0.201319
0.199346
0.199018
0.200661
0.201154
0.201812
0.200168
0.198031
0.201812
0.194251
0.199675
0.199182
0.19836
0.193101
0.198524
0.199182
0.198524
0.199675
0.199018
0.200168
0.200497
0.200168
0.199511
0.201483
0.19836
0.199839
0.195073
0.19721
0.198524
0.197538
0.198031
0.199839
0.200825
0.197703
0.200168
0.198524
0.202305
0.199018
0.197374
0.199018
0.202305
0.199346
0.201319
0.199839
0.199018
0.198689
0.201976
0.19836
0.197374
0.198524
0.198689
0.197538
0.199511
0.19836
0.198031
0.20214
0.199182
0.202469
0.200825
0.204277
0.198689
0.199346
0.200497
0.186855
0.186691
0.113552
0.089227
0.075421
0.052411
0.040084
0.025292
0.012308
0.015595
0.022334
0.028908
0.031867
0.034332
0.034003
0.02973
0.031702
0.036797
0.039591
0.041728
0.047973
0.049617
0.055863
0.055041
0.064409
0.063587
0.063587
0.069176
0.07312
0.074271
0.080681
0.081667
0.084789
0.086104
0.084625
0.083146
0.086926
0.089556
0.093829
0.094487
0.097774
0.097938
0.099089
0.104348
0.103033
0.111087
0.115031
0.117661
0.115524
0.122098
0.123742
0.120948
0.080845
0.069669
0.068189
0.069833
0.077393
0.07953
0.08594
0.084461
0.074599
0.067532
0.068682
0.078544
0.081009
0.086762
0.08972
0.096952
0.093336
0.099582
0.103691
0.109114
0.110593
0.095473
0.082488
0.088734
0.090542
0.069669
0.044686
0.032031
0.030387
0.02973
0.039591
0.045672
0.051096
0.040742
0.033181
0.028744
0.016088
0.013952
0.013294
0.016581
0.010664
0.013952
0.020197
0.024142
0.026607
0.040084
0.041399
0.045344
0.050768
0.051589
0.054219
0.059972
0.062108
0.064902
0.067696
0.071641
0.066875
0.061122
0.053726
0.04107
0.041399
0.038605
0.041399
0.043536
0.045672
0.023813
0.022005
0.018554
0.021348
0.013623
0.013294
0.014445
0.010171
0.004583
0.004255
0.006062
0.00409
0.009678
0.006391
0.010007
0.00672
0.006391
0.010664
0.018554
0.023649
0.0271
0.030552
0.039591
0.045179
0.050439
0.056684
0.058821
0.070162
0.070983
0.075914
0.081174
0.086926
0.088241
0.094651
0.099253
0.105005
0.111087
0.111087
0.120784
0.11799
0.125057
0.1267
0.13196
0.131138
0.133932
0.140506
0.143136
0.142314
0.143958
0.146588
0.148396
0.150697
0.154806
0.159901
0.154148
0.158914
0.159572
0.162366
0.163845
0.163023
0.167625
0.169433
0.169762
0.170748
0.170091
0.170091
0.170419
0.173542
0.176172
0.174857
0.177815
0.181431
0.178144
0.178637
0.183732
0.181431
0.187841
0.179788
0.184883
0.183239
0.180938
0.183239
0.186033
0.185047
0.183075
0.186855
0.185869
0.18932
0.187513
0.190307
0.18932
0.190307
0.192936
0.194087
0.192279
0.201319
0.194744
0.193101
0.193101
0.190471
0.192115
0.191128
0.194087
0.192936
0.192279
0.19195
0.193594
0.193594
0.199346
0.193758
0.197045
0.19573
0.195895
0.19458
0.196552
0.19721
0.195073
0.195237
0.195237
0.197867
0.194087
0.200825
0.197374
0.198689
0.197538
0.200661
0.198031
0.198524
0.196881
0.19195
0.199675
0.192115
0.193922
0.195895
0.198031
0.196717
0.200661
0.196881
0.199182
0.196223
0.199675
0.197703
0.197374
0.198524
0.199182
0.201812
0.201154
0.200332
0.198853
0.199675
0.199675
0.19836
0.197703
0.200332
0.196717
0.202962
0.197703
0.19836
0.201647
0.197538
0.200004
0.199018
0.198031
0.198853
0.199675
0.198031
0.199839
0.195895
0.200332
0.196223
0.195566
0.19836
0.200497
0.200004
0.200661
0.199675
0.197045
0.199018
0.195566
0.193758
0.197703
0.196717
0.193758
0.200661
0.198689
0.202633
0.199182
0.200825
0.194744
0.199511
0.199839
0.199346
0.197703
0.198196
0.198689
0.200825
0.201154
0.200332
0.202305
0.19836
0.201647
0.199182
0.203455
0.19573
0.199675
0.203784
0.19721
0.197703
0.201154
0.196223
0.196552
0.202305
0.198031
0.199839
0.195237
0.201812
0.199182
0.200825
0.202305
0.196388
0.197538
0.196552
0.19836
0.201483
0.198524
0.195895
0.198853
0.19836
0.19836
0.19836
0.197703
0.197867
0.19836
0.19836
0.197867
0.199346
0.199675
0.201976
0.198853
0.198524
0.201483
0.197867
0.198524
0.20099
0.196881
0.198196
0.200825
0.201154
0.200168
0.200661
0.199675
0.200332
0.198196
0.199346
0.200497
0.199346
0.195237
0.196223
0.19836
0.19721
0.200497
0.197045
0.200004
0.196552
0.196059
0.199839
0.19836
0.198524
0.200332
0.201483
0.200497
0.201647
0.198689
0.205592
0.196388
0.201812
0.196717
0.199511
0.196552
0.198689
0.198524
0.196059
0.19721
0.199182
0.200825
0.195402
0.197867
0.199511
0.201154
0.198196
0.206249
0.197703
0.200497
0.200332
0.195073
0.190307
0.200332
0.198524
0.198524
0.199839
0.199182
0.198853
0.199346
0.20214
0.198524
0.201812
0.185869
0.199839
0.200332
0.200497
0.200661
0.200497
0.19836
0.199839
0.198524
0.19836
0.19836
0.197045
0.200661
0.200004
0.200004
0.199018
0.200497
0.199346
0.201483
0.19836
0.202469
0.201812
0.197374
0.194909
0.200332
0.199018
0.196059
0.197374
0.196881
0.20099
0.197703
0.199675
0.19836
0.199675
0.200004
0.200004
0.199839
0.200004
0.199346
0.19573
0.196717
0.199675
0.201976
0.19836
0.19836
0.199346
0.200497
0.197045
0.198524
0.19836
0.198524
0.20099
0.203784
0.201154
0.200825
0.202305
0.199346
0.200332
0.198689
0.19836
0.196552
0.197538
0.195237
0.200004
0.197045
0.198853
0.197703
0.201154
0.198524
0.199675
0.198853
0.201319
0.200332
0.19836
0.202305
0.196059
0.199839
0.199346
0.199839
0.197703
0.19836
0.198689
0.199346
0.200168
0.198524
0.200168
0.200004
0.201976
0.200004
0.205263
0.193101
0.198853
0.199018
0.200004
0.200825
0.199346
0.197703
0.200497
0.200004
0.199346
0.200661
0.201483
0.204277
0.19721
0.200497
0.20099
0.200497
0.200332
0.202633
0.202305
0.199675
0.198853
0.198031
0.197703
0.199182
0.199675
0.199511
0.20099
0.200004
0.200168
0.201154
0.200825
0.203948
0.203784
0.197703
0.200661
0.199182
0.20099
0.197538
0.198031
0.200497
0.202305
0.19573
0.200661
0.20477
0.197374
0.201483
0.199018
0.200661
0.200825
0.204606
0.197703
0.201812
0.200168
0.199511
0.20099
0.199511
0.199346
0.198689
0.200825
0.198031
0.202305
0.20099
0.196388
0.19836
0.197703
0.199182
0.20362
0.198689
0.203455
0.20099
0.200004
0.202305
0.199018
0.201483
0.199839
0.201319
0.198689
0.199675
0.19836
0.200332
0.199182
0.199182
0.199018
0.199675
0.196059
0.198853
0.199675
0.197045
0.199511
0.19721
0.20214
0.20099
0.200168
0.200332
0.19836
0.199675
0.201154
0.198524
0.200825
0.202798
0.203455
0.199675
0.202469
0.201812
0.201976
0.200168
0.202305
0.200004
0.200497
0.200004
0.199839
0.203291
0.193594
0.199839
0.19836
0.199839
0.201483
0.199511
0.20477
0.201812
0.200004
0.200497
0.200661
0.199511
0.202962
0.199018
0.202962
0.200168
0.201483
0.199346
0.199839
0.196881
0.195566
0.198031
0.197867
0.199018
0.196059
0.201154
0.201483
0.200661
0.199675
0.202305
0.200825
0.201319
0.201319
0.199346
0.200825
0.197374
0.201976
0.196388
0.200497
0.199511
0.201976
0.199346
0.197703
0.199018
0.202305
0.197538
0.20214
0.199675
0.20214
0.201319
0.200332
0.202305
0.20477
0.20099
0.200497
0.199182
0.200661
0.199018
0.200332
0.201319
0.199346
0.201812
0.200168
0.201976
0.201154
0.199839
0.202962
0.200004
0.201976
0.202962
0.200004
0.199346
0.200168
0.200332
0.197867
0.19721
0.200661
0.200168
0.201976
0.200661
0.202798
0.20214
0.201812
0.200497
0.201483
0.200332
0.201154
0.200168
0.200168
0.197538
0.19836
0.202798
0.196552
0.199675
0.20099
0.20214
0.200004
0.199346
0.203126
0.200661
0.202633
0.201976
0.20477
0.202962
0.19836
0.196881
0.199511
0.194909
0.201812
0.198196
0.195073
0.200825
0.204441
0.201647
0.20099
0.200332
0.201812
0.200661
0.198524
0.198853
0.198524
0.200004
0.196881
0.201976
0.201483
0.197538
0.19721
0.200004
0.204606
0.201483
0.202962
0.202469
0.200332
0.200332
0.204934
0.20214
0.200497
0.200168
0.201647
0.200661
0.199182
0.198689
0.199675
0.195895
0.195402
0.200332
0.200168
0.200825
0.199675
0.203948
0.201976
0.202305
0.199346
0.204277
0.201647
0.199675
0.203455
0.200497
0.199346
0.198196
0.200332
0.201976
0.197867
0.196552
0.196223
0.19458
0.196881
0.200497
0.200004
0.199675
0.202633
0.20099
0.205592
0.198196
0.199182
0.198524
0.197703
0.198031
0.199346
0.198689
0.199018
0.201812
0.199182
0.205592
0.199346
0.200332
0.200332
0.20099
0.200661
0.201976
0.200168
0.200497
0.201976
0.202798
0.201483
0.198031
0.200661
0.197703
0.199511
0.196881
0.199839
0.197045
0.200825
0.200332
0.202469
0.18817
0.19836
0.20099
0.19836
0.199511
0.200168
0.200497
0.19573
0.197703
0.201812
0.20214
0.193101
0.201812
0.199182
0.199018
0.198031
0.197867
0.200332
0.196717
0.200004
0.19836
0.201647
0.201319
0.200004
0.200825
0.199182
0.199511
0.201976
0.199182
0.197045
0.200332
0.200332
0.201483
0.201154
0.199675
0.198853
0.202633
0.20099
0.198031
0.201319
0.199018
0.201976
0.200497
0.200168
0.200825
0.200332
0.199839
0.200661
0.200825
0.201812
0.19836
0.199182
0.199182
0.201812
0.201319
0.200497
0.199182
0.201812
0.199346
0.200825
0.19836
0.200004
0.19836
0.19836
0.200004
0.199018
0.199182
0.197703
0.198524
0.200497
0.197538
0.196717
0.201976
0.199839
0.199839
0.202633
0.199182
0.200332
0.20099
0.198689
0.199675
0.200661
0.197703
0.201976
0.199839
0.201319
0.200004
0.202305
0.199511
0.19836
0.199346
0.20099
0.200661
0.200004
0.200825
0.199182
0.200497
0.202798
0.20214
0.19721
0.201812
0.19836
0.198853
0.197538
0.200497
0.199182
0.201647
0.202633
0.20477
0.20362
0.202798
0.204441
0.199839
0.200825
0.198853
0.201154
0.19836
0.199511
0.197374
0.199511
0.196388
0.197703
0.202469
0.200004
0.201647
0.200168
0.201976
0.195073
0.197703
0.203291
0.196223
0.201154
0.199839
0.200332
0.199346
0.200332
0.200497
0.19836
0.200004
0.202798
0.19836
0.200661
0.201154
0.199346
0.199346
0.200168
0.199018
0.20099
0.201319
0.20214
0.197867
0.200332
0.199018
0.197374
0.200497
0.198196
0.202633
0.19836
0.196717
0.197538
0.198853
0.195237
0.201319
0.199511
0.198853
0.201647
0.20099
0.198853
0.199182
0.197703
0.196059
0.198853
0.196881
0.200661
0.200332
0.201647
0.199511
0.200497
0.200497
0.202469
0.200168
0.202962
0.200497
0.200497
0.19836
0.197538
0.200661
0.200497
0.203784
0.20099
0.203291
0.198689
0.200661
0.200004
0.200497
0.199675
0.20214
0.202469
0.202469
0.204113
0.199675
0.199839
0.198524
0.198524
0.201647
0.197867
0.19573
0.198031
0.19836
0.20099
0.199839
0.199182
0.201154
0.202469
0.20099
0.203784
0.199346
0.197374
0.201976
0.19836
0.200168
0.199511
0.201319
0.196388
0.201976
0.196881
0.199511
0.200004
0.199839
0.204277
0.200661
0.20214
0.200661
0.201647
0.198853
0.19836
0.199839
0.200168
0.19573
0.203948
0.201976
0.202962
0.195402
0.199675
0.200497
0.199675
0.203126
0.200168
0.200497
0.200168
0.204441
0.202633
0.202798
0.197867
0.202633
0.199675
0.199018
0.197374
0.202469
0.200168
0.199675
0.206578
0.200661
0.200332
0.200004
0.20099
0.19836
0.200004

Kurve 2

-0.000512
-1.9e-05
0.003926
0.003268
0.003761
0.002775
0.003761
0.002282
0.004583
0.001789
0.001954
0.001132
0.000146
0.000474
-0.003963
0.002611
0.000803
0.002447
-0.001827
0.001954
-0.000347
-0.001169
-0.00347
0.001296
0.002775
0.007049
0.002447
0.001789
0.003433
0.003104
0.002118
0.00146
-0.003142
0.003104
-0.000183
-0.003142
0.002282
-0.002155
-0.001169
-0.003635
0.000146
0.00031
-0.001498
-0.001498
-0.001169
0.00294
-1.9e-05
0.001296
-0.000512
0.000967
0.000146
-0.000512
0.001954
0.000146
0.005569
-0.001005
0.00031
0.001954
-0.000841
-0.000676
0.001132
-0.000841
0.000803
0.001954
-1.9e-05
-0.001334
-0.000512
0.002118
-0.001991
-0.011195
0.003268
-0.00232
-0.001005
-0.000841
0.001296
-0.001334
-0.005114
-0.001827
-0.001005
-0.000183
-0.002977
0.001789
-0.000347
0.001132
0.000803
0.000474
-0.00725
-0.001169
-0.005607
0.00409
-0.005278
-0.004456
0.002282
-0.001169
0.000967
-0.001169
0.002282
0.001789
0.002611
-0.001005
0.002447
0.000803
-0.002484
-0.000841
0.000146
-0.000347
-0.002648
-0.000676
-0.002648
0.001132
-0.00232
-0.001169
-0.001169
-0.001827
-1.9e-05
0.001789
-0.001334
0.00031
0.002447
0.000146
0.001954
0.000639
-0.001662
-0.004621
-0.000512
-0.005278
-0.000841
-0.000841
-0.003142
0.000967
0.000474
-0.000347
0.000967
0.000146
-0.003142
0.00146
-0.002155
-0.000841
-0.000183
-0.002155
-0.003963
-0.00347
-0.000841
-0.001005
-0.006593
0.002447
-0.008401
0.004255
0.000474
-1.9e-05
0.001625
-0.001169
0.00146
-0.000676
-0.00347
-0.002648
-0.000841
-0.001498
0.000803
-0.000841
0.000474
-0.002155
0.000474
-0.000676
0.000474
-1.9e-05
-0.001827
0.001132
0.000803
0.008692
0.00146
0.000967
0.001296
0.000803
-0.001334
0.000474
-0.000347
0.004419
0.005241
-0.00347
0.002775
0.000639
-0.000512
0.002118
-1.9e-05
0.000967
0.001625
-0.003799
0.000146
-0.001827
-0.004456
-0.001334
-0.000512
-0.001498
0.002282
0.000474
-0.002813
-0.002155
-0.000183
-0.000841
0.000474
-0.003306
-0.000512
0.001132
-0.008401
0.00146
-0.000183
-0.000841
0.000146
0.00031
-0.001334
-0.001991
-0.001005
0.000803
0.000967
-0.001005
0.001954
0.001789
0.000146
0.003104
0.00146
0.000639
0.004419
0.001132
0.002775
0.002611
0.003268
0.001296
-0.000512
-0.002155
-0.001005
-0.000676
-1.9e-05
0.005241
-0.001662
0.001296
-0.000841
0.00146
-0.001498
0.000474
0.001789
0.00146
0.002447
0.00031
0.003433
0.006227
0.004255
0.000146
0.004583
-0.001169
0.001789
0.003104
0.013787
0.018061
0.025128
0.034168
0.044358
0.053233
0.057177
0.060465
0.066381
0.075585
0.07312
0.083475
0.086762
0.092186
0.092843
0.103033
0.10632
0.112237
0.113881
0.113552
0.124071
0.12177
0.125221
0.130809
0.132289
0.129659
0.137219
0.141821
0.142807
0.142807
0.145602
0.147574
0.149546
0.150697
0.152669
0.152669
0.159408
0.158421
0.163188
0.160394
0.16253
0.163188
0.163188
0.169598
0.167297
0.168612
0.169598
0.169762
0.17157
0.174528
0.1742
0.170913
0.173049
0.174857
0.174528
0.178966
0.176994
0.177651
0.179952
0.177158
0.182089
0.180445
0.185705
0.178966
0.18554
0.179788
0.184554
0.185869
0.181924
0.185212
0.182746
0.184718
0.183075
0.187348
0.185376
0.191786
0.185705
0.1908
0.188827
0.188334
0.190142
0.191457
0.186198
0.187513
0.18817
0.186691
0.190635
0.185376
0.18817
0.187348
0.192115
0.184718
0.193101
0.190142
0.192443
0.192443
0.193265
0.193429
0.191786
0.193429
0.192443
0.1908
0.192443
0.195073
0.189814
0.196223
0.191293
0.193758
0.198196
0.193429
0.194087
0.197045
0.194744
0.195566
0.196388
0.191293
0.197045
0.195402
0.200497
0.198853
0.196881
0.194251
0.196223
0.19458
0.193922
0.19721
0.195237
0.199675
0.201812
0.198853
0.200332
0.197045
0.194744
0.199346
0.194744
0.194909
0.197045
0.19458
0.193758
0.194087
0.198853
0.18817
0.194087
0.196552
0.197703
0.195402
0.199675
0.197045
0.199675
0.197538
0.19836
0.199018
0.189814
0.197374
0.199346
0.196223
0.199018
0.196059
0.196388
0.196388
0.198031
0.200332
0.200661
0.194251
0.197703
0.19836
0.196552
0.196881
0.197045
0.197867
0.196059
0.19836
0.196552
0.198689
0.196881
0.193429
0.197867
0.196881
0.201483
0.194416
0.197045
0.197867
0.199675
0.19573
0.198524
0.197538
0.198196
0.197867
0.198031
0.200332
0.200004
0.198689
0.198853
0.19721
0.198196
0.199675
0.199018
0.197703
0.199018
0.19573
0.199675
0.202962
0.197374
0.200004
0.200332
0.19836
0.19721
0.198031
0.198196
0.196223
0.198853
0.197374
0.199182
0.198853
0.199182
0.197867
0.199675
0.197703
0.193922
0.198031
0.197538
0.19836
0.19836
0.199675
0.197045
0.198689
0.199511
0.195402
0.195895
0.196388
0.198031
0.19721
0.195566
0.198031
0.198031
0.198853
0.199675
0.198689
0.19721
0.206085
0.201154
0.201154
0.201483
0.198853
0.198853
0.197538
0.200661
0.196388
0.199839
0.193594
0.199346
0.19836
0.200332
0.199675
0.197867
0.200168
0.198524
0.199346
0.197374
0.199018
0.199675
0.20099
0.196388
0.20099
0.196881
0.198853
0.198031
0.20099
0.200332
0.196223
0.19836
0.200332
0.199675
0.199018
0.202798
0.19836
0.201812
0.198853
0.199675
0.19721
0.196717
0.200661
0.198196
0.202305
0.198689
0.200004
0.197703
0.194087
0.195566
0.19721
0.196881
0.200168
0.197374
0.202469
0.200825
0.198031
0.199675
0.197374
0.195895
0.199346
0.197045
0.197374
0.199182
0.198031
0.20099
0.200332
0.199839
0.199182
0.200004
0.198689
0.200497
0.199675
0.198031
0.19836
0.198689
0.199675
0.197374
0.198524
0.201154
0.201154
0.197703
0.200661
0.198689
0.199346
0.198031
0.202305
0.201483
0.198196
0.198689
0.198689
0.19836
0.202305
0.200168
0.197703
0.197538
0.195237
0.199511
0.191293
0.195073
0.196552
0.201976
0.198524
0.197867
0.19836
0.198031
0.201483
0.197045
0.203455
0.197374
0.196552
0.201483
0.201154
0.197703
0.201154
0.198853
0.195073
0.199346
0.199182
0.198196
0.200332
0.198853
0.197374
0.201647
0.197703
0.198689
0.196881
0.199511
0.193922
0.195895
0.196717
0.199018
0.196223
0.197867
0.200168
0.195566
0.19836
0.198031
0.199511
0.200004
0.199346
0.198031
0.200661
0.200332
0.196388
0.19721
0.196552
0.195566
0.197374
0.197538
0.198031
0.195237
0.198524
0.199182
0.199018
0.199511
0.201154
0.197374
0.198196
0.200825
0.194416
0.19836
0.194744
0.195895
0.200004
0.198689
0.197045
0.197374
0.197867
0.19836
0.200004
0.19721
0.200332
0.196717
0.199675
0.202305
0.198853
0.198196
0.194744
0.203455
0.195895
0.19573
0.198031
0.194416
0.197867
0.198853
0.198196
0.199182
0.195895
0.200332
0.195237
0.200332
0.19836
0.195566
0.192443
0.197374
0.20099
0.199018
0.19721
0.197538
0.200168
0.196552
0.199346
0.195895
0.199182
0.197045
0.196059
0.201154
0.19836
0.19836
0.196552
0.203291
0.198853
0.199511
0.200497
0.198196
0.198853
0.194744
0.20099
0.196881
0.196552
0.200004
0.196881
0.198853
0.197045
0.19836
0.198689
0.199839
0.194087
0.200168
0.206085
0.195402
0.201483
0.198196
0.193922
0.196717
0.198524
0.196388
0.198853
0.197374
0.19836
0.197538
0.198853
0.196552
0.196717
0.192608
0.197045
0.194416
0.194251
0.199346
0.198524
0.20099
0.197538
0.199018
0.196388
0.205427
0.198689
0.199018
0.200004
0.19836
0.197867
0.200332
0.201154
0.196717
0.201483
0.196223
0.198524
0.196059
0.197867
0.19721
0.195895
0.201647
0.199511
0.196223
0.199018
0.200004
0.196717
0.199839
0.196388
0.196717
0.198031
0.198853
0.197374
0.201483
0.196223
0.194744
0.195237
0.199839
0.203291
0.197045
0.193101
0.197374
0.19836
0.197538
0.201976
0.197703
0.199018
0.195073
0.195402
0.203126
0.197045
0.194744
0.195895
0.198689
0.197374
0.198524
0.200004
0.198524
0.198524
0.197703
0.192936
0.195073
0.196059
0.197703
0.196717
0.19721
0.198524
0.200825
0.197374
0.200332
0.197374
0.185705
0.196552
0.195073
0.196223
0.195402
0.196717
0.193265
0.19573
0.197045
0.19573
0.194416
0.192608
0.192443
0.196552
0.199675
0.194909
0.200004
0.196223
0.196717
0.195073
0.195895
0.191786
0.18932
0.15875
0.152176
0.153984
0.157928
0.157107
0.162366
0.160558
0.16516
0.16516
0.167132
0.168776
0.171241
0.172227
0.167954
0.17157
0.168118
0.170091
0.169433
0.174693
0.170913
0.175021
0.1742
0.174528
0.177651
0.178802
0.180281
0.179295
0.181103
0.180938
0.18176
0.183732
0.182582
0.182582
0.182582
0.181267
0.184883
0.183239
0.184883
0.185376
0.182253
0.186362
0.184225
0.181924
0.189156
0.188827
0.188992
0.1908
0.188499
0.189814
0.188827
0.188006
0.189814
0.191457
0.187513
0.191457
0.195073
0.189978
0.191457
0.188992
0.194251
0.200168
0.192115
0.193101
0.200497
0.195073
0.19458
0.197045
0.194744
0.192772
0.195073
0.195073
0.193594
0.192772
0.193429
0.199018
0.196552
0.196223
0.19721
0.197867
0.19573
0.199182
0.196223
0.197374
0.194744
0.19573
0.196881
0.195895
0.195566
0.197374
0.19721
0.197374
0.197374
0.193101
0.198689
0.195073
0.197045
0.199511
0.199346
0.196388
0.200497
0.19573
0.194744
0.197538
0.194087
0.194416
0.195566
0.198853
0.196717
0.197045
0.196388
0.199839
0.19573
0.200825
0.196881
0.197045
0.19836
0.198031
0.19836
0.198524
0.198196
0.197703
0.197538
0.196552
0.199018
0.196388
0.200004
0.197867
0.197374
0.20099
0.19836
0.199346
0.200004
0.198524
0.198031
0.198524
0.19721
0.197867
0.197374
0.199346
0.196223
0.196059
0.196059
0.200332
0.195566
0.195237
0.197703
0.196059
0.19836
0.200332
0.197045
0.200332
0.196717
0.196223
0.202305
0.19573
0.196881
0.197374
0.198524
0.197703
0.196223
0.19573
0.197867
0.198031
0.19573
0.202469
0.199511
0.198689
0.199675
0.200332
0.199182
0.199182
0.197867
0.201483
0.197374
0.197867
0.199346
0.198689
0.198031
0.199018
0.197374
0.197867
0.198853
0.197374
0.197538
0.198196
0.200825
0.197867
0.199018
0.199511
0.201483
0.200497
0.197538
0.201812
0.201976
0.198853
0.189156
0.190142
0.188006
0.191128
0.188827
0.191293
0.187184
0.1908
0.190635
0.190964
0.192443
0.192772
0.194416
0.19195
0.195073
0.19458
0.195566
0.194416
0.19573
0.19458
0.196223
0.193758
0.199839
0.195566
0.194416
0.19721
0.196223
0.195566
0.197867
0.196717
0.195402
0.196059
0.195402
0.199018
0.196552
0.196059
0.194416
0.197374
0.193265
0.194909
0.19573
0.197374
0.195402
0.195566
0.19458
0.198196
0.197374
0.19573
0.195895
0.197374
0.198031
0.197045
0.195237
0.193594
0.195566
0.193922
0.196223
0.195895
0.195895
0.196717
0.199182
0.19721
0.199018
0.200825
0.202633
0.202305
0.197045
0.200497
0.19721
0.197374
0.192279
0.196552
0.194416
0.196223
0.195402
0.197045
0.199182
0.199018
0.199018
0.199018
0.201154
0.196881
0.199675
0.199511
0.200661
0.198853
0.197045
0.19721
0.199511
0.195566
0.197045
0.198524
0.20099
0.197703
0.19721
0.198689
0.197867
0.197374
0.194416
0.198853
0.198196
0.197045
0.19721
0.197867
0.195566
0.195895
0.193594
0.194909
0.191457
0.196059
0.198689
0.197867
0.19836
0.200332
0.201976
0.193758
0.198853
0.197045
0.197045
0.195895
0.199839
0.200168
0.200004
0.199182
0.198689
0.198196
0.196223
0.199839
0.19721
0.197045
0.199018
0.201483
0.197867
0.202469
0.197538
0.205756
0.199675
0.197045
0.198689
0.19836
0.199511
0.198031
0.199839
0.199675
0.200497
0.200825
0.200661
0.199346
0.198196
0.195566
0.201319
0.196552
0.200168
0.201647
0.198524
0.197045
0.195073
0.199346
0.196059
0.196388
0.195073
0.199511
0.196388
0.197045
0.201319
0.19573
0.197538
0.198524
0.198689
0.198853
0.202633
0.200661
0.201319
0.199839
0.200825
0.200004
0.199346
0.19721
0.200332
0.196059
0.197374
0.196881
0.197374
0.202305
0.198689
0.202633
0.201483
0.199018
0.197703
0.200004
0.19836
0.194416
0.197045
0.198853
0.196388
0.200168
0.198524
0.198196
0.19836
0.195402
0.19836
0.201483
0.195073
0.194744
0.197867
0.197867
0.196717
0.199182
0.199511
0.198031
0.200825
0.19836
0.201483
0.195237
0.194251
0.196881
0.197538
0.19836
0.197703
0.198524
0.200168
0.199511
0.193265
0.20099
0.197045
0.200332
0.198196
0.19721
0.200004
0.196717
0.197374
0.197867
0.199346
0.199346
0.200497
0.197703
0.197867
0.196059
0.199839
0.19836
0.201812
0.19836
0.203291
0.200004
0.198196
0.197703
0.19573
0.198196
0.199511
0.197374
0.195237
0.198524
0.194416
0.200661
0.199839
0.200332
0.196552
0.197374
0.199346
0.199675
0.198524
0.195895
0.198689
0.195566
0.196059
0.199511
0.19721
0.200332
0.19836
0.197374
0.19721
0.198689
0.198853
0.199511
0.201154
0.20362
0.199182
0.202798
0.204934
0.197703
0.198853
0.199018
0.196717
0.200825
0.197867
0.201647
0.197045
0.198196
0.200332
0.206742
0.200168
0.200661
0.199346
0.199346
0.201154
0.198853
0.200332
0.199182
0.205427
0.197045
0.201154
0.198524
0.199675
0.198689
0.19836
0.197374
0.197538
0.199346
0.198689
0.199018
0.197867
0.194416
0.198031
0.200004
0.197374
0.199839
0.200168
0.199018
0.198031
0.200497
0.202305
0.199018
0.191457
0.204113
0.203455
0.200168
0.202305
0.200661
0.201812
0.200497
0.204277
0.198524
0.202798
0.198196
0.197867
0.199182
0.200004
0.197867
0.196552
0.198196
0.199511
0.201154
0.200004
0.200004
0.199018
0.200332
0.199839
0.202633
0.20099
0.198853
0.199182
0.199511
0.198853
0.199675
0.201319
0.19721
0.195895
0.199182
0.19836
0.19573
0.197703
0.199018
0.200332
0.200497
0.204606
0.197538
0.19836
0.199511
0.198689
0.197867
0.198853
0.19836
0.197374
0.198524
0.198689
0.199839
0.194087
0.197374
0.197538
0.195073
0.197703
0.200825
0.197538
0.201976
0.198853
0.198524
0.19721
0.199346
0.193265
0.194744
0.196223
0.193758
0.19836
0.194909
0.196388
0.196552
0.198196
0.199839
0.197538
0.194087
0.197867
0.198196
0.196388
0.197867
0.192608
0.19573
0.193429
0.194909
0.195073
0.19573
0.194909
0.198689
0.197703
0.197538
0.202633
0.19721
0.19721
0.197538
0.198853
0.189156
0.191786
0.189156
0.192608
0.188827
0.186691
0.185705
0.190635
0.189649
0.190471
0.19195
0.191621
0.195895
0.193758
0.197538
0.193429
0.195237
0.194416
0.193758
0.197867
0.193922
0.194251
0.193265
0.193594
0.193101
0.194416
0.190307
0.195237
0.192772
0.194251
0.192608
0.193429
0.19458
0.197374
0.195402
0.194909
0.19573
0.195237
0.193265
0.196223
0.193922
0.196388
0.194416
0.19573
0.197374
0.198853
0.200497
0.195895
0.199018
0.195402
0.196223
0.198196
0.199018
0.195895
0.198524
0.197045
0.193429
0.200004
0.199346
0.195402
0.197703
0.196059
0.194744
0.200332
0.195402
0.197867
0.197703
0.200004
0.199839
0.198031
0.198689
0.198689
0.198031
0.197045
0.200661
0.193101
0.198689
0.198031
0.195566
0.191621
0.199675
0.195237
0.193758
0.197538
0.196881
0.197045
0.197538
0.197374
0.196223
0.198524
0.19458
0.198524
0.193429
0.196059
0.195237
0.197703
0.199675
0.198853
0.195566
0.198196
0.195895
0.198196
0.199839
0.195566
0.19836
0.198524
0.199839
0.201319
0.200332
0.198689
0.199675
0.197703
0.198031
0.196059
0.199346
0.194744
0.19458
0.197045
0.195895
0.19458
0.196881
0.19836
0.197867
0.196388
0.199018
0.197538
0.197374
0.198689
0.197045
0.195566
0.195566
0.19721
0.200332
0.195237
0.199511
0.198853
0.19458
0.19573
0.19458
0.198196
0.197045
0.192772
0.200661
0.19836
0.20099
0.194909
0.198689
0.196717
0.198196
0.19836
0.195895
0.19721
0.19458
0.200497
0.197867
0.19836
0.198031
0.202469
0.200825
0.20099
0.19573
0.199182
0.197045
0.194909
0.200004
0.198689
0.197703
0.19573
0.197867
0.196059
0.199018
0.19836
0.196881
0.197703
0.197867
0.200168
0.200661
0.198524
0.201319
0.203291
0.199018
0.199018
0.196881
0.199182
0.195073
0.19721
0.19573
0.197374
0.193594
0.200825
0.197703
0.196388
0.200004
0.197867
0.197045
0.200497
0.194251
0.198196
0.199018
0.196388
0.200661
0.198196
0.19836
0.196388
0.199182
0.196388
0.199182
0.20099
0.199675
0.195237
0.19836
0.198524
0.200168
0.200004
0.199018
0.202305
0.197045
0.198196
0.201812
0.201647
0.197867
0.200661
0.196223
0.200661
0.197538
0.197703
0.200332
0.200497
0.20099
0.202305
0.204113
0.200004
0.201319
0.195237
0.197703
0.197045
0.19721
0.195566
0.198196
0.19721
0.199839
0.201483
0.198524
0.199182
0.200004
0.199346
0.199675
0.201154
0.197538
0.199675
0.200004
0.202305
0.201812
0.199018
0.198689
0.197867
0.19836
0.197538
0.198031
0.193922
0.198524
0.19836
0.199346
0.200168
0.202469
0.202305
0.202633
0.201154
0.199346
0.198689
0.194087
0.199511
0.197867
0.196223
0.196881
0.19836
0.196717
0.199346
0.196881
0.195566
0.195073
0.198031
0.198524
0.199346
0.19721
0.197374
0.199511
0.19836
0.196881
0.196059
0.193758
0.196717
0.197867
0.197374
0.200168
0.195895
0.200497
0.201812
0.201154
0.200661
0.202305
0.198196
0.195402
0.200168
0.201154
0.196881
0.195895
0.199018
0.198853
0.195073
0.197867
0.206578
0.198196
0.197703
0.19836
0.201483
0.19836
0.199018
0.19721
0.199839
0.200332
0.198031
0.201976
0.194416
0.197703
0.198689
0.199346
0.193429
0.198853
0.19573
0.200497
0.200825
0.199346
0.194251
0.201647
0.199675
0.199182
0.200168
0.19721
0.19836
0.19195
0.199182
0.19836
0.196881
0.185047
0.196881
0.196223
0.200168
0.19836
0.19836
0.200661
0.198031
0.199182
0.199018
0.199018
0.194909
0.199182
0.199346
0.200497
0.197045
0.20362
0.197538
0.194087
0.198031
0.191128
0.196059
0.196223
0.198031
0.19573
0.196717
0.197374
0.200168
0.199182
0.200004
0.200497
0.199675
0.199675
0.199346
0.199839
0.200004
0.196552
0.199675
0.197867
0.196223
0.197703
0.194744
0.202633
0.20099
0.199675
0.197703
0.201647
0.198853
0.200332
0.200168
0.199018
0.197703
0.198031
0.197867
0.200004
0.200168
0.199182
0.201647
0.201483
0.199182
0.198689
0.201319
0.198524
0.200825
0.200004
0.200497
0.199839
0.20099
0.200661
0.199511
0.203455
0.197374
0.198524
0.200497
0.19458
0.198689
0.199839
0.194744
0.194087
0.195895
0.200661
0.197045
0.199675
0.201319
0.197867
0.20099
0.199839
0.200004
0.197045
0.199675
0.193265
0.195566
0.197703
0.197867
0.195566
0.200004
0.199839
0.200497
0.200004
0.199511
0.203291
0.198853
0.20099
0.198196
0.199839
0.198853
0.198853
0.197374
0.19573
0.194909
0.198031
0.200661
0.200168
0.199675
0.197538
0.199346
0.199839
0.201154
0.199511
0.203291
0.198689
0.199675
0.199511
0.199018
0.197045
0.197374
0.198031
0.198524
0.20362
0.196717
0.199018
0.201319
0.196059
0.19836
0.199182
0.20099
0.200332
0.198524
0.200004
0.19836
0.198196
0.196552
0.199182
0.197374
0.197374
0.197703
0.196059
0.199675
0.198524
0.200004
0.199346
0.199839
0.200168
0.200825
0.197867
0.200661
0.199018
0.200825
0.199511
0.198031
0.197538
0.195895
0.19836
0.200825
0.199675
0.197867
0.197538
0.200168
0.200168
0.197703
0.200661
0.200004
0.19836
0.20099
0.198524
0.199182
0.197374
0.199018
0.196059
0.194251
0.19721
0.201647
0.19836
0.19836
0.198524
0.203291
0.198853
0.199839
0.202798
0.197538
0.201319
0.195237
0.196059
0.199182
0.196223
0.201319
0.198524
0.197045
0.20099
0.199346
0.199182
0.197045
0.19836
0.199839
0.200004
0.200168
0.198853
0.199182
0.198031
0.20362
0.200661
0.19836
0.200004
0.199511
0.197045
0.200497
0.197045
0.19573
0.199346
0.200332
0.201647
0.200661
0.198853
0.200497
0.202469
0.198031
0.196717
0.196388
0.202633
0.200004
0.19721
0.198196
0.200825
0.195566
0.195895
0.20099
0.19836
0.200004
0.198853
0.201154
0.199182
0.202469
0.19836
0.201319
0.198524
0.198196
0.197867
0.199839
0.198524
0.196552
0.200497
0.197703
0.200332
0.200004
0.200497
0.199346
0.202798
0.203455
0.200332
0.200004
0.204441
0.202469
0.201812
0.20214
0.199839
0.199346
0.196881
0.198689
0.199018
0.200168
0.198689
0.198689
0.203291
0.200004
0.199182
0.201319
0.201483
0.203126
0.202305
0.200825
0.199346
0.200497
0.19836
0.200661
0.200332
0.201319
0.199839
0.199839
0.200332
0.19836
0.198524
0.195073
0.204113
0.19458
0.202798
0.199182
0.200004
0.200004
0.199018
0.200004
0.199018
0.201154
0.199182
0.199182
0.198196
0.201154
0.192772
0.199182
0.200825
0.19721
0.196552
0.200004
0.199018
0.197867
0.200332
0.19836
0.201154
0.198524
0.20099
0.200661
0.201976
0.196059
0.200168
0.198031
0.197538
0.198524
0.200168
0.203784
0.199018
0.199018
0.203455
0.202962
0.197703
0.200168
0.198689
0.201154
0.199675
0.199839
0.197867
0.200332
0.197703
0.197867
0.196223
0.197867
0.197538
0.194744
0.198853
0.200004
0.199511
0.199511
0.201154
0.198031
0.201319
0.199839
0.199182
0.198853
0.197538
0.196552
0.195402
0.196388
0.199018
0.196059
0.197045
0.195237
0.202962
0.201647
0.19721
0.199182
0.199018
0.201154
0.200004
0.200004
0.199675
0.199182
0.197703
0.204606
0.196717
0.193101
0.196223
0.198031
0.196717
0.197703
0.199182
0.199346
0.199675
0.199018
0.198524
0.19836
0.198524
0.19836
0.199511
0.198853
0.197703
0.199839
0.197374
0.200168
0.196717
0.192115
0.196552
0.201154
0.196388
0.201154
0.200168
0.200332
0.204113
0.202469
0.197867
0.199346
0.193265
0.193594
0.202305
0.196717
0.200004
0.197045
0.199018
0.199839
0.200332
0.199839
0.19721
0.199839
0.196223
0.199018
0.200497
0.198689
0.197703
0.200332
0.194087
0.197045
0.197867
0.19836
0.198196
0.199018
0.200332
0.199839
0.201319
0.201647
0.200004
0.19836
0.201319
0.197374
0.19836
0.194909
0.196717
0.196881
0.19721
0.197703
0.200497
0.198524
0.198853
0.199018
0.199839
0.201319
0.200168
0.197374
0.195895
0.199839
0.195566
0.198031
0.198689
0.199018
0.199839
0.197703
0.194251
0.200168
0.194744
0.195073
0.197045
0.197703
0.199018
0.199511
0.198031
0.198196
0.200004
0.19573
0.200004
0.195566
0.192936
0.19836
0.194087
0.196552
0.199182
0.194909
0.198853
0.197374
0.196059
0.200168
0.199018
0.199346
0.197703
0.200168
0.197703
0.199839
0.195895
0.198031
0.198031
0.19721
0.194416
0.197867
0.195895
0.196717
0.19836
0.194744
0.201319
0.197867
0.199511
0.197538
0.200004
0.197045
0.201319
0.196223
0.203455
0.204113
0.199018
0.19836
0.196552
0.198689
0.198031
0.199839
0.197867
0.203291
0.197045
0.198853
0.19573
0.202305
0.198196
0.196881
0.197867
0.202962
0.201319
0.195237
0.204934
0.196881
0.19721
0.194909
0.197703
0.194744
0.198196
0.197867
0.197538
0.19836
0.199511
0.200825
0.199018
0.200661
0.198524
0.198689
0.200168
0.201483
0.201483
0.20099
0.200332
0.20099
0.20099
0.200332
0.197703
0.202469
0.199346
0.201647
0.20214
0.201976
0.202798
0.207564
0.204113
0.201812
0.20362
0.200825
0.201812
0.203126
0.201976
0.199346
0.200661
0.198853
0.201647
0.201647
0.200332
0.201812
0.200168
0.203784
0.202633
0.200661
0.201976
0.202962
0.201483
0.204113
0.203784
0.202469
0.201976
0.20214
0.200004
0.198524
0.202798
0.198853
0.198689
0.197538
0.202633
0.19573
0.203455
0.200332
0.20362
0.199839
0.202798
0.200004
0.196717
0.200332
0.202305
0.199675
0.199346
0.203126
0.199839
0.201647
0.199511
0.203126
0.201812
0.203126
0.201647
0.204441
0.202469
0.201976
0.200004
0.201812
0.200168
0.199346
0.200332
0.199675
0.199346
0.199346
0.205427
0.200661
0.201647
0.199346
0.201319
0.198853
0.20099
0.199675
0.203784
0.201976
0.196552
0.199675
0.198853
0.19836
0.198853
0.195237
0.198031
0.198031
0.195566
0.200004
0.199018
0.201812
0.200661
0.20099
0.196552
0.201319
0.198853
0.198689
0.199675
0.196717
0.20099
0.195237
0.200825
0.199675
0.199346
0.199346
0.205427
0.200004
0.197374
0.199839
0.199839
0.199182
0.200168
0.202469
0.200004
0.201812
0.199346
0.198853
0.198689
0.199839
0.201483
0.201647
0.196059
0.200825
0.198853
0.198853
0.199346
0.200332
0.200332
0.196552
0.197045
0.197867
0.199346
0.197703
0.199511
0.198524
0.201647
0.196223
0.199182
0.19458
0.199018
0.198031
0.197867
0.20099
0.202469
0.201812
0.201647
0.202469
0.199839
0.201483
0.202305

Kurve 3

0.00031
0.001954
0.002447
0.001789
0.000803
0.00031
0.000474
0.001789
-0.001991
0.001132
-0.001662
-0.001169
0.003597
-1.9e-05
-0.003799
-0.000183
-1.9e-05
0.00031
0.001132
-0.001169
-0.000347
-0.000347
0.000803
0.000146
0.001789
-0.002155
-0.000512
-0.002155
-0.001005
-0.001334
0.000803
-0.00232
0.000803
0.00031
0.001296
-0.001334
-0.002484
0.001625
-0.000512
0.002775
0.001132
0.002282
-0.001991
0.002447
-0.001005
-0.001991
0.000474
-0.000676
-0.001662
0.000967
0.001296
0.005076
0.003433
0.000639
0.000967
-0.000183
0.002118
-0.001498
-0.001005
-0.003142
-1.9e-05
-0.002648
0.00146
0.000803
-0.001827
-0.000512
-0.000841
-0.002155
0.001296
0.00294
-0.001991
0.002282
-0.001334
0.002118
0.000146
-0.001498
-0.002813
-0.000676
-0.003306
0.00146
0.00031
-0.005114
-0.001662
-0.000841
-0.000347
-0.001827
-0.002813
0.000639
0.00146
-0.002648
0.005569
0.000474
-0.000347
-0.000841
-0.000841
-0.001334
-0.001498
-0.001827
-0.001991
0.003433
0.002611
0.001132
0.00146
0.000967
0.001132
-1.9e-05
-0.001662
-0.001498
-0.000676
0.000639
0.000474
0.00146
0.003268
0.001625
0.00031
-0.001662
0.001132
-0.001498
-0.000347
-0.000676
0.001132
-0.000347
0.002447
-0.002648
0.001625
-0.001334
-0.001169
-0.000347
-0.001169
-0.000347
-0.00232
-0.000512
-0.001005
-0.003963
-0.00232
0.001296
-0.001334
0.000474
-0.000512
-0.002813
-0.001169
0.001296
0.003761
0.000146
0.002282
-0.000183
0.002447
0.002447
0.002118
-0.001662
0.001625
-0.001991
0.000639
-0.002484
-0.000183
0.001132
-0.000676
0.00146
0.00031
0.002611
-0.001662
0.001132
0.001625
0.002775
0.001132
0.002447
-0.003142
0.00146
0.000639
-0.001827
-0.001827
-0.000841
0.002118
-0.001827
0.001625
0.001132
0.001296
0.00031
0.000474
-0.000841
0.00031
-0.003306
-0.000676
-0.003799
-0.000676
0.000474
-0.000183
-0.000347
0.001132
0.001296
-0.004292
-0.001498
-0.000183
0.000146
-0.000512
0.00409
0.000967
0.003433
0.000639
-0.000841
-0.000676
-0.000183
-0.00232
-0.009716
-0.001498
-0.004785
-0.00232
0.000967
0.002118
0.00031
0.000146
-0.004292
0.002775
-0.00347
-0.001169
-0.000841
-0.002155
-0.001498
-0.001005
0.000474
-0.00347
0.000967
-0.005114
-0.000841
-0.002813
-0.001498
-0.001991
0.000474
-0.001991
0.00146
-0.001334
-0.003142
-1.9e-05
-0.001334
-0.003799
-0.003142
-0.004292
-0.000841
-0.004456
0.00146
0.000967
-0.004949
-0.000841
-0.001498
-0.000183
0.001296
-0.002155
-0.001662
-0.002977
0.002118
-0.003635
0.003761
0.009021
0.014445
0.028251
0.03729
0.04255
0.045672
0.052082
0.059807
0.062437
0.070983
0.074764
0.079201
0.085283
0.088405
0.095801
0.099253
0.100732
0.105498
0.110758
0.110758
0.118811
0.122098
0.124728
0.125221
0.129823
0.133768
0.124893
0.137219
0.140671
0.139356
0.143136
0.147409
0.145766
0.149053
0.15119
0.155956
0.15612
0.148067
0.161215
0.164174
0.16401
0.165817
0.165489
0.167461
0.167625
0.16894
0.171899
0.172063
0.172885
0.171077
0.174035
0.176172
0.182253
0.179952
0.179459
0.178144
0.182253
0.183239
0.180774
0.183075
0.183404
0.183897
0.185047
0.182746
0.186526
0.186855
0.184061
0.189978
0.187513
0.189649
0.191621
0.188006
0.188992
0.189485
0.18932
0.190635
0.192936
0.185376
0.19195
0.190142
0.1908
0.190471
0.191786
0.192115
0.195237
0.193101
0.194087
0.195895
0.1908
0.191786
0.193429
0.193429
0.193594
0.193265
0.1908
0.196388
0.192608
0.192279
0.195237
0.196223
0.196717
0.198196
0.199675
0.199182
0.197374
0.198196
0.198689
0.19836
0.197374
0.196059
0.197374
0.195073
0.19836
0.195566
0.195895
0.198524
0.194087
0.199182
0.199839
0.19836
0.196223
0.197374
0.198853
0.198031
0.197538
0.199511
0.198524
0.195402
0.192772
0.196881
0.194087
0.194744
0.19836
0.199346
0.199018
0.201319
0.200004
0.202305
0.202633
0.201976
0.198524
0.195073
0.199346
0.196223
0.198524
0.19573
0.200497
0.197538
0.199675
0.198524
0.198853
0.199346
0.200497
0.199182
0.196881
0.201976
0.19836
0.200332
0.19836
0.201976
0.198853
0.198196
0.19721
0.198524
0.196717
0.197867
0.197538
0.198524
0.200332
0.201154
0.205427
0.200168
0.201154
0.193594
0.200661
0.199346
0.197045
0.199675
0.196059
0.194744
0.20099
0.197867
0.196059
0.198853
0.198031
0.200004
0.198689
0.200168
0.199346
0.201319
0.198031
0.199346
0.199511
0.201812
0.205921
0.202633
0.197703
0.199018
0.199839
0.198196
0.200825
0.198196
0.20099
0.197703
0.198689
0.198689
0.201976
0.19836
0.201483
0.198196
0.200332
0.201154
0.19836
0.199182
0.201976
0.20099
0.197703
0.200168
0.197374
0.199839
0.198689
0.19836
0.197867
0.199675
0.200004
0.200825
0.199511
0.199675
0.19721
0.195566
0.195402
0.197703
0.199182
0.196223
0.200168
0.19836
0.199346
0.198524
0.19721
0.198196
0.199346
0.199675
0.199346
0.200004
0.201483
0.203291
0.19836
0.200825
0.197045
0.199675
0.197867
0.198853
0.199018
0.196717
0.197867
0.199182
0.201812
0.198853
0.202305
0.199839
0.199346
0.194251
0.200825
0.200661
0.19721
0.199182
0.204606
0.199839
0.201319
0.198524
0.198524
0.196223
0.198196
0.200168
0.199675
0.200661
0.198524
0.199182
0.198031
0.199675
0.196552
0.200168
0.199346
0.200661
0.198524
0.19836
0.198524
0.203455
0.196881
0.198689
0.200004
0.199346
0.199346
0.201154
0.202633
0.20362
0.202305
0.20099
0.202469
0.201976
0.201483
0.198524
0.200497
0.195895
0.199182
0.199511
0.195895
0.20099
0.197867
0.20099
0.199839
0.199839
0.200004
0.201647
0.201319
0.203291
0.19721
0.198031
0.198196
0.198196
0.19836
0.197703
0.200004
0.200168
0.200332
0.198524
0.197374
0.19573
0.198031
0.197867
0.199018
0.19836
0.201483
0.200332
0.200168
0.202305
0.19721
0.199018
0.198689
0.199511
0.200332
0.19721
0.198524
0.197538
0.195237
0.200332
0.197374
0.199018
0.199346
0.200497
0.200497
0.198689
0.196881
0.198196
0.201319
0.198524
0.199839
0.197045
0.199018
0.195402
0.201154
0.196717
0.19721
0.19721
0.197045
0.193922
0.195402
0.198031
0.199675
0.196881
0.197045
0.198031
0.195895
0.197045
0.193429
0.199675
0.194416
0.19721
0.194416
0.197374
0.193922
0.19458
0.195237
0.197045
0.198031
0.197538
0.200168
0.198031
0.20099
0.197867
0.200497
0.198031
0.200497
0.197538
0.197703
0.195073
0.191786
0.196223
0.196388
0.19573
0.19721
0.195566
0.197045
0.200661
0.196223
0.198524
0.199182
0.200168
0.19836
0.195402
0.192772
0.193101
0.194416
0.188992
0.191621
0.191128
0.192772
0.200661
0.192936
0.192443
0.194251
0.189978
0.193265
0.198853
0.193101
0.192936
0.191293
0.191457
0.188663
0.190471
0.191786
0.193594
0.189485
0.190471
0.189485
0.193429
0.192115
0.196717
0.195895
0.197045
0.196223
0.19721
0.196717
0.196388
0.195895
0.186198
0.195566
0.195237
0.196388
0.193758
0.199182
0.196059
0.198689
0.198689
0.19721
0.198853
0.197538
0.197045
0.200004
0.197045
0.197045
0.202633
0.197045
0.198524
0.200168
0.197703
0.19573
0.19573
0.192279
0.196223
0.192608
0.196717
0.199346
0.199511
0.197374
0.199182
0.196223
0.193922
0.197538
0.19458
0.19573
0.195237
0.197867
0.196881
0.199511
0.197538
0.197538
0.198524
0.199675
0.198689
0.197045
0.194909
0.196717
0.198689
0.195073
0.201976
0.200332
0.200168
0.198689
0.200004
0.198196
0.197374
0.197374
0.196388
0.199675
0.198689
0.198853
0.198524
0.200168
0.198196
0.199182
0.194087
0.20099
0.203455
0.197867
0.200004
0.19836
0.198524
0.199839
0.19836
0.200661
0.200004
0.198689
0.201154
0.20099
0.200004
0.197045
0.198031
0.194416
0.200168
0.198853
0.199839
0.199675
0.199511
0.199675
0.200004
0.199346
0.19836
0.201154
0.196552
0.201812
0.198853
0.200661
0.19836
0.199839
0.200332
0.202798
0.204441
0.199182
0.202305
0.201154
0.198689
0.199018
0.199346
0.198524
0.199511
0.198689
0.199675
0.199511
0.198689
0.196881
0.20099
0.202962
0.202469
0.199018
0.200497
0.200497
0.199018
0.204441
0.197045
0.198196
0.197867
0.198853
0.196223
0.199675
0.199018
0.195566
0.198853
0.198196
0.198031
0.200168
0.197867
0.19721
0.201319
0.197538
0.201483
0.199346
0.200825
0.199511
0.199018
0.194416
0.199182
0.198031
0.200004
0.199018
0.200004
0.199511
0.202633
0.203455
0.200168
0.203291
0.198853
0.201154
0.198689
0.203455
0.198689
0.198031
0.199675
0.200497
0.200661
0.199346
0.201647
0.197703
0.197703
0.198031
0.200825
0.197538
0.200661
0.199839
0.198031
0.197703
0.200497
0.198689
0.202469
0.198853
0.199839
0.197867
0.200825
0.197374
0.199839
0.202798
0.198689
0.201812
0.201483
0.199675
0.200332
0.203455
0.199346
0.202798
0.201154
0.199018
0.200825
0.200004
0.201647
0.200168
0.201319
0.196717
0.20099
0.200825
0.199511
0.201319
0.200825
0.199346
0.199182
0.203126
0.202305
0.199511
0.200497
0.202798
0.201812
0.201483
0.20214
0.199018
0.197374
0.200004
0.19836
0.199511
0.199182
0.20099
0.199839
0.205263
0.201319
0.200661
0.203455
0.19573
0.181431
0.17913
0.183897
0.182911
0.184554
0.184554
0.185047
0.18554
0.187677
0.18817
0.189978
0.188499
0.189485
0.189978
0.195237
0.193429
0.189156
0.193429
0.191621
0.191293
0.191457
0.192115
0.186198
0.192608
0.190142
0.190635
0.190964
0.192115
0.192936
0.188827
0.193922
0.194087
0.194251
0.195402
0.191128
0.191128
0.194416
0.18932
0.190471
0.191457
0.191128
0.191457
0.194416
0.193922
0.191128
0.197538
0.192443
0.192772
0.196059
0.194744
0.193265
0.196059
0.19195
0.196717
0.192936
0.193922
0.191293
0.196059
0.194087
0.193101
0.19458
0.192608
0.194909
0.191128
0.195566
0.195895
0.196059
0.195895
0.199839
0.193758
0.196881
0.193922
0.192608
0.194087
0.193429
0.194416
0.192608
0.197374
0.194087
0.19721
0.195073
0.195073
0.193922
0.199182
0.196717
0.200004
0.193594
0.194251
0.19721
0.193101
0.192115
0.194744
0.195402
0.193594
0.196388
0.192443
0.192608
0.195073
0.198031
0.197538
0.19721
0.197374
0.197045
0.196717
0.197045
0.197538
0.193429
0.194909
0.198196
0.196059
0.196881
0.200004
0.198689
0.195402
0.195237
0.197538
0.197374
0.198853
0.197703
0.200004
0.198689
0.199675
0.192279
0.198031
0.196881
0.195566
0.198524
0.196717
0.199018
0.196388
0.201812
0.19458
0.199511
0.199182
0.199346
0.198524
0.196552
0.196059
0.196552
0.199675
0.194251
0.200661
0.199346
0.198689
0.197703
0.200332
0.194087
0.202962
0.199346
0.198031
0.198031
0.199018
0.200661
0.198031
0.199839
0.198196
0.198689
0.195402
0.199346
0.199182
0.198196
0.20099
0.204606
0.199346
0.200825
0.199346
0.199675
0.200004
0.198524
0.199675
0.199018
0.197045
0.194909
0.202305
0.201647
0.199675
0.199839
0.200497
0.201483
0.198853
0.198031
0.199839
0.198689
0.200825
0.200332
0.200168
0.198031
0.197703
0.197045
0.201483
0.19836
0.19836
0.203126
0.19836
0.200661
0.201154
0.198524
0.204606
0.202633
0.19836
0.20362
0.197045
0.194744
0.199346
0.196388
0.199675
0.198524
0.202633
0.200497
0.201647
0.199511
0.208057
0.201154
0.199018
0.200332
0.201976
0.200332
0.196223
0.201154
0.19721
0.201319
0.196223
0.205099
0.200497
0.200661
0.198524
0.202633
0.200168
0.200661
0.200004
0.201483
0.200332
0.200332
0.203126
0.19836
0.200332
0.196881
0.198689
0.193429
0.197045
0.198031
0.199675
0.201483
0.200661
0.19836
0.19836
0.202305
0.203784
0.200497
0.196223
0.199839
0.196552
0.198524
0.198031
0.200825
0.18817
0.199018
0.201154
0.199675
0.201154
0.197703
0.201647
0.200332
0.20477
0.201976
0.20099
0.189814
0.20099
0.200661
0.200497
0.199018
0.198853
0.202305
0.201976
0.201812
0.202305
0.20214
0.1908
0.201812
0.199511
0.204606
0.199675
0.204606
0.201483
0.199839
0.204441
0.202305
0.201812
0.192279
0.195566
0.201976
0.200661
0.199182
0.203948
0.201812
0.202469
0.20477
0.205263
0.200168
0.199675
0.199839
0.20099
0.203291
0.200004
0.203126
0.200661
0.199675
0.200168
0.204441
0.203455
0.203126
0.200168
0.202469
0.201647
0.204441
0.20362
0.204606
0.202633
0.205099
0.204934
0.205427
0.20477
0.204606
0.203948
0.202633
0.204441
0.201812
0.204606
0.203948
0.204441
0.203126
0.204441
0.20362
0.205592
0.202633
0.204441
0.205099
0.204113
0.207071
0.202798
0.207893
0.203291
0.205921
0.202633
0.203126
0.202633
0.204277
0.205099
0.203948
0.204934
0.206578
0.2074
0.206249
0.204441
0.20214
0.202798
0.201483
0.203455
0.203784
0.206907
0.201812
0.204606
0.203784
0.201976
0.202305
0.204441
0.202469
0.20362
0.20362
0.203291
0.204441
0.202469
0.201976
0.203126
0.201976
0.202305
0.203126
0.203126
0.201483
0.200004
0.200168
0.199675
0.202962
0.202633
0.20214
0.201319
0.201319
0.203126
0.202798
0.203784
0.20099
0.202469
0.201483
0.199675
0.198524
0.200168
0.199018
0.198031
0.202305
0.199839
0.201319
0.200497
0.200004
0.199182
0.200004
0.195895
0.199511
0.202469
0.203784
0.20099
0.201812
0.198196
0.19836
0.198524
0.200004
0.197703
0.19836
0.201319
0.194909
0.199346
0.19721
0.199511
0.198031
0.200825
0.199182
0.199839
0.19836
0.197703
0.200168
0.19836
0.197703
0.19836
0.20099
0.19458
0.200661
0.19721
0.198689
0.195895
0.194744
0.197703
0.200004
0.196717
0.19836
0.201812
0.196388
0.199018
0.194251
0.197538
0.195402
0.196059
0.196881
0.199839
0.188992
0.19458
0.196717
0.193758
0.194909
0.199675
0.197867
0.198524
0.199346
0.194744
0.197374
0.195566
0.19721
0.197374
0.19573
0.193758
0.196223
0.196059
0.19721
0.196552
0.198031
0.190964
0.197867
0.196223
0.19458
0.19721
0.194416
0.196059
0.19458
0.195402
0.19458
0.19721
0.194251
0.194087
0.193758
0.193429
0.193922
0.190964
0.196388
0.191128
0.196388
0.194087
0.196388
0.195237
0.197538
0.196388
0.196223
0.193922
0.194416
0.194416
0.192115
0.189485
0.189485
0.1908
0.186033
0.194909
0.196881
0.006227
0.017239
0.0271
0.032031
0.041399
0.045015
0.052082
0.058657
0.063752
0.068682
0.071641
0.076243
0.078544
0.087419
0.089391
0.095144
0.100075
0.104184
0.107799
0.113223
0.11536
0.121112
0.118483
0.12555
0.128015
0.128673
0.131467
0.132617
0.136069
0.13952
0.145437
0.143465
0.146916
0.149053
0.149875
0.150532
0.152505
0.153326
0.156778
0.159079
0.161215
0.163023
0.16253
0.161873
0.15875
0.163681
0.16894
0.166146
0.167132
0.172063
0.167625
0.174528
0.173871
0.17798
0.176994
0.178473
0.180281
0.177487
0.180938
0.178966
0.180281
0.18061
0.185212
0.182089
0.18439
0.181924
0.185705
0.182089
0.184554
0.184061
0.185376
0.18817
0.183568
0.192608
0.188334
0.191786
0.188334
0.190964
0.187841
0.188499
0.186691
0.187019
0.186198
0.188334
0.192115
0.188006
0.194251
0.191293
0.194416
0.191293
0.19195
0.194251
0.190471
0.191786
0.195566
0.192936
0.187841
0.191293
0.182089
0.008857
0.018554
0.027429
0.034989
0.042057
0.044358
0.051425
0.062108
0.064574
0.071312
0.080023
0.082817
0.090213
0.090542
0.096952
0.102211
0.103855
0.110429
0.114374
0.11651
0.118811
0.123413
0.127687
0.128837
0.131631
0.135411
0.13574
0.140835
0.144451
0.146259
0.148889
0.151354
0.153326
0.153326
0.155956
0.158257
0.161873
0.162202
0.164831
0.169105
0.172556
0.16401
0.169433
0.167461
0.16894
0.171899
0.173542
0.172885
0.178309
0.18061
0.179459
0.184225
0.180116
0.181596
0.181431
0.186691
0.183404
0.187841
0.184883
0.183897
0.186033
0.19195
0.189978
0.18817
0.188992
0.190635
0.192279
0.189814
0.189814
0.169433
0.175843
0.175186
0.179295
0.175843
0.17798
0.176336
0.177815
0.178966
0.177651
0.18061
0.182089
0.182911
0.003433
0.014609
0.021019
0.032524
0.036797
0.051261
0.050768
0.055863
0.060465
0.068189
0.069504
0.076407
0.080516
0.084296
0.094158
0.091857
0.101718
0.105498
0.109607
0.112401
0.119304
0.117332
0.124728
0.1267
0.124235
0.127851
0.126536
0.132289
0.143629
0.140671
0.143301
0.147903
0.148724
0.149382
0.15497
0.155299
0.157107
0.163188
0.160229
0.166804
0.164174
0.163845
0.165489
0.168447
0.164503
0.170255
0.170419
0.171241
0.175021
0.173049
0.16779
0.1742
0.177158
0.177158
0.179623
0.17798
0.181924
0.18176
0.182089
0.18554
0.185869
0.171241
0.180281
0.182582
0.181924
0.184883
0.182746
0.187513
0.186198
0.186855
0.187841
0.190964
0.185869
0.188499
0.191457
0.193594
0.191786
0.194251
0.191786
0.188663
0.193101
0.188663
0.193594
0.190142
0.187841
0.192772
0.192772
0.191293
0.193758
0.192115
0.191457
0.196552
0.191621
0.195237
0.1908
0.189814
0.19195
0.193594
0.190635
0.192443
0.193758
0.190142
0.194744
0.19458
0.193922
0.191128
0.188006
0.192115
0.194251
0.192772
0.19573
0.190635
0.1908
0.193758
0.192443
0.19458
0.193594
0.19195
0.194416
0.193758
0.195073
0.195073
0.196059
0.196717
0.196388
0.196552
0.193429
0.189978
0.192936
0.193429
0.194744
0.19573
0.19195
0.195402
0.193922
0.194909
0.195073
0.193265
0.195402
0.196388
0.196223
0.194251
0.196388
0.195073
0.197045
0.194744
0.197374
0.194909
0.195895
0.195237
0.199182
0.19195
0.193265
0.197703
0.19458
0.199675
0.198524
0.200825
0.197045
0.197703
0.196881
0.198031
0.193922
0.196881
0.195402
0.195402
0.196552
0.197045
0.19573
0.196059
0.197867
0.193594
0.202469
0.193101
0.195402
0.195566
0.198524
0.200661
0.202305
0.198689
0.200661
0.200168
0.199018
0.199839
0.192608
0.197867
0.195237
0.197538
0.194416
0.198689
0.197867
0.198031
0.197538
0.199511
0.199182
0.19836
0.199018
0.199346
0.199675
0.196717
0.198689
0.199182
0.198031
0.198524
0.198196
0.196717
0.199346
0.198853
0.199511
0.199182
0.200497
0.199182
0.198031
0.197867
0.20099
0.199346
0.19573
0.199346
0.198853
0.199839
0.199018
0.200332
0.196881
0.198853
0.197703
0.199018
0.201483
0.197538
0.196059
0.199346
0.199511
0.196717
0.201483
0.198031
0.202962
0.200497
0.200661
0.19836
0.199839
0.197703
0.196059
0.19721
0.19573
0.195895
0.197538
0.196717
0.198031
0.197867
0.196552
0.199182
0.196881
0.19836
0.200168
0.200497
0.199346
0.197703
0.195566
0.197538
0.197538
0.195237
0.202305
0.194909
0.199675
0.197045
0.197538
0.19836
0.157764
0.155299
0.160722
0.159572
0.164174
0.166146
0.164996
0.171734
0.170091
0.170091
0.170091
0.169926
0.17272
0.178144
0.177487
0.175186
0.177487
0.177158
0.177815
0.18176
0.178966
0.183075
0.180281
0.182911
0.18439
0.182911
0.184061
0.183897
0.185212
0.164831
0.155627
0.151518
0.156285
0.155134
0.156613
0.156778
0.160722
0.16516
0.163845
0.166639
0.167461
0.165489
0.166968
0.170748
0.169269
0.169598
0.16894
0.172885
0.175843
0.174035
0.175021
0.178309
0.178309
0.179788
0.180116
0.187513
0.186198
0.183404
0.182417
0.183404
0.182911
0.181267
0.186691
0.183239
0.184554
0.18061
0.180774
0.186526
0.186198
0.189485
0.187019
0.187348
0.190307
0.191457
0.187184
0.191621
0.18817
0.188827
0.18439
0.190635
0.188334
0.190471
0.190471
0.169598
0.174035
0.171899
0.174528
0.176501
0.17272
0.178473
0.182089
0.180116
0.181431
0.176994
0.18176
0.177651
0.17913
0.179952
0.180116
0.18061
0.182582
0.186198
0.183239
0.185047
0.187348
0.189978
0.189485
0.190307
0.187513
0.189649
0.18554
0.19195
0.187348
0.190635
0.182253
0.190471
0.189814
0.188827
0.191457
0.189814
0.192443
0.192608
0.191457
0.193101
0.196223
0.192279
0.195566
0.192443
0.194416
0.193265
0.193265
0.192936
0.192443
0.195402
0.193758
0.195895
0.193101
0.199675
0.193922
0.195237
0.196552
0.20099
0.19721
0.197867
0.200497
0.197045
0.19573
0.196388
0.198031
0.195073
0.193265
0.198031
0.196223
0.195566
0.199346
0.19721
0.199182
0.19573
0.196717
0.200004
0.193265
0.198524
0.200332
0.194416
0.200004
0.204441
0.200825
0.200661
0.201647
0.198031
0.200497
0.198524
0.196223
0.197867
0.197538
0.198689
0.19721
0.201976
0.201319
0.199839
0.200825
0.200825
0.198524
0.19458
0.199346
0.198853
0.197867
0.198689
0.202469
0.199182
0.200661
0.200661
0.192936
0.200168
0.20214
0.200825
0.196881
0.200332
0.200168
0.203948
0.198853
0.199182
0.200004
0.192443
0.198689
0.200497
0.199182
0.194087
0.20099
0.200661
0.200825
0.20214
0.201976
0.195402
0.205099
0.202798
0.199839
0.201483
0.203291
0.200661
0.201976
0.200661
0.201154
0.199511
0.199839
0.201154
0.193594
0.204113
0.198689
0.201319
0.201483
0.205099
0.202305
0.205592
0.20099
0.203784
0.20214
0.200168
0.201976
0.200004
0.203126
0.205099
0.204113
0.200332
0.203455
0.197045
0.20099
0.200332
0.199018
0.200497
0.203291
0.201976
0.204277
0.20477
0.202469
0.204934
0.204277
0.199346
0.201812
0.201647
0.200004
0.203948
0.200661
0.201319
0.203291
0.204934
0.202798
0.202305
0.204277
0.204606
0.201812
0.203291
0.201812
0.202633
0.205099
0.20214
0.204441
0.202798
0.203784
0.203455
0.204606
0.204441
0.205921
0.203291
0.206578
0.204441
0.204934
0.203455
0.203126
0.2074
0.204113
0.208386
0.206414
0.204441
0.203455
0.201812
0.199346
0.203784
0.201483
0.201647
0.20362
0.205756
0.207235
0.202305
0.206249
0.206249
0.20855
0.20362
0.204934
0.203948
0.204113
0.203291
0.20477
0.201319
0.202798
0.200497
0.199346
0.202305
0.200332
0.203455
0.200497
0.204606
0.201976
0.207728
0.201154
0.203948
0.20362
0.202633
0.197703
0.199511
0.200004
0.199839
0.202469
0.200661
0.203291
0.200497
0.202962
0.200825
0.201483
0.202633
0.205427
0.203455
0.199018
0.202798
0.202962
0.199018
0.197538
0.202798
0.198524
0.198031
0.195237
0.19836
0.200332
0.198524
0.200332
0.201647
0.201976
0.205099
0.201483
0.202469
0.201319
0.199182
0.199182
0.198196
0.200332
0.197867
0.195895
0.198689
0.20214
0.199839
0.197703
0.197538
0.198524
0.198031
0.201483
0.197703
0.198196
0.200661
0.199018
0.196552
0.196059
0.19836
0.194251
0.197045
0.196717
0.200168
0.195402
0.198853
0.197538
0.199839
0.200004
0.199182
0.197867
0.199511
0.200168
0.201483
0.198524
0.191293
0.200661
0.199346
0.197538
0.197045
0.200497
0.198031
0.199839
0.199675
0.19836
0.203126
0.200004
0.201812
0.202798
0.202633
0.200497
0.204277
0.194744
0.199839
0.203948
0.203948
0.201154
0.20099
0.200661
0.20099
0.20099
0.199346
0.205099
0.199675
0.199839
0.201812
0.20477
0.200497
0.199346
0.201154
0.201319
0.198689
0.201647
0.199675
0.199182
0.201812
0.196717
0.200825
0.197538
0.197703
0.200004
0.199839
0.197374
0.200332
0.195073
0.199346
0.196717
0.19836
0.199182
0.198853
0.199675
0.196717
0.200168
0.196223
0.196717
0.1908
0.197703
0.195402
0.197703
0.197045
0.198031
0.195402
0.199182
0.196388
0.194416
0.197538
0.195895
0.194251
0.187841
0.198196
0.194087
0.193758
0.194416
0.19721
0.193758
0.195895
0.198524
0.197374
0.193594
0.195895
0.195402
0.194087
0.196059
0.19195
0.19573
0.194087
0.193922
0.192608
0.192608
0.192608
0.196223
0.191786
0.19573
0.188499
0.193265
0.194416
0.191621
0.191621
0.194087
0.195073
0.192115
0.19573
0.193758
0.19458
0.195237
0.189649
0.193922
0.195073
0.1908
0.192115
0.192279
0.193758
0.194744
0.196552
0.195402
0.196388
0.194087
0.194251
0.190635
0.192608
0.195237
0.193265
0.195402
0.1908
0.194251
0.193429
0.193594
0.193594
0.196223
0.195402
0.195402
0.194909
0.197703
0.196717
0.194744
0.196881
0.194744
0.197538
0.197867
0.19721
0.193922
0.196552
0.193594
0.193101
0.191128
0.192443
0.195402
0.19195
0.191128
0.19195
0.198524
0.191128
0.201647
0.19458
0.197045
0.200332
0.197867
0.19573
0.196881
0.193265
0.194744
0.198853
0.193265
0.197867
0.194416
0.196717
0.194909
0.197703
0.19195
0.198689
0.198689
0.199346
0.198853
0.194909
0.195402
0.195566
0.198853
0.19458
0.19458
0.195073
0.199018
0.193429
0.201483
0.200825
0.197867
0.200004
0.199675
0.200497
0.195895
0.196717
0.19721
0.195895
0.197867
0.195566
0.197374
0.196552
0.195566
0.196717
0.193758
0.197045
0.197045
0.199839
0.199182
0.199018
0.196881
0.199182
0.197867
0.199018
0.202962
0.198196
0.200332
0.19721
0.200497
0.196881
0.195073

Kurve 4

-1.9e-05
0.003104
-0.001827
0.00409
0.000474
0.006391
0.00294
0.003761
0.000146
0.000803
-0.001498
0.00146
-0.000841
-0.000183
0.001954
-0.001827
0.007377
0.002447
0.003104
0.001954
0.00409
0.001789
0.004419
0.001132
0.002118
0.00294
0.00409
0.00146
-0.001169
0.004419
-0.000841
0.003597
0.000474
0.003268
0.000474
0.003926
0.001296
0.001625
0.003268
0.005405
0.003597
0.001789
0.000803
0.001296
0.000803
-0.000347
0.000967
0.000146
0.003926
0.000146
0.003433
0.001132
0.003104
0.000639
-0.001005
-0.002977
0.002611
-0.000183
-0.000183
0.000474
0.003268
0.001954
-0.000512
-1.9e-05
0.002118
0.00146
0.000967
-0.000841
-0.001827
0.000474
0.003104
0.003104
0.004419
0.001954
0.001954
0.004912
0.002447
-1.9e-05
0.001625
-0.000183
-0.000512
0.002118
0.002118
-0.000841
0.000967
0.000474
-0.000183
0.002447
0.002447
-0.001498
0.000639
0.000967
0.000967
0.002447
-0.000183
0.000146
-0.000676
-1.9e-05
-0.003142
-1.9e-05
-0.00232
0.000146
-0.000512
-0.000183
0.001625
-0.001334
-0.004785
-0.00232
-0.001169
-0.002813
-0.000841
-0.002484
0.00031
-0.002813
-0.000841
-0.000512
-0.002484
-0.00347
-0.004292
-0.001005
-0.003142
-0.001827
-0.000512
-0.003142
0.000639
0.002611
-0.000676
0.001789
0.000146
0.000967
0.00146
-0.002155
-0.00347
-0.001334
-0.001662
-0.004292
-0.001498
-0.004292
-0.004128
-0.001498
-0.001334
-0.002155
-0.003635
-0.003635
-0.001991
-0.001005
-0.000512
-0.001334
-0.003306
-0.002155
-0.001827
-0.002155
-0.001334
-0.003799
-0.002484
0.000967
0.000639
-0.001005
-0.003963
-0.003963
-0.003963
-0.001498
0.000474
0.002775
-0.000841
-0.000676
-0.001169
-0.001662
-0.003963
-0.003799
-0.001169
-0.001334
0.001954
-0.002155
0.000146
-0.002648
-0.000841
-0.000512
-0.000676
-0.000676
-0.000183
-0.004456
-1.9e-05
-0.000676
-0.001005
-0.002484
-0.000676
-0.001169
-0.000347
0.002447
-0.00347
-0.000183
-0.004949
-0.001169
-1.9e-05
0.00146
-0.011688
-0.002155
-0.003635
-0.003142
0.001625
-0.001991
-0.001827
-0.004621
0.000967
-0.004292
-0.005607
-0.008565
-0.004621
-0.003799
-0.004292
-0.003635
-0.001005
-0.000841
-0.001334
-0.000676
-0.00232
-1.9e-05
-0.001991
-0.002648
0.004583
0.00031
-0.004456
-0.003142
-0.004292
-0.003635
-0.00232
-0.001334
-0.000183
-0.001498
-0.001169
-0.002155
0.00031
-0.001827
-0.001662
-0.002155
0.002447
0.000967
-0.001827
0.001625
-0.002484
-0.006429
-0.001334
-0.00232
-0.001991
-1.9e-05
0.000967
0.000474
0.000639
0.002118
-1.9e-05
0.006391
0.011815
0.019868
0.028415
0.034496
0.036633
0.042385
0.049946
0.056684
0.062601
0.069504
0.076243
0.081174
0.087255
0.090213
0.097609
0.099417
0.106156
0.106649
0.116017
0.116346
0.118483
0.121934
0.129001
0.124564
0.127358
0.130645
0.133768
0.140835
0.13837
0.147245
0.143958
0.148067
0.149053
0.153326
0.153819
0.154312
0.160229
0.154312
0.160887
0.159408
0.162037
0.16516
0.166146
0.166311
0.172063
0.167625
0.171077
0.17157
0.174693
0.175021
0.175515
0.176336
0.176172
0.177487
0.177322
0.182417
0.178637
0.18061
0.182746
0.18176
0.176665
0.180938
0.18176
0.18439
0.183897
0.190635
0.189156
0.18817
0.189156
0.18817
0.190635
0.188499
0.191293
0.189814
0.192608
0.193265
0.191293
0.192772
0.191457
0.188663
0.188499
0.1908
0.1908
0.192772
0.195073
0.193922
0.197045
0.198524
0.191128
0.195073
0.193594
0.194416
0.194909
0.194744
0.19573
0.196223
0.194416
0.196552
0.195073
0.19573
0.197045
0.196223
0.19458
0.197045
0.196059
0.194744
0.197867
0.19458
0.195566
0.19458
0.203126
0.197538
0.196059
0.197374
0.195237
0.199675
0.195895
0.199346
0.199018
0.199018
0.196552
0.20099
0.197703
0.198524
0.198524
0.201319
0.197374
0.196388
0.196388
0.200332
0.197374
0.19458
0.200661
0.195237
0.197703
0.197703
0.197374
0.19721
0.199675
0.197703
0.199511
0.198196
0.199346
0.199511
0.19836
0.199018
0.195237
0.196881
0.197045
0.19721
0.195073
0.200825
0.196388
0.196717
0.200497
0.195402
0.199018
0.197538
0.196881
0.197867
0.195402
0.200004
0.199018
0.196223
0.197703
0.197538
0.195237
0.195895
0.199346
0.196717
0.199018
0.194909
0.199511
0.199675
0.200004
0.200004
0.199839
0.201154
0.196059
0.198689
0.199675
0.200332
0.196388
0.198196
0.197703
0.197538
0.200332
0.199346
0.197045
0.197703
0.199182
0.201154
0.197538
0.200168
0.199675
0.199182
0.200332
0.198689
0.199511
0.194087
0.200661
0.19573
0.198196
0.19458
0.193101
0.199346
0.19721
0.201647
0.196388
0.195073
0.203291
0.194416
0.197703
0.201319
0.197374
0.199018
0.199346
0.200661
0.197538
0.200004
0.198689
0.193758
0.199018
0.198853
0.201483
0.198689
0.19836
0.19836
0.197703
0.198196
0.200825
0.200661
0.198853
0.202633
0.200004
0.198031
0.200661
0.197374
0.199182
0.200004
0.20099
0.197867
0.199346
0.201812
0.199839
0.201154
0.199182
0.202962
0.201812
0.201154
0.201154
0.199346
0.200825
0.198853
0.199346
0.199346
0.196881
0.197045
0.202469
0.199018
0.198031
0.204606
0.206578
0.199839
0.203291
0.200332
0.200825
0.201812
0.198853
0.201483
0.19721
0.199182
0.199675
0.201812
0.19721
0.205263
0.195237
0.199182
0.203784
0.203784
0.200332
0.202305
0.20362
0.198196
0.200825
0.199346
0.200661
0.197045
0.196552
0.198524
0.197867
0.196881
0.19836
0.198524
0.200004
0.198853
0.202469
0.197867
0.198853
0.198689
0.19836
0.198853
0.198031
0.199346
0.198031
0.199346
0.195895
0.19458
0.192115
0.196223
0.194416
0.195895
0.199182
0.197867
0.200497
0.200004
0.200825
0.200661
0.199511
0.203455
0.199839
0.19721
0.197045
0.196388
0.200825
0.197703
0.199018
0.19721
0.198853
0.196388
0.203784
0.197374
0.193429
0.19721
0.199839
0.198689
0.19836
0.202798
0.196059
0.198689
0.19721
0.199346
0.196223
0.194744
0.196881
0.200332
0.196717
0.200661
0.201319
0.200004
0.199182
0.194744
0.193101
0.196388
0.200168
0.194909
0.20099
0.201154
0.198689
0.197867
0.201812
0.194909
0.19573
0.187184
0.195073
0.199182
0.19836
0.203784
0.199018
0.201976
0.200661
0.20214
0.199675
0.200825
0.196059
0.196881
0.198031
0.199182
0.19458
0.196223
0.200004
0.193594
0.203948
0.201976
0.199511
0.199511
0.199675
0.19836
0.200004
0.200004
0.200168
0.200497
0.199346
0.199018
0.20214
0.199346
0.199675
0.200497
0.19836
0.201319
0.199018
0.200825
0.198689
0.197045
0.199182
0.198689
0.196552
0.199346
0.199675
0.198689
0.201154
0.201976
0.201154
0.201647
0.200332
0.199346
0.201647
0.200332
0.200332
0.197867
0.201154
0.20099
0.202633
0.202798
0.201154
0.200004
0.200332
0.198031
0.202962
0.201647
0.198689
0.20099
0.200004
0.200825
0.19573
0.196881
0.196552
0.201483
0.200332
0.200168
0.202798
0.199346
0.202469
0.199839
0.202633
0.199018
0.201812
0.199182
0.201812
0.199675
0.200497
0.198031
0.200661
0.197045
0.19721
0.202962
0.195073
0.197374
0.196552
0.202798
0.199675
0.201976
0.203126
0.203784
0.200332
0.201812
0.197703
0.19836
0.19836
0.199511
0.19836
0.198196
0.200825
0.199346
0.20099
0.19836
0.198031
0.195895
0.208715
0.202798
0.199182
0.199675
0.199511
0.197045
0.198196
0.200825
0.197703
0.197703
0.19721
0.199018
0.200497
0.19721
0.19836
0.199675
0.197867
0.20362
0.197374
0.198196
0.200332
0.197045
0.196552
0.196881
0.196881
0.197045
0.199182
0.198196
0.200661
0.197538
0.197703
0.196717
0.196388
0.195402
0.19721
0.199511
0.199675
0.200004
0.198853
0.197703
0.199346
0.19721
0.196059
0.197703
0.196059
0.19836
0.195237
0.19836
0.194744
0.198853
0.203291
0.201812
0.198689
0.19721
0.197045
0.199182
0.201154
0.19721
0.199018
0.195073
0.198031
0.194416
0.199839
0.196223
0.197045
0.196552
0.197703
0.202305
0.195073
0.200168
0.197374
0.200004
0.198524
0.199018
0.200004
0.195895
0.193594
0.197045
0.193758
0.197867
0.19721
0.197045
0.196717
0.198689
0.199182
0.200004
0.199675
0.200332
0.201483
0.197867
0.200661
0.200004
0.198689
0.199675
0.199675
0.199018
0.197538
0.196552
0.195073
0.202305
0.201319
0.199182
0.200661
0.199675
0.199346
0.201812
0.199346
0.202962
0.195073
0.19721
0.197045
0.197703
0.197703
0.197374
0.197867
0.198031
0.199675
0.200168
0.199839
0.199839
0.200332
0.201976
0.200497
0.198689
0.200661
0.199839
0.198196
0.198524
0.198031
0.19573
0.19836
0.201154
0.199018
0.19721
0.199182
0.204277
0.201319
0.202305
0.201976
0.201483
0.200004
0.202962
0.201319
0.201154
0.201812
0.201154
0.201812
0.199675
0.199839
0.20099
0.203126
0.201319
0.203455
0.20099
0.201319
0.200825
0.201319
0.201319
0.198853
0.198689
0.200004
0.199511
0.200168
0.201483
0.198689
0.199839
0.203126
0.198689
0.201647
0.20362
0.198196
0.201976
0.20362
0.202633
0.202633
0.203291
0.200168
0.200332
0.20099
0.20099
0.197374
0.20214
0.201483
0.200168
0.199346
0.20099
0.202798
0.199511
0.200661
0.199018
0.19836
0.202469
0.202305
0.200825
0.203291
0.201647
0.199675
0.202305
0.199675
0.201647
0.201319
0.202962
0.199511
0.201154
0.200168
0.199511
0.198853
0.201647
0.201154
0.202305
0.203455
0.201154
0.20362
0.200168
0.201976
0.199675
0.201483
0.200497
0.20099
0.197703
0.197867
0.199839
0.200004
0.199182
0.198031
0.204113
0.198196
0.20099
0.198196
0.200825
0.197374
0.200661
0.197538
0.201812
0.203291
0.201976
0.202633
0.199182
0.200825
0.198853
0.199839
0.197703
0.200332
0.199511
0.201812
0.200004
0.201976
0.196059
0.200004
0.197045
0.198196
0.199018
0.198196
0.201319
0.198031
0.199511
0.200661
0.199182
0.195402
0.203126
0.198853
0.197538
0.197703
0.19836
0.197703
0.199839
0.199839
0.20099
0.199018
0.197703
0.198031
0.197374
0.196717
0.192608
0.197867
0.195073
0.193758
0.201319
0.19836
0.197867
0.19836
0.195237
0.200332
0.196552
0.199346
0.197703
0.196717
0.199018
0.197374
0.198689
0.197374
0.199839
0.197867
0.199839
0.194416
0.197374
0.195402
0.198031
0.198689
0.198689
0.191786
0.196388
0.198196
0.195073
0.195402
0.197703
0.197045
0.195402
0.197703
0.196059
0.196059
0.188827
0.197045
0.193265
0.194909
0.194416
0.196059
0.198524
0.195895
0.19721
0.195402
0.197045
0.194909
0.197538
0.194744
0.194087
0.190635
0.194251
0.193101
0.194416
0.198031
0.196223
0.193922
0.196717
0.197867
0.196059
0.197867
0.197703
0.196223
0.197867
0.195895
0.196881
0.197703
0.195566
0.194416
0.19721
0.195895
0.195073
0.197703
0.200332
0.197538
0.195237
0.196552
0.196717
0.196388
0.198196
0.197703
0.199018
0.197703
0.199182
0.193922
0.194087
0.189156
0.195073
0.196717
0.195895
0.196552
0.200004
0.200332
0.198524
0.199511
0.200168
0.201319
0.198524
0.199511
0.199675
0.194416
0.196388
0.19721
0.196388
0.197045
0.199018
0.197374
0.19721
0.194744
0.198853
0.195237
0.201647
0.198689
0.199839
0.200332
0.200825
0.206085
0.19721
0.199511
0.197703
0.199182
0.19836
0.198689
0.198196
0.20362
0.19836
0.201319
0.205263
0.197703
0.201812
0.199346
0.200497
0.199346
0.201319
0.19836
0.200825
0.197538
0.202798
0.19573
0.197374
0.199839
0.200497
0.200497
0.200661
0.199182
0.205592
0.205427
0.200825
0.205921
0.189649
0.197374
0.198031
0.199346
0.199839
0.198524
0.197867
0.197703
0.196552
0.202798
0.200168
0.192443
0.199675
0.199675
0.201319
0.198689
0.201154
0.201812
0.202798
0.198689
0.20362
0.198689
0.202305
0.197867
0.199675
0.199018
0.202633
0.200004
0.19836
0.202305
0.20099
0.200825
0.200825
0.198689
0.198031
0.200004
0.197045
0.203291
0.20214
0.200004
0.200332
0.201976
0.199675
0.19836
0.197374
0.19458
0.196388
0.199839
0.201319
0.195566
0.199346
0.19836
0.203455
0.193265
0.200332
0.201154
0.196881
0.199346
0.200661
0.198853
0.201976
0.196717
0.196552
0.199018
0.19836
0.19836
0.197045
0.199675
0.196388
0.199675
0.196059
0.200497
0.197703
0.200168
0.201647
0.196881
0.19195
0.196552
0.198689
0.196717
0.199675
0.193758
0.199018
0.195402
0.196552
0.198196
0.19836
0.197703
0.198031
0.205756
0.195566
0.197703
0.196388
0.201812
0.195073
0.195237
0.196223
0.197703
0.197045
0.198853
0.19836
0.196059
0.198031
0.197045
0.195566
0.199511
0.198031
0.199675
0.200332
0.198524
0.200661
0.201976
0.201319
0.199839
0.200661
0.195895
0.200825
0.197703
0.198524
0.198853
0.198524
0.201976
0.202962
0.197538
0.196223
0.199018
0.200004
0.197867
0.19836
0.198031
0.199182
0.196388
0.198196
0.198853
0.196717
0.196717
0.196552
0.199018
0.197703
0.197374
0.193922
0.197045
0.200497
0.198853
0.200168
0.195073
0.200497
0.197374
0.199018
0.200004
0.193758
0.19573
0.195073
0.19836
0.195895
0.19573
0.196059
0.19721
0.19573
0.198524
0.19721
0.197374
0.199675
0.198196
0.199839
0.201319
0.195566
0.197703
0.196388
0.194909
0.20099
0.195237
0.199018
0.198196
0.197703
0.199018
0.202962
0.201154
0.199839
0.196881
0.199018
0.197703
0.197045
0.197374
0.198196
0.19836
0.198196
0.195566
0.195237
0.197538
0.192443
0.195895
0.198689
0.201812
0.199018
0.201154
0.198689
0.199018
0.197703
0.194416
0.199018
0.195237
0.196881
0.194909
0.196717
0.19195
0.19836
0.194909
0.197867
0.197703
0.198853
0.196881
0.197703
0.19721
0.200168
0.198689
0.192936
0.195402
0.194416
0.197538
0.196059
0.199511
0.195073
0.19195
0.197867
0.195895
0.19195
0.198196
0.196388
0.197374
0.195073
0.194416
0.201976
0.196223
0.200168
0.19721
0.195566
0.194909
0.195073
0.195895
0.196881
0.194087
0.196059
0.196223
0.194744
0.197867
0.195566
0.196388
0.196223
0.196059
0.196717
0.201483
0.203455
0.197374
0.19573
0.196552
0.194251
0.194251
0.193101
0.19573
0.195566
0.196223
0.199346
0.194744
0.197374
0.197703
0.197867
0.196223
0.196881
0.19573
0.198196
0.194909
0.198524
0.195895
0.197867
0.196388
0.196223
0.196059
0.194251
0.201976
0.195073
0.200497
0.192115
0.194909
0.200004
0.195402
0.196059
0.197538
0.197538
0.195566
0.19573
0.195402
0.196881
0.197045
0.197045
0.19458
0.199675
0.196881
0.19836
0.197045
0.198853
0.189814
0.191621
0.194744
0.196717
0.195566
0.196717
0.196552
0.196717
0.19836
0.19458
0.195895
0.196059
0.197538
0.19573
0.198524
0.197538
0.197867
0.196717
0.198689
0.19458
0.198031
0.197867
0.196717
0.198031
0.195402
0.198689
0.199018
0.19836
0.19836
0.196388
0.200661
0.198196
0.198196
0.198031
0.201154
0.19836
0.197045
0.202469
0.198853
0.197867
0.19836
0.20099
0.196059
0.199182
0.199346
0.19573
0.197703
0.200661
0.199182
0.195566
0.195566
0.200825
0.198196
0.195895
0.198031
0.194744
0.194416
0.198689
0.200004
0.202633
0.199182
0.199511
0.196552
0.200825
0.196059
0.200497
0.199511
0.196881
0.200825
0.203948
0.204441
0.199018
0.203126
0.198689
0.207564
0.198031
0.20099
0.20099
0.199018
0.200825
0.207235
0.199346
0.203948
0.202633
0.200168
0.210194
0.199346
0.201647
0.202469
0.204606
0.203291
0.204934
0.199018
0.20477
0.203291
0.203455
0.204277
0.201483
0.200332
0.203291
0.207893
0.202469
0.203291
0.202798
0.204934
0.201976
0.203948
0.191457
0.203948
0.204277
0.203948
0.205099
0.202962
0.203291
0.202305
0.203948
0.20477
0.206578
0.195895
0.203948
0.202798
0.204606
0.202798
0.205427
0.20477
0.20477
0.202633
0.205921
0.204934
0.200168
0.203948
0.202469
0.199675
0.201154
0.205427
0.194909
0.2074
0.204277
0.203126
0.204441
0.204113
0.206249
0.202305
0.206907
0.204934
0.2074
0.205263
0.202962
0.207728
0.20855
0.202962
0.204277
0.203291
0.202633
0.203948
0.199511
0.201483
0.203291
0.204441
0.206085
0.205756
0.2074
0.205756
0.203784
0.206414
0.203455
0.205756
0.205427
0.203784
0.202305
0.205427
0.204277
0.203126
0.204934
0.20362
0.203948
0.202469
0.205263
0.204606
0.205427
0.199018
0.207893
0.204606
0.201154
0.20362
0.201976
0.200004
0.200825
0.200004
0.20362
0.19458
0.200661
0.203784
0.199346
0.202305
0.199346
0.20477
0.198853
0.203126
0.197538
0.196059
0.200168
0.195895
0.193922
0.198853
0.201319
0.196881
0.204277
0.199182
0.201319
0.199018
0.205592
0.19836
0.201976
0.201483
0.201647
0.20214
0.202305
0.203455
0.199182
0.201154
0.20099
0.199675
0.201154
0.199511
0.200168
0.20214
0.197867
0.201154
0.204113
0.201976
0.201647
0.206085
0.203948
0.201647
0.201319
0.20099
0.200825
0.199182
0.199675
0.199839
0.201976
0.198196
0.202469
0.199346
0.201483
0.196059
0.20214
0.199346
0.198853
0.200825
0.202305
0.20099
0.199346
0.204934
0.199839
0.204113
0.199182
0.201976
0.198524
0.199675
0.200497
0.199182
0.200825
0.200497
0.200661
0.201976
0.199675
0.20477
0.203784
0.197703
0.202305
0.199182
0.201976
0.199018
0.200497
0.199675
0.20099
0.198524
0.199839
0.198524
0.200825
0.200497
0.202469
0.203126
0.200661
0.201647
0.199182
0.201647
0.199839
0.200168
0.200332
0.201154
0.199018
0.201647
0.198853
0.197867
0.19573
0.200168
0.205099
0.200497
0.203126
0.198853
0.200497
0.192772
0.197867
0.197374
0.196223
0.19721
0.197045
0.197045
0.19836
0.196552
0.197045
0.198031
0.19721
0.200168
0.196223
0.198524
0.196881
0.197703
0.196552
0.197867
0.195402
0.197703
0.198031
0.20099
0.196059
0.197045
0.19573
0.194251
0.194251
0.191786
0.197867
0.195566
0.193265
0.195073
0.196059
0.193265
0.195237
0.192936
0.195566
0.193922
0.192936
0.193265
0.191293
0.193594
0.192936
0.195566
0.19721
0.195402
0.191457
0.187513
0.192936
0.194416
0.188499
0.199346
0.191293
0.195237
0.197045
0.193101
0.195566
0.192608
0.193594
0.193758
0.194909
0.191621
0.194744
0.194087
0.195402
0.193265
0.19573
0.19836
0.198196
0.194251
0.196223
0.196552
0.194744
0.19721
0.198689
0.198689
0.196388
0.194251
0.19721
0.19573
0.193265
0.196223
0.198196
0.197374
0.19836
0.199511
0.198853
0.200497
0.201812
0.200825
0.200332
0.197703
0.199182
0.202469
0.200497
0.19458
0.199675
0.195402
0.195895
0.198853
0.205263
0.204277
0.200332
0.201812
0.201319
0.202305
0.199182
0.206578
0.199018
0.201319
0.201976
0.200825
0.199018
0.200825
0.200004
0.200004
0.200332
0.198689
0.202469
0.198689
0.201154
0.200004
0.201154
0.195073
0.202962
0.197867
0.202305
0.19836
0.194251
0.199346
0.198196
0.198853
0.199018
0.199675
0.197374
0.202962
0.20099
0.199182
0.199675
0.200168
0.199346
0.20362
0.199511
0.203948
0.200497
0.19573
0.199018
0.196552
0.196552
0.196388
0.199839
0.197045
0.198524
0.195895
0.19836
0.200168
0.200332
0.19836
0.200825
0.198524
0.201319
0.200004
0.199018
0.201812
0.199018
0.199182
0.200332
0.198689
0.198196
0.202962
0.197374
0.197538
0.199511
0.198524
0.197538
0.200332
0.200825
0.198031
0.193758
0.19458
0.19836
0.196388
0.196059
0.198196
0.198689
0.195237
0.199182
0.196552
0.19721
0.195073
0.195895
0.19573
0.195237
0.200661
0.196717
0.194744
0.195402
0.197538
0.193101
0.196881
0.191621
0.194416
0.191128
0.196552
0.19573
0.194909
0.197045
0.196388
0.197538
0.195237
0.199182
0.194251
0.196717
0.195402
0.196881
0.19195
0.199018
0.196388
0.193429
0.193429
0.19721
0.197045
0.192443
0.191457
0.190964
0.19458
0.192936
0.194251
0.189485
0.195073
0.192115
0.194087
0.197374
0.191293
0.191293
0.190307
0.195237
0.18817
0.191128
0.189978
0.190142
0.190142
0.1908
0.195895
0.187348
0.187184
0.1908
0.187677
0.190307
0.188663
0.186033
0.190964
0.19195
0.188334
0.18817
0.187019
0.188499
0.188499
0.187513
0.189814
0.188663
0.188663
0.1908
0.189649
0.18932
0.183732
0.190471
0.189978
0.188334
0.188006
0.188334
0.18932
0.186526
0.193265
0.188663
0.188827
0.182746
0.184718
0.183897
0.191621
0.191128
0.188334
0.192608
0.189814
0.192279
0.191293
0.19195
0.182911
0.188334
0.191786
0.191621
0.191786
0.191786
0.193101
0.18554
0.189485
0.1908
0.190307
0.185869
0.192279
0.193758
0.193265
0.19573
0.191786
0.191621
0.188827
0.193594
0.19836
0.190471
0.189814
0.193101
0.191457
0.194744
0.193101
0.192279
0.192115
0.201154
0.197538
0.194087
0.196059
0.192936
0.194251
0.193101
0.196388
0.194251
0.197538
0.191457
0.192115
0.190142
0.195566
0.19195
0.189978
0.196881
0.191128
0.194251
0.193101
0.194909
0.193101
0.196223
0.194251
0.193758
0.19458
0.191128
0.192772
0.195073
0.187677
0.190635
0.191128
0.189978
0.18932
0.193758
0.193594
0.193265
0.191621
0.188499
0.194744
0.192443
0.192443
0.193922
0.193265
0.191457
0.194087
0.192936
0.190964
0.1908
0.188006
0.19573
0.191128
0.194744
0.194416
0.19458
0.192608
0.193758
0.194087
0.194087
0.194909
0.192115
0.189814
0.192772
0.194416
0.188006
0.192115
0.190635
0.193101
0.190635
0.192608
0.191457
0.194087
0.193758
0.193429
0.191786
0.193922
0.193429
0.192936
0.19721
0.190471
0.190635
0.189485
0.190635
0.187019
0.191128
0.191293
0.1908
0.191457
0.192772
0.196059
0.194744
0.193265
0.194744
0.196223
0.1908
0.193594
0.192608
0.192772
0.189156
0.187841
0.191128
0.193429
0.190964
0.193101
0.190471
0.189156
0.192608
0.191621
0.196388
0.190964
0.189814
0.192936
0.193265
0.189485
0.189485
0.189485
0.187677
0.187841
0.192279
0.186526
0.187184
0.189156
0.188827
0.190307
0.187513
0.188992
0.191457
0.189649
0.19195
0.187841
0.183239
0.188663
0.18554
0.187019
0.183568
0.187348
0.185376
0.187677
0.18554
0.187677
0.190307
0.186526
0.185212
0.184883
0.187513
0.182582
0.187513
0.183732
0.186198
0.178309
0.181596
0.181103
0.180445
0.180445
0.179623
0.182417
0.179623
0.182582
0.181267
0.179952
0.17913
0.178802
0.180774
0.177322
0.178966
0.175679
0.17913
0.176829
0.175679
0.176008
0.174857
0.172063
0.173542
0.169926
0.173871
0.16894
0.17272
0.169598
0.170091
0.170748
0.169926
0.168118
0.167625
0.167132
0.163023
0.166804
0.163352
0.164174
0.165324
0.165982
0.16138
0.161544
0.157271
0.158914
0.162366
0.160229
0.159736
0.162202
0.158421
0.159243
0.158421
0.155792
0.1576
0.150697
0.152505
0.153162
0.152669
0.150204
0.152833
0.148231
0.152176
0.14971
0.147409
0.149382
0.148396
0.147903
0.146916
0.149875
0.146423
0.146423
0.145108
0.147738
0.144944
0.143629
0.142972
0.144944
0.13952
0.139027
0.137548
0.136891
0.141657
0.138205
0.143465
0.142807
0.142479
0.141657
0.143465
0.140835
0.14215
0.141
0.139356
0.135083
0.140835
0.141328
0.140013
0.144122
0.144615
0.144944
0.145108
0.145437
0.147738
0.145437
0.146916
0.14856
0.148396
0.14971
0.149875
0.149382
0.14971
0.149053
0.150532
0.148231
0.150697
0.154148
0.153984
0.158257
0.159901
0.160887
0.164667
0.164831
0.167132
0.164174
0.171899
0.169269
0.170913
0.170748
0.175186
0.176501
0.178802
0.174035
0.177322
0.184061
0.181924
0.185376
0.189814
0.192115
0.190635
0.198524
0.197374
0.199346
0.200168
0.198524
0.199839
0.207564
0.206414
0.205921
0.213481
0.21118
0.215782
0.214631
0.217426
0.215618
0.220877
0.21759
0.221863
0.221699
0.223342
0.226136
0.22663
0.227944
0.229588
0.228602
0.231232
0.234519
0.229424
0.234026
0.233204
0.236162
0.236984
0.24438
0.244051
0.243394
0.241915
0.24438
0.244709
0.242572
0.246024
0.24323
0.245859
0.249146
0.250626
0.248325
0.249639
0.246352
0.249968
0.248982
0.254241
0.251447
0.25457
0.254406
0.253913
0.259172
0.260651
0.263117
0.256871
0.258679
0.258515
0.258022
0.256871
0.26098
0.258679
0.257364
0.262295
0.261638
0.260323
0.262459
0.259337
0.264267
0.262788
0.261473
0.263281
0.258843
0.262131
0.263281
0.263774
0.261144
0.262295
0.2572
0.263939
0.260487
0.259172
0.261473
0.261144
0.262459
0.260487
0.262788
0.259008
0.258022
0.253748
0.254899
0.253584
0.255721
0.254406
0.255885
0.253748
0.253255
0.251447
0.250626
0.251447
0.250954
0.250297
0.248489
0.248653
0.248653
0.252105
0.246024
0.245859
0.24175
0.242901
0.240271
0.243394
0.241422
0.23534
0.236162
0.229588
0.23419
0.228602
0.234354
0.230903
0.232053
0.231396
0.230903
0.23534
0.227123
0.227123
0.227123
0.225972
0.223835
0.224164
0.22137
0.223342
0.221863
0.220877
