Ladekurvenmessung

Zeit: 2018_05_04 09.57.18

Info: FVA3, v = 0.533, T = 23, F = 20, h = 381.9

Ladewiderstand[Ohm]: 1012700

Störkapazität[pF]: 0.000000

Entladezeit[ms]: 200

Abtastrate[Hz]: 250000

Anzahl der Messwerte: 2500.000000

Verzögerung[ms]: 3

Ladespannung[V]: 0.200000


Kurve 1

-0.003635
-1.9e-05
0.000803
0.000803
-0.000512
0.002447
0.00031
0.004255
-0.000512
0.001132
-0.004128
-0.001498
0.000146
-0.005114
0.000803
0.000639
0.001625
-0.003635
0.003104
-0.005278
-0.001005
-0.005278
-0.003142
-0.001498
-0.000183
-0.000512
-0.000841
0.001296
-0.004621
0.003268
-0.001662
-0.002484
-0.003142
-0.003142
-0.002155
-0.001005
-0.004128
-0.003963
-0.003963
-0.001991
-0.000676
0.000803
-0.001991
0.003268
-1.9e-05
-0.002648
-0.002155
0.000967
-0.002155
-0.001827
0.001132
-0.001827
-0.000183
-0.001498
-0.002155
-0.001498
-0.000676
0.000146
-0.000841
-1.9e-05
0.000967
-0.000512
0.000639
-1.9e-05
-0.004621
-0.004949
0.00787
-0.001005
-0.003306
-0.000512
-0.002484
-0.003142
-0.004785
0.000639
-0.004456
-0.002484
-0.003306
-0.001662
-0.000512
-0.002484
-1.9e-05
-0.003635
0.000639
-0.001827
0.001625
-0.003799
-0.003799
-0.003635
0.002447
-0.001169
-0.007086
0.00146
-0.001169
-0.002648
-0.002484
-0.000347
-0.003799
-0.00232
-1.9e-05
-1.9e-05
-0.001334
-0.001498
-0.001334
-0.00347
-0.000676
-0.001169
-0.00347
-0.001662
-0.001005
-0.001827
0.00031
-0.002155
-0.002813
-0.001498
0.000967
-0.003635
0.001954
-0.001662
-0.002648
-0.003799
-0.001827
0.003104
0.00146
-0.005443
-0.003306
-0.00232
-0.001005
0.000146
-0.002648
-0.000841
-0.000183
0.000639
-0.000841
0.00031
-0.002977
-0.001498
-0.001169
-0.001005
-0.001169
-0.003635
-0.001827
-0.001662
-0.000347
-0.001169
-0.001662
0.001789
0.001625
0.001132
0.000967
-0.000183
0.000146
0.000967
-0.001334
-0.000347
-0.002155
-0.000512
-0.001498
-0.000347
-0.001991
0.000967
-0.0061
-1.9e-05
-0.001827
0.000803
0.001296
-0.001827
-0.001169
0.000639
0.001296
-0.001827
-0.000183
0.001296
0.002118
-1.9e-05
-0.001005
-0.00232
-0.002484
-0.005114
-0.000676
-0.001498
-0.001005
-0.001334
0.001296
0.000639
-0.001498
0.000967
-0.002155
0.000474
-0.005771
-0.00347
-0.003142
-0.002648
-0.004949
-1.9e-05
-0.003142
-0.001169
-0.001498
-0.004785
0.000639
-0.001827
-0.001169
0.000146
0.001625
-0.000676
0.001789
-0.001334
-0.000676
-0.000183
-0.001498
-0.002155
0.000803
-0.003306
-0.000841
-0.001334
-0.000676
0.001954
0.002118
-0.003963
-0.002813
0.001296
-0.003142
0.000803
0.000474
0.002775
-0.002813
-0.000347
-0.003142
-0.000183
-0.001991
-0.000841
-0.000347
-0.001991
-0.002648
-0.000512
-0.000841
-0.000676
-0.001005
-0.002155
-0.001662
-0.0061
-0.003963
-0.001827
-0.001662
-0.001827
-0.003142
-0.002484
-0.00347
0.000146
-0.001169
-1.9e-05
-0.001169
-0.001662
0.00146
-0.000183
-0.001662
-0.000183
-0.001169
0.000146
0.000803
-0.001169
-0.000841
-0.003799
-0.001991
-0.004621
-0.001334
-0.003142
-0.000512
0.000803
-0.000841
-0.001991
-0.000512
0.000146
0.000803
-0.000183
-0.002648
0.000474
0.000146
-0.001991
-1.9e-05
-1.9e-05
-0.001169
-0.000183
-0.001498
-0.000841
-0.002813
-0.001005
-0.004456
-0.005607
-0.005771
-0.003306
-0.003963
-0.002155
-0.001334
0.001296
0.001296
-0.002484
0.000639
0.003104
0.00146
-0.003142
0.002775
-0.001334
-1.9e-05
-0.001334
-0.00347
-0.000183
-0.00232
-0.001827
0.000474
-0.002155
-0.001662
0.003104
-1.9e-05
-0.001005
-0.000512
-0.001991
-0.003306
-0.004621
-0.002813
-0.001662
-0.002648
-0.00232
0.003104
0.000803
0.00146
0.00031
-1.9e-05
-0.001827
0.00146
-0.002155
0.000146
-0.000676
-0.005771
0.001625
-0.003142
-0.004621
-0.004621
-0.00232
-0.007579
-0.004292
0.001954
-0.003799
-0.001005
-0.001169
-0.000676
0.002611
-0.001498
0.004748
0.001296
-0.002484
-0.001005
-0.002813
-0.003799
-0.002813
-0.002977
-0.001991
0.000146
-0.001169
-0.001005
0.000803
-0.000183
0.000146
0.003597
-0.000676
0.001625
0.001625
-0.000183
-0.00232
-0.002484
-0.002484
-0.001991
-0.00232
-0.001169
-0.003306
-0.002977
-0.001827
-0.002484
0.002447
-0.002648
0.000474
0.00031
-0.000512
-0.000841
-0.000841
-0.003306
-0.004128
-0.002813
-0.001169
-0.001334
-0.00873
0.002282
-0.002155
-0.003142
-0.000841
-0.00232
0.000639
0.000639
0.000639
-0.001662
-0.00347
-0.003306
-0.000841
-0.001991
-0.000676
-0.003142
0.000474
-0.002813
-0.001498
-0.002155
-0.00347
0.000146
0.000474
-0.000512
0.000967
0.002282
0.000803
-0.001169
-0.003963
0.001132
-0.00347
-0.001991
-0.001498
-0.001005
-0.003799
0.000803
-0.000347
-0.00347
-0.002977
-0.000347
-0.000841
-0.000183
-0.002977
-0.000841
0.002282
-0.001827
0.00031
-0.001005
-0.000841
0.002118
-1.9e-05
-0.001827
-0.003142
-0.006922
-0.001498
0.000639
-0.001498
0.00146
-0.002484
-0.004292
-0.004621
0.000639
-0.001169
0.000639
-0.002648
0.001954
-1.9e-05
-0.001169
0.000803
-0.000512
-0.005443
-0.005607
-0.002813
-0.003306
-0.001005
-0.001991
0.00031
-0.001005
-0.001662
-0.001169
0.002775
0.000967
-0.002977
-0.005607
-0.001991
-0.003142
-1.9e-05
0.001132
-0.001498
-0.000676
-0.003799
0.004255
-0.005278
-0.003142
-0.002484
-0.001334
-0.002648
-0.003142
-0.00232
0.003761
0.00031
-0.001662
0.004912
-0.002813
-0.001827
-0.001334
0.000639
-0.003963
0.000474
-0.001334
-0.001827
0.002611
0.00146
0.004748
-0.001334
0.00409
-0.001169
0.001132
-0.001169
0.001789
-0.000512
-0.001991
-0.001662
-0.001498
-0.00725
-0.000347
-0.00347
-0.003142
-0.001169
-1.9e-05
0.001132
0.002118
-0.000676
0.001132
0.001625
-0.010538
-0.000512
-0.001662
-0.000512
-0.002155
-0.002977
-0.000512
-1.9e-05
-0.002484
-0.001662
-0.003799
-0.015304
-0.001169
-0.0061
-0.006264
-0.00347
0.001132
-1.9e-05
0.003761
0.001296
-0.002484
-0.000347
-0.009387
-0.004456
0.00031
-0.004949
0.000639
0.002282
0.00146
0.004255
-0.002484
-0.001827
0.000803
-0.000183
-0.000676
0.000146
-0.000347
-0.001827
-0.003142
0.004419
-0.002648
-0.001662
-1.9e-05
-0.001334
0.000146
-0.005278
0.002118
-0.001169
-0.001498
-0.001827
0.00409
0.002447
-0.001005
-0.001334
-1.9e-05
-0.001334
-0.002648
-0.001334
-0.001498
-0.001169
-0.004621
-0.001005
-0.000676
0.00031
-0.002813
-0.005114
-0.002813
-0.001498
-0.002977
-0.001005
-1.9e-05
0.000967
0.000146
0.003433
0.000803
-0.001498
0.000639
-0.000183
-0.004949
-0.004621
-0.000183
-0.003142
-0.002648
0.003433
0.003761
-0.00347
0.001789
-0.000183
-0.001169
-0.000512
-0.001498
0.000474
-1.9e-05
-0.000841
0.000639
-0.001662
-0.005278
-0.001991
-0.006757
-0.002155
-0.005443
-0.001827
0.000474
-0.000183
-0.001334
0.000146
0.000967
-0.000512
0.000146
-0.001498
-0.000676
-0.00232
-0.003635
-0.004128
0.000146
0.000146
-0.002484
-0.001991
0.000639
0.001789
-0.001498
0.000474
0.000803
0.000474
-0.001991
0.00294
0.000639
-0.000676
-0.002484
-0.005443
-0.004621
-0.000512
-0.004949
-0.001498
-0.001498
-0.001827
-1.9e-05
-0.000183
-1.9e-05
-0.002484
0.000803
0.00146
0.001625
-0.001498
0.003104
-0.002977
-0.00232
-0.000676
0.000474
-0.002648
-0.00988
-0.000841
-0.00232
0.000474
-0.001005
-0.000676
-0.000512
0.000474
-0.001827
0.000803
-0.001498
-0.001169
-0.000183
0.000967
-0.006429
-0.007579
-0.003799
-0.004949
-0.005443
-0.0061
-0.000841
-0.00232
-0.003142
-0.001498
0.00146
-0.000676
0.001296
0.000474
-0.001827
-0.003306
-0.002484
-0.006922
-0.004456
-0.000183
-0.002813
-0.002813
-0.002813
-0.000676
0.001132
-0.001169
-0.002155
-0.001169
-0.001334
0.000146
-0.001662
0.001132
0.000803
-0.001991
-0.002155
-0.000841
-0.002155
-0.005114
-0.001005
-0.000347
-1.9e-05
-0.002484
0.003926
-0.000841
-0.002648
0.000639
-0.002484
0.00031
-0.001991
-0.002813
-0.00347
0.000639
-0.005443
-0.00232
-0.001334
-0.002155
-0.00347
0.002447
-0.004292
-0.001991
-0.001827
-0.000676
-0.000676
0.002611
0.010664
0.019704
0.029894
0.040742
0.043865
0.046659
0.053562
0.057835
0.064245
0.068518
0.070983
0.078051
0.084625
0.083475
0.092679
0.096459
0.099746
0.103033
0.108786
0.114209
0.115031
0.119797
0.122756
0.12818
0.131138
0.132946
0.133932
0.135576
0.138534
0.141821
0.14478
0.145108
0.143958
0.14971
0.152998
0.153655
0.155627
0.155463
0.162202
0.163845
0.162695
0.166804
0.171899
0.168283
0.169433
0.169269
0.169762
0.171406
0.17157
0.173707
0.173049
0.174857
0.176008
0.179459
0.177158
0.181596
0.180445
0.18176
0.182417
0.183075
0.182746
0.182253
0.178473
0.180938
0.188334
0.18817
0.186033
0.186362
0.187184
0.184554
0.188827
0.188499
0.189978
0.190307
0.190964
0.190964
0.190471
0.19195
0.191293
0.191786
0.189485
0.19458
0.186198
0.191128
0.191293
0.189156
0.191128
0.189978
0.19195
0.198031
0.193594
0.195237
0.193265
0.193758
0.19721
0.19458
0.195566
0.197538
0.194416
0.192608
0.198853
0.193758
0.19573
0.197538
0.195895
0.196223
0.198524
0.19836
0.197538
0.197867
0.197045
0.199839
0.197867
0.199346
0.193101
0.195895
0.194416
0.197538
0.194087
0.195566
0.19573
0.194251
0.19836
0.197867
0.198853
0.199839
0.199675
0.197374
0.19836
0.196388
0.197703
0.196717
0.197538
0.195402
0.196717
0.195566
0.197374
0.192279
0.195237
0.198031
0.199018
0.200825
0.203291
0.199839
0.191457
0.19836
0.197045
0.19836
0.19836
0.198031
0.197703
0.197703
0.197045
0.19721
0.196881
0.198689
0.198853
0.198853
0.198689
0.19836
0.198689
0.196223
0.198524
0.196388
0.202305
0.201647
0.198689
0.198689
0.198524
0.196717
0.196059
0.197703
0.195895
0.201812
0.19573
0.197538
0.197374
0.202305
0.195895
0.200497
0.198196
0.19836
0.198853
0.199182
0.197867
0.197374
0.194909
0.197374
0.196388
0.195402
0.199839
0.196059
0.194087
0.197538
0.203784
0.198689
0.20099
0.19836
0.199182
0.200004
0.198196
0.198853
0.199675
0.198031
0.198196
0.198689
0.197703
0.199182
0.194909
0.199018
0.199675
0.194251
0.197374
0.202469
0.197867
0.194416
0.199018
0.197045
0.197867
0.196717
0.199018
0.198689
0.198031
0.197045
0.199839
0.196552
0.197703
0.197045
0.198853
0.198689
0.19721
0.201976
0.197538
0.197538
0.198031
0.197703
0.196059
0.198853
0.197703
0.200168
0.197045
0.201319
0.197867
0.197374
0.196552
0.201154
0.201154
0.199346
0.200004
0.197867
0.198689
0.200332
0.200004
0.20099
0.20099
0.199346
0.197538
0.196223
0.198689
0.197374
0.197374
0.201976
0.199675
0.200497
0.202798
0.204113
0.201647
0.200332
0.199839
0.197703
0.199839
0.200825
0.197538
0.198196
0.196388
0.199346
0.197867
0.197374
0.198524
0.19836
0.199182
0.197867
0.19836
0.196881
0.197867
0.195895
0.199511
0.197538
0.197867
0.200661
0.197374
0.194251
0.196552
0.197538
0.194744
0.195402
0.196059
0.201154
0.196552
0.199839
0.198196
0.203126
0.19836
0.201319
0.198689
0.19836
0.197045
0.196717
0.200825
0.198524
0.199839
0.198689
0.199346
0.197045
0.199182
0.197703
0.193594
0.196881
0.197538
0.200661
0.198524
0.200168
0.199511
0.200825
0.197538
0.198031
0.201647
0.199839
0.197538
0.19836
0.198031
0.200332
0.197045
0.19836
0.197045
0.198031
0.196881
0.198031
0.197867
0.199675
0.20477
0.199511
0.201647
0.201319
0.201647
0.200168
0.19836
0.196717
0.201319
0.197867
0.19721
0.197374
0.199839
0.199839
0.199346
0.198031
0.199018
0.199839
0.199182
0.199839
0.198031
0.19458
0.193265
0.201976
0.198524
0.196717
0.199675
0.201483
0.199675
0.197867
0.200332
0.199675
0.196552
0.199346
0.20362
0.200004
0.201319
0.199839
0.202305
0.199675
0.198196
0.197374
0.195237
0.197867
0.196881
0.196881
0.196717
0.198524
0.198524
0.200825
0.200004
0.201976
0.198853
0.201483
0.200332
0.2074
0.202633
0.203784
0.198853
0.201154
0.196388
0.197867
0.197867
0.196881
0.200332
0.19721
0.199018
0.200004
0.201154
0.199675
0.199182
0.199346
0.199346
0.199839
0.198689
0.200497
0.199346
0.200825
0.198196
0.199675
0.19573
0.200004
0.198524
0.198524
0.198031
0.198689
0.200332
0.200661
0.201319
0.201154
0.200497
0.19836
0.199675
0.200168
0.19573
0.195895
0.197374
0.19573
0.197867
0.194251
0.199182
0.199346
0.197703
0.201483
0.203126
0.19721
0.204277
0.201154
0.19836
0.200004
0.200168
0.198853
0.200332
0.199346
0.19721
0.206249
0.194087
0.197374
0.199511
0.198031
0.197703
0.205592
0.203291
0.200497
0.201319
0.199346
0.204934
0.193758
0.195566
0.195566
0.197374
0.198031
0.200661
0.198689
0.198853
0.199839
0.201319
0.201647
0.199839
0.198689
0.196552
0.199511
0.197045
0.200825
0.199675
0.199182
0.197538
0.198853
0.202962
0.199675
0.197045
0.200004
0.198853
0.199018
0.200004
0.200168
0.196552
0.19836
0.201483
0.192936
0.199675
0.198524
0.200332
0.200004
0.199182
0.200825
0.200004
0.199346
0.196881
0.195895
0.191293
0.20362
0.198689
0.199511
0.20099
0.199839
0.200004
0.199182
0.200825
0.203948
0.201483
0.190635
0.198031
0.199018
0.199675
0.19721
0.200661
0.199346
0.198853
0.197867
0.199182
0.199018
0.196388
0.195073
0.197538
0.199182
0.196552
0.195895
0.199675
0.198196
0.198196
0.200497
0.198853
0.19573
0.192608
0.197538
0.194416
0.197374
0.198196
0.200825
0.199346
0.201483
0.200332
0.201647
0.199346
0.200004
0.198689
0.198524
0.20214
0.195566
0.198689
0.202469
0.199675
0.197374
0.200332
0.200168
0.197538
0.199346
0.201483
0.203784
0.199675
0.200497
0.198196
0.201812
0.199182
0.200497
0.19836
0.198031
0.197703
0.20099
0.196388
0.197703
0.196881
0.197538
0.200168
0.198196
0.196552
0.195073
0.200661
0.195566
0.201319
0.200332
0.197703
0.199839
0.196717
0.195566
0.197703
0.196059
0.199511
0.19836
0.19836
0.199675
0.200004
0.200497
0.199675
0.199839
0.200332
0.20214
0.198524
0.198689
0.200661
0.201812
0.199182
0.20099
0.197538
0.200332
0.19721
0.197538
0.199839
0.198853
0.197867
0.196223
0.197538
0.197374
0.198031
0.198689
0.202633
0.197867
0.199675
0.19836
0.199182
0.198853
0.196223
0.197374
0.196717
0.202962
0.197703
0.197703
0.200004
0.203948
0.198196
0.200497
0.200661
0.202469
0.196717
0.197374
0.202469
0.199018
0.197867
0.197867
0.199675
0.198689
0.200661
0.201154
0.200332
0.199346
0.200332
0.199182
0.200825
0.199182
0.196717
0.204113
0.201154
0.200497
0.20099
0.20214
0.197703
0.199839
0.195402
0.200168
0.193922
0.196388
0.195566
0.200661
0.200168
0.199675
0.203455
0.196223
0.202962
0.198689
0.197374
0.200004
0.197867
0.200004
0.202305
0.19721
0.20099
0.19836
0.197867
0.197538
0.19573
0.198853
0.200332
0.198524
0.200332
0.200168
0.200168
0.20362
0.199675
0.200825
0.199675
0.200004
0.198524
0.20099
0.195402
0.198524
0.195237
0.200661
0.199182
0.201154
0.19721
0.195895
0.198689
0.198689
0.201483
0.197045
0.200825
0.198853
0.201812
0.196717
0.197703
0.199182
0.200497
0.199346
0.198031
0.20099
0.200004
0.196717
0.201483
0.202962
0.196881
0.204606
0.198196
0.198031
0.194416
0.197045
0.194416
0.196223
0.195566
0.196388
0.199346
0.197867
0.202305
0.199511
0.200661
0.202469
0.202305
0.200497
0.201647
0.200332
0.201812
0.20099
0.19721
0.202633
0.198524
0.195895
0.199018
0.19836
0.196881
0.200497
0.198853
0.192608
0.199675
0.200332
0.197703
0.199346
0.197045
0.200332
0.198196
0.19836
0.197374
0.201154
0.200497
0.198196
0.19836
0.199839
0.200004
0.196059
0.199675
0.198853
0.200004
0.199018
0.200497
0.19721
0.194251
0.194744
0.195402
0.197867
0.196388
0.200661
0.198031
0.200332
0.19836
0.202305
0.199346
0.202469
0.199346
0.201319
0.201647
0.199511
0.200004
0.199675
0.199346
0.197374
0.200661
0.198689
0.200825
0.198689
0.201647
0.197045
0.201812
0.200661
0.198031
0.198031
0.198689
0.200004
0.197538
0.198853
0.199182
0.199511
0.19721
0.200661
0.197374
0.200332
0.196881
0.199182
0.197703
0.198853
0.198689
0.198689
0.200332
0.197045
0.199018
0.196223
0.197374
0.196717
0.19836
0.19836
0.201154
0.20099
0.204113
0.200661
0.200004
0.200004
0.202633
0.19458
0.196223
0.200004
0.197867
0.199182
0.198524
0.198689
0.198524
0.200661
0.198196
0.201976
0.200168
0.200497
0.199511
0.200497
0.198524
0.204277
0.201319
0.201154
0.197703
0.196717
0.200332
0.199346
0.199346
0.199182
0.20214
0.197045
0.202798
0.198031
0.199346
0.197867
0.198689
0.197867
0.199018
0.198853
0.196059
0.200497
0.200332
0.198196
0.195895
0.200332
0.197538
0.196552
0.199018
0.20099
0.201319
0.201976
0.200825
0.199182
0.197045
0.197867
0.199018
0.19836
0.198196
0.199511
0.198524
0.197374
0.201647
0.199346
0.200332
0.200497
0.201319
0.200004
0.199182
0.20099
0.197867
0.201483
0.197703
0.201319
0.198031
0.200661
0.196717
0.198853
0.197703
0.197867
0.197538
0.200497
0.199182
0.198524
0.198524
0.198524
0.20477
0.19573
0.200661
0.198196
0.197867
0.197867
0.202798
0.197374
0.200168
0.197867
0.198031
0.197045
0.198689
0.198853
0.198196
0.198689
0.201976
0.199346
0.197703
0.202633
0.199346
0.198524
0.201483
0.199182
0.197538
0.201154
0.195895
0.199839
0.199182
0.197538
0.200825
0.197538
0.198853
0.196717
0.201812
0.198524
0.193101
0.19458
0.198853
0.196388
0.19836
0.19836
0.198524
0.197703
0.197374
0.199346
0.19836
0.199346
0.200332
0.204277
0.200661
0.201483
0.200497
0.200661
0.198853
0.191786
0.20099
0.198689
0.194416
0.19573
0.196388
0.199018
0.199675
0.198196
0.199511
0.199511
0.199018
0.200497
0.204934
0.198196
0.201483
0.200497
0.201319
0.198524
0.200825
0.199182
0.197374
0.200825
0.200825
0.199346
0.197867
0.199675
0.195566
0.19836
0.199182
0.201647
0.20099
0.200332
0.20099
0.200661
0.197045
0.200168
0.199839
0.197374
0.199182
0.198031
0.200004
0.195402
0.198853
0.198853
0.202633
0.197703
0.202305
0.198524
0.19721
0.194909
0.196388
0.198031
0.196223
0.200168
0.195566
0.204441
0.198031
0.202633
0.195566
0.200004
0.19836
0.19836
0.196717
0.196388
0.20099
0.199018
0.200661
0.200661
0.201812
0.198031
0.200004
0.198853
0.199675
0.200497
0.198031
0.197867
0.199839
0.200497
0.198196
0.200332
0.201483
0.206414
0.200825
0.20099
0.201812
0.198853
0.200168
0.202305
0.199675
0.201483
0.19836
0.199675
0.197045
0.20099
0.199182
0.199182
0.197703
0.201154
0.199839
0.200825
0.199675
0.198689
0.200825
0.198524
0.200168
0.198196
0.199511
0.198524
0.200332
0.198689
0.203291
0.198689
0.200004
0.199182
0.198689
0.201483
0.199182
0.201812
0.197374
0.203291
0.199839
0.197703
0.198031
0.201976
0.197867
0.199675
0.199182
0.197703
0.199675
0.199018
0.200332
0.200168
0.201812
0.200497
0.201154
0.196223
0.194744
0.198853
0.198689
0.196059
0.199839
0.200332
0.200332
0.200168
0.199346
0.20099
0.196881
0.200004
0.198689
0.197867
0.201154
0.19721
0.199346
0.201483
0.197374
0.200004
0.208715
0.20214
0.200825
0.201812
0.200661
0.199675
0.201976
0.201812
0.200497
0.196717
0.203126
0.199839
0.198524
0.198689
0.199346
0.201319
0.20099
0.200332
0.202633
0.201319
0.200661
0.202469
0.199182
0.199675
0.198689
0.201154
0.199182
0.200825
0.197374
0.208715
0.202798
0.200661
0.20099
0.202305
0.199511
0.202798
0.202798
0.198689
0.202962
0.200497
0.202633
0.200004
0.200661
0.199182
0.20214
0.197374
0.196059
0.199182
0.199182
0.192115
0.191621
0.201647
0.199182
0.201647
0.200168
0.2074
0.198031
0.201647
0.200825
0.200497
0.199346
0.20214
0.199182
0.20214
0.201319
0.19573
0.210358
0.196059
0.201976
0.200004
0.200825
0.199839
0.203291
0.201976
0.200497
0.201812
0.200497
0.203126
0.19721
0.194416
0.195073
0.199839
0.200332
0.202962
0.201812
0.203291
0.200004
0.201154
0.196223
0.198524
0.200497
0.201812
0.19573
0.199511
0.199018
0.199839
0.197374
0.198689
0.198031
0.184883
0.206742
0.202469
0.200661
0.20099
0.201812
0.20214
0.204113
0.199675
0.205427
0.200825
0.187513
0.198031
0.198031
0.199346
0.199182
0.199018
0.201976
0.201647
0.197538
0.202469
0.19836
0.197045
0.19721
0.199511
0.200825
0.201483
0.200332
0.199675
0.203455
0.200825
0.200661
0.194251
0.197374
0.196059
0.198031
0.19721
0.199839
0.199675
0.200497
0.20099
0.201483
0.200332
0.201319
0.197867
0.195237
0.197703
0.197703
0.200332
0.200661
0.203291
0.196881
0.199839
0.19721
0.199675
0.199839
0.199018
0.199839
0.200004
0.200332
0.199675
0.200004
0.198031
0.20099
0.199182
0.20099
0.203784
0.198031
0.19721
0.200497
0.196552
0.199182
0.200004
0.199182
0.199018
0.198524
0.200168
0.201319
0.198853
0.19195
0.201154
0.199511
0.201976
0.19721
0.199182
0.196881
0.199346
0.19836
0.198031
0.200004
0.197374
0.199675
0.199018
0.200332
0.194744
0.200168
0.198031
0.200497
0.200825
0.197703
0.197045
0.198689
0.200332
0.202798
0.202305
0.198524
0.200332
0.199346
0.199675
0.199182
0.200332
0.201154
0.201154
0.199182
0.202469
0.200661
0.201812
0.200661
0.199839
0.199675
0.199182
0.199675
0.202305
0.199511
0.198524
0.197703
0.200497
0.200825
0.198031
0.204277
0.198524
0.202633
0.204113
0.204441
0.199346
0.200825
0.199839
0.200825
0.199675
0.196881
0.199839
0.19836
0.200497
0.199182
0.200004
0.196881
0.198689
0.198853
0.198196
0.194744
0.196717
0.202469
0.197867
0.19836
0.196717
0.200332
0.197374
0.200168
0.197703
0.20099
0.200168
0.196388
0.201976
0.200168
0.201483
0.201647
0.201319
0.199018
0.200661
0.199675
0.200661
0.19836
0.198524
0.198853
0.200825
0.199182
0.200332
0.199182
0.200825
0.200004
0.197703
0.202305
0.197867
0.200661
0.202962
0.201647
0.200825
0.200332
0.200004
0.203455
0.199182
0.199675
0.197538
0.200661
0.198031
0.198853
0.20214
0.199018
0.197374
0.195237
0.137219
0.126865
0.06556
0.025785
0.013459
0.010664
0.004748
0.003926
0.001954
0.010171
0.015266
0.013294
0.008692
0.006391
0.005076
0.00935
0.007706
0.005241
0.005734
0.011815
0.010007
0.003433
0.003104
0.002118
0.00031
0.000803
-0.000183
-1.9e-05
-0.001991
-0.000676
-0.000512
-0.000183
0.00146
0.000639
0.00146
0.000803
0.000639
0.001132
0.000146
-0.000676
0.00146
-0.000841
0.000146
-0.001827
0.000146
-0.002813
0.00146
-0.001662
0.001132
0.005405
-0.000183
0.000639
-0.000512
0.000803
0.00031
-0.000183
-0.000676
0.000803
0.00146
0.001789
-0.001334
0.000146
-0.000347
-0.000841
0.002447
0.003104
0.00031
-0.000183
0.000803
0.003926
-0.001498
-0.000841
0.001625
0.000146
0.00031
0.00294
0.004583
0.000474
-0.000676
0.003104
-0.001169
-0.002977
0.00031
-0.003963
0.00146
0.000474
-0.000841
-0.001498
0.002282
0.012472
0.018389
0.016088
0.013294
0.012965
0.008528
0.00146
0.001296
-0.000676
-0.001827
0.005241
0.004748
0.00787
0.007213
0.010007
0.009843
0.00935
0.008857
0.017403
0.020197
0.026278
0.021019
0.018554
0.013294
0.009021
0.002775
0.002118
-0.000183
0.000803
-0.001498
-1.9e-05
-0.002813
-0.000183
0.001132
0.000803
0.000474
0.000474
0.000639
-0.000183
-0.000512
-0.000512
-0.000512
-0.000676
-1.9e-05
-0.000183
0.00031
0.000146
0.000146
0.000474
-0.000183
-0.000347
-0.000512
-0.000512
-0.000512
-0.000183
0.000146
0.000474
-1.9e-05
0.000146
0.000146
-0.000676
-0.000676
-0.000347
-0.000841
-1.9e-05
-0.000183
0.000474
0.000146
0.000146
0.000474
0.000146
-0.000183
-0.000347
-0.000512
-0.000512
-0.000183
-0.000183
0.000146
-1.9e-05
0.00031
-1.9e-05
-1.9e-05
-1.9e-05
0.000146
0.000146
-0.003142
0.00409
0.015102
0.020526
0.029237
0.036304
0.043371
0.048467
0.055205
0.061286
0.066546
0.072463
0.076407
0.082982
0.089227
0.091364
0.097609
0.099746
0.105005
0.108293
0.111087
0.113059
0.118976
0.123085
0.127522
0.126207
0.129988
0.13837
0.137548
0.138863
0.144451
0.143301
0.147409
0.150697
0.149382
0.153819
0.151518
0.157107
0.155792
0.159736
0.164174
0.161544
0.16779
0.165653
0.169433
0.170913
0.171734
0.170091
0.17272
0.172556
0.177158
0.174035
0.176994
0.177651
0.176829
0.181267
0.179459
0.181103
0.18061
0.182089
0.178637
0.185869
0.182253
0.186691
0.184883
0.188663
0.188992
0.186362
0.186691
0.186198
0.187184
0.189814
0.189814
0.188827
0.190471
0.188334
0.191786
0.190142
0.188992
0.188827
0.196059
0.193758
0.191786
0.192443
0.189156
0.193594
0.192279
0.193922
0.194744
0.19573
0.193594
0.19573
0.195402
0.197374
0.191457
0.196388
0.198853
0.196881
0.198689
0.195566
0.201976
0.195402
0.197045
0.197045
0.196059
0.195073
0.196717
0.19721
0.197045
0.195073
0.198031
0.197867
0.199018
0.198689
0.199675
0.199182
0.201319
0.195237
0.196552
0.200004
0.198524
0.198031
0.197867
0.197045
0.19836
0.198031
0.196552
0.197045
0.199182
0.201319
0.199182
0.200004
0.201319
0.197703
0.196717
0.20214
0.199182

Kurve 2

-0.001334
0.005241
0.000639
0.002447
0.001789
0.000803
0.000474
-0.000183
-0.000676
-0.003142
-0.004456
-0.005278
0.000639
-0.000512
-0.001991
0.000803
-0.000512
0.000474
0.001789
-0.001498
0.000474
-0.001334
-0.001498
-0.001827
-0.005443
-0.002155
-0.002813
-0.001662
-0.001827
0.00146
-0.00232
-0.001169
-0.000841
0.000146
-0.000676
0.001132
0.001296
-0.000512
0.000146
-0.00347
0.001954
0.000474
-0.000512
-0.000676
0.002447
0.000967
-0.002484
0.00031
0.001132
-0.000676
-0.00347
0.00146
0.001296
-0.001334
0.000803
0.000146
-0.00232
-0.000841
-0.002155
-0.000512
-1.9e-05
0.003597
0.000803
-0.000183
-0.004128
-0.000347
-0.003142
-0.001334
0.000146
-0.001169
0.001954
-0.003799
-0.004621
-0.001827
-0.001005
-0.005114
-0.002813
-0.000512
-0.00232
-0.001498
0.002282
-0.002977
-0.001498
-0.002155
-0.000347
-0.00232
-0.001991
-0.001169
0.001296
-0.000183
-0.001662
-0.000841
-0.006593
0.000146
-0.00232
-0.000347
-0.000841
-0.003142
-0.001005
-0.001827
-0.002484
-0.001334
0.00409
-0.002155
-0.001005
0.000803
-0.005278
-0.002813
-0.000183
0.001132
0.000146
-0.002484
-0.002484
0.003268
0.00031
-0.001005
0.000146
-0.001334
-0.001991
-0.002977
-0.001005
-1.9e-05
-0.003963
-0.002813
0.000146
-0.001334
-0.001334
-0.004128
-0.000841
-0.001169
-0.001005
-1.9e-05
0.00031
-0.001662
-0.005278
0.001132
-0.000512
-0.004456
-0.003799
-0.004128
-0.001334
0.00031
0.003104
-0.000676
-0.000183
0.000474
0.002775
-0.000183
-0.001169
-0.001169
-0.00232
-0.000841
-0.002648
-0.001334
-0.002977
-0.000347
-0.004456
-0.000512
-0.002813
-0.0061
-0.004292
0.00031
-0.002155
0.005569
-0.001334
-0.002155
0.001954
-0.002813
-0.001169
-0.003142
-0.001827
-0.00232
-0.000183
-0.002813
-0.004128
-0.001827
-0.00232
-0.001498
-0.000347
-0.001498
-0.002977
0.000474
-0.004128
0.000639
-0.00232
-0.001662
-0.000183
0.000146
-0.003799
0.001296
-0.003306
-0.001662
-0.000841
0.001132
0.002611
-0.001498
0.000967
0.00031
0.000803
-0.002977
0.000639
-0.001827
-0.001662
-0.000841
-0.000676
-0.002977
-0.002484
-0.003142
-0.002155
0.000639
0.000146
0.001132
-0.001005
-0.00232
-0.002813
-0.001005
-0.002813
0.000474
-0.002155
-1.9e-05
-0.004456
-0.002155
-0.004785
-0.000841
-0.003963
-0.004128
-0.000676
-0.001662
0.00146
-0.001662
0.000474
-0.001991
-0.000347
-0.001334
0.001625
-0.001169
-0.00232
-0.002813
0.001132
0.000803
-0.001827
-0.000676
-0.004292
-0.000347
-0.003799
0.001954
-0.001991
-0.003963
-0.001662
-0.001169
-0.000183
-0.000512
-0.001498
0.00146
-0.001169
-0.002648
-0.000676
-0.001991
0.001954
0.001789
-0.001005
-0.002648
0.001296
-0.001991
0.000803
0.001625
0.001954
-0.002155
-0.000347
-0.000841
-0.001005
-0.001005
-0.005114
-0.001005
-0.002813
-1.9e-05
-0.001169
-0.000841
-0.00232
-0.001005
-0.003635
-0.002484
-0.001991
-0.001169
0.000146
0.001296
-0.001827
-0.004128
0.00146
-0.001498
-0.000512
-0.000183
-0.002155
-0.005114
-0.001334
-0.004621
-0.001334
-0.001005
-0.003635
-0.004128
0.002611
-0.001169
0.000146
0.001625
-0.001991
-0.001169
-0.002813
0.004255
0.001625
-0.001498
-0.001498
0.00031
-0.004785
-0.001827
-0.002977
-0.005278
-0.001662
-0.005936
-1.9e-05
-0.001498
-0.000512
-0.001334
-0.001991
0.000474
0.001132
-0.003142
-0.001498
-0.002977
-0.000347
-0.001169
-0.001334
-0.002155
-0.001169
-0.000183
-0.001334
-0.001005
0.002118
0.000474
-0.001334
0.000474
0.000474
0.001625
0.001132
0.000639
0.000639
-0.002155
-0.00232
-0.001498
-0.001005
-0.002813
-0.000841
-0.000841
-0.000347
-0.000512
-0.000676
-0.000841
-0.001662
-0.004456
0.000967
-0.003142
-0.002813
-0.002813
-0.001169
-1.9e-05
-0.002155
-0.003306
0.001296
-0.000841
-0.00232
0.000967
-0.002155
-0.001169
-0.005443
-0.002813
-0.000676
-0.002648
-0.002484
-0.000841
-0.000841
-0.00232
0.00031
-0.003306
-0.002484
-0.002484
-0.001005
-0.004949
0.001132
-0.00232
0.001132
-0.001827
-0.000183
-0.001169
-0.001662
0.002447
-0.000841
0.001296
0.000474
-0.000512
-0.001827
0.001132
-0.002648
-0.000841
-0.002977
-0.001498
-0.003799
-0.003635
0.000146
-0.002977
-0.002155
-0.002813
-0.00232
-0.001991
-0.001991
-0.002813
0.001296
-0.001169
0.002611
0.001625
-1.9e-05
-0.001827
-0.000841
-0.00232
-0.005936
-0.006593
-0.006593
-0.002155
-0.003799
-0.000347
-0.00232
-0.000347
-0.000676
0.001296
-0.001991
0.00146
-0.001662
-0.004128
-0.003142
-0.004456
-0.003635
-0.000347
-0.00232
-0.001005
0.000803
0.002282
-0.001498
-0.001991
0.001132
-0.001334
0.000474
-0.005771
0.000474
0.001625
-0.000841
-0.001334
-0.000676
-0.004621
-0.003142
-0.003635
-0.004128
-0.00232
-0.003963
-0.002813
-0.004292
0.00294
-0.000183
0.003597
-0.001498
0.000146
-0.002155
-0.003306
-0.004456
-0.00725
-0.000841
-0.004785
-0.003799
-0.004292
0.002447
-0.002648
-0.001498
-0.000841
-0.000841
-0.001169
0.00031
0.006556
0.001954
0.00146
0.00031
-0.000676
-0.003142
-1.9e-05
-0.001662
-0.000347
-0.002155
0.005241
0.002775
0.000803
0.000146
-0.001005
-0.001662
0.001296
-0.000183
-1.9e-05
0.000639
-0.002484
0.00294
-0.001169
-0.002484
-0.002977
0.002775
-0.00725
-0.002648
-0.003635
-0.001498
-0.000347
-0.000183
0.000639
0.000803
-0.001169
-0.007579
0.000803
0.00031
-0.004128
-0.003799
-0.001662
-0.002648
-0.002484
-1.9e-05
0.00031
-0.002484
-1.9e-05
-0.001334
0.000803
-1.9e-05
-0.000183
0.002775
-0.001827
0.00146
-1.9e-05
0.003268
-0.001005
0.000803
-1.9e-05
0.002775
-0.001334
-0.000347
-0.000183
-0.003635
-0.002155
-0.000841
0.000639
-0.000512
-1.9e-05
-0.00232
0.00031
-0.00347
0.001296
-0.001991
0.002447
0.002282
0.000474
-1.9e-05
-0.000512
-0.002813
-0.001498
-0.000183
-0.002813
-1.9e-05
-0.001498
-0.003142
0.001132
0.004419
-1.9e-05
0.000639
-0.000183
0.003268
-1.9e-05
-0.000183
-0.001662
-0.000512
0.000803
-0.001662
0.002282
-0.001827
0.001296
-0.001334
-0.000841
-1.9e-05
-0.000676
0.000146
0.001296
0.000146
0.000639
0.005569
0.000803
0.000474
0.000967
0.001954
-0.000676
-0.000347
-0.001498
-1.9e-05
0.000146
-0.001498
0.001954
0.002118
0.001132
0.001296
0.000474
0.007542
0.001132
0.001789
0.001625
0.001132
0.002118
0.000639
0.002118
-0.001169
-0.001005
0.000639
0.007377
-0.002155
-0.003142
-0.001662
-0.001498
0.000146
0.002775
0.004748
0.000803
0.00146
-0.001005
0.003104
-0.000183
-0.005278
-0.003799
-0.001827
-0.002977
-0.001005
-0.000512
0.001132
0.000803
0.000639
-0.000676
-0.002813
0.000146
-0.001827
0.000967
-0.001169
0.000474
0.000639
0.00146
-0.000347
0.002118
-0.011195
-0.002648
-1.9e-05
-0.001991
0.000803
-0.002648
0.002447
0.001132
0.004748
0.002282
0.00409
-0.011359
-0.002977
0.003597
0.000967
-0.001827
0.000803
-0.000512
-0.00232
-0.001662
-0.004128
-0.001991
-0.011852
-0.00232
-0.000841
-0.000512
0.006227
-0.000512
0.00146
0.00294
0.000803
0.000803
-0.000183
-0.002484
-0.004292
-0.001169
0.001132
0.00031
0.000146
-0.005114
-0.003306
0.00031
0.001132
-0.001662
0.001132
-0.002977
-0.000347
0.000967
-0.001169
0.001789
-0.001991
-0.001662
-0.001827
-0.000512
-0.003142
-0.000347
-0.006264
-0.004785
-0.00232
-0.001005
-0.000841
0.000146
0.000146
0.001296
-0.000841
-0.003306
0.001789
-0.001498
-0.001827
-0.010209
-0.006264
-0.004785
-0.002813
-0.006429
-0.000347
-0.00232
-0.001662
0.000474
0.001954
-1.9e-05
-0.000512
0.001132
0.00146
-0.000512
-0.001827
-0.000676
-0.000347
0.000639
-0.001991
-0.001662
-0.001169
-0.002155
-0.001991
-0.003142
-1.9e-05
-0.003799
-0.000347
-0.000676
-0.000512
0.005405
0.012144
0.017074
0.026114
0.031702
0.039756
0.044193
0.047973
0.055041
0.061944
0.068354
0.072298
0.079859
0.081995
0.089063
0.094651
0.099417
0.101554
0.107306
0.112401
0.109114
0.116182
0.121112
0.123249
0.120455
0.127029
0.129495
0.131796
0.134261
0.140671
0.143465
0.146259
0.147409
0.149546
0.151354
0.154477
0.154477
0.159243
0.15875
0.160229
0.157107
0.16779
0.159572
0.166804
0.166475
0.168447
0.167461
0.167132
0.172063
0.172556
0.176501
0.173707
0.178309
0.176665
0.178473
0.179459
0.178309
0.180281
0.179459
0.178473
0.179459
0.182746
0.180938
0.184883
0.182911
0.18439
0.183897
0.188663
0.184554
0.185212
0.18554
0.190307
0.189485
0.183897
0.192443
0.189485
0.188663
0.189156
0.1908
0.187019
0.192608
0.188334
0.192443
0.190964
0.192279
0.19458
0.194251
0.194909
0.192936
0.197538
0.19195
0.192115
0.192115
0.19573
0.192772
0.192608
0.194744
0.19721
0.193265
0.193265
0.199511
0.194416
0.197045
0.196717
0.191786
0.199511
0.195895
0.194416
0.197374
0.200661
0.200332
0.200004
0.197867
0.195402
0.196552
0.195566
0.195566
0.196388
0.195073
0.196223
0.197374
0.197867
0.199346
0.199182
0.194744
0.199182
0.197703
0.196717
0.196881
0.197374
0.196881
0.198031
0.196881
0.199182
0.196223
0.199511
0.195895
0.198031
0.19721
0.19458
0.197867
0.19721
0.201647
0.198524
0.20099
0.199346
0.197703
0.197538
0.198196
0.197538
0.197045
0.197867
0.196552
0.19721
0.197703
0.196881
0.196388
0.201647
0.198689
0.194251
0.200497
0.198689
0.199511
0.198853
0.198853
0.199182
0.19836
0.198853
0.198031
0.196223
0.197538
0.194744
0.194416
0.193922
0.197374
0.197374
0.20099
0.198689
0.199182
0.201319
0.19836
0.199675
0.198689
0.198853
0.197538
0.199839
0.196059
0.19836
0.194909
0.199675
0.197703
0.201154
0.199182
0.200825
0.199182
0.200661
0.199018
0.199511
0.200825
0.199675
0.196881
0.196881
0.198524
0.195566
0.198689
0.197867
0.197703
0.200168
0.198031
0.201319
0.201154
0.199182
0.197867
0.202305
0.200168
0.199018
0.19458
0.203126
0.198524
0.195402
0.196223
0.19721
0.196388
0.195237
0.196059
0.196881
0.198689
0.199182
0.20099
0.199675
0.202469
0.198853
0.200168
0.198031
0.199839
0.199675
0.198853
0.197867
0.19836
0.200004
0.197045
0.197538
0.198853
0.201154
0.195895
0.200004
0.196388
0.200661
0.19836
0.202305
0.203784
0.200825
0.199182
0.199018
0.200168
0.198031
0.196881
0.197867
0.197538
0.196881
0.200497
0.199839
0.198853
0.200168
0.195566
0.196552
0.196717
0.195073
0.195566
0.198031
0.19721
0.196223
0.196552
0.200825
0.195895
0.19836
0.19836
0.197867
0.198853
0.200004
0.19721
0.199511
0.197374
0.203455
0.201319
0.20477
0.200825
0.199675
0.199346
0.19721
0.199346
0.19836
0.199346
0.195566
0.200661
0.197867
0.197867
0.199018
0.196717
0.200661
0.198196
0.200004
0.195073
0.201319
0.197374
0.201319
0.19836
0.199346
0.198196
0.198689
0.196881
0.19836
0.195566
0.195073
0.195566
0.19195
0.197867
0.201319
0.196388
0.195895
0.202305
0.194416
0.200497
0.197703
0.199675
0.199346
0.199182
0.199182
0.197703
0.198196
0.199018
0.201812
0.196388
0.201319
0.204441
0.201647
0.205263
0.202469
0.200661
0.202962
0.200004
0.200661
0.201319
0.199018
0.196388
0.198524
0.196059
0.199182
0.19836
0.200004
0.200168
0.199675
0.199675
0.198689
0.202962
0.196059
0.20214
0.198689
0.200168
0.199182
0.200497
0.197045
0.199018
0.200004
0.200168
0.201647
0.19836
0.200825
0.197867
0.196388
0.196717
0.199675
0.198689
0.198853
0.199675
0.201154
0.194087
0.20214
0.199839
0.196388
0.200168
0.197867
0.201812
0.197538
0.201319
0.195402
0.197045
0.196059
0.198524
0.20099
0.200332
0.200825
0.199182
0.200825
0.198524
0.200661
0.198196
0.201812
0.196717
0.199511
0.197867
0.199675
0.196717
0.197703
0.197538
0.198524
0.200168
0.201976
0.197538
0.198524
0.199182
0.198031
0.196717
0.194909
0.19573
0.197703
0.202633
0.200825
0.20099
0.19836
0.197867
0.198853
0.197703
0.194909
0.197867
0.196059
0.199018
0.198689
0.199018
0.201976
0.197867
0.199018
0.196388
0.194744
0.198689
0.20099
0.200661
0.202469
0.201483
0.20099
0.199675
0.199675
0.198853
0.200004
0.200004
0.197374
0.203948
0.19721
0.203291
0.201976
0.200661
0.197703
0.199018
0.197374
0.197045
0.197867
0.19573
0.199182
0.196223
0.200825
0.198853
0.201483
0.197538
0.203126
0.194744
0.200825
0.193922
0.194744
0.198689
0.194909
0.194744
0.197045
0.198031
0.19721
0.20099
0.196881
0.198031
0.200168
0.20099
0.199346
0.197703
0.19195
0.197538
0.194909
0.193758
0.195895
0.191128
0.18817
0.186691
0.189485
0.187841
0.191457
0.185705
0.188006
0.187513
0.188663
0.18817
0.190635
0.189649
0.189156
0.187841
0.186691
0.187019
0.190964
0.184225
0.185212
0.174035
0.155792
0.107799
0.069176
0.067532
0.043536
0.055205
0.054712
0.060465
0.065231
0.070326
0.071148
0.074435
0.083475
0.082653
0.089391
0.093665
0.091199
0.071805
0.046659
0.038934
0.046001
0.048302
0.055863
0.058657
0.060136
0.065067
0.06408
0.06293
0.060629
0.054055
0.039098
0.038769
0.037455
0.042385
0.033839
0.030223
0.017567
0.007213
-0.000183
0.001954
0.011486
0.004583
0.000639
0.001296
0.011651
0.004255
0.007706
0.003268
0.003104
0.00031
0.000967
-0.000347
-0.000183
-0.000183
-0.000512
-0.000512
0.000146
-1.9e-05
0.000474
0.00031
-1.9e-05
0.000146
-1.9e-05
-0.000512
-0.000347
-0.000347
0.001954
0.000146
-0.000512
0.00146
-0.000183
-1.9e-05
0.000639
0.000146
-0.000183
-0.000841
-0.000347
0.003104
0.000474
-0.000183
0.000474
-0.000183
-1.9e-05
0.000146
-1.9e-05
-0.000841
-0.000183
-0.001498
0.000474
0.001789
0.000803
0.002447
-0.000183
0.00294
0.011486
0.022498
0.02595
0.032031
0.041235
0.037455
0.052082
0.0603
0.067203
0.074435
0.07575
0.081009
0.089227
0.089885
0.094158
0.099746
0.09613
0.10254
0.108293
0.114702
0.115689
0.120784
0.123413
0.131302
0.130152
0.133603
0.136398
0.134425
0.139027
0.143794
0.143465
0.141657
0.146588
0.151025
0.150861
0.155627
0.158914
0.157764
0.157107
0.16138
0.16253
0.164174
0.167954
0.16779
0.171406
0.170091
0.173214
0.170091
0.173707
0.172556
0.172392
0.17535
0.177158
0.174857
0.180445
0.180281
0.179459
0.183897
0.177158
0.18439
0.184883
0.183732
0.183404
0.188006
0.183897
0.184718
0.189814
0.186691
0.186691
0.185869
0.187841
0.188334
0.18439
0.187513
0.193265
0.192772
0.193594
0.191457
0.193758
0.192115
0.18817
0.189814
0.191293
0.189814
0.191457
0.192279
0.192608
0.19721
0.192608
0.197538
0.195073
0.199346
0.196388
0.195895
0.196059
0.196388
0.196223
0.194744
0.19458
0.19573
0.193758
0.196059
0.196388
0.194251
0.19836
0.195073
0.196717
0.19573
0.196059
0.196717
0.197867
0.195073
0.197867
0.199675
0.194416
0.194909
0.199182
0.196881
0.195073
0.202633
0.193922
0.199675
0.196552
0.198853
0.198689
0.199839
0.199675
0.200661
0.197538
0.199182
0.196223
0.193101
0.202305
0.19721
0.19721
0.198196
0.201483
0.197538
0.20362
0.200825
0.197045
0.19836
0.19721
0.19721
0.197703
0.200332
0.199511
0.20099
0.197538
0.202305
0.196223
0.199346
0.198196
0.198196
0.196717
0.196881
0.199675
0.200825
0.198689
0.197703
0.201647
0.198196
0.199346
0.199346
0.19836
0.195073
0.197867
0.198689
0.200497
0.197867
0.195895
0.19721
0.197045
0.107964
0.114867
0.113223
0.118318
0.120126
0.125057
0.130481
0.129495
0.135083
0.139849
0.143465
0.141821
0.146588
0.147738
0.147738
0.151847
0.150368
0.150861
0.153162
0.158093
0.159079
0.162859
0.159901
0.163023
0.168118
0.168447
0.167461
0.17272
0.170419
0.173214
0.173049
0.177322
0.17272
0.177322
0.177158
0.177322
0.178966
0.177158
0.182089
0.18061
0.182253
0.183239
0.185376
0.185705
0.185705
0.183239
0.188334
0.187019
0.183897
0.186198
0.186033
0.187184
0.185869
0.1908
0.186855
0.191457
0.186526
0.189156
0.189814
0.191457
0.191293
0.194744
0.193265
0.193594
0.195073
0.192772
0.190142
0.190142
0.194087
0.192608
0.192279
0.197703
0.19721
0.192936
0.194744
0.197867
0.193922
0.195402
0.197538
0.197045
0.194744
0.19721
0.192608
0.194416
0.194744
0.195566
0.19458
0.195402
0.194744
0.19836
0.195237
0.196223
0.194251
0.198196
0.199018
0.196059
0.198853
0.197867
0.198031
0.196552
0.198853
0.196717
0.198853
0.196881
0.198853
0.196223
0.199018
0.196717
0.193594
0.198689
0.196059
0.201319
0.200661
0.197867
0.198853
0.200332
0.196552
0.200825
0.203948
0.201154
0.197374
0.199018
0.199018
0.199839
0.197867
0.198031
0.199511
0.200661
0.198524
0.199511
0.193265
0.200825
0.201319
0.19721
0.199018
0.196552
0.20214
0.199182
0.201647
0.198689
0.198031
0.196881
0.199182
0.201976
0.199675
0.198524
0.196059
0.19721
0.195895
0.196388
0.197703
0.201647
0.198524
0.200661
0.199839
0.198853
0.199346
0.196717
0.195237
0.19721
0.200168
0.198196
0.199018
0.193758
0.197867
0.198031
0.201647
0.199018
0.201319
0.197538
0.201319
0.200332
0.198031
0.199839
0.199839
0.198524
0.199018
0.198853
0.194909
0.199511
0.19721
0.200825
0.201647
0.20099
0.200661
0.202305
0.199346
0.200332
0.201154
0.198689
0.2074
0.196717
0.201976
0.199346
0.19836
0.198196
0.200332
0.19458
0.196717
0.198853
0.200168
0.200332
0.200332
0.200168
0.200332
0.201647
0.198524
0.200332
0.195402
0.197045
0.196717
0.197703
0.197374
0.199018
0.197374
0.199675
0.200332
0.196881
0.199018
0.195237
0.196059
0.198524
0.199346
0.199675
0.201812
0.198853
0.199182
0.198853
0.197538
0.195566
0.195895
0.199346
0.198196
0.198853
0.199182
0.19836
0.200497
0.199839
0.20099
0.195073
0.199182
0.202962
0.19836
0.203291
0.193265
0.199346
0.194416
0.193922
0.197045
0.197867
0.19836
0.199839
0.200004
0.199182
0.199182
0.199018
0.201483
0.199018
0.19721
0.19458
0.19836
0.194744
0.198689
0.197867
0.198524
0.196552
0.198689
0.199511
0.197374
0.201976
0.196223
0.203948
0.198689
0.203126
0.199018
0.201154
0.196717
0.199018
0.200661
0.194909
0.195237
0.198524
0.199018
0.198689
0.20214
0.197538
0.200168
0.198524
0.200661
0.200497
0.197703
0.200332
0.199839
0.197045
0.199018
0.197045
0.196059
0.198853
0.198524
0.201483
0.198689
0.198031
0.198031
0.20477
0.199346
0.196717
0.198524
0.200825
0.199346
0.19836
0.195402
0.201812
0.199839
0.199839
0.201154
0.200004
0.199511
0.198196
0.200825
0.196717
0.199182
0.203784
0.198524
0.198031
0.201483
0.200168
0.200661
0.199018
0.199675
0.200332
0.196881
0.201483
0.195237
0.199346
0.199182
0.199839
0.198853
0.20099
0.197374
0.199675
0.197867
0.196717
0.192936
0.19573
0.198524
0.195237
0.200661
0.198031
0.201647
0.200825
0.203126
0.199839
0.196388
0.198196
0.198524
0.199675
0.195566
0.201483
0.200004
0.204441
0.197045
0.201647
0.199346
0.199839
0.199346
0.200168
0.199018
0.199018
0.201483
0.200332
0.197538
0.202798
0.197045
0.196059
0.198196
0.196223
0.199511
0.199018
0.199675
0.199675
0.198853
0.200332
0.200332
0.199182
0.198853
0.198689
0.194744
0.199182
0.196223
0.193101
0.199346
0.196059
0.198196
0.199675
0.198031
0.198031
0.19573
0.198031
0.196881
0.195402
0.193101
0.200825
0.197538
0.197045
0.195402
0.196223
0.197867
0.196388
0.195895
0.195402
0.201483
0.198853
0.20362
0.197045
0.199182
0.199182
0.200661
0.198853
0.195237
0.201976
0.198689
0.199346
0.195073
0.196717
0.197867
0.19836
0.195237
0.20214
0.199018
0.198853
0.199018
0.200497
0.199511
0.200825
0.200825
0.199182
0.199675
0.197867
0.200661
0.198196
0.198853
0.20362
0.204113
0.195566
0.199675
0.19721
0.198524
0.198524
0.196881
0.201976
0.198196
0.198196
0.19836
0.200332
0.198196
0.201319
0.20099
0.201319
0.19836
0.196223
0.197867
0.198196
0.196223
0.197374
0.201483
0.195895
0.200168
0.202962
0.20099
0.199018
0.199346
0.201647
0.19721
0.19573
0.199839
0.200661
0.193429
0.202798
0.201647
0.198524
0.19836
0.198196
0.196059
0.198524
0.196059
0.196717
0.197374
0.199182
0.197867
0.200661
0.197045
0.195402
0.193758
0.19573
0.193101
0.188499
0.19721
0.196223
0.196388
0.197538
0.196059
0.19573
0.195895
0.196388
0.199675
0.196717
0.198524
0.196717
0.198031
0.202962
0.199182
0.199182
0.199018
0.197045
0.191621
0.200497
0.19573
0.196223
0.197374
0.200332
0.197045
0.205921
0.197538
0.202305
0.198196
0.205592
0.206249
0.198853
0.200332
0.197703
0.193594
0.196388
0.202305
0.195073
0.201154
0.197703
0.199182
0.204606
0.198853
0.199346
0.199511
0.201154
0.198524
0.201319
0.201319
0.199018
0.196717
0.198853
0.204277
0.200661
0.195566
0.199346
0.198524
0.199839
0.19836
0.20099
0.201647
0.201647
0.200168
0.205756
0.198031
0.202798
0.199346
0.199182
0.200825
0.199839
0.200497
0.198031
0.203126
0.198524
0.200497
0.201647
0.198196
0.202633
0.199182
0.194251
0.195895
0.200004
0.191621
0.202469
0.198689
0.194251
0.196881
0.199675
0.199346
0.195895
0.204606
0.202305
0.200168
0.201812
0.199839
0.20099
0.191457
0.196059
0.198689
0.197703
0.198524
0.19573
0.199675
0.200661
0.200332
0.200661
0.201154
0.190307
0.19458
0.200497
0.201319
0.200004
0.198853
0.20099
0.196881
0.201812
0.201647
0.200661
0.194744
0.199182
0.205427
0.201976
0.202798
0.201154
0.198689
0.199839
0.201154
0.200168
0.202469
0.199346
0.19721
0.196552
0.200004
0.198524
0.200825
0.199675
0.199839
0.203291
0.200168
0.19573
0.20099
0.195895
0.197374
0.197703
0.197867
0.200825
0.19573
0.196388
0.199018
0.197703
0.195402
0.199018
0.195073
0.193101
0.196388
0.18439
0.18439
0.170913
0.143301
0.117003
0.0935
0.069669
0.05915
0.04107
0.034989
0.031045
0.026114
0.023813
0.024799
0.016581
0.018554
0.015595
0.014938
0.018554
0.01576
0.020197
0.024142
0.028251
0.030552
0.03236
0.033839
0.03992
0.04255
0.046166
0.052247
0.057342
0.063423
0.067696
0.073449
0.079037
0.081995
0.087748
0.0935
0.094815
0.09991
0.097445
0.103362
0.10632
0.109443
0.112073
0.121605
0.123906
0.125386
0.13196
0.133768
0.137877
0.137055
0.143629
0.144615
0.145602
0.144615
0.149546
0.147903
0.152998
0.154641
0.156778
0.158914
0.158257
0.164667
0.164667
0.164831
0.169926
0.172885
0.165489
0.172227
0.173049
0.175679
0.174528
0.175843
0.176008
0.176008
0.176336
0.176008
0.179623
0.179295
0.181596
0.180938
0.183568
0.187184
0.187019
0.190635
0.191293
0.183075
0.186362
0.186855
0.184883
0.18176
0.190471
0.186198
0.187348
0.188499
0.190964
0.192936
0.19195
0.1908
0.193594
0.191786
0.193101
0.193265
0.193594
0.194744
0.194087
0.194744
0.193922
0.193429
0.19458
0.196059
0.190635
0.193429
0.192608
0.19195
0.195237
0.195895
0.197703
0.194087
0.196388
0.194909
0.196717
0.199675
0.192279
0.199346
0.196388
0.195402
0.198853
0.199182
0.19458
0.199182
0.19836
0.200332
0.194744
0.197045
0.195895
0.195073
0.199511
0.197867
0.201319
0.193429
0.200332
0.197867
0.19836
0.197045
0.198524
0.199182
0.196388
0.200661
0.197538
0.198689
0.199018
0.199511
0.198853
0.199675
0.200004
0.199675
0.162366
0.161051
0.160065
0.163516
0.168612
0.165489
0.166639
0.168776
0.163516
0.165982
0.172885
0.163845
0.172227
0.175515
0.176008
0.178144
0.178966
0.17798
0.180281
0.177487
0.182746
0.182582
0.185047
0.182089
0.183897
0.175186
0.181431
0.183897
0.182746
0.190142
0.18932
0.188827
0.190142
0.190142
0.188499
0.190471
0.190307
0.189978
0.189978
0.1908
0.192279
0.190142
0.191621
0.191128
0.193265
0.194087
0.195402
0.192115
0.193922
0.194087
0.195895
0.19458
0.194909
0.194909
0.197045
0.197045
0.196881
0.199018
0.198689
0.195895
0.194909
0.196717
0.195073
0.200497
0.198196
0.197374
0.197867
0.198031
0.200332
0.197703
0.200661
0.198031
0.199018
0.19721
0.193922
0.197045
0.197538
0.197538
0.197867
0.200497
0.194744
0.193758
0.199675
0.197045
0.196223
0.197538
0.199018
0.198031
0.197374
0.197867
0.195237
0.200004
0.19836
0.198853
0.198031
0.20099
0.197703
0.201483
0.197703
0.200332
0.199675
0.200004
0.203784
0.200661
0.199018
0.197045
0.200825
0.198689
0.204113
0.198524
0.201154
0.200825
0.201976
0.199182
0.201647
0.198853
0.198524
0.199346
0.199675
0.199346
0.199675
0.19836
0.199511
0.196881
0.199839
0.205592
0.201154
0.201154
0.200004
0.199346
0.200497
0.202633
0.198524
0.199511
0.200168
0.196717
0.201647
0.191786
0.201976
0.199182
0.199839
0.198689
0.200661
0.20099
0.202469
0.202469
0.200661
0.201976
0.199675
0.200825
0.201319
0.198524
0.198853
0.199839
0.199182
0.201483
0.201154
0.200661
0.198196
0.20477
0.199675
0.203948
0.20214
0.199182
0.202798
0.201647

Kurve 3

0.00031
0.00409
0.003761
-0.000676
0.002775
-0.000512
-0.000676
0.00031
-0.001169
0.004419
-0.003142
-0.000676
-0.002155
-0.002813
-0.002813
0.000639
0.001132
0.001954
0.000146
-0.004456
0.002611
-0.000841
-0.002155
-0.003635
-0.001334
-0.00232
-0.001498
0.003104
-0.002648
-0.0061
-0.001334
-0.007744
-0.001991
-0.000347
0.002282
-0.001662
0.005241
-0.001827
0.001296
0.004419
-0.003799
-0.00232
-0.011524
-0.001827
-0.003142
-0.001169
-0.002648
-0.001005
-0.00232
0.004255
-0.000183
0.00031
-0.000512
-0.008894
-0.003635
-0.004785
0.000474
-0.004128
-0.001991
-0.000676
0.000803
-0.001827
-0.000676
-0.004456
-0.003963
-0.002813
-0.002813
-0.002155
-0.000347
-0.003142
-0.004292
-1.9e-05
0.00031
-0.002155
-0.004128
0.000146
-0.003799
0.000146
-0.003635
-0.004621
-0.003306
-0.001334
-0.001662
-0.001169
-0.000512
-1.9e-05
-0.002484
-0.005443
-0.002977
-0.001498
-1.9e-05
-0.001662
0.003761
-0.001991
-0.000347
-0.000183
-0.000512
0.001789
-0.000512
-0.000512
0.000639
0.001789
0.000146
0.003926
-0.000512
-0.001498
0.001954
0.001789
0.000803
0.002447
0.002282
0.002447
0.001625
-0.000512
0.000474
0.000146
0.001789
-0.001662
0.000474
0.002118
0.002775
0.001296
0.005241
0.005241
0.004912
0.00672
0.004748
0.005405
0.002118
0.00146
0.00294
0.002118
0.002447
0.003104
0.001296
0.00294
0.001132
0.00294
0.000803
0.003268
0.00409
0.002775
0.00409
0.003433
0.000967
0.004912
0.00294
0.003268
0.001789
0.000803
0.003597
0.00146
0.000639
0.003104
0.002447
0.000146
0.002447
0.001954
0.003104
-0.001169
0.003597
0.003268
0.000803
0.003433
0.005405
0.00672
0.004912
0.006227
0.004255
0.006884
-0.000841
0.003761
0.006062
0.004748
0.002775
0.005241
0.004419
0.008199
0.002611
0.000474
0.003926
-0.001169
0.004583
0.002775
0.002611
0.002282
0.004255
-0.000512
0.005405
0.004912
0.002775
0.00146
-0.000183
0.003268
0.000474
0.006556
0.002611
0.004912
-1.9e-05
0.003761
-0.000183
0.000967
-0.003306
-0.004456
0.00031
-1.9e-05
-0.002648
0.002611
0.001789
-0.000512
0.00146
-1.9e-05
0.000146
-0.00347
0.00031
0.000803
0.000639
-0.000347
-1.9e-05
-0.000512
-0.003963
-0.000347
-0.004292
-0.003963
-0.001498
-0.000841
-0.000512
0.002447
0.00146
-0.00347
-0.000512
-0.001005
-0.001827
0.00146
-0.001662
0.00031
-0.002155
-0.000347
0.00031
-0.000347
-0.00347
-0.001005
-0.001662
-0.00347
-1.9e-05
-0.000841
-0.001991
0.00031
0.001954
-0.001005
0.00409
0.001789
-0.001991
-0.001005
-0.003799
-0.001334
-0.003635
-0.003306
0.001625
-0.00232
-0.000676
0.000639
-0.004949
-0.003306
-0.000347
-0.000183
-0.002155
0.000967
-0.001498
-0.002155
-0.000676
-0.001827
-0.001169
-0.004949
-0.004292
-0.001005
0.001625
-0.000676
0.00146
-0.004128
-0.003635
-0.001169
0.000146
-0.001498
0.000474
-0.002155
-0.000347
0.001132
-0.00232
-0.002813
-0.004128
-0.000512
-0.000841
-0.000676
-0.002977
-0.000347
-0.002155
-1.9e-05
-0.001662
-0.001498
0.002775
0.001296
-0.001005
0.00031
-1.9e-05
-0.001991
-0.000841
-0.005114
-0.001334
-0.000676
-0.002155
-0.004621
-0.000841
0.00031
0.001296
-0.001827
-0.000841
-0.001827
-0.002484
-0.002484
-0.002813
-0.001498
-0.002813
0.001789
-0.001005
-0.000512
-0.000347
-0.001005
-0.001334
0.003268
-0.001169
-0.001991
-0.001334
-0.003306
0.000803
-0.000512
-0.000676
-0.001169
-0.001334
0.001132
0.004748
-0.002977
0.003268
-0.000841
-0.001827
-0.000183
-0.003142
-0.001169
-0.003799
-0.001005
-0.000183
0.00294
-0.002648
-0.001169
-0.002648
-0.000512
-0.002648
0.00031
-0.001005
-0.000183
0.000803
0.000639
0.002282
-0.005443
-0.000676
-0.000183
-0.001662
-0.001169
-0.004785
-0.002648
-0.001827
-0.003142
0.000146
-0.000841
-0.001334
-0.000347
-1.9e-05
-0.002977
-0.001662
-0.003799
0.000639
-0.000841
-1.9e-05
0.000474
-0.002813
-1.9e-05
-0.002813
-0.001005
-0.002155
0.000967
-0.004128
0.002447
0.003926
0.002611
0.001132
-0.004621
-0.001334
-0.002648
-0.003306
-0.000841
-0.001169
-0.004128
0.000639
-0.002813
-0.001991
-0.001662
-0.00232
-0.001662
-0.000512
-1.9e-05
-0.000841
-0.000676
-0.004621
0.000474
-0.001991
-0.000512
-0.001334
0.000967
-0.002648
-0.003799
-0.001005
-0.005443
-0.003635
-0.002813
-0.001005
-0.003963
-0.003142
-0.002484
0.001296
-0.005278
-0.002648
-0.003799
-0.001991
-0.000183
-0.001334
-0.001334
-0.000676
-0.00232
-0.001827
0.00031
-0.00232
-0.001827
0.003433
-0.004621
-0.00232
0.00146
-0.000347
-0.002155
-0.00725
0.00031
0.001789
-0.008565
0.000146
-0.004456
-0.003963
-0.002648
-0.001827
-0.001005
0.000146
-0.001334
-1.9e-05
-0.003306
0.001132
-0.000347
0.00031
-0.001169
-0.000183
-0.001005
-0.000841
-0.00347
-0.002977
-0.001498
-0.002977
-0.004456
-0.006757
-0.00232
-0.000512
-1.9e-05
-0.001169
0.004748
-0.001662
-1.9e-05
0.001132
0.001296
-0.001334
-1.9e-05
-0.001334
-0.002977
-0.000676
-0.002648
-0.000841
-0.001827
0.001625
-0.00347
-0.002977
-0.00232
-0.000183
0.000967
-0.003142
-0.000676
-0.000512
-0.000183
-0.001991
0.002118
-0.002977
-0.000841
-0.001498
-0.004621
-0.001334
-0.002155
-0.001498
-0.000512
-0.001005
0.000967
-0.000183
0.001296
-0.000676
-0.001334
-0.001827
-0.004456
-0.002155
-0.004621
-0.002484
-0.001498
-0.000183
-0.002977
0.000146
-0.002484
-0.002155
-0.005278
-0.00232
0.007213
0.00031
-1.9e-05
-0.000347
0.001132
-0.002648
0.001132
-0.001827
-0.001005
-0.001005
-0.001334
-0.001662
-0.00347
-0.005607
-0.00347
-0.000347
-1.9e-05
-1.9e-05
-0.000183
-0.001169
-0.002648
-0.000841
-0.002155
0.000803
-0.005114
0.000639
0.000474
-0.000512
-0.003142
-0.000841
-0.005443
-0.003635
-0.001498
-0.001005
-0.000512
-0.000841
-0.003963
-0.002813
-0.001827
-0.001991
0.000146
-0.002977
-0.000512
0.00031
-0.002813
-0.001498
-0.002648
-0.001005
0.000474
-0.002155
-0.004785
-0.00232
-0.003142
-0.003963
-0.001334
-0.001169
0.001789
-0.001005
-1.9e-05
0.002447
-0.001498
0.000803
0.000146
-0.002813
0.003104
-0.004292
-0.000347
-0.004621
-0.003306
-0.002648
-0.001005
-0.001662
-0.000841
-0.000347
0.000474
-0.004949
-0.000347
0.00146
-0.001498
-0.002155
-0.000347
-0.000183
-0.000676
-0.002155
0.000146
-0.001005
-0.003799
-0.002484
-0.004128
-0.002155
-0.00347
-0.002648
-0.000841
0.00294
-0.001991
0.000803
0.000146
-0.002484
-1.9e-05
-0.00232
-0.001498
-0.005607
0.00031
-0.001991
-0.003635
-0.002155
-0.001334
0.000474
-0.003142
-0.001005
-0.001169
-1.9e-05
-0.001827
0.001789
0.000474
-0.002977
-0.001498
0.001625
-0.002977
-0.000183
-0.003799
-0.002648
-0.002648
-0.001005
0.004419
0.005734
0.002447
0.001789
0.006556
-0.001991
0.000474
-0.003142
-0.001169
-0.001334
-0.001169
-0.002813
-0.002155
-0.001991
-0.001662
0.004583
-0.003963
-0.002648
-0.004949
-0.001827
-0.001005
-0.00232
0.000146
-1.9e-05
0.001954
0.002611
0.003268
-0.001827
-0.001662
0.000639
0.000967
0.001296
0.000803
-0.000183
0.000803
-0.000183
-0.001662
0.003926
0.000639
-0.005278
0.00146
-0.003306
0.000474
0.001789
0.000474
-0.000841
0.000474
-0.003142
-0.001169
-0.003799
-0.003142
-0.004621
-0.008072
-0.003963
-0.002648
-0.001005
-0.002155
0.000803
-0.001169
-0.003799
-0.000512
-0.002977
-0.001991
-0.003306
-0.002484
-0.002484
-0.000347
-0.001991
-0.000512
-0.000841
-0.006757
-0.003799
-0.003142
0.000639
-0.001169
-0.003799
0.003268
0.00294
-0.001005
-0.000841
-0.003799
-0.015468
-0.000347
-0.001334
-0.004949
0.001132
-0.001827
0.002775
-0.002155
-0.000676
0.000146
-0.001334
-0.009223
-0.001662
0.004748
-0.002155
0.005898
0.010829
0.020855
0.025457
0.031209
0.035318
0.049124
0.044851
0.056191
0.064409
0.068847
0.076079
0.080352
0.085776
0.089885
0.095637
0.096788
0.103033
0.099253
0.107799
0.111087
0.116017
0.119962
0.123413
0.124893
0.127851
0.132289
0.132617
0.138534
0.138205
0.141657
0.14478
0.150204
0.151354
0.155134
0.155792
0.149875
0.1576
0.156613
0.15612
0.159901
0.160558
0.164174
0.165324
0.166968
0.167132
0.170748
0.169433
0.173049
0.175021
0.172885
0.176008
0.173378
0.179295
0.184225
0.175843
0.178637
0.175679
0.175843
0.182089
0.17913
0.182417
0.184718
0.18176
0.183568
0.183897
0.187513
0.183568
0.186855
0.186691
0.188663
0.186198
0.184554
0.190307
0.187513
0.188334
0.18817
0.1908
0.186526
0.191128
0.188827
0.190307
0.18817
0.191457
0.193265
0.192279
0.197703
0.194087
0.194251
0.194251
0.193922
0.190471
0.196717
0.193101
0.197045
0.192443
0.19458
0.192279
0.19458
0.195237
0.191786
0.199675
0.193922
0.197538
0.193265
0.195566
0.193265
0.196552
0.197867
0.197374
0.199675
0.195073
0.193594
0.194251
0.19458
0.194744
0.195237
0.19721
0.192772
0.193429
0.194909
0.192936
0.19458
0.194416
0.196388
0.19573
0.197538
0.19721
0.196388
0.194251
0.198524
0.197538
0.198853
0.196717
0.196717
0.193594
0.193758
0.196717
0.196552
0.201154
0.197538
0.199839
0.197538
0.200004
0.195402
0.196717
0.189814
0.194909
0.193758
0.1908
0.19195
0.192115
0.191786
0.185376
0.190307
0.189485
0.191128
0.189649
0.195402
0.189814
0.191457
0.192936
0.193265
0.191293
0.190964
0.192115
0.190964
0.189814
0.188663
0.187513
0.187513
0.192443
0.190471
0.193429
0.192608
0.194744
0.194416
0.194251
0.194416
0.192772
0.192115
0.190142
0.19195
0.191786
0.194416
0.192279
0.192608
0.188827
0.192279
0.193265
0.192279
0.194087
0.196223
0.194251
0.195237
0.198196
0.193758
0.194744
0.193758
0.193922
0.192936
0.192443
0.1908
0.195895
0.193758
0.196223
0.194087
0.196881
0.192279
0.199182
0.197045
0.195895
0.198524
0.195895
0.198524
0.194744
0.196223
0.192936
0.195402
0.19195
0.193429
0.194251
0.196223
0.197374
0.198031
0.196059
0.198524
0.196881
0.199839
0.198524
0.198853
0.199839
0.195402
0.19836
0.196059
0.197538
0.199018
0.197703
0.196059
0.200332
0.19836
0.196388
0.198031
0.197703
0.195237
0.196552
0.20099
0.197374
0.200004
0.19721
0.200004
0.196223
0.200332
0.200004
0.197538
0.19836
0.194744
0.197867
0.200004
0.202305
0.199182
0.201483
0.199346
0.197703
0.196223
0.200004
0.199018
0.197045
0.197867
0.198853
0.195237
0.196059
0.196717
0.199675
0.195237
0.196223
0.199839
0.197703
0.197045
0.19836
0.200004
0.197703
0.200004
0.200168
0.199839
0.198689
0.198853
0.202962
0.201319
0.197538
0.198689
0.200332
0.197045
0.199511
0.197374
0.198031
0.197045
0.197703
0.198196
0.200332
0.19721
0.20214
0.203455
0.199346
0.199182
0.197867
0.192279
0.192772
0.194744
0.192279
0.190142
0.188663
0.192443
0.194416
0.191621
0.196223
0.197703
0.196388
0.192936
0.196552
0.194251
0.195402
0.193265
0.197045
0.197045
0.197045
0.195237
0.19836
0.193922
0.193101
0.19721
0.197867
0.19195
0.199018
0.199346
0.195566
0.201154
0.196059
0.200825
0.199346
0.199018
0.195895
0.197703
0.196059
0.197538
0.196223
0.198196
0.197374
0.197045
0.199675
0.197867
0.200332
0.201483
0.198196
0.198031
0.199346
0.197538
0.200661
0.200497
0.196717
0.196881
0.200004
0.197703
0.196388
0.200497
0.19836
0.196223
0.200168
0.197703
0.198689
0.199511
0.199182
0.199182
0.197703
0.201319
0.200332
0.19836
0.197374
0.20099
0.20099
0.197374
0.201319
0.198031
0.199675
0.198853
0.200004
0.197374
0.195895
0.198524
0.205427
0.199182
0.204934
0.19836
0.198196
0.198031
0.196552
0.197867
0.199675
0.197703
0.19573
0.200004
0.199511
0.201812
0.196388
0.200661
0.19721
0.199511
0.197867
0.199018
0.199346
0.200004
0.202305
0.199839
0.198031
0.200004
0.200332
0.19573
0.199018
0.195237
0.197045
0.196552
0.197867
0.199346
0.196881
0.199018
0.197867
0.202305
0.200332
0.197867
0.200497
0.19836
0.199511
0.200332
0.197867
0.200661
0.196552
0.196223
0.199346
0.200661
0.198689
0.199182
0.199018
0.19721
0.198853
0.199675
0.203784
0.19721
0.200004
0.198196
0.194909
0.195402
0.201483
0.197703
0.196059
0.195566
0.19721
0.196388
0.197867
0.198196
0.197703
0.198196
0.195566
0.198031
0.194909
0.199839
0.195566
0.198524
0.195073
0.197538
0.196552
0.196059
0.193429
0.194416
0.196881
0.197045
0.197045
0.195073
0.197867
0.19721
0.202469
0.19458
0.201319
0.198853
0.195237
0.197538
0.196881
0.195402
0.195073
0.200661
0.198031
0.200004
0.197538
0.199511
0.195895
0.200004
0.197703
0.199839
0.196059
0.197867
0.202305
0.195566
0.202962
0.203784
0.195895
0.193265
0.201647
0.195073
0.197703
0.197703
0.197045
0.199018
0.199346
0.196223
0.196223
0.19836
0.198196
0.200168
0.197703
0.196059
0.196059
0.196388
0.196223
0.196223
0.195402
0.199839
0.197538
0.19721
0.195566
0.196881
0.198031
0.199675
0.199675
0.202469
0.198524
0.201154
0.197867
0.19836
0.200168
0.196223
0.198689
0.198031
0.200004
0.196552
0.200004
0.199346
0.199346
0.199018
0.202469
0.198853
0.200661
0.200004
0.196059
0.200497
0.19836
0.203291
0.198196
0.20214
0.198853
0.201647
0.193594
0.199839
0.200497
0.194416
0.200661
0.189814
0.169598
0.166804
0.170091
0.167954
0.171077
0.16779
0.173707
0.174035
0.176172
0.175843
0.17798
0.179623
0.179623
0.181103
0.18061
0.182089
0.181431
0.183897
0.182582
0.185869
0.184225
0.186362
0.189649
0.185869
0.187677
0.189156
0.186033
0.188663
0.188006
0.189156
0.189814
0.191128
0.1908
0.192608
0.191293
0.191128
0.192772
0.191293
0.192936
0.192443
0.19458
0.194744
0.194744
0.195073
0.19573
0.196059
0.195402
0.193429
0.198196
0.197538
0.193265
0.192115
0.192443
0.191786
0.196552
0.195895
0.19573
0.197374
0.197045
0.198853
0.196717
0.196717
0.196881
0.196388
0.196881
0.19458
0.197538
0.194416
0.195566
0.194744
0.197374
0.195073
0.19458
0.197867
0.196388
0.19573
0.196552
0.197045
0.19573
0.197045
0.195566
0.196717
0.192936
0.195237
0.193758
0.194744
0.193594
0.19721
0.191786
0.19721
0.195073
0.194744
0.200332
0.192608
0.196059
0.194087
0.196223
0.195895
0.196717
0.194744
0.197867
0.189978
0.193429
0.192936
0.190964
0.19195
0.191128
0.193922
0.183404
0.170748
0.153491
0.146095
0.128837
0.116675
0.10139
0.097774
0.068354
0.069833
0.065395
0.06556
0.065067
0.065231
0.063094
0.056027
0.056191
0.05652
0.045672
0.05011
0.054219
0.052411
0.052247
0.055534
0.056027
0.052411
0.04748
0.041564
0.046001
0.045179
0.045672
0.038441
0.038441
0.018225
0.023156
0.028908
0.025128
0.024306
0.022498
0.028251
0.020197
0.019868
0.018389
0.013294
0.016088
0.018389
0.022498
0.019375
0.018389
0.015595
0.016253
0.019211
0.02332
0.023977
0.018882
0.012308
0.014773
0.015595
0.013623
0.015595
0.011322
-0.002813
0.012308
0.014445
0.017074
0.019868
0.019868
0.022827
0.023156
0.026443
0.022663
0.026936
0.014938
0.022663
0.02595
0.017732
0.02069
0.01954
0.023813
0.02069
0.023156
0.019868
0.019704
0.008199
0.0105
0.01313
0.0105
0.003104
0.003597
0.002447
0.002775
0.001625
-0.000841
-0.000676
0.000146
-0.001005
-1.9e-05
0.000803
-1.9e-05
0.000146
-1.9e-05
0.000474
-0.000512
-1.9e-05
-0.000512
-0.001169
0.000146
0.000146
0.00031
-1.9e-05
0.000146
-1.9e-05
0.000474
-0.000512
-0.000512
-0.000676
-0.000512
-0.000183
0.000146
-1.9e-05
0.000146
-1.9e-05
0.000474
-1.9e-05
-0.000347
-0.000676
-0.000676
-0.001005
-0.000676
-0.000183
-1.9e-05
0.000474
0.00031
0.00031
-1.9e-05
-0.000676
-0.000512
-0.000841
-0.000841
-0.000347
-0.000183
0.000146
0.000146
0.000146
0.000146
-1.9e-05
-0.000183
-0.000347
-0.000347
-0.000676
-0.000512
-1.9e-05
0.000146
0.000146
0.000146
0.000474
0.000474
-0.000347
-0.000347
-0.000512
-0.000676
-0.000347
-0.000183
0.000474
0.000474
0.000639
0.01428
0.01576
0.023813
0.03351
0.041399
0.047316
0.051096
0.058985
0.067696
0.068354
0.078544
0.080845
0.08331
0.091528
0.097445
0.10254
0.09876
0.106978
0.10895
0.112237
0.116346
0.119962
0.121441
0.127358
0.129495
0.132617
0.136069
0.139685
0.14215
0.146095
0.147081
0.147409
0.15234
0.150861
0.152669
0.156449
0.159079
0.156613
0.16138
0.161873
0.16401
0.162366
0.166475
0.167625
0.168776
0.169105
0.172063
0.175186
0.173707
0.176172
0.176829
0.176994
0.176336
0.179295
0.178309
0.181596
0.179788
0.18061
0.182253
0.180938
0.184061
0.191128
0.183239
0.182089
0.184225
0.186691
0.1908
0.188499
0.190307
0.18932
0.1908
0.189485
0.193101
0.186691
0.190635
0.191786
0.191786
0.189485
0.189814
0.194909
0.191128
0.187841
0.189978
0.195073
0.190964
0.193265
0.191621
0.19458
0.19458
0.193265
0.195402
0.195073
0.195237
0.194087
0.198196
0.19721
0.196717
0.193101
0.196388
0.194416
0.196717
0.196388
0.198524
0.196717
0.197867
0.198196
0.198196
0.198524
0.196552
0.19721
0.197703
0.198031
0.194744
0.195402
0.193265
0.196552
0.193922
0.19836
0.19721
0.20214
0.203126
0.200168
0.198524
0.200497
0.198853
0.19458
0.198524
0.19573
0.193922
0.194744
0.197045
0.193265
0.199839
0.196881
0.200661
0.201154
0.198689
0.199511
0.200497
0.198853
0.200497
0.207235
0.200497
0.199675
0.198689
0.199182
0.196059
0.200661
0.198031
0.197538
0.19836
0.199018
0.199346
0.200661
0.200004
0.199675
0.201647
0.198524
0.201976
0.19836
0.199182
0.196223
0.197867
0.195402
0.197045
0.195895
0.198031
0.201319
0.198196
0.196388
0.199675
0.203948
0.196059
0.19836
0.196059
0.200332
0.196881
0.196388
0.197045
0.199182
0.197538
0.199018
0.195895
0.199018
0.199182
0.199182
0.200004
0.19836
0.200661
0.197703
0.196717
0.201154
0.19836
0.200168
0.197045
0.199511
0.199346
0.19721
0.200004
0.196717
0.199511
0.199182
0.198853
0.201812
0.198689
0.200168
0.200661
0.201319
0.198689
0.200825
0.199511
0.201319
0.200168
0.199182
0.198689
0.200661
0.197703
0.198524
0.199839
0.199018
0.202305
0.202469
0.205263
0.204113
0.198853
0.201812
0.207071
0.195402
0.198196
0.199018
0.200004
0.198524
0.195237
0.200497
0.200332
0.202305
0.198689
0.201647
0.200825
0.202798
0.201483
0.204606
0.200004
0.201647
0.195073
0.203784
0.201154
0.201647
0.202305
0.196717
0.201812
0.199018
0.20099
0.199018
0.199675
0.200004
0.199675
0.199346
0.200004
0.199675
0.200168
0.200661
0.199346
0.200497
0.199182
0.200497
0.200168
0.202469
0.199511
0.197867
0.196059
0.199018
0.191786
0.19721
0.19836
0.19721
0.200497
0.201483
0.200004
0.196388
0.20214
0.196881
0.20099
0.193922
0.201154
0.199675
0.201319
0.19836
0.200661
0.195237
0.196223
0.19573
0.196223
0.200168
0.198524
0.202633
0.199839
0.201812
0.199511
0.202469
0.199018
0.200004
0.202305
0.204113
0.196223
0.200004
0.199346
0.198031
0.199675
0.197703
0.202962
0.199346
0.200168
0.199675
0.202305
0.199182
0.198689
0.198196
0.204277
0.202962
0.198853
0.202469
0.202469
0.198031
0.198524
0.199839
0.197045
0.201647
0.200332
0.197538
0.197045
0.200168
0.199346
0.20099
0.196388
0.202469
0.202305
0.196717
0.201976
0.195237
0.20099
0.200332
0.202798
0.203291
0.201154
0.199839
0.201319
0.199839
0.200332
0.199511
0.202469
0.200004
0.201483
0.200661
0.198031
0.203291
0.200168
0.196552
0.202798
0.20099
0.19836
0.200168
0.197703
0.198524
0.197867
0.201319
0.200497
0.201483
0.195402
0.202305
0.199675
0.197867
0.204441
0.202305
0.199675
0.199675
0.201483
0.196881
0.19836
0.197374
0.199018
0.198196
0.199346
0.201319
0.199346
0.199675
0.199839
0.201319
0.200661
0.205921
0.20477
0.196388
0.197867
0.196881
0.195566
0.202962
0.196223
0.197867
0.201812
0.199182
0.200004
0.199839
0.199839
0.199018
0.200168
0.199182
0.202469
0.199511
0.202469
0.199018
0.203784
0.199018
0.199018
0.19836
0.197374
0.195073
0.201154
0.202798
0.19836
0.199018
0.201812
0.202469
0.19836
0.204277
0.201976
0.199511
0.200661
0.200168
0.197374
0.19836
0.197703
0.198524
0.197867
0.198196
0.201976
0.201976
0.198689
0.200332
0.205099
0.198031
0.200661
0.200004
0.20214
0.200825
0.204934
0.205427
0.199675
0.200497
0.198853
0.197867
0.197867
0.20099
0.196223
0.201154
0.199018
0.201647
0.200168
0.204113
0.200332
0.201319
0.200661
0.19836
0.200004
0.198689
0.199018
0.199346
0.199346
0.197374
0.205427
0.19836
0.198689
0.200825
0.196881
0.197374
0.199346
0.201647
0.20099
0.202962
0.198689
0.199839
0.19721
0.198196
0.196552
0.199018
0.19836
0.198853
0.199839
0.202305
0.198853
0.198031
0.203126
0.199182
0.199511
0.201647
0.204277
0.199182
0.198689
0.200825
0.200168
0.199182
0.198853
0.206249
0.195073
0.199346
0.199346
0.199675
0.20099
0.201976
0.202633
0.201154
0.201812
0.201812
0.203291
0.199018
0.198689
0.200004
0.195402
0.198853
0.200004
0.199182
0.198853
0.20099
0.19836
0.195895
0.199839
0.198524
0.199839
0.196388
0.199839
0.197867
0.200168
0.197867
0.201483
0.200332
0.189814
0.19721
0.197703
0.197538
0.195402
0.197045
0.200004
0.20099
0.199182
0.199511
0.196881
0.186362
0.195895
0.200497
0.197867
0.004748
0.014609
0.022169
0.030716
0.037619
0.040084
0.009185
0.010336
0.024799
0.037455
0.037619
0.046494
0.050768
0.0603
0.065067
0.07197
0.076079
0.079201
0.083639
0.086926
0.093007
0.097774
0.102704
0.104184
0.111415
0.113716
0.117332
0.119469
0.122592
0.126372
0.125386
0.126207
0.13952
0.135247
0.136891
0.148067
0.145766
0.147574
0.148067
0.149053
0.152011
0.155463
0.153655
0.15875
0.159901
0.161051
0.16401
0.169105
0.168283
0.170913
0.170419
0.172227
0.171734
0.170419
0.175021
0.174528
0.177322
0.176829
0.180774
0.179623
0.179295
0.176501
0.180281
0.17913
0.182089
0.185212
0.185705
0.18439
0.185212
0.188334
0.187513
0.189156
0.187348
0.186691
0.184061
0.183568
0.187513
0.187513
0.184718
0.188663
0.189649
0.189978
0.189156
0.189485
0.193429
0.191621
0.193594
0.191293
0.193922
0.193265
0.196717
0.196223
0.191457
0.195895
0.194744
0.193265
0.19458
0.197045
0.191457
0.195237
0.194744
0.196388
0.197045
0.198853
0.197045
0.198031
0.197703
0.197538
0.196059
0.196059
0.194251
0.194909
0.195895
0.194251
0.199346
0.191786
0.19721
0.195566
0.199511
0.196552
0.197703
0.199346
0.199346
0.196717
0.194909
0.195402
0.197374
0.196388
0.196223
0.197045
0.19573
0.196717
0.194909
0.196881
0.198689
0.19836
0.199018
0.199675
0.19721
0.195895
0.199018
0.199018
0.199675
0.197867
0.19836
0.20099
0.198196
0.198196
0.195402
0.195073
0.196223
0.201647
0.197867
0.198524
0.200004
0.197867
0.201976
0.199675
0.201154
0.199182
0.197867
0.200332
0.19836
0.19836
0.197703
0.198031
0.195073
0.200332
0.197045
0.200332
0.200661
0.199182
0.199675
0.198853
0.193758
0.200497
0.198196
0.197703
0.199839
0.196388
0.198524
0.196552
0.20214
0.199675
0.20214
0.199018
0.199346
0.198689
0.19836
0.198689
0.194416
0.199675
0.199346
0.198689
0.199839
0.203948
0.199018
0.199182
0.197374
0.197703
0.201812
0.198689
0.200004
0.198524
0.199839
0.198524
0.203291
0.195566
0.201647
0.201483
0.198524
0.199675
0.201976
0.201812
0.203784
0.199839
0.200661
0.201812
0.200332
0.198853
0.19836
0.198524
0.198031
0.196059
0.201647
0.201647
0.198853
0.200825
0.199018
0.20362
0.198689
0.200497
0.201154
0.200661
0.200168
0.19836
0.199018
0.200332
0.200825
0.200497
0.197374
0.196717
0.200332
0.197703
0.199018
0.196223
0.203126
0.201319
0.200004
0.202305
0.205921
0.201319
0.198689
0.202469
0.198524
0.197045
0.198524
0.200825
0.200004
0.199675
0.198524
0.198524
0.202305
0.203291
0.201319
0.199346
0.203291
0.197045
0.201319
0.199839
0.199182
0.199675
0.200661
0.198689
0.203291
0.199675
0.200332
0.196881
0.200825
0.202962
0.199511
0.201319
0.200825
0.200004
0.197703
0.197538
0.198196
0.20099
0.200168
0.205427
0.198524
0.201647
0.199346
0.199018
0.20362
0.201319
0.202469
0.201976
0.203291
0.200825
0.204113
0.202305
0.20099
0.199839
0.200825
0.200332
0.20099
0.200332
0.200168
0.198196
0.201154
0.197703
0.194744
0.203126
0.200332
0.199511
0.201319
0.200332
0.195566
0.20362
0.200004
0.201976
0.197374
0.206085
0.199675
0.200825
0.20214
0.199346
0.198524
0.197374
0.200825
0.197703
0.200332
0.200332
0.200168
0.199346
0.202305
0.201647
0.201154
0.20214
0.203784
0.201154
0.201483
0.201976
0.200497
0.204113
0.199675
0.201319
0.199675
0.20099
0.199182
0.197867
0.195237
0.197867
0.202633
0.200661
0.202305
0.201483
0.203126
0.202305
0.199346

Kurve 4

-0.003306
-0.002155
0.000146
0.000967
0.001625
0.000967
0.003926
0.000146
0.001789
0.000639
0.005734
-0.002155
-1.9e-05
0.001954
-0.002813
0.000967
-0.001991
0.00031
-0.001498
-0.003142
-0.000183
-0.000347
0.000146
0.001296
-0.000676
0.00031
-0.000676
-0.000347
-0.001169
-0.000183
-0.00347
-0.002977
-0.00347
-0.003306
-0.000512
0.000474
-0.003799
-0.005607
0.001296
0.00031
-0.001498
0.000967
0.002282
0.000803
-1.9e-05
-0.002977
-0.000512
-0.001169
-0.004456
-0.002155
-0.003963
0.000474
-0.000841
0.00146
-0.001334
-0.000183
0.00031
-0.000512
-0.001662
0.002447
0.002447
-0.000841
-0.001169
-0.001334
-0.000512
-0.001827
-0.004128
-0.001169
0.003104
-0.004292
-0.001827
0.000639
0.000639
-0.000183
-0.000183
0.000803
-0.001334
-0.000347
-0.000841
-0.001498
-0.00232
-0.001334
-0.00347
-0.000676
-0.002813
0.00146
0.00146
-0.002977
-0.003306
0.001132
-0.001991
-0.000841
-0.004128
0.001296
0.005076
-0.001498
-0.004949
-0.001498
-0.002155
-0.000676
-0.002648
-0.002155
-0.001005
-0.001169
0.00031
-0.001334
-0.001169
-0.000676
-0.000183
-0.001498
-0.003799
-0.001662
-0.002977
-0.000183
-0.002977
0.000639
0.002118
0.001789
-0.001005
0.001625
-0.001662
-0.003142
-0.000841
-0.001334
-0.000183
-0.001662
0.001132
-0.001334
0.00146
-0.001334
0.002447
-0.002648
-0.002155
-0.002155
-0.002977
-0.002813
-0.000676
-0.001334
-0.001169
0.000146
-0.000841
0.002447
0.000146
-0.003963
0.001954
-0.000183
-0.003306
-0.001334
0.000146
-0.002484
-0.001498
-0.002484
0.000146
-0.000841
-0.001827
-0.002484
0.001789
-0.003306
-0.002648
-0.002155
-0.002813
-0.000676
-0.001827
-0.001334
0.00031
-0.000841
-0.000512
-0.002813
-0.005114
-0.0061
-0.000841
-0.001827
-0.001334
-0.000183
-0.004785
0.000639
-0.002484
-0.002155
-0.001005
-0.002155
-0.00232
0.001132
-0.001005
-0.000841
0.000146
-0.004949
-0.003963
-0.003635
-0.00232
-0.003306
-0.000841
-0.002648
-0.002155
-0.003142
-0.001662
0.000474
0.001132
-0.004128
0.000474
-0.000841
-0.003799
-0.001827
-0.001827
0.000967
0.00031
-0.001498
-0.003799
0.00409
-0.005443
-0.004785
-0.007086
-0.00347
-0.004128
0.001625
0.001132
-0.000183
0.002282
-0.001991
0.004419
-0.001662
-0.001005
-0.001991
-1.9e-05
-0.001991
-0.000512
-0.002648
-0.001005
-0.000841
-0.003142
0.001789
-0.00347
-0.002155
-0.000183
-0.000512
0.000474
0.003597
-1.9e-05
0.001132
-0.000512
-0.000183
-0.003799
-0.00347
-0.002155
-0.002155
-0.002648
-0.001662
-0.001827
-0.001169
0.000474
-0.003142
-0.001005
-0.009716
-0.001334
-0.001005
0.000474
-0.002977
0.001296
-0.000183
0.00031
-0.004128
0.00146
-0.004949
-0.013003
-0.001827
-0.002484
-0.000347
-0.002813
-0.001005
0.001132
0.003926
0.000146
0.006556
-0.000841
-0.005607
-0.001005
-0.001991
-0.001498
-0.001827
-0.001005
-0.001334
0.000474
-0.004949
0.002118
-0.001498
-0.001662
-0.002155
-0.004292
-0.002648
0.001625
-0.001005
0.001789
0.004583
-0.003635
-0.000347
-0.000183
-0.002977
-0.005443
-0.002484
-0.004621
-0.002977
-0.002977
-0.000512
0.00031
0.000146
0.000803
-1.9e-05
-0.000676
-0.001827
0.000803
-0.004785
-0.00232
-0.003799
-0.000676
-0.000841
-0.001169
-0.00232
0.000146
-0.003142
-0.001991
-0.003306
-0.003963
-0.002648
-0.001005
0.000967
-0.001169
0.002118
-0.001827
0.001296
-0.003306
-0.001662
-0.003635
-0.000841
-0.006264
-0.00347
-0.001991
-0.001662
0.000639
-0.001005
0.002118
-0.001991
-0.001827
0.000146
-0.000347
0.000639
0.003597
-0.002813
-0.000512
-0.002484
-0.002813
-0.003963
-0.001827
-0.004456
-0.002155
-0.001334
-0.002155
-0.000183
0.000146
-0.000676
0.00146
0.001789
-0.00347
-0.001498
-0.001334
-0.001991
-0.00232
-0.001169
-0.002813
-0.000183
-0.003142
-0.004456
-0.004292
-0.001991
0.00031
0.001296
-0.001169
-0.001991
0.003268
-0.002155
0.001954
-0.005443
-0.001169
-0.001005
-0.008072
-0.003635
-0.000183
-0.001169
-0.004456
-0.000676
-0.00232
-0.001334
-0.002155
0.000639
0.000803
0.003926
0.000803
-0.000347
-0.004128
-0.002977
-0.000183
-0.002155
-0.003306
-0.006429
0.000967
-0.000183
-0.000347
-0.002648
0.001132
-0.003963
-0.000841
0.001132
0.001954
-0.001334
-0.001662
0.000967
-0.000512
0.000146
-0.00232
0.001296
-0.001169
-0.002813
-0.000512
0.00146
-0.001005
-0.000183
0.000967
-0.001662
-0.002484
-0.000512
0.001789
-0.001334
-0.002155
0.002282
-0.001334
-0.001334
-0.002484
0.00031
-0.000512
-0.001827
0.000146
-0.001005
0.000639
-0.004456
-0.000183
-0.004785
-0.008401
-0.006429
-0.001498
-0.000676
-0.004949
0.001789
-0.000347
0.00146
-0.001827
0.000146
-0.001005
-1.9e-05
-0.003306
-0.002977
-0.001827
-0.001498
0.002447
0.001296
-0.000512
-1.9e-05
-1.9e-05
-0.001334
0.000803
-0.003799
0.001296
-0.000676
-0.000347
0.001132
0.003597
-0.00232
-0.000183
-0.001334
-0.00232
-0.003306
-0.003635
-0.001169
-0.000841
0.00146
-0.000676
-0.000676
-0.002155
0.001789
-0.001662
0.001296
-0.000841
-0.0061
-0.001169
-0.001662
-0.005771
-0.005936
-0.004949
-0.006264
-0.002813
-0.002977
-0.004292
-0.005607
0.005241
-0.002155
0.001132
0.003433
0.000639
-0.002977
-0.001498
-0.001334
-0.003306
-0.00347
-0.00347
-0.001662
-0.001169
0.000639
-0.001827
-1.9e-05
-1.9e-05
-0.001005
-0.001005
-1.9e-05
-0.000183
0.00146
-0.001334
-0.003799
-0.001169
-0.002484
-0.001334
-0.001169
-0.000676
-0.008072
0.000146
-0.002484
-0.004456
-0.00232
0.001625
-0.001662
-0.000347
-0.001005
-0.000183
-0.001169
-0.001991
-0.001169
-0.002977
0.004912
-0.000183
-0.001169
-0.001991
-0.002484
-0.00347
-0.0061
-0.003963
-0.001334
0.000474
-0.000676
-0.001827
-0.00347
0.002611
-0.001334
-1.9e-05
0.001625
-0.003799
-0.00725
0.00031
-0.004949
-0.00232
-0.001827
-0.001169
-0.002155
-0.001169
-0.001827
-0.000512
-0.001498
-0.002484
-0.002484
-0.002484
-1.9e-05
-0.002977
-1.9e-05
-0.000512
-0.005607
-0.005278
-0.002155
-0.00347
-0.002155
-0.000841
-0.004621
0.000639
-0.002813
0.000803
-0.001005
0.00031
0.00031
0.002282
-0.001334
0.000639
-0.000676
-0.001827
-0.003142
-0.002484
-0.006922
-0.001991
-0.004292
-0.002484
0.000803
-0.001169
-0.002484
-0.001498
0.000474
-0.000512
0.00031
0.00031
0.005569
0.000639
-1.9e-05
-0.000512
0.000146
-0.001827
-0.000841
-0.005771
-0.002977
-0.001169
-0.00232
-0.000841
-0.003635
-0.002484
0.000146
0.002447
-0.002155
-0.000347
-0.00347
-0.003799
-0.002484
-0.003635
-0.001662
-0.003799
-0.003635
-0.005771
-0.000676
-0.002813
-0.001991
-0.001662
-0.003635
-0.004949
-0.001498
-0.001169
-0.002648
-0.001169
-0.00347
-0.002977
-0.004292
-0.001991
-0.004292
-0.000347
-0.004949
0.000967
-0.000841
-0.002813
-0.001005
-0.000512
-0.000512
-0.00232
-0.002155
0.001132
0.002611
-0.000512
0.000803
-0.001169
-0.001334
-0.001005
-0.000676
-0.003306
-0.001169
-0.003963
-0.001005
0.001132
0.004255
0.002775
0.003433
0.002447
-0.000183
0.000967
-0.001662
-0.000676
-0.001991
-0.001498
-0.001334
-0.002648
-0.00347
0.000803
-0.00232
-0.001991
0.00146
0.001789
-0.000512
-0.002977
-0.00232
0.00031
-0.002648
-0.004292
0.001132
-0.002484
0.001296
-0.000676
0.00031
-0.002813
-0.001827
-0.001827
-0.002155
-0.000347
-0.002155
0.001625
-0.003142
-0.002813
-0.00232
-0.000841
-0.003142
-1.9e-05
-0.001498
-0.001005
-0.000841
-0.001005
-1.9e-05
-0.001662
-0.001662
-0.000841
0.002118
-0.004949
-0.006922
-0.001991
-0.004292
-0.004456
-0.001991
-1.9e-05
0.001132
-0.00232
0.000803
-1.9e-05
-0.001005
0.000639
-0.001334
-0.000841
-0.001169
-0.001662
-0.00232
0.001132
-0.002648
-0.002813
-0.002648
-0.001334
-0.004621
-0.000512
0.003597
0.011815
0.017403
0.027429
0.033181
0.040249
0.04748
0.052082
0.058164
0.061451
0.06934
0.071312
0.08216
0.081009
0.085776
0.090213
0.097774
0.100239
0.107142
0.11158
0.112401
0.118647
0.119469
0.126043
0.124893
0.130481
0.128837
0.13574
0.13459
0.139027
0.141
0.14215
0.14856
0.148067
0.148231
0.153984
0.159736
0.163352
0.162695
0.163845
0.163188
0.159736
0.164174
0.165489
0.166804
0.164831
0.164996
0.171734
0.171077
0.172227
0.172392
0.177158
0.175186
0.176665
0.178309
0.181267
0.178637
0.181431
0.182911
0.180281
0.181431
0.182582
0.184225
0.182582
0.183568
0.181431
0.18176
0.186526
0.184225
0.187019
0.18932
0.188499
0.191293
0.18932
0.190307
0.189814
0.188827
0.188827
0.188827
0.188663
0.191621
0.191457
0.189485
0.192772
0.191128
0.194251
0.187677
0.195895
0.1908
0.196717
0.192772
0.192115
0.196881
0.193265
0.192772
0.191457
0.193594
0.192443
0.192772
0.195073
0.196552
0.193594
0.196223
0.195237
0.197045
0.19721
0.197045
0.194909
0.196223
0.196552
0.196388
0.19721
0.196717
0.195402
0.195566
0.198524
0.199839
0.200004
0.195402
0.197703
0.196388
0.195402
0.19836
0.199675
0.19836
0.199182
0.198524
0.196717
0.199839
0.194909
0.198196
0.195895
0.197374
0.195402
0.194416
0.193429
0.201154
0.201319
0.194744
0.200497
0.198031
0.195073
0.197374
0.201154
0.192936
0.196388
0.197703
0.198853
0.19573
0.199018
0.199839
0.197374
0.197045
0.195402
0.199511
0.196223
0.199675
0.200168
0.199346
0.198853
0.199675
0.199511
0.200004
0.199018
0.20099
0.196059
0.196388
0.199839
0.200332
0.197703
0.196059
0.199346
0.197703
0.200168
0.197538
0.200004
0.194416
0.200497
0.200004
0.201154
0.198689
0.199839
0.199675
0.198196
0.198853
0.202798
0.198524
0.196059
0.200168
0.198689
0.200825
0.198524
0.200332
0.199018
0.199511
0.194251
0.198689
0.197374
0.197045
0.198196
0.200332
0.203948
0.197538
0.198689
0.198031
0.198689
0.198524
0.198853
0.196059
0.199839
0.19836
0.205099
0.197045
0.198524
0.199511
0.20099
0.203126
0.194909
0.197045
0.19721
0.197374
0.195895
0.200825
0.200332
0.201812
0.200332
0.196552
0.202962
0.197045
0.198689
0.198853
0.199675
0.19836
0.20362
0.202798
0.199182
0.19721
0.20099
0.206085
0.195402
0.197538
0.199511
0.196881
0.195237
0.199182
0.198031
0.196223
0.200004
0.199346
0.205427
0.197374
0.198031
0.200332
0.19721
0.20099
0.198524
0.19836
0.198031
0.201319
0.198031
0.202962
0.197538
0.201154
0.202305
0.199346
0.201319
0.200332
0.203455
0.20214
0.20214
0.198853
0.199182
0.19836
0.198689
0.197045
0.201812
0.19721
0.199018
0.197538
0.198196
0.200168
0.20099
0.189978
0.197538
0.195566
0.196552
0.200825
0.197538
0.197374
0.195237
0.199182
0.200497
0.200661
0.187513
0.194087
0.198031
0.19573
0.198524
0.19721
0.199182
0.197703
0.200497
0.200497
0.201812
0.188827
0.199346
0.199675
0.200004
0.198031
0.199346
0.198689
0.19458
0.199839
0.199839
0.198853
0.190635
0.198524
0.198524
0.200497
0.199511
0.202305
0.200004
0.199346
0.203948
0.198031
0.202305
0.196717
0.197045
0.199511
0.19836
0.195895
0.198853
0.197045
0.192279
0.199018
0.199346
0.19721
0.201483
0.200497
0.201812
0.203126
0.200332
0.201154
0.19573
0.194744
0.201812
0.19573
0.195566
0.199511
0.19573
0.199346
0.197374
0.199675
0.200497
0.201319
0.19836
0.201319
0.201647
0.198689
0.201319
0.198196
0.199675
0.19573
0.196552
0.196717
0.198524
0.19195
0.197374
0.198031
0.196388
0.197374
0.199839
0.200332
0.199182
0.201154
0.200004
0.201154
0.197867
0.199018
0.198689
0.200168
0.194744
0.194909
0.200661
0.202962
0.20099
0.199839
0.201483
0.198853
0.199346
0.201319
0.199511
0.201319
0.202633
0.194087
0.19836
0.19721
0.196717
0.194744
0.197045
0.19836
0.199839
0.200168
0.198689
0.200168
0.199839
0.199675
0.199839
0.200661
0.200004
0.20214
0.203291
0.20099
0.200332
0.200168
0.198524
0.200332
0.197045
0.196059
0.19836
0.197374
0.19836
0.200825
0.200168
0.200004
0.201812
0.19836
0.201154
0.199182
0.198524
0.200168
0.198031
0.199675
0.201483
0.201976
0.201976
0.200168
0.200497
0.200332
0.197703
0.19573
0.203126
0.197703
0.199675
0.199839
0.196388
0.199511
0.199511
0.203126
0.197867
0.197374
0.200661
0.199839
0.200004
0.19836
0.201976
0.197867
0.200497
0.199182
0.201319
0.196717
0.198689
0.200825
0.199018
0.201319
0.199839
0.202798
0.200168
0.198031
0.198031
0.201647
0.19573
0.201976
0.198853
0.198853
0.197538
0.19836
0.203291
0.199018
0.199511
0.200825
0.201483
0.200661
0.206414
0.20362
0.200168
0.199839
0.200004
0.198196
0.19836
0.197867
0.203126
0.199018
0.199018
0.201319
0.197045
0.195566
0.199511
0.200332
0.195073
0.201154
0.202305
0.200004
0.201319
0.201319
0.200004
0.199018
0.198031
0.196552
0.200661
0.196223
0.199018
0.199018
0.199675
0.201976
0.201483
0.199675
0.203126
0.197045
0.199511
0.199182
0.198031
0.198689
0.19836
0.199018
0.200825
0.199182
0.199346
0.199511
0.198031
0.199018
0.199182
0.201976
0.202962
0.205099
0.200004
0.203291
0.199018
0.198196
0.198524
0.197374
0.19836
0.196881
0.195895
0.19721
0.198853
0.194416
0.200497
0.198196
0.201647
0.200004
0.201647
0.200825
0.199182
0.200332
0.199675
0.197538
0.202962
0.196717
0.204606
0.200825
0.195566
0.202633
0.198031
0.199018
0.200168
0.200168
0.202469
0.196223
0.197703
0.200168
0.200168
0.19836
0.199839
0.198853
0.200004
0.198689
0.200825
0.197703
0.199675
0.197703
0.198196
0.199346
0.201319
0.203455
0.201976
0.200332
0.200004
0.203948
0.198689
0.201647
0.199346
0.197703
0.192772
0.197703
0.196717
0.19836
0.19836
0.197867
0.20099
0.200497
0.199675
0.201319
0.198689
0.199346
0.201154
0.199018
0.20099
0.199839
0.201812
0.202305
0.202798
0.199346
0.19836
0.197867
0.200168
0.199511
0.199511
0.195402
0.197538
0.199018
0.199839
0.203784
0.19836
0.20099
0.200332
0.200497
0.199839
0.198853
0.19836
0.198196
0.199018
0.197374
0.20099
0.200168
0.200825
0.198031
0.200004
0.198196
0.199839
0.200168
0.200332
0.198524
0.203784
0.200825
0.200661
0.199346
0.199346
0.197045
0.200825
0.197374
0.197374
0.200825
0.200825
0.19836
0.203291
0.200004
0.198853
0.198853
0.200004
0.198689
0.199182
0.20214
0.199182
0.200004
0.200497
0.197867
0.198031
0.195237
0.19836
0.196552
0.199675
0.196223
0.20477
0.199675
0.201154
0.200004
0.200332
0.201812
0.199346
0.200004
0.19721
0.199346
0.195895
0.200004
0.197538
0.199839
0.198853
0.199675
0.199182
0.200332
0.199018
0.19836
0.200497
0.201976
0.200004
0.196223
0.202798
0.198196
0.200004
0.199839
0.197538
0.199018
0.199018
0.197538
0.201812
0.199182
0.19836
0.200497
0.201154
0.201319
0.200332
0.20099
0.199675
0.200004
0.198524
0.197867
0.197045
0.197703
0.198524
0.200004
0.200332
0.198853
0.201154
0.199839
0.200332
0.198853
0.197374
0.196388
0.202798
0.198524
0.200168
0.198689
0.198031
0.196388
0.19836
0.19721
0.19836
0.198524
0.198524
0.199182
0.199346
0.201319
0.198853
0.198853
0.196388
0.19458
0.196717
0.198524
0.196717
0.20099
0.19836
0.200661
0.199511
0.199182
0.199346
0.203291
0.200168
0.198689
0.201812
0.198689
0.197867
0.19721
0.201154
0.200168
0.200004
0.197867
0.201976
0.200332
0.199182
0.199675
0.200661
0.199182
0.198031
0.20099
0.19836
0.198853
0.19836
0.198524
0.197374
0.199018
0.197045
0.200332
0.197703
0.198524
0.199346
0.199018
0.199346
0.198853
0.201812
0.198031
0.199839
0.196881
0.197867
0.194087
0.195237
0.194251
0.196388
0.198689
0.200168
0.202305
0.199182
0.200168
0.197045
0.200004
0.19836
0.200004
0.201319
0.201647
0.199511
0.201812
0.197867
0.197867
0.198853
0.19836
0.200168
0.20214
0.201319
0.202798
0.204934
0.19836
0.204113
0.199346
0.199346
0.200825
0.199675
0.195402
0.198524
0.194087
0.19836
0.198853
0.198196
0.20099
0.201647
0.203291
0.198196
0.201483
0.199675
0.203455
0.194909
0.203455
0.201647
0.198524
0.192608
0.196388
0.196223
0.196223
0.19836
0.197538
0.200661
0.198031
0.200661
0.201812
0.200661
0.196717
0.199839
0.19836
0.20099
0.198196
0.199018
0.19836
0.197374
0.198196
0.200168
0.198689
0.19836
0.205427
0.197867
0.198853
0.199182
0.20099
0.199675
0.202962
0.201812
0.19721
0.200661
0.198689
0.199182
0.198689
0.196552
0.196388
0.198689
0.19836
0.202633
0.201483
0.204277
0.199511
0.202305
0.202962
0.199839
0.198689
0.197374
0.196717
0.193265
0.200004
0.19836
0.199182
0.201154
0.20362
0.199346
0.198524
0.198853
0.199018
0.201319
0.198524
0.200332
0.200497
0.200004
0.198853
0.199839
0.196552
0.197538
0.192936
0.19573
0.193101
0.194744
0.188663
0.18932
0.187184
0.186033
0.184883
0.182582
0.181431
0.183404
0.179623
0.180116
0.17913
0.180281
0.179952
0.173214
0.169598
0.138863
0.140506
0.084625
0.059478
0.041892
0.041892
0.038934
0.021019
0.011979
0.014445
0.015102
0.007049
0.014116
0.013952
0.023484
0.02595
0.027429
0.024142
0.021183
0.027265
0.031867
0.033674
0.03992
0.021183
0.007706
0.014445
0.011815
0.022827
0.026278
0.03236
0.034332
0.030059
0.027758
0.032195
0.041235
0.040742
0.046987
0.05389
0.046001
0.051589
0.057999
0.060465
0.063094
0.052247
0.060793
0.064574
0.068682
0.07049
0.073942
0.073778
0.0769
0.082817
0.089391
0.086104
0.085447
0.080516
0.078215
0.085118
0.087584
0.090213
0.040084
0.016746
0.021676
0.029401
0.00935
0.018882
0.024635
0.021183
0.027922
0.041399
0.048795
0.05389
0.058821
0.051425
0.058492
0.055041
0.056684
0.059972
0.058164
0.068025
0.072463
0.081502
0.08857
0.084954
0.093007
0.099253
0.100075
0.100896
0.103526
0.103362
0.105992
0.112237
0.113552
0.118811
0.118318
0.122592
0.114538
0.109443
0.098267
0.084296
0.063916
0.003104
0.001954
0.001789
0.000803
-0.001005
-1.9e-05
-0.001169
0.001625
-0.001662
0.00031
-0.001005
-0.000347
0.000146
0.001296
0.000639
0.001625
0.000803
0.000639
-0.000183
-0.000347
-0.000347
-0.000676
-0.001334
-1.9e-05
0.000639
-0.000347
0.000967
0.00031
0.001132
-0.000183
-0.000183
-0.000512
-0.000347
-0.000841
-1.9e-05
0.000146
-0.000512
0.000146
0.000803
0.000639
-0.000841
-0.000512
-0.000347
-1.9e-05
-0.001334
-0.000347
0.000474
0.000639
0.000474
0.000639
0.000967
0.000474
0.000803
-0.000183
-0.000183
-0.001498
0.001789
0.004419
0.004912
-0.000841
0.004583
0.000474
0.002611
0.00409
0.005405
0.013623
0.018389
0.026771
0.03351
0.041399
0.045837
0.055041
0.057342
0.067039
0.071641
0.076407
0.078873
0.087748
0.093336
0.091035
0.096294
0.102047
0.10517
0.106649
0.114045
0.116839
0.124071
0.125221
0.131631
0.130481
0.134097
0.136726
0.137548
0.141493
0.140342
0.14593
0.145602
0.145602
0.153326
0.155792
0.152505
0.155792
0.157271
0.162037
0.16253
0.163845
0.166146
0.166311
0.166639
0.167954
0.17157
0.169598
0.172063
0.173871
0.172227
0.176008
0.175679
0.176994
0.179623
0.180774
0.182746
0.183075
0.182089
0.184718
0.183897
0.184883
0.184883
0.183075
0.185047
0.187677
0.190635
0.18817
0.188499
0.189649
0.186526
0.189978
0.190142
0.189814
0.192608
0.1908
0.189978
0.194909
0.191293
0.192608
0.194909
0.193429
0.191786
0.192443
0.194251
0.191457
0.19573
0.193922
0.195237
0.191621
0.194744
0.198524
0.196881
0.19836
0.197374
0.193758
0.193594
0.197538
0.193758
0.195402
0.197703
0.199675
0.19458
0.196388
0.196223
0.195566
0.19836
0.197867
0.199346
0.19836
0.199511
0.199018
0.199511
0.199018
0.206249
0.197374
0.197374
0.198031
0.198031
0.197538
0.198031
0.197703
0.197045
0.198196
0.198196
0.199675
0.199839
0.198689
0.199182
0.201483
0.197703
0.199839
0.201154
0.199839
0.199839
0.197045
0.199018
0.199675
0.196388
0.200332
0.200004
0.199346
0.198031
0.19721
0.200332
0.203784
0.198524
0.194909
0.201647
0.195895
0.196388
0.200004
0.197538
0.198689
0.199675
0.19836
0.201154
0.197045
0.198031
0.203455
0.198031
0.200332
0.198031
0.203948
0.200004
0.200004
0.197867
0.203455
0.200497
0.200332
0.201154
0.200168
0.200825
0.199675
0.200497
0.199346
0.203126
0.200497
0.198031
0.198524
0.199018
0.199839
0.199839
0.199839
0.200332
0.201647
0.201647
0.202962
0.198031
0.200661
0.198031
0.201483
0.198524
0.199511
0.194251
0.199018
0.202633
0.198196
0.199018
0.201319
0.197703
0.201319
0.201647
0.199018
0.20362
0.196388
0.201812
0.20099
0.200168
0.200332
0.199018
0.200004
0.198031
0.196223
0.194087
0.199839
0.202962
0.19836
0.200004
0.200661
0.199675
0.201647
0.201483
0.199018
0.20099
0.199346
0.198031
0.199675
0.197703
0.199675
0.199182
0.199182
0.200332
0.199018
0.200661
0.200004
0.200497
0.199675
0.202305
0.199675
0.200661
0.203948
0.201647
0.198689
0.198031
0.192772
0.197538
0.197538
0.191786
0.198524
0.19721
0.201154
0.199675
0.202469
0.198853
0.203784
0.199511
0.200825
0.199839
0.200004
0.199346
0.196552
0.200168
0.19721
0.201647
0.196717
0.198853
0.196717
0.197867
0.199839
0.200004
0.200661
0.201319
0.201812
0.201319
0.200825
0.198853
0.201647
0.197867
0.199346
0.197045
0.199675
0.197867
0.200168
0.199346
0.199018
0.199511
0.200168
0.201812
0.201154
0.19721
0.199346
0.198853
0.198031
0.198689
0.197867
0.195237
0.197703
0.198196
0.192279
0.199839
0.201319
0.197538
0.200168
0.201976
0.201483
0.202305
0.20099
0.200332
0.201483
0.203784
0.201812
0.198524
0.203455
0.20214
0.201319
0.199182
0.202798
0.20214
0.204606
0.201812
0.197867
0.204606
0.198853
0.199182
0.197867
0.202962
0.199182
0.201154
0.199018
0.200661
0.20099
0.199839
0.198196
0.200168
0.199182
0.199511
0.199511
0.198524
0.202798
0.20214
0.202469
0.200825
0.203291
0.198853
0.198853
0.19721
0.197374
0.196717
0.19573
0.196059
0.203291
0.202305
0.199346
0.202962
0.199182
0.201483
0.200497
0.200332
0.199839
0.199675
0.200825
0.206249
0.206249
0.200497
0.205099
0.20099
0.200332
0.199182
0.197374
0.196059
0.197867
0.197538
0.201647
0.20099
0.199018
0.197867
0.203126
0.197374
0.200825
0.198689
0.20214
0.199675
0.199839
0.20477
0.202962
0.199346
0.200497
0.198196
0.195566
0.201319
0.199182
0.199346
0.198689
0.203126
0.201812
0.201976
0.198689
0.200332
0.199018
0.194416
0.201319
0.201483
0.200825
0.199675
0.200825
0.199675
0.201319
0.198853
0.200661
0.199018
0.20362
0.203291
0.202305
0.201976
0.198689
0.203455
0.201483
0.199018
0.201483
0.200168
0.200497
0.200661
0.199018
0.20099
0.19836
0.198853
0.200332
0.201647
0.201647
0.200497
0.203126
0.200004
0.201812
0.199346
0.201812
0.199511
0.199018
0.204113
0.199346
0.197374
0.199839
0.198689
0.196388
0.19836
0.20099
0.201976
0.199018
0.199018
0.202798
0.201647
0.200168
0.204113
0.200497
0.201319
0.201319
0.201483
0.199018
0.200332
0.199346
0.200497
0.201812
0.201976
0.199839
0.200661
0.199346
0.196223
0.202798
0.200004
0.204113
0.201976
0.202469
0.202633
0.200825
0.19721
0.203455
0.198853
0.19721
0.19836
0.200332
0.200168
0.197867
0.199346
0.20099
0.20214
0.200004
0.206249
0.197374
0.202798
0.204606
0.199839
0.19721
0.20099
0.201812
0.194909
0.203455
0.201483
0.203291
0.193265
0.199839
0.198853
0.201319
0.203291
0.201483
0.203784
0.20099
0.20362
0.200825
0.206578
0.198524
0.199018
0.202305
0.201319
0.19836
0.198853
0.20099
0.199346
0.199675
0.201319
0.205921
0.197703
0.196717
0.198853
0.19836
0.201319
0.200332
0.201154
0.203126
0.198689
0.204934
0.200825
0.200332
0.198689
0.200661
0.200825
0.199839
0.201812
0.200825
0.202469
0.200825
0.201976
0.201812
0.200825
0.200825
0.199675
0.200661
0.202469
0.201976
0.200497
0.197867
0.202798
0.199182
0.198524
0.201812
0.200661
0.203291
0.201319
0.20362
0.200004
0.206249
0.200332
0.205099
0.199675
0.192443
0.196881
0.199182
0.198853
0.19836
0.200661
0.200168
0.201154
0.197867
0.203948
0.201483
0.195895
0.200661
0.202469
0.198524
0.201319
0.197374
0.200168
0.20477
0.202469
0.199346
0.20099
0.189649
0.199018
0.196388
0.201319
0.202305
0.199018
0.204441
0.200332
0.201976
0.199839
0.201812
0.193101
0.199182
0.201647
0.200825
0.198853
0.201154
0.203948
0.19836
0.20214
0.203291
0.201154
0.196388
0.207235
0.199839
0.200825
0.202798
0.201319
0.201483
0.200004
0.199675
0.198524
0.20214
0.196552
0.200497
0.199182
0.202798
0.203948
0.202962
0.205592
0.20362
0.201483
0.201647
0.201154
0.200004
0.202633
0.198689
0.199675
0.200661
0.203784
0.202962
0.202305
0.200661
0.202962
0.200168
0.200497
0.201154
0.199182
0.200825
0.200661
0.202962
0.201647
0.200168
0.199346
0.200825
0.200332
0.201812
0.200004
