Ladekurvenmessung

Zeit: 2018_05_04 10.01.49

Info: FVA3, v = 1.05, T = 23, F = 20, h = 587.3

Ladewiderstand[Ohm]: 1012700

Störkapazität[pF]: 0.000000

Entladezeit[ms]: 200

Abtastrate[Hz]: 250000

Anzahl der Messwerte: 2500.000000

Verzögerung[ms]: 3

Ladespannung[V]: 0.200000


Kurve 1

0.001132
0.000967
0.005405
0.001132
0.006391
0.003104
0.001132
0.001132
0.00409
0.000474
0.00294
-1.9e-05
-0.000183
0.00294
-0.000183
0.003104
-1.9e-05
0.00409
0.000474
0.007542
-0.000512
0.000474
0.003597
0.002447
0.001132
0.000146
-0.000512
-0.00232
0.002447
-0.000183
0.00409
-0.003142
0.000474
-0.001498
0.00146
0.00031
0.000967
0.000803
0.002611
0.000474
-0.000512
-0.002484
-0.005114
-0.005936
-0.004456
-0.003142
-0.007086
0.000639
-0.004949
-0.001827
-0.001334
-0.001169
0.001296
-0.001662
-0.000183
-0.000183
-0.002484
-0.001498
0.000803
-0.000676
-0.004292
-0.00232
-0.002977
-0.004949
-0.003142
-0.005114
-0.003799
-0.002813
-0.003799
-0.003799
-0.002648
-0.002813
-0.001498
0.00031
-0.004621
-0.0061
-0.007908
-0.005278
-0.012017
-0.006429
-0.008401
-0.006264
-0.00725
-0.005114
-0.006757
-0.003799
-0.005278
-0.004128
-0.004621
-0.004949
-0.003142
-0.007086
-0.003635
-0.007086
-0.007579
-0.007086
-0.00347
-0.010702
-0.006593
-0.007908
-0.00725
-0.004128
-0.005936
-0.004785
-0.003142
-0.004292
-0.004785
-0.002484
-0.008565
-0.007086
-0.006264
-0.004785
-0.006922
-0.000183
-0.007086
-0.005443
-0.007744
-0.002813
-0.00232
-0.008237
-0.003963
-0.005607
-0.003635
-0.006922
-0.006264
-0.004949
-0.003963
-0.005443
-0.00347
-0.005443
-0.004949
-0.009058
-0.005278
-0.005443
-0.007086
-0.006922
-0.006264
-0.003963
-0.005936
-0.004949
-0.006757
-0.003963
-0.005607
-0.003306
-0.00725
-0.0061
-0.006593
-0.00347
-0.006922
-0.005936
-0.004456
-0.006922
-0.00725
-0.004785
-0.002484
-0.006757
-0.006922
-0.007086
-0.001005
-0.005114
-0.002813
-0.003635
-0.005278
-0.003799
-0.005936
-0.006264
-0.002648
-0.005278
-0.008237
-0.002813
-0.006429
-0.005607
-0.005607
-0.006757
-0.004456
-0.004292
-0.004785
-0.003635
-0.004949
-0.00347
-0.000512
-0.005771
-0.00347
-0.008072
0.000146
-0.001827
-0.004785
-0.007415
-0.001005
-0.0061
-0.003963
-0.001991
-0.005443
-0.004621
-0.003635
-0.002155
-0.005114
-0.001827
-0.003635
-0.002648
-0.000183
-0.001169
0.000474
0.003761
-0.004949
-0.003963
-0.002155
-0.002155
-0.005443
-0.002484
0.001625
-0.001991
-0.001991
0.000639
-0.001169
-0.001662
0.00031
-0.003799
-0.001827
-0.003963
-0.003799
-0.004949
-0.00232
-0.001005
-0.002484
-0.00232
-0.001827
-0.003306
-0.002484
-0.003799
-0.004621
-0.000512
-0.002155
-0.002484
-0.005114
-0.004785
-0.005114
-0.004785
-0.003963
-0.005114
-0.005607
-0.005936
-0.007415
-0.006429
-0.004785
-0.002813
-0.006429
-0.004128
-0.001991
-0.004128
-0.002648
-0.005771
-0.005114
-0.008401
-0.006593
-0.002977
-0.002648
-0.00232
-0.002648
-0.001169
-0.003142
-0.000347
-0.002648
-0.002977
-0.002648
0.003761
-0.001827
0.003104
-0.000347
-0.000841
0.000474
-0.003142
0.001789
-0.001991
-0.001005
-0.002155
-0.001498
-0.004949
0.003104
-0.004621
-0.000347
-0.003142
0.001954
0.005076
0.002118
0.003597
-0.001334
0.000967
-0.000347
-0.000512
-0.001169
-0.000512
-0.001827
-0.002813
-0.003306
-0.000676
-0.004456
-0.001005
-0.003799
-0.000347
0.001132
-0.005771
-0.001498
0.004912
0.005076
0.001296
0.001132
-0.000512
0.000639
-0.001662
0.000639
-0.000841
-0.001827
-0.000512
-0.000183
0.000967
-0.002648
-0.000512
-0.000841
-0.002484
0.002611
0.000803
-0.001498
-0.002155
0.000474
0.007706
0.000146
0.000474
-0.001662
0.00031
-0.001498
-0.001991
-0.004128
0.000146
-0.003799
0.003104
0.003104
0.000967
0.005076
-0.001169
0.002282
-0.001662
0.00031
-0.000183
-0.002648
-0.003142
-0.000512
-0.003963
-0.004456
0.002118
-0.001498
0.005076
0.002282
0.003433
-0.002648
0.000474
-0.002484
0.005405
0.000803
-0.000183
0.004912
-0.00232
-0.000512
-0.001498
-0.003142
-0.00232
-0.002484
-0.004128
-0.000676
-0.002648
0.000146
-0.001662
-0.00347
-0.004949
-0.001498
-0.001498
-0.001991
-0.001005
-0.003799
-0.005607
-0.001991
-0.003635
-0.001827
-0.004128
-0.008894
-0.007908
-0.006757
-0.004785
-0.007744
-0.004128
-0.003963
-0.003963
-0.006593
-0.005936
-0.004949
-0.006757
-0.006757
-0.005607
-0.003142
-0.004292
-0.001498
-0.002813
-0.004292
-0.004785
-0.003799
-0.003635
0.001954
-0.000676
-0.001334
-0.000183
-0.002648
-0.003142
-0.002648
-0.001827
-0.000183
-0.002484
-0.002813
-0.001662
-0.005278
-0.001827
-0.004292
-0.003142
-0.003306
-0.001827
-0.002155
-0.001991
-0.001169
-0.004292
-0.002155
-0.006264
-0.006757
-0.00347
-0.005278
-0.005771
-0.00347
-0.005443
-0.005607
-0.005114
-0.011195
-0.005443
-0.000512
-0.007415
-0.004785
-0.005607
-0.006429
-0.002484
-0.005443
-0.002813
-0.002813
-0.004128
-0.001991
-0.006429
-0.006757
-0.002155
-0.005443
-0.004128
-0.003963
-0.005278
-0.001334
-0.003142
-0.002155
-0.001827
-1.9e-05
-0.00232
0.003597
-0.000183
-0.00232
0.000639
-0.000347
-0.001169
0.003104
-0.004949
-0.001334
-0.001334
-0.002155
0.001954
-0.001334
-0.000676
0.000967
0.00294
-1.9e-05
0.008035
-0.000676
0.000803
0.003268
0.003104
0.00031
0.00146
-0.001827
-1.9e-05
0.002447
-0.00232
0.000474
-0.005114
-0.000347
-0.002484
-0.002155
-0.001498
0.003268
0.00031
0.002775
0.001789
0.004583
-0.006429
0.004583
0.003104
0.003597
0.004912
0.004255
0.005898
0.004255
0.006062
0.005241
0.006227
-1.9e-05
0.006227
0.007542
0.007542
0.008035
0.009185
0.008528
0.007377
0.009021
0.006062
0.007706
0.004255
0.005569
0.00409
0.009514
0.009678
0.009185
0.008857
0.010336
0.011815
0.013787
0.014116
0.010993
0.011651
0.011158
0.00672
0.009021
0.00935
0.009185
0.011322
0.005898
0.006227
0.012472
0.007706
0.008528
0.010171
0.011815
0.011158
0.013787
0.010829
0.015595
0.009843
0.008528
0.013623
0.006062
0.008035
0.010336
0.006227
0.007377
0.008363
0.006062
0.008035
0.008199
0.007542
0.007377
0.010336
0.007706
0.008363
0.004748
0.005898
0.003268
0.003926
0.001954
0.003104
-0.000347
0.000474
0.000474
0.001954
0.001789
0.00031
0.001296
0.001625
0.002775
-0.002155
-0.00347
-0.001005
-0.001169
-0.004456
-0.00347
-0.009058
-0.008072
-0.009223
-0.011031
-0.00725
-0.009058
-0.002977
-0.007908
-0.002484
-0.004621
-0.008237
-0.008401
-0.007908
-0.010209
-0.007908
-0.012181
-0.015304
-0.012674
-0.010866
-0.013332
-0.014647
-0.007086
-0.017112
-0.012017
-0.012839
-0.013332
-0.014482
-0.013989
-0.010866
-0.012181
-0.012181
-0.012017
-0.010373
-0.013825
-0.012839
-0.014811
-0.013496
-0.014482
-0.014153
-0.014153
-0.010702
-0.013989
-0.013332
-0.008894
-0.016454
-0.013003
-0.010702
-0.012346
-0.012346
-0.011359
-0.016948
-0.006922
-0.015304
-0.012017
-0.013003
-0.011359
-0.011852
-0.008401
-0.006593
-0.008894
-0.009223
-0.00725
-0.00725
-0.004949
-0.009716
-0.008237
-0.008401
-0.004785
-0.002977
-0.004949
-0.002648
-0.004949
-0.001991
-0.005443
-0.005607
-0.005771
-0.00347
-0.002977
-0.001169
-0.002977
-0.001827
-1.9e-05
-0.002155
0.00294
0.001625
0.003761
0.000639
0.002282
-0.000183
0.001954
-0.000676
-0.000512
0.00294
0.001296
0.004419
0.000474
0.003433
0.000639
0.001954
-0.001991
0.002611
-0.001005
0.003433
0.00031
-0.000676
0.002775
0.003926
0.005405
0.005734
0.006556
0.00146
0.002447
0.001789
0.003597
0.003104
0.000967
0.005898
0.010007
0.000474
0.00935
0.003597
0.003761
0.006884
0.001789
0.004912
0.005241
0.003433
0.005241
0.008199
0.002447
0.008035
0.004255
0.004912
0.002118
0.005569
0.005405
0.010171
0.002282
0.007377
0.008035
0.005405
0.00787
0.00935
0.006884
0.006062
0.004912
0.003597
0.007542
0.001789
0.003761
0.004583
0.00294
0.005241
0.005569
0.001954
0.000803
0.002611
0.006556
0.012308
0.017403
0.024635
0.028744
0.039591
0.044358
0.051754
0.05652
0.062601
0.069669
0.071805
0.079037
0.087255
0.090049
0.09613
0.100568
0.100075
0.109114
0.106978
0.116675
0.120126
0.122592
0.124399
0.12818
0.131467
0.13196
0.135411
0.138041
0.14215
0.143794
0.146752
0.149382
0.152833
0.152176
0.160558
0.159243
0.163681
0.160558
0.162859
0.163845
0.163516
0.16138
0.16253
0.164996
0.164667
0.168447
0.171241
0.173542
0.171734
0.176336
0.175186
0.178473
0.1742
0.177322
0.181103
0.176008
0.178637
0.180116
0.175843
0.176829
0.174857
0.17798
0.180774
0.179459
0.181103
0.181596
0.182911
0.184718
0.188006
0.184883
0.186198
0.18554
0.190307
0.18439
0.184718
0.184061
0.185212
0.188006
0.186198
0.1908
0.18554
0.188006
0.18817
0.192115
0.188334
0.189814
0.18932
0.191786
0.188663
0.190471
0.190471
0.186691
0.185376
0.191786
0.191128
0.185376
0.192608
0.186691
0.19195
0.193429
0.191786
0.194744
0.195402
0.191293
0.19721
0.197703
0.190635
0.195237
0.191786
0.194416
0.192443
0.195073
0.195895
0.19836
0.1908
0.19458
0.197045
0.19458
0.195402
0.194909
0.195895
0.193594
0.201976
0.195402
0.199346
0.193594
0.196223
0.200004
0.193594
0.190471
0.19458
0.194909
0.1908
0.194744
0.194087
0.192772
0.195895
0.195237
0.195566
0.196881
0.193594
0.195237
0.194087
0.196223
0.19573
0.192279
0.193101
0.196552
0.19458
0.18439
0.191457
0.197538
0.19573
0.196059
0.198196
0.19721
0.197045
0.196552
0.199346
0.199182
0.187184
0.19721
0.201812
0.195073
0.196717
0.195237
0.194909
0.198689
0.194744
0.195566
0.197538
0.191128
0.191786
0.197374
0.195402
0.197374
0.195237
0.196059
0.194087
0.19721
0.195402
0.195566
0.194744
0.193429
0.194087
0.193429
0.199182
0.19195
0.196223
0.194744
0.196881
0.194909
0.195237
0.193429
0.195566
0.194087
0.194416
0.194909
0.196059
0.197374
0.189978
0.194744
0.195566
0.196059
0.195073
0.196059
0.196552
0.194909
0.199182
0.199018
0.19836
0.19836
0.198689
0.194744
0.197538
0.194087
0.198689
0.19721
0.198689
0.197538
0.198031
0.193594
0.194416
0.198853
0.193594
0.200332
0.197867
0.199511
0.197867
0.200332
0.19836
0.197867
0.198031
0.196388
0.19836
0.200168
0.197045
0.201319
0.20099
0.198031
0.19195
0.200004
0.200497
0.19836
0.196717
0.201976
0.201812
0.19836
0.201976
0.202798
0.20099
0.196881
0.197703
0.198524
0.198853
0.197703
0.200168
0.201154
0.200004
0.20099
0.202469
0.20099
0.19721
0.19836
0.195237
0.203126
0.199346
0.201812
0.200825
0.200825
0.201647
0.201319
0.198524
0.19836
0.198031
0.197703
0.199182
0.19836
0.203291
0.197374
0.199182
0.199182
0.201647
0.198853
0.20214
0.200661
0.199675
0.199346
0.198031
0.200004
0.198196
0.197374
0.19721
0.199182
0.196223
0.19721
0.193265
0.203948
0.199675
0.202305
0.202469
0.205099
0.200825
0.199018
0.201812
0.196881
0.199182
0.196388
0.199182
0.19836
0.199346
0.19836
0.200004
0.198031
0.197867
0.202469
0.199511
0.200497
0.198524
0.20214
0.200004
0.197045
0.201812
0.199346
0.196388
0.197374
0.19836
0.199346
0.196223
0.198196
0.195895
0.19836
0.199346
0.196717
0.202962
0.198031
0.198689
0.198031
0.19836
0.196717
0.19836
0.194087
0.19721
0.195073
0.197867
0.192443
0.195566
0.198689
0.199839
0.197045
0.199182
0.199839
0.199675
0.200825
0.198853
0.199346
0.196223
0.200661
0.196552
0.198524
0.196059
0.198031
0.195895
0.196059
0.197374
0.200661
0.20099
0.199018
0.197538
0.200497
0.201976
0.196388
0.200332
0.198853
0.198031
0.197374
0.197045
0.196552
0.197374
0.198196
0.197538
0.199675
0.19573
0.193758
0.197867
0.196388
0.197045
0.197703
0.200825
0.20099
0.198031
0.200332
0.197374
0.19458
0.19721
0.19573
0.195073
0.195402
0.196881
0.19836
0.198524
0.194744
0.197867
0.198196
0.199182
0.200332
0.199346
0.199675
0.199511
0.198196
0.20099
0.198031
0.20099
0.196223
0.198524
0.201812
0.19836
0.201976
0.194744
0.197374
0.196059
0.199675
0.199346
0.199511
0.19836
0.199675
0.199182
0.198853
0.198853
0.198031
0.19721
0.196223
0.203126
0.200825
0.200497
0.197867
0.203455
0.200004
0.197045
0.201483
0.197374
0.19721
0.198524
0.201154
0.198031
0.197374
0.198524
0.200168
0.198031
0.199511
0.19721
0.20099
0.202798
0.199839
0.202305
0.200497
0.199346
0.199839
0.200661
0.199182
0.199675
0.200004
0.198031
0.197703
0.201154
0.199839
0.196552
0.193758
0.203455
0.199182
0.196059
0.20099
0.197538
0.198689
0.198196
0.200661
0.201647
0.199511
0.19836
0.201319
0.19721
0.197867
0.198853
0.199018
0.197703
0.199182
0.198689
0.198689
0.197703
0.195895
0.197374
0.199346
0.195237
0.194251
0.199839
0.199018
0.196881
0.204934
0.196717
0.199018
0.199511
0.198031
0.198853
0.197045
0.198031
0.19721
0.201154
0.199346
0.200332
0.200168
0.198853
0.200661
0.19836
0.200825
0.197867
0.200497
0.200004
0.195566
0.199675
0.199346
0.196388
0.199511
0.199839
0.198031
0.198689
0.19721
0.19573
0.19721
0.198689
0.199346
0.201319
0.197867
0.201319
0.200497
0.199675
0.200661
0.195895
0.200168
0.19721
0.199511
0.19721
0.198853
0.195402
0.198031
0.197045
0.197538
0.199018
0.197703
0.199839
0.198031
0.20099
0.197045
0.199182
0.199675
0.198524
0.198853
0.199182
0.198853
0.198031
0.196881
0.196223
0.198031
0.197867
0.197703
0.195895
0.198524
0.200004
0.200825
0.197703
0.202305
0.197538
0.199182
0.195566
0.199839
0.197374
0.193101
0.198031
0.203784
0.201976
0.199839
0.198689
0.200004
0.196881
0.200825
0.200332
0.198524
0.197703
0.19836
0.200004
0.19836
0.20099
0.194744
0.195402
0.193922
0.196552
0.195073
0.194744
0.197374
0.199346
0.200661
0.199346
0.201319
0.201483
0.199511
0.19836
0.201483
0.197045
0.204934
0.201812
0.19836
0.19836
0.19721
0.19721
0.19573
0.200825
0.201812
0.19573
0.197703
0.201483
0.198853
0.200497
0.199675
0.197374
0.197867
0.199346
0.19836
0.200332
0.194909
0.193594
0.192443
0.19573
0.200332
0.196881
0.203126
0.199346
0.19836
0.197538
0.199182
0.196059
0.198689
0.196059
0.194087
0.196717
0.197045
0.195402
0.197538
0.198689
0.195237
0.199839
0.19573
0.197045
0.199182
0.198524
0.197703
0.197045
0.193265
0.195566
0.196388
0.192443
0.199675
0.195895
0.196059
0.196552
0.193594
0.197045
0.196059
0.193101
0.198689
0.197703
0.199675
0.192279
0.197538
0.195895
0.195566
0.196223
0.193594
0.191457
0.193758
0.19836
0.196388
0.19836
0.196388
0.19836
0.196388
0.195237
0.196059
0.196881
0.196223
0.19573
0.19836
0.191786
0.197045
0.193429
0.19573
0.19573
0.19721
0.196717
0.198689
0.196717
0.196552
0.196223
0.196881
0.194416
0.196223
0.199675
0.200168
0.19721
0.198031
0.196388
0.192443
0.198524
0.196717
0.199839
0.200004
0.19836
0.194909
0.19721
0.195402
0.19458
0.197045
0.197867
0.198524
0.198853
0.194416
0.200497
0.191786
0.196388
0.201319
0.196717
0.197374
0.194909
0.195895
0.195895
0.199182
0.194087
0.195073
0.197538
0.19573
0.198853
0.198031
0.195566
0.19573
0.198853
0.195237
0.206414
0.19573
0.196059
0.198524
0.200004
0.197703
0.197867
0.198853
0.199182
0.197867
0.199839
0.197045
0.196881
0.199346
0.201154
0.199675
0.197538
0.20214
0.198853
0.201812
0.201976
0.199346
0.18554
0.196717
0.19721
0.203126
0.199839
0.198031
0.200168
0.197538
0.196388
0.201976
0.203126
0.197703
0.199839
0.197045
0.202305
0.203291
0.196552
0.204277
0.199018
0.201647
0.200004
0.201647
0.198031
0.201647
0.199346
0.19836
0.19836
0.200332
0.202798
0.199018
0.20099
0.203455
0.201483
0.200661
0.201976
0.200004
0.202633
0.201319
0.199182
0.199675
0.201154
0.201319
0.202469
0.203126
0.203291
0.199182
0.201319
0.196717
0.200332
0.200661
0.197703
0.202798
0.199346
0.202469
0.198196
0.202962
0.200004
0.20099
0.198689
0.200004
0.205099
0.199675
0.201154
0.199346
0.204113
0.200661
0.202798
0.200004
0.201154
0.199018
0.199182
0.201483
0.198689
0.200825
0.19836
0.197867
0.198524
0.199346
0.201976
0.200168
0.198524
0.201812
0.198689
0.201483
0.199839
0.202798
0.198689
0.204606
0.204113
0.204934
0.200661
0.201319
0.20099
0.205099
0.205427
0.196881
0.20477
0.20099
0.205099
0.198689
0.203948
0.199839
0.20099
0.203291
0.202469
0.202962
0.200332
0.201976
0.204934
0.205099
0.200004
0.20099
0.197703
0.201154
0.199839
0.20099
0.194909
0.200168
0.201812
0.204277
0.200004
0.204934
0.203948
0.199346
0.200168
0.199675
0.202305
0.199018
0.199839
0.200497
0.20099
0.202798
0.201319
0.204113
0.20099
0.201976
0.200497
0.200825
0.201647
0.201976
0.202962
0.205592
0.199346
0.201647
0.20362
0.20099
0.201976
0.20214
0.199675
0.201319
0.197045
0.203948
0.203455
0.202305
0.202962
0.206249
0.202305
0.200497
0.201154
0.198524
0.200004
0.199839
0.200497
0.198524
0.205427
0.19836
0.202633
0.205263
0.203455
0.202798
0.200497
0.206249
0.199182
0.205756
0.200825
0.201154
0.20099
0.201319
0.200004
0.199511
0.200004
0.201976
0.199511
0.201154
0.203291
0.202962
0.203455
0.200497
0.201647
0.202962
0.202633
0.200497
0.200332
0.199839
0.202305
0.203784
0.202962
0.203291
0.200825
0.202962
0.200825
0.201812
0.200661
0.203126
0.202798
0.202305
0.203291
0.206249
0.197867
0.202305
0.200661
0.204277
0.200825
0.200661
0.200497
0.202962
0.202633
0.205263
0.20099
0.201812
0.205099
0.199511
0.202633
0.200825
0.202469
0.198853
0.201812
0.20099
0.199675
0.202633
0.198689
0.204441
0.203291
0.20214
0.20099
0.202305
0.202798
0.20362
0.201154
0.202633
0.20099
0.202633
0.203126
0.202305
0.202305
0.200004
0.200168
0.203291
0.203784
0.202305
0.202798
0.202305
0.202962
0.204277
0.200332
0.201319
0.200825
0.198524
0.198689
0.196717
0.19836
0.202305
0.200332
0.199839
0.202962
0.202962
0.200497
0.199839
0.197538
0.202469
0.198689
0.200004
0.200825
0.200168
0.199675
0.201154
0.200825
0.197867
0.203291
0.200661
0.203126
0.202798
0.205592
0.204113
0.202633
0.200168
0.201976
0.203126
0.201319
0.20099
0.200497
0.201976
0.201483
0.202798
0.201647
0.201647
0.202633
0.20362
0.20477
0.202962
0.20214
0.205099
0.204113
0.200168
0.204113
0.205427
0.200661
0.201483
0.201319
0.199675
0.200825
0.201812
0.200168
0.202798
0.20362
0.204934
0.206907
0.200497
0.20477
0.206742
0.205099
0.203126
0.202305
0.199018
0.198853
0.202962
0.202469
0.203126
0.200661
0.20362
0.201154
0.203948
0.200825
0.207071
0.200825
0.20214
0.203291
0.201154
0.197374
0.201647
0.203126
0.201319
0.20214
0.196717
0.199182
0.198689
0.200825
0.200497
0.202469
0.198524
0.201483
0.201319
0.200497
0.20099
0.198196
0.201483
0.198689
0.201812
0.196223
0.199182
0.192279
0.200332
0.19721
0.198853
0.201812
0.196223
0.200004
0.200661
0.201319
0.202962
0.202305
0.197538
0.201812
0.197374
0.197538
0.198853
0.199018
0.197045
0.198524
0.196552
0.196717
0.19573
0.197703
0.203455
0.201812
0.199182
0.201154
0.19836
0.196223
0.203291
0.198196
0.200004
0.198031
0.196223
0.192279
0.201319
0.197867
0.198853
0.197703
0.195237
0.197867
0.198196
0.198524
0.198196
0.198689
0.198853
0.202305
0.198853
0.201319
0.193101
0.195895
0.19573
0.19721
0.195895
0.197045
0.200004
0.199675
0.19721
0.196059
0.201154
0.190964
0.198853
0.197374
0.197045
0.196388
0.197538
0.197045
0.19836
0.195237
0.19836
0.196388
0.194909
0.197374
0.194744
0.200168
0.197045
0.197867
0.200168
0.201647
0.19836
0.201483
0.199511
0.195895
0.197045
0.195073
0.199675
0.196552
0.19836
0.19721
0.19721
0.193922
0.200497
0.195566
0.196881
0.195895
0.198524
0.199018
0.199839
0.198689
0.201154
0.196552
0.196223
0.195237
0.198853
0.195402
0.195402
0.197374
0.19573
0.19721
0.193758
0.192443
0.195073
0.197538
0.196059
0.202305
0.193758
0.196552
0.196552
0.195895
0.199182
0.19721
0.19573
0.194251
0.197374
0.196223
0.204934
0.19573
0.19721
0.197703
0.19836
0.197045
0.200004
0.197045
0.19836
0.201483
0.196881
0.20099
0.19573
0.197703
0.195073
0.194416
0.197374
0.196388
0.195402
0.198031
0.197374
0.19721
0.190307
0.199346
0.202633
0.198031
0.198524
0.19721
0.199018
0.19721
0.199511
0.198689
0.197703
0.184061
0.199182
0.194416
0.19836
0.200168
0.197374
0.19721
0.197867
0.197538
0.196059
0.200332
0.187841
0.201154
0.20099
0.196059
0.199675
0.200661
0.196717
0.198689
0.199018
0.196059
0.200825
0.193101
0.199346
0.197703
0.202798
0.198524
0.201976
0.199182
0.200168
0.199511
0.200661
0.200497
0.198031
0.196552
0.19836
0.197538
0.197538
0.195895
0.200332
0.196552
0.195402
0.201976
0.200168
0.199839
0.198689
0.202798
0.198196
0.201154
0.200332
0.199182
0.199018
0.203784
0.202469
0.20214
0.202962
0.192772
0.199839
0.19836
0.195895
0.196223
0.200661
0.201976
0.204606
0.201154
0.202962
0.200497
0.198524
0.200825
0.196223
0.203948
0.197538
0.198031
0.197703
0.201319
0.199346
0.196223
0.200004
0.199018
0.199346
0.201812
0.200332
0.200332
0.200661
0.200004
0.201483
0.198524
0.200168
0.198689
0.197538
0.19573
0.197867
0.190635
0.195566
0.197703
0.195895
0.20099
0.200661
0.199182
0.199182
0.202469
0.19836
0.199675
0.196388
0.202305
0.200497
0.196388
0.19836
0.199511
0.195402
0.196059
0.200661
0.197703
0.198196
0.198689
0.200661
0.199346
0.198853
0.200661
0.200825
0.199018
0.200661
0.20099
0.198689
0.194416
0.199018
0.198689
0.196552
0.201483
0.198524
0.198689
0.198689
0.200168
0.202962
0.201647
0.198689
0.201483
0.197538
0.20099
0.200004
0.200661
0.201647
0.201976
0.198196
0.199675
0.199839
0.19721
0.201647
0.199675
0.199346
0.199346
0.204441
0.199182
0.200825
0.196717
0.199018
0.192279
0.196059
0.196881
0.191128
0.197703
0.195566
0.201812
0.199018
0.201812
0.200168
0.202962
0.198689
0.200661
0.199346
0.202633
0.200497
0.200004
0.204934
0.203455
0.202962
0.201647
0.202962
0.199511
0.200661
0.198853
0.203126
0.199182
0.199018
0.202305
0.199182
0.202305
0.200168
0.203126
0.198524
0.198524
0.19721
0.198031
0.198031
0.206249
0.201483
0.202633
0.198853
0.201154
0.198689
0.199675
0.199346
0.19836
0.201483
0.199182
0.19836
0.196059
0.19721
0.199018
0.197703
0.194416
0.199346
0.19836
0.199675
0.198524
0.199839
0.198689
0.200332
0.20099
0.198853
0.201647
0.200004
0.199511
0.201154
0.198689
0.198196
0.203126
0.19836
0.202962
0.200497
0.199511
0.198689
0.199675
0.199346
0.197867
0.196881
0.199511
0.198524
0.205592
0.201483
0.201812
0.203784
0.199839
0.203784
0.201647
0.204277
0.200332
0.20099
0.198689
0.202469
0.20214
0.20099
0.200497
0.199346
0.200497
0.199346
0.197374
0.199346
0.198524
0.195402
0.204277
0.200825
0.205921
0.201976
0.20099
0.200661
0.200661
0.200332
0.200168
0.202305
0.200004
0.204934
0.202469
0.204277
0.203126
0.20362
0.206907
0.201812
0.203126
0.203291
0.201319
0.20099
0.202305
0.202469
0.196717
0.200168
0.201154
0.199346
0.202633
0.196552
0.199839
0.198524
0.20099
0.20099
0.202305
0.200661
0.202305
0.201154
0.203784
0.195237
0.197703
0.203784
0.196881
0.199675
0.19836
0.200004
0.199346
0.19721
0.200168
0.200825
0.199346
0.199182
0.199839
0.201483
0.201812
0.202798
0.203126
0.197045
0.202469
0.204606
0.20477
0.199182
0.203126
0.201976
0.199018
0.199675
0.201154
0.197538
0.200168
0.200825
0.200004
0.205921
0.198853
0.200004
0.199839
0.20099
0.199675
0.201976
0.197045
0.200168
0.199018
0.199182
0.199511
0.199511
0.20099
0.199511
0.19836
0.204113
0.204277
0.196223
0.205921
0.201812
0.202305
0.200004
0.199182
0.192443
0.201976
0.197374
0.195402
0.195566
0.195895
0.202798
0.19836
0.201154
0.200497
0.200004
0.199346
0.203948
0.204934
0.207235
0.201319
0.198031
0.20099
0.201483
0.198031
0.201976
0.198853
0.196717
0.200661
0.19721
0.201812
0.200332
0.199839
0.200825
0.201976
0.200497
0.200332
0.203948
0.202633
0.197703
0.198689
0.198853
0.198031
0.199018
0.197703
0.200332
0.197045
0.19721
0.195895
0.200332
0.199675
0.203126
0.197045
0.199182
0.199182
0.19458
0.199018
0.195566
0.200332
0.196717
0.197045
0.197703
0.200825
0.198853
0.201483
0.199018
0.200332
0.191786
0.201319
0.197374
0.194909
0.199346
0.197867
0.200825
0.197703
0.199675
0.200661
0.199675
0.199511
0.199511
0.198689
0.197538
0.19836
0.200825
0.199346
0.201319
0.199182
0.203291
0.203291
0.198853
0.20099
0.199346
0.19458
0.201319
0.199511
0.198031
0.20214
0.19836
0.19721
0.198853
0.19721
0.199182
0.202962
0.198853
0.201483
0.20099
0.196059
0.200004
0.19721
0.196717
0.199018
0.194744
0.195237
0.206742
0.193101

Kurve 2

-0.021221
-0.01366
-0.019084
-0.017934
-0.019742
-0.019577
-0.023357
-0.021221
-0.020728
-0.021221
-0.021714
-0.021714
-0.017112
-0.017605
-0.017934
-0.018591
-0.017276
-0.019906
-0.018262
-0.02007
-0.021221
-0.020728
-0.027795
-0.022207
-0.021056
-0.0227
-0.021878
-0.024179
-0.022043
-0.020563
-0.022207
-0.026645
-0.020399
-0.025001
-0.023686
-0.021056
-0.024508
-0.023522
-0.023357
-0.026152
-0.026973
-0.024344
-0.032068
-0.028946
-0.02648
-0.025001
-0.022536
-0.027959
-0.02911
-0.026645
-0.028288
-0.030918
-0.026316
-0.027138
-0.025165
-0.029439
-0.030096
-0.032233
-0.02911
-0.032561
-0.030425
-0.026973
-0.029603
-0.026809
-0.027959
-0.02533
-0.026316
-0.023851
-0.025658
-0.024672
-0.025165
-0.026316
-0.030754
-0.02648
-0.02533
-0.027302
-0.025165
-0.0227
-0.021714
-0.025001
-0.021221
-0.022536
-0.023522
-0.023522
-0.021221
-0.022043
-0.017441
-0.021056
-0.017441
-0.016948
-0.018262
-0.020728
-0.019742
-0.017112
-0.019742
-0.017769
-0.022536
-0.012017
-0.017276
-0.014811
-0.019577
-0.014482
-0.014975
-0.01366
-0.013003
-0.013825
-0.015797
-0.019906
-0.013825
-0.016619
-0.008237
-0.011031
-0.013003
-0.015797
-0.013003
-0.014811
-0.013825
-0.011524
-0.012181
-0.011031
-0.010538
-0.005607
-0.010866
-0.009387
-0.010538
-0.008565
-0.009387
-0.008894
-0.010209
-0.009223
-0.011688
-0.00725
-0.005114
-0.008894
-0.010209
-0.009058
-0.007086
-0.006757
-0.006429
-0.009223
-0.006922
-0.008894
-0.003799
-0.005278
-0.004128
-0.00988
-0.006757
-0.00873
-0.006757
-0.009058
-0.008894
-0.00988
-0.007744
-0.004621
-0.007579
-0.005607
-0.008401
-0.007086
-0.010538
-0.005936
-0.010538
-0.008401
-0.005443
-0.00725
-0.00725
-0.004621
-0.007415
-0.006757
-0.005443
-0.007579
-0.004128
-0.010538
-0.00873
-0.005607
-0.004949
-0.006922
-0.002813
-0.005936
-0.003306
-0.005936
-0.005114
-0.003306
-0.008565
-0.010866
-0.008237
-0.004949
-0.008072
-0.003635
-0.006593
-0.005278
-0.006593
-0.004128
-0.006593
-0.000347
-0.006264
-0.010702
-0.005443
-0.00725
-0.002813
-0.007415
-0.003635
-0.005936
-0.005771
-0.001334
-0.006429
-0.007579
-0.007744
-0.008565
-0.004456
-0.006922
-0.004949
-0.0061
-0.006757
-0.001169
0.00146
-0.00725
-0.005114
-0.004785
-0.003799
-0.00347
-0.0061
-0.002484
-0.001334
-0.006922
-0.003306
-0.003142
-0.005607
-0.006593
-0.004949
-0.004785
-0.002484
-0.004456
-0.004456
-0.007415
-0.002813
-0.003635
-0.013825
-0.007744
-0.003799
-0.008237
-0.004785
-0.005443
-0.00725
-0.006429
-0.003963
-0.007579
-0.003635
-0.011524
-0.006757
-0.001662
-0.005936
-0.00232
-0.004785
-0.004128
-0.006757
-0.008072
-0.009223
-0.004292
-0.008072
-0.00988
0.000146
-0.004949
-0.001498
-0.004949
-0.002155
-0.007579
-0.001827
-0.004456
-0.00347
-0.002484
-0.006593
-0.001334
-0.003635
-0.003963
-0.005936
-0.005443
-0.00725
-0.007415
-0.00347
-0.003963
-0.004128
-0.002813
-0.005443
-0.001334
-1.9e-05
-0.000841
-0.001827
-0.004292
-0.003306
-0.005114
-0.005278
-0.006922
-0.005936
-0.005443
0.00146
-0.005936
-0.004128
-0.003306
-0.003963
-0.005607
-0.001498
-0.002813
-0.002977
-0.002977
-0.007086
-0.004456
-0.009058
-0.005443
-0.0061
-0.006593
-0.005771
-0.003306
-0.004456
-0.004456
-0.003799
-0.000347
-0.003963
-0.0061
-0.001991
-0.001334
-0.003306
-0.006429
-0.001662
-0.002155
-0.003142
-0.003306
-0.004128
-0.008072
-0.002977
-0.007908
-0.006593
-0.003963
-0.003963
-0.001827
0.001625
-0.000841
-0.000512
-0.002648
-0.005443
-0.005443
-0.005936
-0.003635
-0.006593
-0.005114
-0.004292
-0.00347
-0.005278
-0.00232
-0.003799
-0.007415
-0.003306
-0.004128
-0.003799
-0.003963
-0.003799
-0.004949
0.000803
-0.004456
-0.001991
-0.004456
-0.004456
-0.005607
-0.007415
-0.007908
-0.006593
-0.003799
-0.006264
-0.003142
-0.00347
-0.003799
-0.004621
-0.001827
-0.013496
-0.004456
-0.001169
-0.006922
-0.004456
-0.004128
-0.005278
-0.004456
-0.00347
-0.004456
-0.005936
-0.005771
-0.002155
-0.005607
-0.008565
-0.008237
-0.000841
-0.008401
-0.003799
-0.001991
-0.008237
-0.003963
-0.005936
-0.005936
-0.004292
-0.004949
-0.003963
-0.003142
-0.005443
-0.004292
-0.006264
-0.004785
-0.005443
-0.005278
-0.008401
-0.007579
-0.004292
-0.004621
-0.00347
-0.004456
-0.001991
-0.001005
-0.004292
-0.005771
-0.001334
-0.006264
-0.002155
-0.005936
-0.003306
-0.004128
-0.00347
-0.002813
-0.002155
-0.005114
-0.007579
-0.004456
-0.002648
-0.005771
-0.003963
-0.001991
-0.004949
-0.003635
-0.0061
-1.9e-05
-0.006593
-0.009716
-0.007579
-0.005443
-0.003799
-0.006264
-0.008072
-0.004949
-0.007086
-0.005771
-0.001005
-0.002648
-0.003963
-0.003799
-0.003963
-0.0061
-0.005936
-0.005278
-0.008565
-0.006922
-0.004128
-0.002155
-0.004621
-0.00347
-0.001498
-0.001005
-0.004456
-0.001991
-0.002813
-0.001169
-0.001827
-0.005443
-0.001827
-0.005607
-0.004785
-0.005443
-0.002977
-0.001334
0.000146
-0.001334
0.000146
-0.004621
-0.001662
-0.002648
-0.001991
-0.007086
-0.000347
-0.003306
-0.005114
-0.004128
-0.002813
-0.005936
-0.003306
-0.003963
-0.002977
-0.004785
-0.005936
-0.004128
-0.004621
-0.001662
-0.005936
-0.000183
-0.004949
-0.002155
-0.003799
-0.008072
-0.002977
-0.003963
-0.008401
-0.00347
-0.004128
-0.00873
-0.001991
-0.004949
-0.002648
-0.003635
-0.00347
-0.003142
-0.003306
-0.004456
-0.001827
-0.001991
-0.003799
-0.003306
-0.004456
-0.000512
-0.004621
0.00031
-0.001827
-0.001827
-0.001169
-0.001827
-0.004785
-0.001827
-0.001827
-0.003142
-0.003142
-0.001991
0.000967
-0.00347
-0.0061
-0.003306
-0.004456
-0.009058
-0.003799
-0.004785
-0.003142
-0.004949
-0.003963
-0.001991
-0.004128
-0.003635
-0.001334
-0.002813
-0.00232
-0.001991
-0.002813
-0.001169
-0.005443
-0.00232
-0.002813
-0.005114
-0.00347
-0.008894
-0.002813
-0.003799
-0.003635
-1.9e-05
0.001132
-0.004292
-0.002484
-0.002813
-0.004621
-0.006429
-0.000183
-0.004456
-0.001991
-1.9e-05
-0.001827
-0.003963
-0.001005
-0.002977
-0.001334
-1.9e-05
-0.0061
-0.001498
-0.005936
-0.002155
-0.001991
-0.001498
-0.002813
-0.001827
-0.003635
-0.003306
-0.001662
-0.005607
-0.005278
-0.002813
-0.0061
-0.004949
-0.003306
-0.005443
-0.00347
-0.005114
0.000474
-0.003142
-0.001169
-0.002648
-0.001334
-0.002484
-0.00232
-0.004128
-0.004456
-0.006922
-0.005114
-0.003142
-0.010702
-0.005278
-0.005443
-0.004621
-0.002977
-0.000841
-0.007908
-0.00232
-0.003799
0.000803
-0.000347
-0.004456
-0.001498
-0.004621
-0.003635
-0.004621
-0.004128
-0.002484
0.002611
-0.003306
-0.001169
0.001132
-0.004128
-0.005114
-0.001498
-0.005114
-0.001498
-0.003635
-0.005114
-0.001498
-0.004128
-0.004456
-0.003963
-0.006922
-0.00232
-0.004292
-0.001827
0.004748
-0.002977
-0.005607
-0.002155
-0.003142
-0.005771
-0.004456
-0.005607
-0.005936
-0.002484
-0.005114
-0.001662
-0.004785
-0.00347
-0.004128
-0.001991
-0.005278
0.00146
-0.005936
-0.003142
-0.005278
-0.003963
-0.002155
-0.009223
-0.001334
-0.001662
-0.002813
-0.004456
-0.00232
-0.005936
-0.007908
-0.008237
-0.003963
-0.004621
-0.001498
-0.004785
-0.00232
-0.00347
-0.004292
-0.000512
-0.00347
-0.003799
-0.003799
-0.004128
-0.003963
-0.00232
-0.004785
-0.000183
-0.001005
-0.004456
-0.009716
-0.007086
-0.00725
-0.004621
-0.005607
-0.007086
-0.003963
-0.005443
-0.005771
-0.004128
-0.001334
-0.004785
-0.001498
-0.002977
-0.001498
-0.002977
-0.003963
-0.004128
-0.004292
-0.003142
-0.002813
-0.002977
0.000803
-0.005278
-0.005114
-0.00347
-0.004456
-0.002155
-0.001498
0.002611
-0.004292
-0.001991
-0.004456
0.000803
-0.006264
-0.004128
-0.002484
-0.003963
-0.002813
-0.006593
-0.00347
-0.003799
-0.004292
-0.003799
-0.000512
-0.004621
-0.000347
-0.001991
-0.005278
-0.002155
-0.005443
-0.001005
0.005241
0.010007
0.017239
0.023977
0.024142
0.038605
0.040742
0.04896
0.054219
0.062437
0.068518
0.074599
0.078215
0.083968
0.090871
0.08972
0.096623
0.099746
0.103691
0.107142
0.112894
0.112566
0.119304
0.119304
0.123742
0.128344
0.121605
0.133603
0.136726
0.140671
0.14215
0.145273
0.145108
0.147081
0.149382
0.153491
0.151847
0.154312
0.152176
0.159079
0.157435
0.158257
0.161873
0.163023
0.16401
0.167297
0.169762
0.174528
0.173871
0.169269
0.174364
0.170913
0.173871
0.171899
0.172227
0.1742
0.176172
0.178144
0.175515
0.178309
0.177815
0.181924
0.181267
0.182582
0.183732
0.18554
0.183075
0.187841
0.183404
0.191293
0.184225
0.184718
0.186033
0.186691
0.184883
0.190471
0.189156
0.187513
0.191786
0.186198
0.196388
0.189814
0.191293
0.193429
0.191293
0.189649
0.192443
0.189978
0.190964
0.191786
0.191621
0.184554
0.18817
0.194744
0.191293
0.192936
0.193101
0.194251
0.189814
0.19458
0.193758
0.200168
0.182417
0.195402
0.194416
0.190307
0.192279
0.192936
0.189978
0.193922
0.196223
0.192115
0.19836
0.189978
0.193429
0.194416
0.195402
0.194416
0.199182
0.196223
0.196388
0.196552
0.19573
0.197045
0.193101
0.191457
0.19458
0.194087
0.192608
0.198524
0.188663
0.192115
0.195895
0.194416
0.196388
0.198853
0.194416
0.196881
0.199675
0.192279
0.198524
0.195895
0.199182
0.194744
0.197374
0.194251
0.193101
0.191293
0.194909
0.193594
0.195073
0.193758
0.191128
0.194909
0.192936
0.197045
0.193922
0.198031
0.197374
0.196223
0.196059
0.19573
0.198031
0.195566
0.192772
0.19721
0.19573
0.196223
0.198196
0.197703
0.196552
0.196717
0.199511
0.19721
0.20099
0.195566
0.198031
0.196881
0.197867
0.19573
0.201647
0.193594
0.195895
0.195566
0.194744
0.197374
0.197374
0.198524
0.198524
0.199839
0.194909
0.198853
0.196059
0.199346
0.195073
0.196717
0.192443
0.197703
0.197867
0.193922
0.199018
0.195237
0.202798
0.195566
0.196388
0.196717
0.195237
0.196881
0.196223
0.19721
0.201319
0.197703
0.197045
0.200497
0.196223
0.19721
0.195237
0.197045
0.195402
0.200332
0.197703
0.198853
0.19458
0.197374
0.200332
0.199839
0.197538
0.196881
0.198853
0.196881
0.201319
0.200332
0.198689
0.197703
0.197538
0.19573
0.197703
0.196059
0.194416
0.194909
0.19721
0.195895
0.198524
0.199675
0.199182
0.199511
0.201976
0.199511
0.197374
0.196059
0.199839
0.197538
0.198031
0.196223
0.193265
0.195566
0.196717
0.196388
0.195073
0.196388
0.19836
0.198853
0.201319
0.194087
0.20099
0.198196
0.197703
0.200168
0.200004
0.193429
0.19836
0.196388
0.196881
0.193594
0.192772
0.201154
0.196717
0.197703
0.199346
0.197538
0.199182
0.204934
0.198853
0.198853
0.198196
0.196388
0.197045
0.199182
0.19573
0.196223
0.198524
0.194744
0.198853
0.196717
0.200004
0.203126
0.200332
0.19836
0.201812
0.198196
0.19836
0.19573
0.193922
0.193594
0.194087
0.197538
0.193922
0.19721
0.197703
0.199839
0.197538
0.197867
0.196223
0.200168
0.196552
0.198853
0.196881
0.202798
0.196717
0.19836
0.200332
0.197867
0.200168
0.198524
0.19573
0.200004
0.196717
0.196881
0.198524
0.195237
0.200004
0.199839
0.203784
0.199018
0.201647
0.201483
0.19721
0.197538
0.197374
0.19721
0.195237
0.19836
0.197374
0.198689
0.19573
0.200661
0.195402
0.197045
0.197374
0.197045
0.197867
0.195566
0.200332
0.197374
0.203784
0.196717
0.197703
0.195402
0.195895
0.193922
0.19836
0.194416
0.19721
0.198031
0.198196
0.198853
0.198524
0.199839
0.198031
0.197703
0.198196
0.196388
0.199346
0.203455
0.198524
0.200004
0.19721
0.197703
0.19836
0.197045
0.196388
0.19836
0.201483
0.199675
0.200004
0.199675
0.201483
0.19721
0.197538
0.196717
0.201154
0.195402
0.199675
0.198853
0.199346
0.199839
0.196881
0.197703
0.196388
0.199018
0.196059
0.197703
0.194909
0.199511
0.199018
0.196717
0.195402
0.199675
0.198524
0.197703
0.19836
0.198689
0.197867
0.196223
0.19836
0.198196
0.200497
0.197867
0.20099
0.198853
0.197538
0.19458
0.201483
0.196717
0.198524
0.201976
0.196388
0.197703
0.200004
0.19836
0.201483
0.199511
0.198196
0.20099
0.200497
0.197538
0.19721
0.200661
0.19721
0.203784
0.201319
0.196552
0.200004
0.195566
0.199839
0.200332
0.194087
0.196388
0.198689
0.19458
0.201319
0.19573
0.197538
0.195073
0.197538
0.198196
0.192279
0.196223
0.196388
0.199182
0.197867
0.199182
0.198524
0.199839
0.197045
0.199346
0.201154
0.198524
0.196388
0.196881
0.198031
0.194087
0.201319
0.196223
0.198524
0.199675
0.198853
0.203291
0.197703
0.19721
0.202633
0.200825
0.199182
0.198853
0.196059
0.195566
0.195895
0.198689
0.202798
0.197045
0.197703
0.197703
0.196223
0.197867
0.19836
0.201319
0.201647
0.199675
0.198524
0.20477
0.193101
0.196059
0.194087
0.195402
0.195895
0.195566
0.194416
0.201154
0.199511
0.198853
0.206907
0.196223
0.200332
0.199675
0.199346
0.198031
0.198524
0.196717
0.200661
0.199346
0.199346
0.20214
0.193922
0.200332
0.197703
0.199018
0.196717
0.20099
0.199839
0.201647
0.203455
0.202798
0.202633
0.197374
0.19721
0.199018
0.195237
0.197045
0.194251
0.195237
0.198524
0.192115
0.198689
0.198853
0.195237
0.198031
0.204113
0.199346
0.196881
0.199018
0.197374
0.194087
0.195402
0.19573
0.193429
0.197374
0.195073
0.204441
0.195895
0.199511
0.198524
0.199182
0.199182
0.200004
0.198031
0.192936
0.198031
0.19721
0.198689
0.198196
0.200497
0.196388
0.19836
0.195237
0.196059
0.192608
0.184061
0.191128
0.191457
0.192936
0.195073
0.188334
0.191457
0.188992
0.188992
0.190635
0.187019
0.177815
0.183732
0.186526
0.184554
0.187841
0.186691
0.191128
0.18932
0.189814
0.189649
0.192936
0.183732
0.191293
0.192936
0.189649
0.193429
0.191457
0.192772
0.18817
0.192936
0.195073
0.188827
0.183568
0.194744
0.195073
0.191786
0.194087
0.197538
0.195895
0.195073
0.196881
0.194087
0.19836
0.194909
0.196717
0.197703
0.196552
0.192936
0.197045
0.193758
0.193758
0.195895
0.194909
0.196059
0.195402
0.196388
0.196059
0.199182
0.199018
0.199675
0.198196
0.197374
0.20099
0.200004
0.198689
0.201647
0.199018
0.198031
0.199346
0.195402
0.19836
0.20214
0.19721
0.200332
0.20362
0.202633
0.131138
0.133768
0.017239
0.022663
0.031702
0.038276
0.042714
0.053069
0.059643
0.066053
0.072956
0.079037
0.077886
0.08857
0.089885
0.095473
0.104019
0.103691
0.083968
0.091857
0.092514
0.017403
0.026114
0.032688
0.040577
0.045672
0.054219
0.061122
0.067532
0.07049
0.077886
0.081667
0.084625
0.087912
0.092679
0.095144
0.100732
0.104348
0.105992
0.112894
0.115195
0.118811
0.121605
0.127522
0.120291
0.129166
0.130645
0.130481
0.13459
0.134754
0.140835
0.141
0.14593
0.147245
0.150697
0.143301
0.14971
0.150368
0.153326
0.152011
0.153491
0.15497
0.157764
0.158257
0.156778
0.160394
0.160394
0.16516
0.162366
0.166968
0.163188
0.166968
0.168118
0.165324
0.170584
0.174528
0.17272
0.172556
0.174693
0.170748
0.173049
0.172556
0.1742
0.175021
0.176665
0.020033
0.027429
0.034003
0.041892
0.048467
0.05652
0.061122
0.065724
0.071641
0.081995
0.081009
0.084954
0.090706
0.089885
0.097116
0.100732
0.104677
0.10632
0.112894
0.117332
0.119797
0.123742
0.127687
0.13196
0.132617
0.135576
0.141328
0.141164
0.140671
0.142972
0.145108
0.146752
0.146916
0.155299
0.152505
0.155299
0.15497
0.160394
0.158421
0.163188
0.161544
0.162859
0.167132
0.163516
0.171734
0.168283
0.173049
0.174035
0.173049
0.17272
0.173707
0.1742
0.176336
0.178309
0.176665
0.17913
0.181431
0.183239
0.179788
0.183732
0.183568
0.183732
0.184718
0.185047
0.184883
0.181596
0.187841
0.185869
0.182746
0.190142
0.189814
0.188663
0.195073
0.195073
0.193758
0.192936
0.194087
0.196388
0.197703
0.195073
0.19573
0.193429
0.19573
0.193922
0.197045
0.196059
0.195237
0.195073
0.198196
0.198524
0.198196
0.20099
0.200661
0.196552
0.20099
0.202633
0.200332
0.199839
0.199018
0.202305
0.20099
0.19836
0.201976
0.198524
0.205592
0.199511
0.202798
0.203455
0.202305
0.207564
0.205263
0.203455
0.207564
0.202305
0.206578
0.205592
0.203948
0.203455
0.200332
0.205099
0.203948
0.205427
0.202798
0.212166
0.203291
0.206907
0.20477
0.210358
0.205592
0.209372
0.208386
0.212166
0.211673
0.210523
0.209536
0.209701
0.207893
0.211509
0.209208
0.210523
0.212824
0.207893
0.215946
0.215125
0.214796
0.213152
0.214796
0.214796
0.215453
0.213645
0.210687
0.215946
0.213317
0.21759
0.216275
0.215618
0.214467
0.214796
0.217426
0.214796
0.222521
0.216111
0.214796
0.215453
0.222849
0.218083
0.21496
0.217261
0.218083
0.218576
0.216768
0.215946
0.218412
0.21496
0.22137
0.217261
0.221206
0.217426
0.219398
0.218576
0.216768
0.217754
0.214138
0.217426
0.213974
0.218576
0.211016
0.213481
0.214303
0.212824
0.213152
0.212824
0.208222
0.209372
0.210029
0.208879
0.209536
0.208222
0.198853
0.207728
0.205592
0.202633
0.206249
0.199839
0.202798
0.200825
0.199182
0.197703
0.197374
0.102047
0.109279
0.109607
0.110922
0.081667
0.079366
0.088405
0.089885
0.093336
0.097445
0.106649
0.102376
0.108786
0.115195
0.111251
0.114374
0.116017
0.11799
0.121112
0.122427
0.124399
0.124893
0.124399
0.132946
0.131631
0.130809
0.127358
0.130645
0.134754
0.13952
0.13837
0.141657
0.142807
0.138863
0.146423
0.146916
0.148724
0.146752
0.149382
0.149382
0.151025
0.152998
0.15612
0.155134
0.155627
0.161051
0.163023
0.16401
0.163681
0.162037
0.162202
0.167132
0.163845
0.165324
0.161544
0.160558
0.163352
0.167625
0.164338
0.169433
0.169762
0.174693
0.1742
0.173871
0.173214
0.173049
0.177158
0.174857
0.181924
0.177322
0.179459
0.176829
0.176008
0.179952
0.178309
0.182417
0.185705
0.186198
0.185047
0.188006
0.184883
0.18439
0.181596
0.186198
0.184225
0.185869
0.185869
0.186033
0.185212
0.186033
0.185212
0.186526
0.191128
0.186855
0.188827
0.190142
0.188663
0.188827
0.18817
0.189156
0.194251
0.188663
0.192443
0.197867
0.191293
0.190964
0.19195
0.193429
0.18932
0.190471
0.190964
0.194416
0.192772
0.193429
0.186033
0.193101
0.194087
0.196059
0.195402
0.193265
0.196223
0.194744
0.193429
0.196388
0.194416
0.183732
0.194251
0.18932
0.193101
0.194087
0.195402
0.196223
0.19573
0.196223
0.194087
0.199675
0.193429
0.193922
0.196717
0.193429
0.19573
0.195895
0.197703
0.194744
0.19458
0.196717
0.195402
0.196552
0.19573
0.19721
0.196223
0.198031
0.19721
0.196717
0.195237
0.19573
0.196059
0.19573
0.199182
0.195073
0.196059
0.196223
0.197045
0.194909
0.199018
0.196552
0.198853
0.198689
0.200661
0.197867
0.197374
0.199675
0.197867
0.198689
0.19573
0.194087
0.196223
0.198031
0.200661
0.197867
0.195566
0.197867
0.193922
0.200004
0.200004
0.196881
0.199346
0.198524
0.200004
0.198031
0.199839
0.197538
0.199675
0.19721
0.19721
0.197045
0.197374
0.196717
0.19836
0.198031
0.198524
0.199018
0.19836
0.200825
0.199511
0.200004
0.197703
0.196223
0.194251
0.197538
0.196059
0.200168
0.195402
0.200004
0.19836
0.19721
0.197867
0.19836
0.19721
0.198031
0.200004
0.198524
0.201812
0.196717
0.200497
0.20362
0.200497
0.196881
0.198196
0.196388
0.19721
0.199018
0.196059
0.199346
0.19836
0.201154
0.200332
0.199346
0.197374
0.197538
0.197374
0.199182
0.196881
0.199839
0.197703
0.199511
0.200004
0.199675
0.196881
0.197045
0.198689
0.19573
0.19836
0.19458
0.19573
0.196881
0.197867
0.199346
0.196881
0.194416
0.199511
0.198853
0.196552
0.199839
0.19721
0.199511
0.19836
0.200004
0.198524
0.200168
0.196059
0.201154
0.199346
0.201483
0.199018
0.202469
0.199675
0.200004
0.201647
0.201647
0.204113
0.197045
0.200497
0.197867
0.19836
0.197703
0.200661
0.195237
0.199675
0.197703
0.19836
0.200168
0.198524
0.198853
0.19836
0.200004
0.196717
0.198524
0.203126
0.197867
0.200004
0.197703
0.198689
0.203126
0.195073
0.195566
0.194909
0.198524
0.203126
0.199675
0.199839
0.203455
0.201812
0.19836
0.200497
0.199018
0.199839
0.198853
0.199346
0.196717
0.199018
0.196388
0.198524
0.198524
0.199675
0.19836
0.197867
0.197045
0.198689
0.197045
0.195402
0.199839
0.197538
0.200168
0.199018
0.201976
0.197374
0.196881
0.197045
0.197703
0.199018
0.196881
0.20099
0.199511
0.198524
0.198196
0.200497
0.199018
0.20099
0.198689
0.200497
0.199675
0.195073
0.199182
0.195566
0.200004
0.195566
0.198031
0.199182
0.200825
0.19836
0.199511
0.197538
0.199346
0.199839
0.201976
0.200332
0.200661
0.200497
0.19721
0.199182
0.198524
0.199182
0.197703
0.193429
0.197045
0.200497
0.19721
0.197703
0.200497
0.19573
0.199182
0.201154
0.198853
0.199675
0.202305
0.199675
0.19836
0.199018
0.198196
0.200004
0.198524
0.196223
0.19836
0.196717
0.198196
0.198689
0.200168
0.199511
0.199511
0.198524
0.196717
0.198196
0.197374
0.198524
0.197045
0.196881
0.194251
0.197374
0.197374
0.198031
0.19458
0.201483
0.199018
0.198196
0.200661
0.196881
0.199839
0.198689
0.201647
0.198524
0.200825
0.198031
0.198524
0.192279
0.197045
0.197045
0.197703
0.196552
0.197045
0.201647
0.200332
0.200661
0.197374
0.199182
0.199511
0.199182
0.19721
0.199839
0.197538
0.203291
0.201976
0.198031
0.198689
0.197703
0.197374
0.198524
0.198524
0.197045
0.198853
0.199182
0.200825
0.200825
0.199675
0.196388
0.200825
0.198196
0.196388
0.194087
0.19721
0.199511
0.198689
0.20214
0.200661
0.196881
0.198196
0.201319
0.198524
0.197867
0.194744
0.20099
0.197703
0.198853
0.200825
0.194909
0.199675
0.198689
0.199018
0.200825
0.195895
0.196223
0.196717
0.19458
0.19721
0.199182
0.196388
0.196881
0.200497
0.198689
0.202305
0.198031
0.199346
0.200004
0.198853
0.197867
0.198853
0.196717
0.19721
0.201647
0.194909
0.202305
0.19836
0.198524
0.199511
0.200004
0.198031
0.198853
0.199182
0.194416
0.198853
0.197867
0.201319
0.197045
0.200825
0.198031
0.199182
0.198031
0.199018
0.196059
0.198853
0.19836
0.197538
0.204113
0.196059
0.196388
0.200004
0.199182
0.193429
0.204606
0.196223
0.198031
0.199675
0.195237
0.196552
0.198031
0.197867
0.197538
0.19836
0.197703
0.201319
0.197374
0.200332
0.199346
0.200004
0.198031
0.199346
0.199511
0.199839
0.19721
0.195895
0.196552
0.198031
0.19836
0.197045
0.19836
0.196223
0.197703
0.196223
0.196059
0.19721
0.20099
0.193922
0.202305
0.199346
0.20099
0.200825
0.19721
0.198524
0.198031
0.197867
0.19836
0.201976
0.198689
0.19721
0.193922
0.198689
0.200004
0.197867
0.199839
0.199511
0.201812
0.198689
0.198031
0.202798
0.201647
0.19836
0.202305
0.197045
0.200332
0.196059
0.200168
0.197867
0.196552
0.200168
0.199511
0.197374
0.202633
0.200661
0.201812
0.199018
0.196388
0.200168
0.19721
0.196881
0.194909
0.198196
0.194744
0.197045
0.194087
0.199675
0.200332
0.197703
0.199839
0.201319
0.199675
0.201812
0.200825
0.197374
0.202633
0.197867
0.199182
0.202962
0.198689
0.196388
0.194251
0.194744
0.196388
0.197045
0.199346
0.200168
0.198524
0.200332
0.204441
0.205756
0.201154
0.202633
0.198524
0.199018
0.199839
0.197374
0.198853
0.196881
0.195895
0.19836
0.197374
0.197045
0.202469
0.196717
0.203126
0.199511
0.200497
0.199182
0.200004
0.199839
0.199839
0.196881
0.197703
0.191786
0.19573
0.198031
0.196881
0.196717
0.197045
0.201319
0.196223
0.201812
0.198689
0.200004
0.198853
0.202798
0.199511
0.199511
0.199839
0.199839
0.200004
0.196717
0.199839
0.194909
0.198689
0.197045
0.199675
0.197538
0.201647
0.20099
0.201154
0.195237
0.200332
0.203784
0.193429
0.19721
0.199511
0.199018
0.196717
0.199839
0.197538
0.199346
0.196388
0.195895
0.21118
0.194909
0.198196
0.204441
0.195237
0.200825
0.197703
0.195895
0.199511
0.198689
0.202305
0.199675
0.19721
0.199182
0.200661
0.197867
0.20099
0.197867
0.199675
0.199018
0.20099
0.199675
0.1908
0.196388
0.200004
0.203291
0.199675
0.200004
0.199346
0.199675
0.199839
0.199182
0.197374
0.188006
0.197374
0.198524
0.19836
0.197374
0.197867
0.198524
0.198689
0.199182
0.20214
0.198031
0.192443
0.19836
0.20099
0.197538
0.194087
0.195073
0.199675
0.193922
0.200004
0.200004
0.195566
0.196717
0.19721
0.196552
0.20099
0.201154
0.199511
0.202798
0.198196
0.201812
0.199511
0.199839
0.199018
0.197045
0.197867
0.197374
0.198031
0.196717
0.200332
0.197045
0.200497
0.198853
0.202633
0.201647
0.205756
0.199511
0.200168
0.198196
0.200004
0.198196
0.198689
0.200004
0.197374
0.195566
0.19836
0.20362
0.199511
0.198853
0.200004
0.200332
0.198196
0.20099
0.20099
0.200825
0.199511
0.198031
0.200332
0.199346
0.200332
0.19836

Kurve 3

0.000967
0.004419
0.005241
0.000474
0.008363
0.003268
0.002118
0.003761
0.002775
0.001132
0.006556
0.005241
0.005569
0.010336
0.00146
0.006391
0.006884
0.005076
0.005241
0.006391
0.005076
0.006227
0.005734
0.00787
0.011158
0.002282
0.000967
0.009514
0.007542
0.00672
0.008528
0.00787
0.010829
0.006227
0.008692
0.004583
0.013623
0.005734
0.011158
0.011815
0.010993
0.00935
0.011486
0.013787
0.00935
0.012308
0.001132
0.010336
0.008363
0.011158
0.010664
0.008363
0.010007
0.012308
0.010993
0.010664
0.009514
0.008035
0.010171
0.008035
0.013459
0.009185
0.01313
0.011979
0.010993
0.006556
0.011486
0.008857
0.00787
0.005241
0.005076
0.009514
0.008199
0.006556
0.009843
0.008857
0.010664
0.011322
0.00672
0.012801
0.006556
0.005241
0.004419
0.006556
0.002611
0.004912
0.004255
0.005241
0.00672
0.003268
0.001954
0.002447
0.000803
-0.000183
0.002775
-0.005278
0.000474
-0.001498
-0.001169
-0.004292
-0.004456
-0.003799
-0.005443
-0.005278
-0.0061
-0.00725
-0.00988
-0.008401
-0.005771
-0.009551
-0.004128
-0.008894
-0.007086
-0.006593
-0.009716
-0.010045
-0.011359
-0.011031
-0.012839
-0.013003
-0.011688
-0.013989
-0.012017
-0.013496
-0.009387
-0.012181
-0.011524
-0.01251
-0.010045
-0.010866
-0.01251
-0.01251
-0.01251
-0.01251
-0.012839
-0.012346
-0.014482
-0.01366
-0.015797
-0.011688
-0.013167
-0.013003
-0.011031
-0.011359
-0.014482
-0.012346
-0.012181
-0.012674
-0.012017
-0.012181
-0.014975
-0.010702
-0.01366
-0.013003
-0.010702
-0.013825
-0.011524
-0.012181
-0.010538
-0.009387
-0.00873
-0.014975
-0.00873
-0.008401
-0.005114
-0.005607
-0.008237
-0.00347
-0.007415
-0.006429
-0.008894
-0.006593
-0.007086
-0.004292
-0.009551
-0.0061
-0.004456
-0.00232
-0.003799
-0.001498
-0.001334
-0.001991
-1.9e-05
-0.003963
0.002447
-0.002155
0.001625
0.000474
0.001954
-0.001169
0.002282
0.000967
-0.000841
0.00294
0.003104
0.002447
0.001625
0.003268
0.003104
0.005076
-0.001334
0.003761
0.002282
0.002447
0.00146
0.003104
0.003433
0.001954
0.008857
0.004583
0.004748
0.005076
0.006556
0.003926
0.001789
0.002611
0.003597
0.003597
0.004583
0.004255
0.003926
-0.000676
0.008035
0.001954
-0.000183
0.001132
0.002775
0.005076
0.005076
0.006062
0.006391
0.008035
0.00672
0.00409
0.007706
0.010336
0.004583
0.007049
0.00935
0.005241
0.002775
0.00672
0.005076
0.003433
0.003268
0.007213
0.005898
0.005076
0.007542
0.005405
0.006884
0.002611
0.00935
0.005734
0.006062
0.003597
0.003761
0.001625
0.000803
-0.002484
-0.002155
0.003104
-0.002648
0.004419
0.003104
0.002447
0.007213
0.004255
0.00031
-0.000183
-0.000183
-0.001169
-1.9e-05
-0.001169
0.001625
0.000639
0.001132
0.002118
0.004748
-0.000512
0.003268
0.000474
0.002775
0.002611
0.004419
0.004748
0.00409
0.002447
0.002118
0.002118
0.000803
0.003268
-0.002155
0.000803
0.001954
-0.000676
-0.001498
0.00294
0.001789
0.001954
0.002611
-0.000512
0.000146
-0.000347
-0.001334
-0.000841
-0.003799
-0.001827
-0.001169
-0.004128
-0.001827
-0.001827
-0.005278
-0.0061
-0.003799
-0.005114
-0.005936
-0.004621
-0.005936
-0.008072
-0.003799
-0.005936
-0.005771
-0.007086
-0.004949
-0.004785
-0.0061
-0.002813
-0.003142
0.001954
-0.007086
-0.00725
-0.005278
-0.005278
-0.005443
-0.006922
-0.005114
-0.005936
-0.006757
-0.004949
-0.002813
-0.0061
-0.001169
-0.005114
-0.001662
-0.005607
-0.005771
-0.002977
-0.008894
-0.00725
0.000474
-0.004128
-0.002648
-0.003306
-0.00725
-0.004621
-0.005771
-0.002813
-0.005443
-0.002155
-0.004292
-0.003142
-0.000512
-0.003306
-0.004621
-0.00347
-0.005607
-0.004785
-0.007415
-0.003306
0.001132
-0.004128
-0.003963
-0.002813
-0.002648
-0.005771
-0.004949
-0.006593
-0.005443
-0.007744
-0.004621
-0.002484
-0.005278
-0.004785
-0.00232
-0.005278
-0.006757
-0.004456
-0.005936
-0.003799
-0.005443
-0.004292
-0.004621
-0.004949
-0.000183
-0.004128
-0.00232
-0.005278
-0.005607
-0.008072
-0.004949
-0.006922
-0.0061
-0.004785
-0.003142
-0.005607
-0.006757
-0.003142
-0.006264
-0.002648
-0.000841
-0.004785
-0.003963
-0.001827
-0.005936
0.000474
-0.004456
-0.002813
-0.001334
-0.001498
-0.007579
-0.00873
-0.007415
-0.006922
-0.007415
-0.004949
-0.004292
-0.00347
-0.001827
-0.003306
0.002282
-0.002813
-0.000841
-0.003635
-0.002977
-0.003963
-0.00725
-0.003142
-0.001498
-0.007744
-0.004128
-0.001662
-0.007086
-0.003306
-0.003306
-0.003142
-0.004949
-1.9e-05
0.000146
-0.000347
-0.006757
-0.005771
-0.003799
-0.005443
-0.004785
-0.004785
-0.006922
-0.004949
-0.006593
-0.004128
-0.002813
-0.005443
-0.001662
-0.002977
-0.001498
-0.005278
-0.000841
-0.004621
-0.00347
-0.007086
-0.006264
-0.003635
-0.002155
-0.001827
-0.002484
-0.000841
-0.001991
-0.001005
-0.00232
-0.007086
-0.001991
-0.002977
-0.001827
-0.000676
-0.002155
0.000474
-0.001334
-1.9e-05
-0.001005
-0.001005
-0.002648
-0.00232
0.000639
-0.005278
-0.001991
0.001954
-0.002484
-0.004949
0.003104
-0.001991
0.002611
0.000803
0.000803
-0.000183
-0.00347
-0.000841
-0.001005
0.000146
-0.001662
0.000803
-0.003306
-1.9e-05
-0.005443
0.00031
0.000146
-0.00232
0.000146
-0.000183
-0.004456
-0.003799
0.00031
-0.0061
-0.001498
-0.004621
-0.000841
-0.001169
-0.001827
-0.002155
0.000967
-0.00232
-0.000347
0.001296
-0.002155
-0.000347
-0.001169
-0.001169
0.000146
-0.001498
-0.000841
0.000474
-0.000841
-0.001662
0.002775
-0.001169
-0.003306
-0.000841
-0.001169
-0.005114
-0.000841
-0.001827
0.001296
0.002447
-0.001005
0.005076
-0.000512
-0.002813
-0.001991
-0.001005
-0.000183
-0.002813
-0.001169
-0.002484
-0.001827
-0.003635
0.002775
-0.002813
-0.005443
-0.003635
0.003104
-0.001334
-0.005443
-0.000512
-0.004128
0.000967
-0.002648
-0.003635
-0.001827
-0.002155
-0.001498
-0.005443
-0.003963
-0.004785
-0.000512
-0.002648
-0.000347
-0.003635
-0.011031
-0.005771
-0.002484
-0.002484
0.001132
-0.005278
-0.000183
-0.001334
-0.002484
-0.001005
-0.004785
-0.009716
-0.004621
-0.002648
-0.003306
-0.003142
-0.004785
-0.002155
-0.004785
-0.000512
-0.002648
-0.001498
-0.006429
-0.004456
-0.006593
-0.00232
-0.002648
-0.003142
-0.00347
-0.004456
-0.003635
-0.002484
-0.001334
-0.001334
-0.004292
-0.003142
-1.9e-05
0.001296
-0.005278
-0.00347
-0.003799
-0.003306
-0.005278
-0.004456
-0.004292
-0.004128
-0.005443
-0.001827
-0.005278
-0.002648
-0.004456
-0.003142
-0.001169
0.00146
-0.001498
-0.003142
-0.001662
-0.001991
-0.000347
-0.003963
-0.005114
-0.0061
-0.001827
-0.001827
0.00031
-0.005771
-0.001169
-0.004785
-0.004621
-0.00232
-0.003799
-0.00232
-0.001827
-0.001991
-0.001005
-0.000512
0.000474
0.002118
-0.003142
0.000474
-0.001169
-0.001334
-0.003142
-0.001334
-0.002648
-0.002813
-0.002648
-0.004292
-0.004785
-0.001498
-0.002813
-0.00347
-0.001169
-0.004456
0.002447
-0.002155
-0.001005
-0.001169
-0.000676
-0.001662
0.003761
-0.004456
-0.001662
-0.002484
-0.004128
0.00031
-0.003635
-0.001005
0.002282
-0.000512
-0.001827
0.001625
-0.003635
-1.9e-05
-0.000841
-0.004621
-0.004949
-0.005607
-0.005936
-0.001005
-0.002648
-0.004456
-0.001827
-0.004128
-0.001827
-0.003306
-0.001662
-0.002155
-0.002813
-0.001334
0.001132
0.002611
-0.005607
-0.002155
-0.004292
-0.005443
-0.006593
-0.00347
-0.007086
-0.003306
-0.001169
-0.003635
-0.002155
-0.00232
-1.9e-05
-0.000183
-0.002484
-0.002813
-0.001662
-0.004128
-0.003963
0.002447
-0.001334
-0.003306
-0.002155
-0.004785
-0.003142
-0.001498
-0.004292
-0.000676
-0.00347
-0.001991
-1.9e-05
-0.002648
0.003104
0.001132
0.005405
0.015595
0.022498
0.031702
0.037126
0.045837
0.048631
0.061451
0.063094
0.068518
0.074928
0.079694
0.086433
0.088405
0.096294
0.100896
0.10254
0.099089
0.110758
0.110922
0.117332
0.118811
0.12555
0.127687
0.129495
0.131138
0.136069
0.137548
0.135904
0.146423
0.142479
0.149546
0.148396
0.154477
0.151683
0.156778
0.158421
0.160394
0.160558
0.161544
0.164996
0.161544
0.163845
0.165653
0.166475
0.167132
0.171406
0.168612
0.17535
0.172063
0.173214
0.1742
0.177651
0.177487
0.179952
0.177651
0.179295
0.179623
0.179295
0.18061
0.180938
0.18554
0.182253
0.185212
0.186855
0.186855
0.183568
0.183732
0.183732
0.186198
0.186198
0.186691
0.189156
0.18817
0.186198
0.186855
0.189814
0.189814
0.190964
0.18932
0.191786
0.189156
0.191293
0.193594
0.193429
0.189978
0.194909
0.193101
0.195566
0.196388
0.194416
0.195566
0.192772
0.194416
0.197045
0.194251
0.19195
0.195237
0.193429
0.193594
0.190964
0.193429
0.19458
0.195237
0.192443
0.19836
0.200168
0.194251
0.200332
0.192608
0.19836
0.194416
0.195566
0.193594
0.198524
0.196388
0.195566
0.198031
0.193922
0.193922
0.196552
0.197045
0.194416
0.196223
0.192279
0.197867
0.196388
0.200168
0.198689
0.197045
0.196059
0.195895
0.196388
0.194909
0.197045
0.195895
0.196059
0.196223
0.198524
0.198031
0.201976
0.199839
0.199839
0.197538
0.196223
0.198031
0.196717
0.194251
0.198031
0.197045
0.191786
0.197867
0.194087
0.196388
0.195895
0.195073
0.195566
0.196552
0.195237
0.198524
0.198031
0.196717
0.194251
0.196223
0.199675
0.199839
0.1908
0.19195
0.193922
0.189814
0.195073
0.192608
0.194416
0.195073
0.195402
0.199511
0.20099
0.196223
0.197538
0.195895
0.196881
0.196552
0.194087
0.190635
0.194744
0.198031
0.194909
0.192608
0.190307
0.193429
0.195073
0.19721
0.195895
0.198196
0.194087
0.196059
0.198689
0.19573
0.198853
0.193265
0.193429
0.192936
0.195402
0.195402
0.193922
0.191786
0.193101
0.196223
0.197538
0.19721
0.197374
0.197045
0.19721
0.19836
0.197703
0.199346
0.193265
0.191621
0.197538
0.19573
0.191457
0.196223
0.19195
0.196388
0.19458
0.197867
0.199018
0.193429
0.198689
0.197374
0.196881
0.199675
0.196881
0.193594
0.196388
0.198524
0.199182
0.196717
0.194087
0.193101
0.19458
0.196059
0.195402
0.197374
0.196059
0.19836
0.19721
0.199182
0.199018
0.195402
0.196223
0.198524
0.19573
0.199182
0.19573
0.199346
0.19573
0.19721
0.198689
0.19573
0.201483
0.19836
0.200825
0.197867
0.206907
0.200004
0.202305
0.197374
0.199675
0.199182
0.197703
0.195566
0.197374
0.198524
0.201154
0.184061
0.198689
0.193101
0.197703
0.199018
0.197374
0.200497
0.197538
0.201154
0.200004
0.199839
0.193429
0.199675
0.204113
0.198524
0.199346
0.201483
0.195402
0.19836
0.200825
0.199511
0.200004
0.198196
0.198524
0.195566
0.197703
0.199018
0.196717
0.200825
0.199839
0.198196
0.199675
0.202305
0.199675
0.199346
0.196881
0.201647
0.198031
0.200497
0.197374
0.202305
0.201812
0.201647
0.20214
0.200332
0.199839
0.199346
0.201319
0.200004
0.200497
0.199346
0.201154
0.194251
0.200497
0.200497
0.201319
0.199018
0.200661
0.199839
0.201812
0.201154
0.200825
0.204277
0.204606
0.200332
0.20214
0.201647
0.201319
0.199839
0.197867
0.201976
0.199346
0.199346
0.19836
0.199346
0.201154
0.200004
0.200661
0.20362
0.201976
0.200497
0.203784
0.199675
0.202469
0.202469
0.202469
0.200004
0.201483
0.20099
0.202798
0.196059
0.200332
0.202962
0.199839
0.198853
0.199346
0.201647
0.200825
0.203291
0.195566
0.2074
0.202633
0.199675
0.206085
0.204606
0.202798
0.201812
0.203784
0.205756
0.200332
0.200332
0.204934
0.202798
0.203455
0.200332
0.20362
0.203455
0.201647
0.203948
0.203291
0.202469
0.203455
0.203784
0.202469
0.204277
0.200332
0.202305
0.201483
0.200661
0.201647
0.199675
0.203784
0.202469
0.201154
0.202305
0.202305
0.200661
0.201154
0.200004
0.200661
0.202962
0.197374
0.196059
0.199018
0.197374
0.198853
0.198853
0.201812
0.202305
0.203126
0.201483
0.20362
0.206742
0.205099
0.204934
0.20214
0.205427
0.196881
0.202633
0.19836
0.198689
0.196059
0.197867
0.201647
0.200332
0.203455
0.201976
0.198689
0.202633
0.203126
0.200168
0.203126
0.201154
0.20477
0.201647
0.200168
0.198196
0.201483
0.199346
0.198853
0.200332
0.200825
0.203948
0.201483
0.202469
0.201647
0.20214
0.202469
0.204277
0.201154
0.206085
0.20477
0.200825
0.200332
0.201647
0.199839
0.199675
0.201154
0.201812
0.203455
0.20214
0.203455
0.202633
0.205099
0.201319
0.206578
0.199182
0.204606
0.202633
0.201483
0.200497
0.199839
0.201976
0.200825
0.200497
0.200825
0.20477
0.201154
0.203948
0.200661
0.204441
0.202469
0.203126
0.198196
0.199346
0.200168
0.200825
0.199182
0.202798
0.20099
0.199839
0.201812
0.20099
0.201154
0.200168
0.200168
0.201319
0.204277
0.198853
0.201976
0.199675
0.200825
0.203784
0.199182
0.199182
0.20099
0.202962
0.200168
0.201319
0.197867
0.203291
0.200661
0.20099
0.201319
0.201812
0.200497
0.197703
0.200825
0.20362
0.203948
0.20214
0.205263
0.201483
0.200661
0.203291
0.201647
0.199675
0.204113
0.202798
0.199182
0.205427
0.201154
0.20477
0.201976
0.201812
0.203948
0.204113
0.201812
0.203948
0.199675
0.201483
0.201647
0.203291
0.202798
0.202305
0.200168
0.201976
0.20214
0.201976
0.202305
0.201319
0.200661
0.197703
0.201976
0.199839
0.203126
0.201483
0.204113
0.203291
0.200004
0.200661
0.202633
0.199839
0.201319
0.202962
0.203784
0.203455
0.203291
0.204441
0.203948
0.202633
0.201976
0.203948
0.20214
0.203455
0.204934
0.204277
0.202305
0.204277
0.200825
0.203291
0.202798
0.201647
0.203948
0.196717
0.201976
0.20099
0.204606
0.201154
0.201319
0.201154
0.201647
0.206085
0.204113
0.200004
0.20099
0.200332
0.199675
0.201647
0.199346
0.201812
0.19836
0.20214
0.199675
0.197703
0.19836
0.199675
0.19458
0.199511
0.198196
0.199182
0.200332
0.197538
0.198853
0.197867
0.199675
0.194909
0.200661
0.197374
0.200004
0.197045
0.200332
0.199182
0.200497
0.19836
0.199346
0.199675
0.194251
0.201319
0.200332
0.19836
0.196223
0.199018
0.196552
0.19721
0.196059
0.197867
0.196717
0.195895
0.196388
0.197867
0.200825
0.195566
0.198031
0.196388
0.200332
0.198196
0.198031
0.196717
0.195895
0.197538
0.197045
0.194416
0.196552
0.197374
0.196059
0.193922
0.197045
0.195566
0.197538
0.199182
0.198031
0.200004
0.197045
0.198031
0.197045
0.199018
0.19721
0.198689
0.194909
0.196388
0.197703
0.197045
0.198031
0.196223
0.197538
0.198524
0.204441
0.203455
0.203948
0.198196
0.200332
0.196223
0.198853
0.194251
0.198031
0.194744
0.197045
0.196223
0.198031
0.19573
0.19195
0.197538
0.200661
0.196388
0.194416
0.198853
0.197703
0.198689
0.196552
0.193429
0.194087
0.191786
0.196552
0.194744
0.199182
0.193101
0.194416
0.193922
0.194744
0.196059
0.197374
0.196552
0.198524
0.196881
0.198196
0.197867
0.196388
0.197538
0.19573
0.198196
0.19573
0.197045
0.19836
0.197703
0.194087
0.199675
0.19573
0.196388
0.194909
0.19573
0.197703
0.195895
0.197867
0.201812
0.196881
0.196388
0.195895
0.195402
0.196388
0.19573
0.197374
0.196388
0.198196
0.196717
0.202305
0.200332
0.193594
0.198689
0.196881
0.196552
0.195895
0.197867
0.195073
0.19721
0.19836
0.200661
0.199182
0.202305
0.196388
0.19836
0.198853
0.198689
0.19573
0.198031
0.201647
0.198524
0.197867
0.196388
0.198689
0.196059
0.19836
0.199182
0.198689
0.196388
0.199346
0.195073
0.194416
0.197045
0.195237
0.198196
0.202962
0.197867
0.199675
0.198524
0.196717
0.200004
0.197374
0.200004
0.196223
0.197703
0.200661
0.196388
0.19836
0.198031
0.197045
0.195895
0.201154
0.200661
0.198031
0.198689
0.198031
0.197045
0.201812
0.196552
0.198031
0.198524
0.197045
0.200661
0.202798
0.201976
0.202798
0.198031
0.19836
0.199839
0.198524
0.20099
0.198689
0.199675
0.199675
0.201647
0.197538
0.204277
0.199675
0.199511
0.197374
0.197374
0.20214
0.196552
0.203291
0.198196
0.199346
0.19836
0.199018
0.196552
0.19836
0.200332
0.201154
0.199346
0.197045
0.200661
0.200661
0.200332
0.199511
0.201483
0.193594
0.199346
0.197374
0.201154
0.198031
0.194251
0.198689
0.200661
0.198853
0.199675
0.207728
0.197045
0.196552
0.195895
0.200332
0.196223
0.200004
0.197538
0.200661
0.197867
0.199675
0.198689
0.19458
0.199346
0.199018
0.199346
0.200004
0.199346
0.199346
0.20099
0.199839
0.205427
0.188334
0.198031
0.196881
0.19573
0.197374
0.197374
0.195895
0.193922
0.200497
0.198524
0.198031
0.191128
0.197374
0.197538
0.200497
0.19721
0.200497
0.197867
0.202305
0.203126
0.200004
0.197538
0.195566
0.199018
0.198031
0.196388
0.195566
0.196059
0.198853
0.200825
0.203291
0.199182
0.194909
0.200825
0.197374
0.200497
0.199346
0.196223
0.202633
0.200825
0.199511
0.20099
0.200332
0.200332
0.202633
0.200825
0.200825
0.198196
0.204934
0.201319
0.200661
0.202305
0.202305
0.20214
0.20477
0.201647
0.201647
0.199182
0.194416
0.200661
0.200332
0.200332
0.197867
0.198031
0.201154
0.201154
0.200661
0.20362
0.19836
0.200168
0.201647
0.198689
0.19836
0.197045
0.200004
0.201647
0.20099
0.198524
0.199182
0.198524
0.198689
0.202962
0.204441
0.198196
0.19836
0.201154
0.200661
0.201976
0.201154
0.20362
0.197703
0.200332
0.199839
0.199182
0.201483
0.199182
0.199839
0.201976
0.198689
0.196059
0.201319
0.200004
0.199018
0.200661
0.199346
0.195402
0.198524
0.200497
0.201319
0.200825
0.199675
0.199346
0.200004
0.199839
0.199511
0.196717
0.19836
0.199182
0.200168
0.20099
0.204113
0.201812
0.199346
0.200168
0.199018
0.199675
0.200661
0.198689
0.196388
0.202469
0.201647
0.201976
0.20477
0.206578
0.199839
0.201319
0.202798
0.200332
0.20362
0.200661
0.203784
0.205427
0.201976
0.203784
0.201647
0.201154
0.203126
0.196223
0.197703
0.200497
0.200004
0.202469
0.20477
0.20477
0.203455
0.204277
0.202962
0.205921
0.202798
0.202305
0.201154
0.198524
0.201647
0.202798
0.201483
0.198524
0.201976
0.198689
0.202962
0.197867
0.199511
0.201647
0.200497
0.197703
0.199675
0.19836
0.199511
0.200168
0.198031
0.200332
0.200497
0.199182
0.201154
0.204606
0.204277
0.204606
0.20214
0.201647
0.203291
0.200168
0.203126
0.200497
0.201976
0.202962
0.204113
0.202633
0.202798
0.200004
0.19721
0.205756
0.201154
0.199675
0.201812
0.200497
0.201154
0.206249
0.200004
0.19721
0.202305
0.201154
0.200661
0.200332
0.200168
0.201319
0.199182
0.20099
0.202305
0.20214
0.200332
0.202962
0.199346
0.200497
0.199511
0.199675
0.200825
0.201319
0.20099
0.203126
0.200497
0.200004
0.197045
0.200825
0.200497
0.200004
0.201976
0.197703
0.199182
0.200825
0.203455
0.202305
0.200004
0.20214
0.199018
0.20214
0.200497
0.202962
0.197867
0.201647
0.203948
0.2074
0.204113
0.201319
0.201319
0.198031
0.199346
0.196223
0.195895
0.199182
0.200168
0.19836
0.204606
0.201319
0.205756
0.199675
0.201319
0.200004
0.201154
0.201154
0.199675
0.199675
0.199346
0.202305
0.200004
0.196717
0.199511
0.198031
0.200004
0.199346
0.199346
0.200825
0.197867
0.20362
0.200004
0.204441
0.20099
0.198689
0.199018
0.206249
0.194416
0.198196
0.199839
0.197045
0.201154
0.199346
0.200168
0.197867
0.201319
0.200004
0.206085
0.201483
0.202305
0.201647
0.199346
0.200332
0.200497
0.198689
0.199675
0.202798
0.198689
0.197703
0.195566
0.200332
0.199839
0.199675
0.200661
0.200168
0.200661
0.200825
0.203126
0.201812
0.201483
0.198853
0.196552
0.195073
0.198031
0.194744
0.197703
0.195566
0.199511
0.201319
0.199675
0.203784
0.198196
0.201647
0.201812
0.20099
0.200661
0.200661
0.197867
0.201812
0.198031
0.196388
0.197703
0.197703
0.19836
0.200497
0.196717
0.199182
0.204441
0.199182
0.202633
0.200497
0.202305
0.197045
0.203455
0.197538
0.200332
0.200332
0.199675
0.196223
0.194909
0.199182
0.198196
0.199839
0.201319
0.197703
0.196059
0.201319
0.196881
0.203126
0.198689
0.201319
0.20099
0.195402
0.200661
0.205756
0.194087
0.197045
0.19836
0.199182
0.200497
0.198853
0.19721
0.201976
0.201154
0.200497
0.201976
0.198689
0.200497
0.199839
0.203291
0.201319
0.198524
0.197867
0.200332
0.199346
0.195895
0.19458
0.199675
0.201647
0.200332
0.201647
0.201812
0.197867
0.198689
0.197867
0.199018
0.202469
0.1908
0.1908
0.19836
0.196223
0.198031
0.199346
0.199675
0.196717
0.200825
0.196717
0.199018
0.195073
0.195566
0.198196
0.200825
0.19836
0.197867
0.201319
0.196717
0.203126
0.198689
0.200825
0.198524
0.195566
0.200497
0.201154
0.197867
0.198853
0.199346
0.19836
0.200825
0.201647
0.199511
0.20099
0.200661
0.198031
0.201812
0.198853
0.201319
0.199018
0.199511
0.20214
0.202798
0.200004
0.201976
0.197538
0.200825
0.201154
0.20099
0.201319
0.200168
0.199182
0.201647
0.208386
0.199675
0.204113
0.201647
0.20214
0.200825
0.202962
0.20099
0.200825
0.200168
0.202469
0.205099
0.199018
0.201976
0.201976
0.202633
0.201647
0.202798
0.202633
0.204441
0.20477
0.205592
0.204441
0.200168
0.200825
0.204606
0.204113
0.198031
0.205263
0.201647
0.203291
0.203291
0.204934
0.204934
0.205592
0.204606
0.204277
0.199182
0.20214
0.20362
0.200168
0.202305
0.201812
0.203948
0.202633
0.204606
0.201812
0.204934
0.205592
0.20855
0.204606
0.206578
0.204113
0.204441
0.203784
0.206907
0.201319
0.200661
0.20477
0.19836
0.199511
0.199346
0.202305
0.20099
0.199182
0.201812
0.204113
0.203948
0.205592
0.206249
0.203291
0.205263
0.199839
0.205427
0.199675
0.201483
0.200825
0.205427
0.200332
0.202469
0.202633
0.201812
0.201319
0.201154
0.204441
0.202305
0.203126
0.20362
0.203126
0.196717
0.202798
0.202798
0.201319
0.202305
0.20214
0.200825
0.201483
0.198031
0.201483
0.204934
0.204441
0.203784
0.204934
0.199675
0.201154
0.204113
0.200497
0.202798
0.200661
0.20099
0.201812
0.200004
0.196388
0.206249
0.199018
0.195073
0.201647
0.199182
0.203455
0.200661
0.201154
0.200825
0.201319
0.200661
0.206414
0.202305
0.202469
0.199839
0.202469
0.198689
0.200661
0.198853
0.20099
0.201483
0.199346
0.205921
0.199511
0.203291
0.205099
0.202962
0.19836
0.200332
0.202305
0.199839
0.201812
0.200825
0.201812
0.199018
0.199018
0.200825
0.203455
0.195895
0.199839
0.200004
0.198689
0.200332
0.205427
0.204277
0.203291
0.201483
0.199675
0.201483
0.200332
0.199839
0.201812
0.204606
0.202962
0.202962
0.200497
0.201812
0.203126
0.206085
0.205263
0.203455
0.202962
0.203126
0.20477
0.203948
0.204606
0.201483
0.204277
0.203291
0.203291
0.200332
0.202962
0.199675
0.203948
0.199839
0.202798
0.203948
0.201976
0.203784
0.204113
0.203291
0.202798
0.203784
0.198524
0.206085
0.204113
0.201812
0.200332
0.200825
0.198689
0.202469
0.198196
0.200168
0.203455
0.205099
0.206907
0.200168
0.201647
0.202633
0.203784
0.200168
0.205592
0.205427
0.200661
0.20362
0.203455
0.20477
0.206249
0.19721
0.201319
0.201647
0.200661
0.203784
0.200497
0.201319
0.199511
0.206249
0.203455
0.204441
0.201812
0.203126
0.200168
0.200168
0.197045
0.203126
0.201154
0.196717
0.200661
0.199018
0.202798
0.201976
0.201647
0.201319
0.20214
0.200168
0.201319
0.202798
0.202798
0.202962
0.200661
0.204113
0.202469
0.20099
0.205921
0.201647
0.199675
0.205921
0.200497
0.201812
0.202798
0.204441
0.20099
0.202798
0.201647
0.201976
0.204606
0.198524
0.199018
0.205263
0.201812
0.203948
0.205921
0.201319
0.204277
0.201483
0.202469
0.200004
0.203455
0.202633
0.202305
0.201647
0.202962
0.204441
0.204934
0.201647
0.204441
0.206907
0.202305
0.202633
0.200168
0.199346
0.197867
0.20214
0.199511
0.201812
0.201483
0.202798
0.201976
0.201483
0.202798
0.207564
0.203291
0.203784
0.20477
0.201647
0.200497
0.199511
0.200004
0.196388
0.194744
0.197538
0.199182
0.199018
0.201647
0.203126
0.201154
0.20477
0.201647
0.204277
0.202469
0.201647
0.199346
0.201976
0.202469
0.203455
0.198524
0.19721
0.201319
0.199346
0.201812
0.200168
0.201812
0.200825
0.202633
0.200004
0.201319
0.197374
0.202798
0.201483
0.201812
0.202798
0.19721
0.195237
0.202305
0.198524
0.200004
0.20362
0.200004
0.200497
0.200332
0.199182
0.196223
0.201647
0.201647
0.199839
0.200332
0.200168
0.199182
0.196552
0.19573
0.201319
0.196717
0.199839
0.206742
0.200168
0.198853
0.201812
0.202633
0.201319
0.203784
0.199182
0.203455
0.202798
0.20099
0.201976
0.200497
0.20099
0.201976
0.201483
0.196881
0.206742
0.196388
0.202633
0.202633
0.201812
0.200332
0.202962
0.203126
0.201647
0.201812
0.204934
0.200168

Kurve 4

-0.003635
0.002775
0.002611
0.000146
-0.001334
0.001625
-0.00347
0.001789
-0.001005
-0.000512
-0.001662
-0.003635
-0.000841
-0.001334
-0.001991
-0.003635
0.002447
0.000967
0.002611
-1.9e-05
0.000639
0.000967
-1.9e-05
0.000146
-0.000183
-0.000841
-0.00232
-0.001991
-0.001334
-0.004949
-0.002155
-0.002648
-0.002484
0.003926
0.003761
-0.000347
-0.001169
0.00294
-0.002155
0.000639
0.000967
-0.001169
-0.000512
-1.9e-05
-0.001169
-0.000676
-0.003635
-0.001005
-0.000347
-0.002155
-0.001991
-0.001827
0.003433
-0.000183
-0.001005
-0.001005
0.00146
-0.000183
-0.000183
-1.9e-05
-0.002977
-0.001827
-0.001662
-0.002155
-0.001662
0.001132
-0.001827
0.000639
-0.002648
-0.000676
-0.00232
0.000803
-0.001005
-1.9e-05
-0.00232
0.000967
-0.001498
-0.000841
0.001132
-0.001991
-0.00347
-0.004292
-0.001005
-0.004949
0.00031
0.00146
-0.004785
0.00031
0.000803
-0.000183
0.001789
0.000639
0.000474
-0.000347
-0.002155
-0.000183
-0.001169
0.001132
0.001132
0.001789
0.001625
0.00146
0.000967
-0.000676
0.001954
-0.000347
-0.002484
-0.000512
0.000146
-0.001005
0.003597
-0.002648
0.001954
-0.001662
0.000146
0.00031
-0.00725
-0.001991
-0.005607
-0.003799
-0.00232
0.000474
-1.9e-05
0.000474
0.00031
-1.9e-05
-0.001827
0.000146
-0.001991
0.000967
-0.002155
-0.002155
0.00031
-0.003142
-0.007579
-0.001662
-0.002155
-0.001662
-0.000676
-0.001005
0.002611
-0.000676
0.001625
-0.001169
0.002118
0.001954
0.002447
0.003926
0.009843
0.001789
0.000474
-0.000841
0.002611
0.00146
-1.9e-05
0.000803
-0.001827
0.001954
0.001789
0.005405
0.000146
-1.9e-05
-1.9e-05
0.001625
-0.000183
0.001625
0.002118
0.002447
0.000803
0.00146
0.007377
-0.001991
-0.001662
-0.001827
0.001625
-0.001169
-0.001827
-0.00232
0.001789
-0.000841
0.00294
0.003926
0.001132
0.003268
0.001789
0.000474
-0.001498
0.002282
-0.003799
0.002447
-0.001005
0.003761
-0.004456
-0.000183
0.001296
0.00146
0.002447
0.002611
0.003761
-0.001498
0.002447
-0.002813
0.003268
-0.012839
-0.001334
0.003761
0.000803
0.000146
0.001954
-0.000347
-0.001334
0.001296
0.001296
0.001789
-0.005443
-0.000841
0.001625
0.001296
0.000803
0.003433
0.000639
-0.001662
-0.003306
-0.004621
-0.004456
-0.009387
-0.008565
-0.005771
-0.005936
-0.004949
-0.002813
-0.004621
-0.001334
-0.000841
0.00031
0.003268
0.000474
-0.003142
0.000474
-0.000676
-0.001827
-0.001169
0.00146
-0.001169
-1.9e-05
0.002447
-0.002155
0.00031
-0.00232
-0.00232
-0.002484
0.003926
-0.000183
0.003597
0.002118
0.001954
-0.000183
0.00409
-0.002484
-0.002813
-0.00347
-0.005936
-0.002813
-0.004292
0.000146
-0.002484
-0.001169
-0.001498
0.00146
-1.9e-05
-0.002155
-0.001169
0.001625
0.001789
-0.002484
0.000803
-0.00232
-0.001991
-0.002648
0.000474
-0.005936
-0.004785
-0.004128
0.000474
-0.000512
-1.9e-05
-0.000841
-1.9e-05
0.000967
-0.001498
-0.002155
-0.005936
-0.004292
-0.002484
-0.003142
-0.001827
-0.001662
-0.003799
-0.001005
-0.003142
-0.001991
-0.001827
-0.001498
-0.002155
-0.001662
0.000803
-0.001662
-0.000841
-0.002155
-0.004456
-0.00347
0.000146
-0.001005
-0.002813
-0.000841
-0.006593
-0.006922
-0.001827
-0.004785
-0.002648
-0.003963
-0.00232
-0.00347
-0.002155
-0.002155
-0.001662
-0.001827
-0.0061
-0.008894
-0.003635
-0.003635
-0.007086
0.000639
-0.004949
-0.003635
-0.00232
-0.001334
-0.001827
-0.002155
0.003926
0.00031
-0.004292
-0.004456
-0.002648
-0.005607
-0.001169
-0.003635
0.000474
-0.005771
-0.005114
-0.005936
-0.006264
-0.004292
-0.006922
-0.005443
-0.005771
-0.00347
-0.00232
-0.001662
-0.002813
-0.001334
-0.003635
-0.005278
-0.005114
-0.007579
-0.005936
-0.005114
-0.0061
-0.00725
-0.003142
-0.0061
-0.004128
-0.002648
-0.002977
-0.006922
-0.005443
-0.00725
-0.003963
-0.005278
-0.006757
-0.003963
-0.007908
-0.007086
-0.007086
-0.002977
-0.006922
-0.007415
-0.007086
-0.001005
-0.004949
-0.003799
0.002282
-0.002977
-0.003799
-0.004456
-0.006429
-0.001662
-0.005114
-0.004456
-0.004621
-0.005278
-0.005114
-0.003306
-0.001827
-0.008072
-0.001991
-0.007744
-0.004621
-0.005771
-0.00347
-0.006922
-0.007908
-0.00232
-0.001662
-0.00232
-0.004949
-0.00232
-0.005443
-0.001991
-0.004949
-0.001991
-0.004292
-0.00232
-0.003963
-0.001662
-0.006757
-0.006757
-0.003306
-0.004292
-0.004292
-0.003142
-0.003963
-0.001662
0.00031
-0.003635
0.000146
-0.002977
-0.001991
-0.005114
-0.005278
-0.007908
-0.008072
-0.001991
-0.001827
0.00031
-0.002484
-0.000841
-0.002155
-0.001169
-0.002977
-0.001169
-0.002977
-0.003799
-0.000183
-0.002155
-0.002813
-0.002977
-0.002977
-0.005771
-0.007415
-0.004292
0.000639
-0.001334
-0.003963
-0.000676
0.001296
-0.003635
0.001132
0.001132
0.002775
-0.000183
-0.002155
-0.003142
-0.002813
-0.002813
-0.001005
-0.003963
-0.004292
-0.001005
-0.003635
-0.002648
-0.004785
-0.000512
-0.002648
0.001296
-0.000512
-0.001827
0.002118
0.001132
0.002775
0.002611
-0.0061
-0.004785
-0.003142
-0.004292
-0.001005
-0.001498
-0.000841
-0.001991
-0.000347
0.000146
0.000639
-0.001498
-0.001498
0.000146
0.000474
-0.00232
-0.000676
0.000146
0.000967
0.000474
-0.003142
-0.002484
-0.008072
-0.003635
0.000146
-0.001827
-0.000841
0.000967
-0.000841
-0.000676
-0.000841
-0.001662
-0.000512
-0.003635
-0.001169
-0.003142
-0.00347
-0.005278
-0.000512
-0.003142
-0.005114
-0.003306
-0.002648
0.000803
-0.002155
-0.002484
-0.002977
-0.001991
-0.005278
0.002118
0.001789
0.000146
-0.006757
-0.001991
-0.001169
-0.003799
-0.005443
-0.002484
-0.004128
-0.00347
0.001625
-0.000512
-0.000347
-0.003306
0.002282
-0.003799
0.001789
0.003433
-0.000512
-0.003142
-0.000841
-0.000841
0.000967
-0.000347
-0.002648
-0.000512
-0.001827
-0.002484
-0.001827
0.000967
-0.000183
-0.002155
-0.000512
-0.000676
-0.003799
-0.001991
-0.001827
-0.002648
-0.002813
-0.000841
-0.001662
-0.001991
-0.002648
-0.002648
0.001954
-0.002155
0.003104
0.000146
0.001789
-0.001498
-1.9e-05
0.006884
0.000803
0.001296
-0.001498
-0.002155
-0.000512
-0.001334
-0.002648
0.000803
-0.004128
-0.000841
-0.001991
0.000639
-0.003142
0.001296
0.001789
0.004255
-0.004292
0.003104
-0.001005
-0.002155
-1.9e-05
-0.005443
-0.002484
-0.001991
-0.001005
-0.005278
0.003761
-0.002813
-0.00232
-0.001334
-0.001169
-1.9e-05
0.001625
0.000803
-0.001991
-0.001827
-0.003635
-0.001169
-0.001827
-0.000676
-0.00232
-0.000183
-0.000841
-0.000676
-0.001498
-1.9e-05
-1.9e-05
-0.001662
0.00146
0.002611
0.001789
0.002775
0.002282
-0.001169
-0.001005
-0.003142
-0.000676
-0.001169
-0.004949
-0.002977
-0.001005
-0.004128
-1.9e-05
-0.002813
-0.003142
-0.003963
-0.004128
-0.00232
-0.003799
-0.000347
-0.004292
-0.003306
-0.002648
-0.002484
-0.002484
-0.000512
-0.004292
-0.002155
-0.003635
-0.00347
-0.004128
-0.002977
-0.002484
-0.004292
-0.003306
-0.006264
-0.003799
-0.005278
-0.000512
-0.002977
-0.000676
-0.003142
-0.005443
-0.004456
-0.001991
-0.005278
-0.005114
-0.003635
-0.00725
-0.004621
-0.001662
-0.002648
-0.003799
-0.002155
-0.002484
-0.001662
-1.9e-05
-0.00232
-0.002977
-0.003799
-0.001334
-0.003306
-0.003635
-0.003306
-0.002813
-0.008237
-0.00347
-0.002813
-0.004621
-0.002813
-0.001498
-0.002155
0.002775
0.003268
-0.001498
0.00409
0.001296
-0.001334
-0.001827
-0.001169
-0.002648
0.000146
-0.00347
-0.00232
-0.002813
-0.000676
-0.001169
-0.001334
-0.000347
0.003104
-0.000512
0.001954
0.00146
0.00031
0.004748
0.000146
0.00146
0.002447
-0.001169
-0.004949
0.008035
-0.003306
-0.000512
0.000146
0.001954
0.000803
0.003433
0.003433
0.008199
0.015595
0.022169
0.035482
0.034825
0.043207
0.048795
0.052904
0.057013
0.068025
0.070162
0.077722
0.083639
0.089063
0.085283
0.097774
0.099582
0.105663
0.110593
0.112566
0.11536
0.119469
0.123413
0.123578
0.129823
0.121605
0.130152
0.134425
0.138863
0.143301
0.143629
0.149217
0.149217
0.151025
0.156285
0.158093
0.156285
0.160722
0.160229
0.163023
0.162859
0.162695
0.163023
0.167954
0.167954
0.168776
0.173214
0.170091
0.174857
0.174693
0.176336
0.176501
0.180445
0.177651
0.182746
0.180774
0.182417
0.176336
0.179295
0.115853
0.001132
0.011322
0.020197
0.029237
0.034168
0.039263
0.046494
0.054712
0.062108
0.066053
0.070162
0.076736
0.078873
0.084296
0.088405
0.093993
0.096623
0.101554
0.105334
0.109936
0.113388
0.116182
0.121277
0.116346
0.125714
0.126372
0.133932
0.133768
0.138041
0.141493
0.140835
0.143958
0.146588
0.14971
0.149382
0.152833
0.154312
0.156285
0.156778
0.161051
0.159572
0.162695
0.164338
0.16779
0.171406
0.166639
0.170419
0.16516
0.173707
0.172063
0.176501
0.176008
0.17798
0.177815
0.180938
0.175843
0.182746
0.183239
0.184554
0.184061
0.181431
0.185047
0.185376
0.186691
0.188499
0.189649
0.185376
0.189485
0.183897
0.191457
0.187184
0.190635
0.190142
0.19195
0.19195
0.1908
0.193758
0.19195
0.192279
0.194744
0.192443
0.191293
0.198031
0.195237
0.19836
0.19573
0.198524
0.197045
0.197374
0.164174
0.163023
0.163681
0.165817
0.168776
0.170419
0.173542
0.171734
0.168612
0.174693
0.178637
0.176008
0.178144
0.179952
0.182582
0.18176
0.183404
0.187513
0.006556
0.010336
-0.001005
-0.000347
-0.008072
0.004748
0.012308
0.014116
0.025621
0.036797
0.041564
0.047973
0.058164
0.061286
0.070655
0.074271
0.076736
0.08331
0.087748
0.089556
0.095966
0.096952
0.103362
0.102047
0.109279
0.114374
0.117825
0.119633
0.126207
0.127851
0.130316
0.132946
0.134261
0.136562
0.137877
0.143136
0.141986
0.146259
0.144451
0.149875
0.148724
0.147081
0.152833
0.155134
0.15497
0.159079
0.160722
0.159572
0.160394
0.159736
0.164667
0.158914
0.162202
0.163188
0.163352
0.161544
0.169433
0.165489
0.166804
0.169105
0.172063
0.174857
0.176172
0.173707
0.177487
0.17913
0.176336
0.17913
0.181103
0.176336
0.180281
0.179952
0.17913
0.18176
0.178473
0.183897
0.183732
0.182089
0.185047
0.186691
0.179623
0.167954
0.172063
0.169269
0.173378
0.171406
0.174857
0.179623
0.172556
0.175679
0.180938
0.171734
0.177322
0.177651
0.177651
0.182089
0.178802
0.183404
0.182911
0.185212
0.182911
0.184061
0.184061
0.184554
0.185869
0.185869
0.183897
0.185705
0.187184
0.184061
0.191786
0.189485
0.189485
0.18554
0.189156
0.189814
0.192115
0.191621
0.192772
0.193265
0.194087
0.194416
0.192443
0.193594
0.195566
0.194909
0.194251
0.196059
0.193101
0.194416
0.194416
0.192772
0.194087
0.194744
0.195237
0.19573
0.194416
0.195895
0.195402
0.195895
0.198524
0.194909
0.197703
0.196717
0.196717
0.189814
0.194909
0.195895
0.194744
0.197374
0.197538
0.198524
0.202469
0.202305
0.199839
0.200168
0.195566
0.197374
0.19458
0.195073
0.194251
0.198689
0.196552
0.200661
0.198031
0.195566
0.198524
0.203291
0.198689
0.199675
0.199675
0.199182
0.200825
0.199675
0.205592
0.200497
0.199018
0.200661
0.201647
0.200825
0.200332
0.197045
0.198853
0.198853
0.20214
0.200497
0.201483
0.200168
0.199839
0.201647
0.200661
0.205099
0.198196
0.200497
0.199018
0.203126
0.195073
0.200497
0.084625
0.090213
0.097774
0.100239
0.106978
0.109443
0.114209
0.115031
0.122098
0.121441
0.126536
0.126207
0.131796
0.139192
0.134261
0.135904
0.141164
0.143958
0.147245
0.149053
0.14971
0.153984
0.153491
0.161215
0.158257
0.163681
0.160394
0.165324
0.162859
0.166968
0.164667
0.167625
0.169433
0.170419
0.171899
0.170748
0.173378
0.172227
0.180938
0.174528
0.177322
0.179295
0.172885
0.180938
0.182746
0.179295
0.181267
0.180774
0.181596
0.184554
0.182417
0.184225
0.179295
0.180774
0.180116
0.181267
0.179459
0.180774
0.181924
0.184554
0.180774
0.189814
0.185047
0.188992
0.192115
0.188992
0.1908
0.190307
0.192772
0.190635
0.190471
0.188992
0.194087
0.188499
0.192279
0.189814
0.191128
0.193429
0.190471
0.199346
0.192608
0.198196
0.194416
0.196059
0.19458
0.19573
0.194416
0.197374
0.195566
0.197703
0.197374
0.194251
0.19721
0.189485
0.196223
0.196717
0.195402
0.198031
0.199675
0.19836
0.199511
0.200332
0.198853
0.197045
0.199511
0.198853
0.196223
0.188827
0.196388
0.197703
0.191293
0.198031
0.200004
0.200332
0.200332
0.200825
0.199346
0.201647
0.196717
0.204606
0.201483
0.201154
0.200004
0.200004
0.199675
0.196717
0.20214
0.200497
0.201319
0.201319
0.200497
0.206742
0.203126
0.200332
0.201812
0.201483
0.201647
0.203126
0.203948
0.20099
0.200004
0.200825
0.203455
0.203948
0.202469
0.08972
0.094651
0.100403
0.10254
0.110922
0.113716
0.118811
0.120455
0.125221
0.127029
0.129988
0.134261
0.129988
0.136398
0.139849
0.139027
0.139027
0.14856
0.148067
0.152998
0.152998
0.159079
0.162037
0.161544
0.163352
0.166968
0.166146
0.165982
0.170748
0.169598
0.171899
0.170419
0.177487
0.17157
0.176994
0.172063
0.176172
0.178473
0.178144
0.179952
0.18176
0.183568
0.182089
0.182746
0.187348
0.184718
0.182089
0.184225
0.18061
0.186362
0.183732
0.185376
0.186362
0.187184
0.190471
0.195073
0.188499
0.189978
0.189814
0.191128
0.186691
0.192608
0.191457
0.188992
0.192279
0.190964
0.192115
0.187513
0.192936
0.19195
0.008692
0.011979
0.022334
0.029237
0.03729
0.044029
0.049781
0.051096
0.058492
0.067368
0.071312
0.081502
0.083639
0.091035
0.093007
0.097609
0.105005
0.10254
0.095308
0.112894
0.113388
0.119633
0.122427
0.123906
0.130809
0.132289
0.135576
0.137712
0.140013
0.131796
0.14478
0.145766
0.14856
0.002282
0.002282
0.01428
0.016417
0.027922
0.032524
0.041892
0.0437
0.054219
0.057999
0.064409
0.068354
0.074928
0.07838
0.08216
0.090706
0.093993
0.099253
0.102047
0.10517
0.109114
0.112237
0.116182
0.118647
0.113388
0.116839
0.120455
0.124071
0.126043
0.128015
0.130809
0.129659
0.135411
0.137712
0.137055
0.141821
0.143465
0.147903
0.150532
0.152011
0.154312
0.155134
0.157435
0.159736
0.162695
0.159736
0.166311
0.16401
0.167132
0.16779
0.168283
0.17798
0.17157
0.176008
0.171406
0.174528
0.173707
0.172392
0.174364
0.177158
0.176501
0.180116
0.17798
0.183897
0.182911
0.181431
0.183568
0.181431
0.183568
0.182746
0.188499
0.185869
0.180938
0.183239
0.186526
0.182417
0.184883
0.188334
0.188334
0.187184
0.190142
0.192772
0.18817
0.1908
0.188827
0.192772
0.188663
0.189978
0.188663
0.194744
0.190635
0.18439
0.192115
0.189156
0.191786
0.193101
0.194744
0.192115
0.194087
0.191457
0.189485
0.192936
0.187019
0.194087
0.193265
0.194744
0.195073
0.193758
0.191786
0.195237
0.192443
0.195402
0.194087
0.191786
0.194744
0.198196
0.19721
0.197374
0.197374
0.196059
0.194416
0.192936
0.192115
0.19721
0.19458
0.197045
0.198031
0.195402
0.199182
0.196388
0.197703
0.196552
0.199346
0.199018
0.199839
0.195073
0.201154
0.199018
0.198689
0.198689
0.194744
0.198689
0.19836
0.198524
0.194087
0.197538
0.19573
0.200004
0.198031
0.204277
0.200168
0.201154
0.198853
0.19721
0.200004
0.197867
0.200825
0.199346
0.200168
0.198031
0.201647
0.199182
0.199511
0.196717
0.200332
0.200168
0.200332
0.201154
0.203455
0.203948
0.201483
0.204441
0.205263
0.204113
0.202962
0.202962
0.201812
0.202305
0.198689
0.204113
0.202798
0.201647
0.199182
0.199839
0.20477
0.199182
0.204441
0.201647
0.20362
0.201812
0.21118
0.20477
0.202305
0.203784
0.202962
0.199182
0.201319
0.201154
0.197867
0.200168
0.201647
0.211673
0.206414
0.203455
0.20214
0.204277
0.203291
0.199839
0.199675
0.202305
0.198196
0.199675
0.203455
0.200497
0.199018
0.191293
0.197374
0.194416
0.196223
0.197045
0.201154
0.196552
0.19573
0.196388
0.197374
0.19573
0.19573
0.194744
0.196388
0.19458
0.194251
0.195895
0.193429
0.196881
0.194416
0.198853
0.195402
0.196717
0.197374
0.198524
0.19721
0.197374
0.195402
0.197538
0.196717
0.197045
0.193101
0.195402
0.19836
0.19573
0.198196
0.191621
0.197703
0.197867
0.197374
0.196059
0.199346
0.194909
0.199182
0.194744
0.194087
0.194251
0.192608
0.193265
0.193265
0.194416
0.193922
0.195566
0.192608
0.200004
0.194251
0.193429
0.193265
0.196388
0.202962
0.197703
0.197867
0.197045
0.198853
0.19458
0.199182
0.200825
0.19573
0.199018
0.195895
0.195566
0.199182
0.196223
0.200661
0.197374
0.194744
0.198689
0.197538
0.19721
0.199675
0.199182
0.197045
0.200168
0.197867
0.202798
0.19721
0.199346
0.19573
0.199511
0.198524
0.19836
0.19721
0.197867
0.197538
0.196717
0.19836
0.196552
0.196881
0.196059
0.201483
0.199511
0.20099
0.200332
0.198689
0.196059
0.196059
0.199346
0.196059
0.199511
0.19836
0.193922
0.198196
0.199018
0.197045
0.200004
0.19458
0.202469
0.199839
0.201483
0.196223
0.200004
0.200661
0.201976
0.196223
0.195402
0.199018
0.196059
0.198853
0.197867
0.196552
0.195566
0.199346
0.196059
0.200497
0.201483
0.198196
0.200661
0.197703
0.197703
0.194909
0.199182
0.194251
0.197374
0.196388
0.197703
0.20214
0.194251
0.196881
0.19836
0.19836
0.201812
0.200168
0.197867
0.199675
0.199839
0.199346
0.204441
0.197703
0.19721
0.199346
0.194251
0.202305
0.199182
0.197703
0.199675
0.199675
0.203291
0.194087
0.198524
0.200168
0.201319
0.19836
0.197538
0.200497
0.194087
0.199346
0.199346
0.197045
0.18817
0.197045
0.200497
0.199346
0.201483
0.199675
0.204277
0.199511
0.200004
0.201483
0.197045
0.199675
0.195073
0.198031
0.196223
0.199346
0.195237
0.194251
0.199182
0.198524
0.202305
0.199675
0.201319
0.198524
0.202305
0.200661
0.200497
0.202305
0.202305
0.201154
0.201647
0.199511
0.20362
0.205263
0.198524
0.198524
0.201154
0.201647
0.201976
0.20362
0.19836
0.202633
0.200825
0.20362
0.19836
0.205921
0.198689
0.199511
0.20099
0.200004
0.197374
0.196881
0.201319
0.202469
0.199839
0.200825
0.201647
0.200825
0.200661
0.203784
0.201647
0.199675
0.201812
0.200825
0.199182
0.200332
0.197867
0.197703
0.204441
0.200497
0.200004
0.201647
0.199675
0.202962
0.200004
0.201812
0.204606
0.205592
0.201647
0.205427
0.201154
0.201647
0.202962
0.197703
0.200332
0.199182
0.198689
0.201976
0.199839
0.199346
0.201319
0.200332
0.198031
0.201154
0.201812
0.201154
0.203291
0.199346
0.201976
0.200332
0.204606
0.200497
0.196223
0.200661
0.200168
0.200168
0.199018
0.201976
0.197867
0.202962
0.204606
0.203784
0.202962
0.201154
0.200497
0.200497
0.20362
0.197867
0.202633
0.200497
0.201647
0.199182
0.202798
0.199182
0.201976
0.202305
0.204277
0.200661
0.200332
0.203948
0.200661
0.201483
0.198524
0.206578
0.200661
0.205592
0.202305
0.202962
0.201976
0.199511
0.19836
0.200661
0.201812
0.200661
0.199018
0.19836
0.204441
0.200004
0.203291
0.200332
0.203455
0.203455
0.204277
0.200661
0.20362
0.202633
0.199018
0.199511
0.200004
0.201647
0.202469
0.202798
0.200168
0.202633
0.197867
0.199182
0.19836
0.201319
0.199346
0.200004
0.198853
0.200661
0.201812
0.200661
0.20099
0.203126
0.204113
0.199511
0.201647
0.199018
0.201483
0.200004
0.198853
0.201319
0.205263
0.202962
0.201483
0.203126
0.204441
0.199346
0.20214
0.200825
0.200661
0.201812
0.199675
0.201647
0.19721
0.201976
0.202305
0.201976
0.199018
0.202305
0.201812
0.199839
0.203291
0.200497
0.20214
0.199182
0.203455
0.201154
0.204277
0.19836
0.197374
0.198524
0.199839
0.198031
0.199182
0.199839
0.201154
0.202962
0.200004
0.20362
0.20099
0.201154
0.198689
0.206249
0.202469
0.200661
0.201812
0.202469
0.199511
0.202305
0.20099
0.198853
0.201483
0.197703
0.198689
0.198031
0.201154
0.202305
0.20214
0.200168
0.201154
0.204441
0.200661
0.200825
0.198853
0.197045
0.200497
0.197538
0.195237
0.199839
0.199346
0.201483
0.199018
0.202962
0.201647
0.19836
0.201154
0.20477
0.201154
0.204113
0.199839
0.199018
0.198689
0.198031
0.197703
0.198524
0.200825
0.199675
0.200825
0.197374
0.202798
0.201647
0.202633
0.204277
0.207071
0.20214
0.203126
0.202469
0.203126
0.200825
0.199018
0.202962
0.199346
0.199346
0.197045
0.202798
0.198853
0.200332
0.198524
0.204113
0.201319
0.203784
0.199839
0.202305
0.205592
0.198689
0.203948
0.201976
0.198524
0.198689
0.200332
0.199018
0.203291
0.201319
0.200004
0.202633
0.203291
0.20362
0.205099
0.201812
0.203784
0.199839
0.198524
0.202798
0.200661
0.201483
0.200168
0.200661
0.199346
0.20099
0.198853
0.200661
0.200497
0.201483
0.20855
0.204934
0.205592
0.203126
0.203784
0.200497
0.202305
0.200332
0.201647
0.201319
0.202962
0.204113
0.201154
0.200825
0.202469
0.202633
0.200332
0.200497
0.202633
0.20099
0.200332
0.201319
0.203455
0.203948
0.200661
0.205921
0.200497
0.200004
0.202633
0.199018
0.200661
0.200004
0.201319
0.20214
0.199511
0.200004
0.200497
0.199346
0.201647
0.200497
0.202469
0.200332
0.203455
0.196717
0.202633
0.198524
0.200825
0.201319
0.20099
0.20362
0.200825
0.204113
0.201319
0.203126
0.202633
0.202962
0.199839
0.204934
0.201647
0.202633
0.206742
0.201812
0.200168
0.198196
0.201647
0.202305
0.202962
0.198689
0.202798
0.199346
0.200825
0.204441
0.205427
0.198031
0.202305
0.203784
0.202469
0.203455
0.201483
0.202469
0.203455
0.204606
0.198524
0.202798
0.196223
0.201483
0.197703
0.199346
0.199675
0.199182
0.202469
0.205756
0.200661
0.205756
0.203126
0.202469
0.203455
0.202962
0.203126
0.198196
0.198031
0.200004
0.204277
0.200661
0.202962
0.202633
0.202305
0.202962
0.202633
0.204441
0.205592
0.205099
0.200661
0.202633
0.20099
0.205263
0.199675
0.20362
0.201319
0.20214
0.199675
0.200661
0.201647
0.201812
0.203291
0.204113
0.207235
0.200825
0.208715
0.202798
0.209208
0.202962
0.202469
0.202469
0.203291
0.20099
0.200168
0.195073
0.197867
0.155299
0.157764
0.162366
0.163188
0.165817
0.166311
0.169762
0.167954
0.171077
0.170748
0.1742
0.173214
0.170419
0.173707
0.175843
0.17272
0.175021
0.181103
0.178966
0.181924
0.181924
0.181431
0.181267
0.182911
0.179459
0.18554
0.185705
0.185376
0.189156
0.186033
0.185705
0.182417
0.186033
0.18439
0.186855
0.186033
0.189649
0.187841
0.1908
0.19195
0.190471
0.192443
0.193429
0.189649
0.200168
0.1908
0.189156
0.190635
0.192772
0.191621
0.191786
0.193429
0.191293
0.192608
0.193265
0.195402
0.194416
0.193265
0.196223
0.198031
0.195895
0.201319
0.200661
0.196881
0.197538
0.195073
0.197703
0.194744
0.198689
0.195073
0.197374
0.194251
0.197538
0.19458
0.197703
0.202962
0.200332
0.198689
0.199675
0.201976
0.199182
0.19836
0.197374
0.200332
0.198524
0.199511
0.203455
0.200332
0.198689
0.198689
0.200497
0.199018
0.20099
0.199018
0.197538
0.201976
0.202798
0.201483
0.198689
0.199675
0.202633
0.200332
0.200332
0.200497
0.200497
0.198853
0.203784
0.204606
0.188827
0.010336
-1.9e-05
0.014609
0.019868
0.031867
0.036797
0.046166
0.051754
0.059314
0.064409
0.0603
0.069997
0.080187
0.084132
0.088734
0.094487
0.098924
0.109607
0.113223
0.114867
0.120291
0.121441
0.003433
0.011815
0.01576
0.023977
0.032524
0.036797
0.044686
0.053069
0.057671
0.063916
0.069669
0.069669
0.08331
0.08709
0.091692
0.094651
0.099746
0.098924
0.108621
0.107306
0.116346
0.11799
0.117496
0.123578
0.125386
0.12933
0.131302
0.136069
0.134918
0.14215
0.141986
0.146752
0.141164
0.147903
0.148724
0.152833
0.156285
0.155627
0.157271
0.156613
0.163352
0.161215
0.164996
0.164503
0.167297
0.166968
0.166804
0.164338
0.164831
0.002775
0.01313
0.026278
0.032195
0.037783
0.044522
0.051918
0.056684
0.063259
0.067696
0.073449
0.077229
0.082324
0.08594
0.091857
0.093336
0.097116
0.102376
0.105992
0.112237
0.114867
0.119633
0.122592
0.128015
0.12818
0.135576
0.135904
0.141
0.144122
0.142479
0.144944
0.148396
0.150039
0.157107
0.153819
0.157271
0.158914
0.159408
0.163516
0.167132
0.16401
0.166804
0.170091
0.171734
0.171406
0.171077
0.176665
0.177158
0.180774
0.179459
0.179295
0.179788
0.179459
0.180445
0.179952
0.182253
0.181267
0.188992
0.188334
0.191786
0.18817
0.192115
0.186033
0.18817
0.188499
0.187513
0.18817
0.187184
0.191457
0.187348
0.190307
0.187677
0.193265
0.19195
0.194744
0.192608
0.197374
0.193101
0.194416
0.193922
0.19458
0.196881
0.194251
0.196717
0.193429
0.194416
0.193429
0.194251
0.189649
0.194087
0.194087
0.198524
0.197703
0.197374
0.199018
0.199839
0.200332
0.194909

Kurve 5

-0.001827
0.001625
0.000474
0.003926
0.000803
-0.002155
0.001296
-0.001005
0.000146
0.00294
-0.000676
-0.0061
0.001132
-0.000841
-0.001169
-1.9e-05
0.000803
0.001954
0.003268
0.000474
0.002611
0.001296
0.001789
0.002447
-0.000512
-0.003799
-0.001005
-0.000512
0.000639
-0.001334
-0.001662
0.002447
0.001954
0.00409
0.00294
0.003104
0.00294
0.002775
0.00031
0.003433
0.001625
0.000803
0.002118
0.000967
0.002611
0.001296
0.002282
0.001296
0.002447
0.001625
0.000967
0.000474
0.003104
0.000146
0.004419
0.001296
0.002775
0.004419
0.000803
0.00031
0.001296
0.004583
-0.003799
0.001954
0.00031
0.003104
0.00031
0.003268
0.001132
0.000146
0.001132
0.005076
0.001789
0.001132
0.006556
-0.001334
0.002611
0.00146
0.002118
0.001789
-0.004128
-0.002484
0.006391
0.000967
0.009843
-0.004949
-0.000676
0.004255
0.001132
0.002775
0.002118
0.004583
-0.000347
0.002118
-1.9e-05
0.001954
0.000967
0.000474
-0.000512
0.000474
-0.001169
-0.001827
-0.001498
-0.002484
0.001132
-0.002813
0.000967
0.001789
0.001954
0.001789
0.000474
0.00146
0.003926
-0.000512
0.000146
-0.000512
0.00031
-0.005114
-0.001662
-0.00725
-0.001005
0.000803
-0.000347
-0.000183
0.001625
-0.000512
-0.002484
0.002282
-0.004621
-0.005936
-0.005771
-0.001169
-0.007908
-0.008894
-0.00347
-0.002484
-0.00232
-0.005771
-0.001498
-0.0061
-0.004949
-0.001334
-0.000841
-0.004949
-0.000512
-0.004128
-1.9e-05
-0.004621
-0.005936
-0.006757
-0.007086
-0.007086
-0.004456
-0.005114
-0.007086
-0.005607
-0.006757
-0.0061
-0.010373
-0.006593
-0.009223
-0.007415
-0.011195
-0.00725
-0.005114
-0.009223
-0.006593
-0.010045
-0.007415
-0.011852
-0.009716
-0.011524
-0.008072
-0.010702
-0.009223
-0.00873
-0.010209
-0.009716
-0.009716
-0.005278
-0.004949
-0.00873
-0.008237
-0.001991
-0.010538
-0.008565
-0.008565
-0.007415
-0.012181
-0.006757
-0.011031
-0.011524
-0.00988
-0.00988
-0.006922
-0.008237
-0.006429
-0.008401
-0.0061
-0.008565
-0.009223
-0.010538
-0.008565
-0.010045
-0.00725
-0.01251
-0.007744
-0.006593
-0.010209
-0.011031
-0.010538
-0.009223
-0.010866
-0.014482
-0.012346
-0.011031
-0.011852
-0.011031
-0.00988
-0.009223
-0.008894
-0.008894
-0.010702
-0.006264
-0.009551
-0.009716
-0.00725
-0.005771
-0.000512
-0.005114
-0.002977
-0.000347
0.005898
-0.003799
0.004583
-0.002484
0.002611
0.005734
0.003761
0.004255
0.00409
0.001132
0.002282
0.004255
0.002611
0.006062
0.002118
0.002118
0.001789
0.000967
0.000967
0.004255
0.002118
0.002775
0.002282
-0.002648
-0.000676
-0.001005
-0.002648
-0.002813
-0.00347
-0.004621
-0.000841
-0.006757
-0.003142
-0.00232
-0.003142
-0.002977
-0.004456
-0.005278
-0.004949
-0.005278
-0.006264
-0.00347
-0.010373
-0.00725
-0.010209
-0.010373
-0.014811
-0.014482
-0.013989
-0.012346
-0.010209
-0.008237
-0.005114
-0.008565
-0.006922
-0.009223
-0.009223
-0.007579
-0.008237
-0.007744
-0.00988
-0.011359
-0.009058
-0.011688
-0.008401
-0.008894
-0.008237
-0.009551
-0.007579
-0.008072
-0.006757
-0.009058
-0.008237
-0.005771
-0.007415
-0.006264
-0.004621
-0.009223
-0.006593
-0.006922
-0.006264
-0.001827
-0.00725
-0.005278
-0.002484
-0.003635
-0.003799
-0.001827
-0.002484
-0.002977
0.00935
-0.013989
0.003433
-0.002484
-0.001498
-0.006922
-0.005771
-0.004292
-1.9e-05
-0.002977
0.001132
0.00787
0.000474
-0.001662
0.00031
-0.000183
-0.000347
0.004255
0.000967
0.003104
0.002447
0.003433
0.0105
0.004748
-0.000841
0.001132
0.001789
0.001296
0.002118
0.001132
0.002282
0.00031
0.006062
0.003433
0.005898
0.002447
0.005405
0.002118
0.002118
0.003268
-0.001169
0.001789
0.003268
0.003268
-0.006922
0.001789
-0.001498
0.000474
0.00146
0.002282
-0.000183
0.000967
-0.001005
0.003268
0.001296
-0.012181
-0.000841
0.000474
-0.001334
-0.002813
-0.000347
-0.001498
-0.003306
-0.006593
-0.001498
-0.003306
-0.011195
-0.004292
-0.005114
-0.003635
-0.003635
-0.005114
-0.004456
-0.004292
-0.005114
-0.005771
-0.008237
-0.011852
-0.008894
-0.003963
-0.013496
-0.006922
-0.011688
-0.011195
-0.009387
-0.00725
-0.00988
-0.009223
-0.009716
-0.010209
-0.011688
-0.014482
-0.009058
-0.01251
-0.010702
-0.009387
-0.010373
-0.009716
-0.009058
-0.00988
-0.013496
-0.009387
-0.011688
-0.011524
-0.009387
-0.011688
-0.003799
-0.005771
-0.005936
-0.001662
-0.006264
-0.007086
-0.006429
-0.004621
-0.002155
-0.004128
-0.006593
-0.007086
-0.002648
-0.00232
-0.001334
-0.00232
-0.00232
-0.00232
0.000474
-0.001498
0.000474
0.001625
0.001132
0.00146
0.003104
0.000146
0.002118
-0.002484
-0.001169
0.00146
-0.001005
0.00146
0.001954
0.000967
0.000474
0.001296
0.001789
0.006227
0.00146
0.005734
0.005241
0.002611
0.003433
0.003433
0.002282
0.005569
0.00294
0.002611
0.00409
0.005241
0.007213
0.004419
0.005405
0.00672
0.007049
0.005241
0.005405
0.009514
0.006391
0.003761
0.005076
0.004583
0.004255
0.003433
0.005405
0.008035
0.002447
0.009021
0.005076
0.009678
0.006391
0.010664
0.00787
0.005898
0.008199
0.008528
0.010664
0.006391
0.009843
0.006227
0.007542
0.005241
0.006556
0.005569
0.005569
0.001954
0.010664
0.005405
0.00672
0.008035
0.00672
0.00935
0.006227
0.008692
0.005405
0.005734
0.006227
0.004255
0.000146
0.00409
0.003761
0.003761
0.004912
0.004419
0.007542
0.00409
0.00672
0.002118
0.00409
-0.000841
0.000146
0.004748
0.003433
-0.000183
0.00409
0.000803
0.000639
0.000967
-0.002155
0.001132
-0.000347
-0.000841
0.00294
0.001132
-0.002648
0.004419
0.001954
0.001789
0.000967
0.000803
-0.001334
-0.001827
-0.001991
0.000474
-0.00347
-0.006757
-0.000347
-0.001827
-0.001662
-0.002484
-0.001991
-0.002484
0.000639
-0.001827
0.00146
-0.002813
-0.001662
-0.001991
-0.004128
-0.004785
0.002118
-0.001991
-0.00232
-0.001991
-0.00232
0.001954
-0.004621
-0.002484
-0.001991
-0.001827
-0.003963
0.000474
-0.000512
-0.001334
-0.00232
-0.001005
-0.001498
-0.003635
-0.003142
-0.005278
-0.005278
-0.004128
-0.004128
-0.007086
-0.007086
-0.005114
-1.9e-05
0.00031
-0.00347
-0.001498
-0.005443
-0.000512
-0.005443
-0.00347
-0.004456
-0.003963
-0.002484
-0.001334
-0.002155
-0.000183
-0.005114
-0.004292
-0.001827
-0.004128
-0.00232
-0.00232
-0.001169
-0.002977
0.00146
-0.000512
-0.000347
-0.003306
-0.00232
-0.002484
-0.002648
-0.003963
-0.001169
-0.003799
-0.003142
0.001132
0.003761
0.00672
-0.002155
0.000474
-0.000512
0.001132
-0.003306
0.000146
-0.002977
0.000967
-0.000347
-0.000347
-0.004621
-0.003799
-0.003799
-0.001662
-0.003799
-0.003963
0.000803
-0.001169
-0.003142
0.001789
0.000146
-0.003963
0.003433
0.000639
0.001625
0.000474
-0.000676
-0.001498
-0.001334
-0.002155
-0.001498
-0.000347
-0.001991
0.001625
-0.002648
-0.002648
-0.001662
-0.005607
-0.007579
0.000474
-0.000676
-1.9e-05
0.000146
-0.002813
-0.000841
-0.000676
-0.001991
-0.001991
-0.001334
0.001954
-0.004292
-0.004128
-0.001005
-0.005114
-0.000676
-0.004128
0.000639
-0.002155
-0.003635
-0.000183
-0.002648
-0.005607
-0.005114
-0.002813
-0.008565
-0.001169
-0.003963
-0.001498
-0.003635
-0.004456
-0.004785
0.000146
-1.9e-05
-0.002155
-0.004949
-0.002813
0.001789
-0.003142
-1.9e-05
-0.002484
-0.001991
-0.001991
-0.001991
-0.003799
-0.001334
-0.006593
-0.006922
-0.001991
-0.006264
-0.006593
-0.00232
-0.003635
-0.000347
-0.001498
-0.001498
0.000474
-0.000183
-0.00232
-0.003142
0.003433
-0.008401
-0.005443
-0.004292
-0.004292
-0.001991
-0.003142
-0.000347
0.000967
-0.00347
0.002447
0.001625
0.001954
0.019047
0.01691
0.026771
0.032853
0.040084
0.045179
0.052575
0.055863
0.064902
0.070983
0.071805
0.079859
0.084625
0.090049
0.094651
0.100239
0.102869
0.109279
0.109607
0.111415
0.11799
0.121277
0.119633
0.126043
0.128344
0.129001
0.138205
0.137055
0.141493
0.140835
0.147409
0.146095
0.153326
0.153326
0.154806
0.1576
0.156449
0.160229
0.158914
0.159901
0.163023
0.165489
0.167461
0.167625
0.169105
0.171241
0.165489
0.174693
0.172227
0.176665
0.176501
0.176336
0.180116
0.179952
0.17913
0.179623
0.178637
0.179459
0.181596
0.177487
0.184554
0.18061
0.18554
0.184225
0.186198
0.186033
0.188827
0.185705
0.189485
0.184883
0.189814
0.187677
0.187513
0.189814
0.188499
0.189485
0.192608
0.202962
0.188499
0.193594
0.191786
0.192443
0.189814
0.193922
0.19458
0.194909
0.193265
0.196881
0.19458
0.193922
0.199675
0.196223
0.196059
0.196223
0.195402
0.192115
0.195073
0.193594
0.194416
0.184883
0.193758
0.195073
0.197374
0.197374
0.196717
0.196223
0.194744
0.198689
0.196881
0.200004
0.193101
0.195566
0.195402
0.196388
0.195237
0.19458
0.196388
0.195566
0.196552
0.197045
0.197867
0.195402
0.196717
0.197703
0.197703
0.193429
0.194744
0.191457
0.193922
0.195402
0.194251
0.193922
0.197703
0.19195
0.197374
0.198524
0.193758
0.195566
0.196552
0.197045
0.197045
0.20477
0.198031
0.198853
0.196388
0.192608
0.194744
0.196223
0.193922
0.195895
0.19836
0.194251
0.199839
0.195895
0.197538
0.196059
0.197867
0.19721
0.19721
0.195402
0.196717
0.19721
0.196717
0.196717
0.197374
0.195237
0.197538
0.196717
0.19458
0.196552
0.195566
0.19573
0.191786
0.196388
0.196059
0.196717
0.195237
0.200168
0.19458
0.196388
0.19573
0.193101
0.197045
0.19458
0.196223
0.194087
0.198524
0.19458
0.199346
0.196223
0.196881
0.197045
0.196881
0.200332
0.193429
0.195895
0.195073
0.197045
0.194744
0.196388
0.194416
0.195237
0.195073
0.19458
0.192936
0.193429
0.193922
0.195237
0.194087
0.195895
0.198689
0.194909
0.197374
0.19458
0.198031
0.193594
0.19573
0.19458
0.195402
0.193265
0.192443
0.194416
0.192608
0.19195
0.191128
0.194416
0.19458
0.195566
0.200332
0.193429
0.196059
0.197374
0.193922
0.195073
0.19721
0.198853
0.188499
0.197045
0.193101
0.195895
0.196717
0.191293
0.194251
0.188499
0.19195
0.194909
0.19195
0.193594
0.199182
0.193594
0.200332
0.192443
0.197045
0.199675
0.19458
0.193922
0.191457
0.193758
0.191457
0.197045
0.192443
0.193429
0.194744
0.195566
0.194087
0.198031
0.194087
0.195073
0.194087
0.193594
0.195402
0.189978
0.194251
0.192115
0.193265
0.193758
0.196059
0.192936
0.194416
0.193758
0.196717
0.196223
0.193265
0.190307
0.194744
0.195073
0.192115
0.197867
0.194087
0.193265
0.198524
0.196881
0.193758
0.197045
0.193758
0.198524
0.198196
0.195895
0.19721
0.197703
0.19573
0.196881
0.200004
0.190635
0.19195
0.195566
0.19721
0.192443
0.199511
0.19458
0.19721
0.195402
0.197045
0.196717
0.196881
0.19573
0.200004
0.197867
0.198524
0.198524
0.198689
0.197538
0.195895
0.198524
0.19573
0.194909
0.195566
0.19836
0.197045
0.196223
0.199675
0.197374
0.201647
0.202633
0.197703
0.19836
0.200004
0.196717
0.200661
0.198689
0.201154
0.198689
0.200332
0.195073
0.199839
0.200004
0.197867
0.19836
0.197374
0.202633
0.198524
0.200004
0.200497
0.205592
0.200825
0.199839
0.199182
0.200332
0.198196
0.197867
0.200497
0.200497
0.200332
0.196717
0.200825
0.200497
0.199346
0.200332
0.201154
0.199675
0.200497
0.201812
0.202633
0.200168
0.200332
0.201976
0.200825
0.199675
0.200497
0.198853
0.197867
0.20099
0.20099
0.200168
0.197538
0.203948
0.201647
0.202633
0.201647
0.202798
0.202962
0.201319
0.203126
0.201976
0.202633
0.201483
0.20477
0.201319
0.198524
0.202305
0.203948
0.200825
0.202305
0.201647
0.200497
0.201976
0.202962
0.201647
0.199839
0.201647
0.200168
0.201319
0.200004
0.201483
0.201154
0.203784
0.198689
0.20362
0.19836
0.199675
0.200497
0.198853
0.197703
0.199839
0.199182
0.203291
0.205921
0.20099
0.202962
0.201976
0.203291
0.200497
0.20477
0.201483
0.198524
0.196881
0.198524
0.199675
0.201812
0.20362
0.201812
0.200661
0.200497
0.201812
0.200004
0.20477
0.199675
0.204606
0.201812
0.200332
0.200332
0.201319
0.19573
0.197045
0.201483
0.199839
0.197703
0.200497
0.201647
0.201812
0.20099
0.200661
0.203455
0.201812
0.202633
0.200825
0.200661
0.201154
0.200332
0.198524
0.198196
0.20099
0.197538
0.195402
0.202305
0.203784
0.199839
0.203291
0.204934
0.202469
0.202962
0.200332
0.202633
0.201319
0.207564
0.205427
0.200825
0.20214
0.202633
0.200004
0.203455
0.201154
0.199675
0.203784
0.203948
0.201812
0.206085
0.203126
0.20362
0.202469
0.203455
0.199675
0.203784
0.202469
0.201154
0.201319
0.199675
0.204606
0.200661
0.201319
0.205099
0.202798
0.204934
0.204277
0.202469
0.204934
0.203291
0.202305
0.203784
0.19836
0.202305
0.20099
0.201976
0.199511
0.200168
0.198853
0.20214
0.20214
0.203455
0.201319
0.202305
0.208222
0.202305
0.203126
0.201976
0.209043
0.203291
0.202962
0.20362
0.202798
0.201319
0.200332
0.200497
0.200825
0.20099
0.201154
0.202962
0.199839
0.203291
0.201647
0.202633
0.204277
0.205756
0.200661
0.20214
0.202305
0.203291
0.203126
0.200332
0.201154
0.200661
0.200332
0.200004
0.202305
0.199839
0.201319
0.198196
0.201976
0.198524
0.202633
0.199182
0.200004
0.197045
0.201483
0.195073
0.198689
0.197374
0.199018
0.199511
0.196717
0.200332
0.198524
0.200497
0.201319
0.200332
0.195895
0.203948
0.200332
0.200168
0.19836
0.199511
0.198031
0.199839
0.201647
0.19573
0.201483
0.194251
0.196552
0.200332
0.199182
0.200332
0.202305
0.195237
0.201319
0.196388
0.199018
0.199182
0.190471
0.196223
0.195402
0.197703
0.196717
0.198689
0.194416
0.198524
0.196388
0.197703
0.197867
0.197045
0.19573
0.201483
0.195237
0.196223
0.196717
0.199346
0.196717
0.193922
0.200168
0.199675
0.196717
0.196881
0.197374
0.195237
0.196059
0.19721
0.195566
0.194744
0.197374
0.199018
0.205592
0.196552
0.197374
0.197703
0.199018
0.19836
0.196717
0.197703
0.199182
0.194744
0.195073
0.20214
0.192279
0.193265
0.197045
0.196388
0.197703
0.197374
0.200168
0.202469
0.199839
0.201483
0.187677
0.198524
0.198524
0.198031
0.198196
0.196881
0.199675
0.197703
0.197374
0.19836
0.199018
0.189649
0.199018
0.198524
0.200825
0.20099
0.199839
0.20362
0.201483
0.205921
0.200168
0.201319
0.201812
0.198524
0.201319
0.196717
0.19836
0.200168
0.199182
0.198853
0.204113
0.201976
0.203126
0.200332
0.203126
0.200825
0.201647
0.202633
0.19836
0.203291
0.195895
0.20099
0.201154
0.201647
0.201483
0.201319
0.207235
0.203455
0.202469
0.205427
0.203784
0.204441
0.205263
0.204441
0.203948
0.201812
0.20362
0.20099
0.201154
0.199182
0.201647
0.20099
0.199839
0.198853
0.202469
0.202305
0.201976
0.201154
0.204606
0.203126
0.202469
0.205263
0.201647
0.201319
0.205921
0.20099
0.199675
0.202305
0.199018
0.201483
0.201154
0.201812
0.202305
0.202798
0.201812
0.202962
0.20362
0.203291
0.200497
0.204113
0.195237
0.19836
0.199675
0.197045
0.200825
0.197374
0.201319
0.197703
0.19836
0.199346
0.202633
0.201976
0.199839
0.203784
0.198689
0.201154
0.200661
0.202305
0.200332
0.199182
0.199839
0.204113
0.196388
0.19573
0.19721
0.199839
0.200825
0.196059
0.200661
0.201154
0.200332
0.197045
0.202633
0.198524
0.202798
0.197703
0.19836
0.198031
0.196717
0.197703
0.199675
0.200332
0.197867
0.20214
0.198031
0.197538
0.199511
0.199675
0.198853
0.199675
0.193758
0.199182
0.198196
0.198524
0.199839
0.19721
0.197538
0.197538
0.19573
0.194744
0.195566
0.199511
0.200332
0.198031
0.201647
0.197703
0.202469
0.197703
0.198031
0.198524
0.196717
0.197374
0.197045
0.201812
0.199675
0.200661
0.201319
0.203455
0.197374
0.201647
0.198853
0.201483
0.198524
0.202962
0.203291
0.199675
0.200168
0.201483
0.200168
0.19836
0.198689
0.199346
0.200168
0.199182
0.20214
0.197703
0.200332
0.200661
0.201812
0.199839
0.19836
0.198031
0.199675
0.199511
0.197374
0.201976
0.199346
0.201154
0.200332
0.202633
0.200497
0.202633
0.199346
0.198853
0.200004
0.198524
0.202305
0.200661
0.199839
0.200332
0.199346
0.19573
0.201647
0.196388
0.196223
0.19836
0.200497
0.20214
0.20477
0.200661
0.197045
0.203455
0.195237
0.201976
0.203291
0.20099
0.198196
0.198031
0.203126
0.201976
0.201812
0.203948
0.200661
0.199511
0.199182
0.200497
0.197867
0.201647
0.199018
0.20214
0.203784
0.198031
0.200332
0.200004
0.200661
0.200004
0.201154
0.199182
0.200332
0.203948
0.205263
0.200168
0.199675
0.199511
0.197538
0.199839
0.199675
0.200825
0.196717
0.202633
0.19836
0.203455
0.200497
0.200825
0.196552
0.199675
0.203126
0.199675
0.201154
0.202305
0.198031
0.202469
0.202798
0.20099
0.200661
0.199018
0.197045
0.201483
0.199839
0.200168
0.201812
0.200497
0.206085
0.203948
0.199511
0.201812
0.202633
0.200168
0.200004
0.203455
0.199018
0.202469
0.199346
0.204441
0.203455
0.200497
0.201483
0.201812
0.201976
0.201483
0.199511
0.196552
0.199675
0.199018
0.203784
0.201647
0.202633
0.200168
0.201483
0.20099
0.200004
0.200825
0.200168
0.201319
0.199839
0.204113
0.203948
0.203126
0.20362
0.205099
0.203455
0.202633
0.20214
0.20099
0.205099
0.200004
0.204441
0.201976
0.201483
0.202962
0.203784
0.201319
0.203291
0.204606
0.204441
0.199346
0.205921
0.206414
0.203784
0.204113
0.2074
0.203784
0.203126
0.201319
0.200497
0.199346
0.201812
0.201647
0.204277
0.202798
0.200825
0.20214
0.200497
0.204441
0.200004
0.20362
0.200661
0.19836
0.200168
0.200332
0.193922
0.20099
0.203126
0.203455
0.204606
0.199018
0.200825
0.201647
0.201812
0.202798
0.203948
0.201154
0.204113
0.197374
0.20099
0.200661
0.199346
0.199346
0.198689
0.204934
0.197703
0.200661
0.19836
0.199018
0.200497
0.20214
0.201812
0.201976
0.201154
0.199346
0.20362
0.202798
0.201812
0.197867
0.207564
0.197045
0.201976
0.205099
0.199018
0.199839
0.200004
0.199018
0.200332
0.204113
0.201812
0.201154
0.20214
0.200332
0.204441
0.197703
0.19836
0.201319
0.202798
0.203455
0.200168
0.201154
0.201976
0.201647
0.200825
0.202469
0.201647
0.203291
0.203291
0.20362
0.205427
0.201812
0.201647
0.203126
0.203948
0.202469
0.192772
0.201976
0.200661
0.201319
0.198853
0.203948
0.205263
0.20362
0.204113
0.20362
0.200168
0.189978
0.201976
0.204441
0.201319
0.203948
0.203291
0.199675
0.203948
0.203455
0.207893
0.197538
0.197045
0.203948
0.205921
0.203126
0.204441
0.203126
0.204441
0.204277
0.202798
0.199511
0.203455
0.192115
0.199018
0.202962
0.203291
0.20362
0.204113
0.203455
0.20362
0.206907
0.205263
0.206414
0.200825
0.20477
0.204606
0.207893
0.203455
0.207564
0.204441
0.204934
0.204934
0.204277
0.204113
0.200168
0.205263
0.20214
0.205921
0.203455
0.198853
0.203455
0.201812
0.202633
0.203291
0.203784
0.202633
0.203455
0.204606
0.20362
0.203126
0.204277
0.204606
0.202798
0.201154
0.199018
0.206907
0.196552
0.200661
0.210358
0.198524
0.199839
0.199018
0.202469
0.201647
0.202962
0.204441
0.202633
0.202798
0.201154
0.200825
0.200825
0.204277
0.200661
0.200332
0.199675
0.202962
0.201647
0.203291
0.203126
0.201976
0.202798
0.200825
0.202305
0.201483
0.203291
0.199346
0.202305
0.198689
0.201647
0.200497
0.202305
0.195566
0.20099
0.200004
0.203291
0.198524
0.200661
0.202305
0.20099
0.202469
0.199675
0.199182
0.198689
0.198689
0.191621
0.195402
0.196059
0.196881
0.201319
0.197374
0.200168
0.203455
0.199346
0.20099
0.197538
0.199839
0.203784
0.198524
0.199346
0.198853
0.200332
0.196223
0.196881
0.19836
0.198196
0.19721
0.19836
0.200825
0.198853
0.199182
0.200825
0.201647
0.199182
0.201976
0.201647
0.201319
0.200004
0.200004
0.198196
0.195566
0.199018
0.201812
0.201154
0.198524
0.200332
0.201812
0.200661
0.201319
0.201154
0.198031
0.20099
0.20362
0.200332
0.20214
0.195237
0.199675
0.201647
0.198524
0.202305
0.199182
0.198689
0.20099
0.199511
0.203948
0.201483
0.201812
0.202305
0.198853
0.203784
0.201647
0.201647
0.207235
0.202469
0.199839
0.201647
0.201647
0.201319
0.200004
0.20477
0.199182
0.20099
0.20099
0.201483
0.202305
0.20214
0.202633
0.20362
0.20214
0.200825
0.20214
0.198524
0.195237
0.198196
0.200661
0.196881
0.200661
0.200825
0.201319
0.201647
0.20099
0.203126
0.201154
0.201812
0.201976
0.200825
0.197538
0.201647
0.19721
0.203291
0.19721
0.199346
0.201812
0.200332
0.201154
0.199182
0.201319
0.201976
0.200004
0.202962
0.205099
0.200825
0.203455
0.201647
0.204441
0.199018
0.200332
0.200332
0.200168
0.195895
0.203948
0.202305
0.200332
0.201976
0.199839
0.202798
0.199182
0.200004
0.199511
0.202305
0.195402
0.203455
0.202305
0.199675
0.200168
0.197538
0.19836
0.202798
0.199346
0.199675
0.199182
0.197867
0.202633
0.200497
0.19836
0.199182
0.200497
0.199018
0.201647
0.199018
0.20099
0.194744
0.201154
0.199182
0.197867
0.198524
0.196881
0.19836
0.201976
0.203784
0.197867
0.201647
0.200661
0.201976
0.202469
0.20477
0.203291
0.201154
0.205099
0.199511
0.199346
0.20099
0.201812
0.199018
0.204277
0.20099
0.20099
0.203784
0.201647
0.200497
0.201812
0.200332
0.202469
0.202305
0.20099
0.204934
0.202469
0.198853
0.198853
0.202798
0.200661
0.203126
0.198524
0.203291
0.200332
0.199346
0.204441
0.20477
0.201976
0.202798
0.203291
0.20477
0.204606
0.20214
0.207564
0.20099
0.206249
0.216275
0.202305
0.201647
0.206249
0.201319
0.203126
0.203126
0.202798
0.203455
0.205099
0.204277
0.2074
0.206249
0.203455
0.207893
0.201647
0.203784
0.205099
0.202305
0.201976
0.206742
0.199675
0.202798
0.20099
0.201976
0.205756
0.201976
0.206907
0.199346
0.209865
0.204277
0.206249
0.201812
0.202633
0.20099
0.20362
0.203291
0.203291
0.201319
0.200168
0.203291
0.198689
0.202305
0.20099
0.203291
0.199675
0.204441
0.204113
0.205592
0.200004
0.199182
0.199346
0.204606
0.19836
0.203291
0.20099
0.197867
0.207071
0.197867
0.201976
0.200332
0.200661
0.199018
0.201647
0.202633
0.201154
0.200825
0.198853
0.202305
0.201154
0.201647
0.20099
0.199182
0.199511
0.200825
0.19836
0.199675
0.203291
0.196881
0.19836
0.203948
0.203455
0.206742
0.199839
0.201647
0.200661
0.201483
0.202305
0.199675
0.198031
0.200332
0.201319
0.197045
0.203126
0.196388
0.199346
0.202305
0.201154
0.199675
0.201812
0.201976
0.205427
0.205263
0.20214
0.205263
0.198524
0.202305
0.204441
0.202469
0.198689
0.204113
0.199675
0.203291
0.205921
0.200661
0.200661
0.201483
0.203784
0.202798
0.202798
0.202469
0.203291
0.201319
0.20362
0.201647
0.202305
0.20099
0.202962
0.199675
0.200004
0.200004
0.197703
0.204934
0.203291
0.20477
0.201647
0.204934
0.203291
0.201647
0.199018
0.199511
0.200332
0.19458
0.198196
0.199018
0.196881
0.199675
0.201976
0.197703
0.206742
0.200332
0.19721
0.198689
0.201154
0.200332
0.201319
0.200661
0.199839
0.196717
0.198031
0.199839
0.197867
0.195402
0.198853
0.197538
0.197703
0.202305
0.199511
0.199182
0.196552
0.199839
0.197045
0.200661
0.199675
0.200332
0.201483
0.197045
0.196223
0.199839
0.199675
0.198524
0.199511
0.188006
0.198853
0.197045
0.198031
0.19836
0.199839
0.198196
0.200332
0.202469
0.195895
0.201976
0.19458
0.196552
0.195073
0.198031
0.198689
0.202469
0.193922
0.198031
0.199675
0.199018
0.203948
0.199675
0.201154
0.201812
0.202469
0.200004
0.201647
0.200332
0.20214
0.199839
0.200332
0.200004
0.199675
0.197374
0.203291
0.197045
0.200661
0.200332
0.199182
0.203948
0.200497
0.200332
0.203126
0.197045
0.196717
0.199839
0.200168
0.199018
0.198031
0.202305
0.195402
0.201483
0.199182
0.205263
0.19721
0.199346
0.199018
0.200004
0.199346
0.200825
0.199839
0.201319
0.202798
0.200332
0.19836
0.200497
0.19573
0.199839
0.200332
0.200661
0.198853
0.200004
0.199839
0.203455
0.197867
0.189649
0.196223
0.203126
0.200825
0.202962
0.20099
0.202633
0.202305
0.20214
0.20099
0.201483
0.191786
0.195895
0.201976
0.200004
0.198853
0.198196
0.199346
0.200825
0.20362
0.200332
0.203784
0.199346
0.201154
0.201812
0.200825
0.198689
0.20099
0.200497
0.195895
0.20099
0.197045
0.199018
0.196552
0.19721
0.196223
0.197703
0.199182
0.201812
0.196717
0.201319
0.20099
0.201483
0.199675
0.200825
0.20214
0.198853
0.200825
0.197703
0.203455
0.200661
0.199346
0.203291
0.201319
0.201154
0.201154
0.201483
0.200661
0.202633
0.199182
0.200661
0.199346

Kurve 6

-0.001498
0.000639
0.003926
-0.001498
0.000474
0.001625
0.004583
0.003926
-0.000512
0.002775
-0.000676
-0.003635
-0.002484
0.001132
-0.002155
0.001625
-0.003306
0.000967
-0.000183
0.000474
-0.001498
0.003597
0.001132
0.000967
0.002611
-0.003306
-0.003963
-0.007086
-0.002813
-0.002484
-0.002977
-0.002648
0.000639
-0.001662
-0.000347
-0.000676
-0.000841
-0.000676
0.000146
0.000967
0.000639
-0.000841
-0.000676
0.003268
0.000803
-0.004621
0.002447
-0.002977
-0.004785
0.000146
-0.002484
-0.002155
-0.001169
-0.001005
0.000639
0.002775
0.004912
0.007049
-0.00232
-0.002977
-0.000183
-0.004292
-0.001827
-0.000347
-0.001005
-0.000676
0.000474
-0.001662
0.003926
-0.00347
-0.001827
0.00031
0.000146
-0.00232
-0.000347
-0.001005
-0.002648
-0.000347
-0.003306
-0.005443
-0.004785
-0.001169
-0.002648
-0.001169
-0.00232
-0.00232
-0.000841
-0.001498
0.000639
-0.001498
-0.012346
-0.00232
-0.001334
-0.004292
0.00146
0.001132
0.002447
-0.001827
0.000967
-0.000512
-0.003635
-0.007415
-0.003963
-0.001991
-0.001662
0.00146
-0.003142
-0.001827
-0.004785
0.000803
-0.00347
-1.9e-05
-0.004621
-0.003142
-0.001827
-0.003142
-0.002484
0.001789
-0.001334
-0.001827
-0.000183
-0.003142
0.000474
-0.002648
-0.002813
-0.002484
0.000639
-0.00347
-0.002813
0.000967
-0.001991
-0.002155
-0.000676
-0.003306
-0.002484
-0.00347
-0.001005
-0.000512
-0.00347
-0.000676
-0.003635
-0.00232
-0.000841
0.000639
0.00031
-0.005443
-1.9e-05
-0.001169
0.000474
-0.000512
0.000474
0.00031
-0.002648
-0.000183
0.002282
-0.004456
0.003761
-0.002648
-0.00347
-0.003963
-0.001991
-0.001169
-0.002813
-0.003142
0.000803
0.001296
-1.9e-05
0.003597
0.002118
0.001954
0.000146
-0.000841
-0.003799
-0.00232
-0.002155
-0.001334
-0.002648
-0.003799
-0.00347
0.003268
0.000474
-0.001498
-0.001334
-0.000512
0.00294
-1.9e-05
0.001296
0.002775
-0.000676
-1.9e-05
0.001789
-0.000183
-0.001169
-0.000347
0.002447
0.004583
0.000803
0.001625
0.001789
0.001789
0.000967
0.005734
-0.001827
0.001132
0.000474
0.000474
0.000146
-0.000676
-0.001498
-0.001498
0.00294
0.001132
0.003433
-0.002484
0.000474
-0.001334
0.000967
0.00031
-0.000512
-0.000183
-0.000841
0.000474
0.000474
-0.001005
-0.001498
-0.00347
-0.001005
-0.000841
-0.004292
-0.00347
-0.001827
0.001132
-0.001827
0.001625
-0.000676
-0.001334
0.003597
0.000967
-0.000183
-0.000183
-0.001334
-0.000183
-0.000183
-0.000676
-0.002977
-0.003635
0.000474
-0.002484
-0.001169
-0.000676
0.002118
0.003433
0.004912
0.00294
-0.000676
0.001625
-0.001827
0.000803
-0.003799
-0.002155
-0.004128
-0.002648
-0.004785
0.000803
-0.002155
-0.004949
-0.005114
-0.005771
-0.007086
-0.000841
-0.001169
0.000474
0.000474
-0.003635
0.00146
-0.003963
-0.001991
-0.001827
0.000639
-0.001169
-0.000841
-0.000183
0.000639
-0.000676
0.001296
0.002118
0.003926
0.003104
-0.000183
0.005898
0.005734
0.007213
0.004255
0.005898
0.004748
0.002775
0.003104
0.004419
0.003268
0.002775
-0.001662
-0.005114
0.000803
0.003433
0.00031
-0.001005
0.00146
0.002282
0.005241
-0.000183
0.002118
0.000146
-0.001005
-0.002155
-0.000512
-0.00232
-0.002484
-0.001005
-0.002155
0.000803
-0.006593
-0.000183
0.002611
-1.9e-05
0.000474
0.001625
-0.004456
0.000146
-0.002648
-0.001991
-0.004292
-0.00347
-0.003306
-0.002648
-0.002813
-0.003142
-0.001169
-0.003306
-0.001991
-0.004949
-0.00232
-0.000347
-0.001498
-0.000841
-0.001662
-0.001991
-0.000512
-0.004128
-0.004456
-0.005936
-0.005607
0.000639
-0.004456
-0.001827
-0.001334
-0.0061
-0.001005
-0.004456
-0.006264
0.00146
-0.004621
-0.00725
-0.001991
-0.005443
-0.003142
-0.005114
-0.001827
-0.004785
-0.004456
-0.004456
0.001789
-0.0061
-0.006429
-0.000676
-0.003799
-0.001169
-0.002155
-0.000347
-0.005114
-0.001005
-0.004621
-0.00232
-0.004292
-0.003963
-0.004128
-0.001827
-0.002813
-0.001169
-0.001498
-0.002813
-0.002813
-0.000512
-0.001169
0.00146
-0.001005
0.000639
0.001789
0.000639
0.001954
0.004255
-0.001991
-0.002977
0.004583
-0.001334
0.000967
0.000803
0.001625
-0.000676
0.00031
0.002282
0.00146
-0.000676
-0.001498
0.000967
-0.001662
0.005569
-0.001169
0.004912
0.005076
0.001132
0.000639
0.002118
0.005076
0.001132
0.000474
-0.001334
0.000803
0.000146
-0.000841
0.003268
-0.000183
0.001789
0.005076
-1.9e-05
0.003597
-0.000347
-0.001498
0.000803
0.001789
-0.001334
0.00031
0.001296
-0.000183
0.001296
-0.000347
0.000474
-0.001169
0.003268
-0.002813
-0.000183
0.000146
0.00031
-0.004456
-1.9e-05
0.000967
-0.006429
0.001625
-0.001334
-0.000512
-0.003142
-0.001169
-0.004456
-0.001991
-0.001498
-0.000347
-0.001498
0.00146
-0.000841
0.000639
-0.002813
-0.001005
0.000639
-0.006429
-0.002648
0.001789
-0.005443
-0.006429
-0.001169
-0.005443
-0.002484
-0.000512
-1.9e-05
-0.000676
-0.001169
0.004748
0.000639
0.000803
-0.001498
-1.9e-05
-0.001169
-1.9e-05
-0.002155
-0.001498
-0.005114
0.000146
-0.001991
-0.000347
-1.9e-05
-0.001498
-0.001827
-0.000841
0.001132
0.002447
-1.9e-05
-0.001498
0.001296
0.00146
-0.001169
-0.001169
0.000474
-0.00347
-0.001827
-0.000841
-0.003306
-0.002977
-0.001334
-0.000347
0.000474
0.000474
0.001625
0.004255
-0.001334
0.00409
-0.000512
-0.000676
-0.002484
-0.00347
-0.003635
-0.00347
-0.004621
-0.005936
-0.001991
-0.006757
-0.000183
-0.002813
-0.002484
-0.002155
-0.001662
-0.002484
-0.00232
-0.00232
-0.001334
0.001132
-0.004621
-0.004456
-0.003306
-0.004785
-0.002648
-0.001169
-0.002648
-0.001662
-0.002977
0.000474
0.002447
-1.9e-05
-0.002484
0.000474
-0.003142
-0.002813
0.000474
-0.003963
-0.003799
-0.001991
-0.004456
-0.00347
-0.004128
-0.003963
-0.001334
-0.000676
-0.000347
-0.003963
-0.001334
-0.00232
0.000639
-0.003306
-0.003799
-0.005114
-0.004621
-0.003799
-0.003142
-0.006757
-0.003799
-0.001169
-0.00347
0.000967
-0.002155
0.000803
-0.002977
-0.001334
-0.002155
0.001789
-0.000841
0.001296
0.00031
-1.9e-05
-0.000512
-0.000676
0.002282
-0.006593
0.000474
-0.00347
0.000967
-0.005607
-1.9e-05
-0.001169
0.000639
0.003268
0.002282
0.006227
-0.000183
0.001625
0.00031
0.002447
-0.001498
0.000967
-0.001005
0.00294
0.000803
0.000474
0.003597
-0.005443
0.001625
-0.000512
0.00031
-0.001991
0.004748
0.000146
0.004583
0.002282
0.006391
0.004419
-0.000347
0.002611
0.004255
0.001296
0.00294
0.000146
-0.000183
0.002447
0.001132
0.003104
-0.001827
0.000474
-0.001169
0.002118
-0.000512
0.000474
0.001954
0.001132
0.00031
-1.9e-05
-0.002155
-0.012181
-0.007415
-1.9e-05
-0.003635
-0.004128
0.001296
-0.000183
0.00031
0.002775
0.001789
0.002118
-0.009058
-0.009387
-0.006264
-0.002155
-0.004621
-0.005278
-0.000841
0.001132
0.00146
0.005734
0.000803
-0.001005
0.003597
0.002775
0.000803
0.003761
0.007377
-0.003635
0.00146
-0.009387
0.001132
-0.000841
0.001132
0.006391
0.010336
0.010336
0.006556
0.004912
0.010664
0.003761
0.007377
0.009021
0.006391
0.008857
0.006884
0.006391
0.004912
0.006556
-0.000841
-1.9e-05
-0.009058
-0.001827
-1.9e-05
-0.002648
-0.004292
-1.9e-05
-0.002813
-0.003306
-0.004292
-0.004292
-0.001991
-0.002155
-0.001169
-0.001334
-0.002977
-0.006264
-0.001827
-0.003142
-0.00232
-0.00232
-0.002155
-0.003635
-0.005771
-0.0061
-0.005443
-0.006922
-0.005443
-0.002813
-0.000841
-0.002813
0.001132
-0.000183
-0.003635
-0.001169
-1.9e-05
-0.000512
-0.001498
-0.000676
-0.001334
-0.002648
-0.002484
-0.005607
-0.005114
-0.002977
-0.001662
-0.001005
-0.001662
-0.001169
0.004255
0.011322
0.017074
0.02332
0.034661
0.038276
0.047645
0.048631
0.058821
0.063587
0.066217
0.075585
0.077722
0.08709
0.087255
0.093172
0.096294
0.102047
0.102704
0.113552
0.115031
0.119304
0.12177
0.1267
0.122427
0.123906
0.13311
0.13459
0.135247
0.132617
0.144451
0.144944
0.148067
0.149875
0.154312
0.152669
0.15612
0.156942
0.160887
0.164338
0.159736
0.165653
0.167132
0.168612
0.165489
0.173049
0.167461
0.169598
0.172392
0.174035
0.172556
0.176172
0.178637
0.175186
0.177158
0.17913
0.182911
0.179788
0.183239
0.178637
0.181103
0.181924
0.186033
0.184554
0.186691
0.184225
0.185376
0.182582
0.191621
0.189156
0.189978
0.191293
0.186526
0.19195
0.190471
0.192115
0.193429
0.191786
0.192608
0.19458
0.191128
0.193758
0.192443
0.193429
0.196717
0.19573
0.195073
0.19458
0.195895
0.195566
0.196388
0.194416
0.196388
0.199839
0.199839
0.196881
0.201647
0.19573
0.19721
0.196223
0.196223
0.196881
0.19458
0.196717
0.196717
0.197703
0.201812
0.20214
0.197867
0.19836
0.199511
0.200168
0.197703
0.199346
0.198689
0.198689
0.195402
0.200332
0.203455
0.199675
0.203291
0.201976
0.200825
0.199182
0.200168
0.201976
0.201483
0.197703
0.201319
0.201319
0.197538
0.201154
0.201154
0.200004
0.199346
0.20099
0.199346
0.202305
0.200661
0.202633
0.202798
0.200661
0.197867
0.202469
0.20214
0.20099
0.201154
0.199018
0.200004
0.199346
0.20099
0.200332
0.19836
0.19721
0.202469
0.197374
0.201647
0.199182
0.200661
0.199675
0.203126
0.200825
0.201812
0.20362
0.198524
0.200332
0.197703
0.197538
0.199839
0.201319
0.197703
0.200661
0.200661
0.19721
0.200661
0.201812
0.199018
0.19721
0.19721
0.199675
0.201812
0.200661
0.204113
0.199675
0.199511
0.201483
0.200825
0.197867
0.201812
0.197045
0.196552
0.19573
0.196717
0.199018
0.198853
0.196552
0.199182
0.200497
0.198031
0.20099
0.196881
0.197538
0.196552
0.200168
0.195895
0.19836
0.193265
0.196388
0.19458
0.197045
0.19573
0.199182
0.19721
0.197867
0.198689
0.194909
0.200168
0.189978
0.196388
0.198031
0.194087
0.196717
0.19721
0.194251
0.19458
0.19721
0.195073
0.197703
0.188334
0.201483
0.198853
0.200825
0.201647
0.199511
0.197867
0.199182
0.199511
0.199182
0.197374
0.194744
0.201319
0.197045
0.198524
0.197867
0.198196
0.19721
0.19836
0.198031
0.200004
0.197867
0.197703
0.19836
0.201154
0.201812
0.197538
0.19836
0.197703
0.19721
0.197703
0.198853
0.195402
0.198524
0.198031
0.199511
0.196059
0.201812
0.201976
0.199346
0.195566
0.19836
0.198031
0.194909
0.196881
0.198031
0.19836
0.196881
0.203948
0.202305
0.202305
0.205592
0.203126
0.200661
0.202469
0.19836
0.202962
0.201976
0.201812
0.201976
0.201154
0.204113
0.200004
0.202305
0.200825
0.202633
0.199018
0.202305
0.197867
0.201319
0.205263
0.200168
0.200497
0.20477
0.205099
0.204441
0.204277
0.201154
0.203291
0.200497
0.203291
0.205592
0.20099
0.199018
0.201483
0.200661
0.199839
0.201483
0.198853
0.206249
0.200497
0.202305
0.20362
0.19721
0.199511
0.201483
0.200168
0.200004
0.20099
0.19836
0.200332
0.204441
0.200825
0.1908
0.19836
0.198031
0.199018
0.200661
0.199018
0.198524
0.198853
0.198853
0.198031
0.200332
0.192115
0.198853
0.197703
0.197703
0.197045
0.195566
0.196059
0.19721
0.197374
0.199018
0.195237
0.196388
0.194416
0.196552
0.19573
0.196717
0.195073
0.196388
0.19573
0.195566
0.19573
0.193101
0.194087
0.192443
0.196059
0.193594
0.200825
0.19458
0.195402
0.195402
0.19573
0.195073
0.196059
0.190471
0.193594
0.191457
0.194087
0.195895
0.190307
0.1908
0.192608
0.19458
0.190307
0.196223
0.193594
0.194251
0.190307
0.193429
0.196717
0.195073
0.196388
0.196881
0.197703
0.19458
0.194251
0.194251
0.198196
0.193101
0.194744
0.19195
0.193758
0.194087
0.193758
0.19573
0.196059
0.196388
0.196552
0.197703
0.197867
0.200168
0.193594
0.198031
0.195073
0.194416
0.196388
0.201812
0.193594
0.200004
0.198196
0.196388
0.197045
0.195073
0.194087
0.19573
0.194909
0.19573
0.19721
0.19573
0.194251
0.195073
0.200825
0.197867
0.195237
0.197867
0.197538
0.194251
0.195566
0.197703
0.196717
0.200004
0.202962
0.199839
0.197045
0.199839
0.197374
0.199675
0.198689
0.199839
0.197045
0.197045
0.196717
0.199182
0.200332
0.198031
0.199346
0.196223
0.20099
0.197703
0.198689
0.198689
0.200497
0.198689
0.200661
0.19573
0.20099
0.19721
0.198031
0.197867
0.197703
0.198524
0.192115
0.203948
0.195073
0.19836
0.198524
0.199511
0.20099
0.200661
0.199346
0.202305
0.201647
0.203455
0.20099
0.205427
0.205099
0.201154
0.201812
0.200004
0.200497
0.19836
0.202798
0.197703
0.199839
0.200661
0.200825
0.200825
0.201154
0.199346
0.204606
0.204606
0.200497
0.202469
0.202798
0.200497
0.20099
0.201647
0.198031
0.197867
0.200332
0.199839
0.200497
0.200661
0.200661
0.201812
0.202798
0.202469
0.205921
0.19836
0.199839
0.195895
0.200661
0.199511
0.198524
0.181596
0.182089
0.187184
0.185869
0.188827
0.192443
0.189814
0.191128
0.195237
0.193101
0.19721
0.192936
0.195237
0.193429
0.194251
0.191128
0.196717
0.190964
0.198196
0.191128
0.194087
0.196223
0.193594
0.198031
0.197867
0.19836
0.195237
0.198196
0.196059
0.197538
0.114209
0.077393
0.081009
0.086762
0.08972
0.096788
0.101061
0.103855
0.111087
0.111087
0.11651
0.119633
0.12555
0.127358
0.135247
0.136891
0.140178
0.137877
0.140671
0.142314
0.142972
0.144122
0.14593
0.152998
0.151683
0.154477
0.159408
0.158586
0.161873
0.163845
0.15875
0.161544
0.165489
0.167461
0.167954
0.171241
0.170255
0.172063
0.176008
0.183239
0.179295
0.175843
0.178802
0.176665
0.178473
0.176994
0.180938
0.179295
0.183732
0.180938
0.183897
0.183239
0.184225
0.184883
0.183897
0.186033
0.185212
0.186691
0.185212
0.189978
0.187019
0.190307
0.187348
0.189978
0.188334
0.191457
0.191786
0.191457
0.191293
0.197867
0.19195
0.189814
0.194416
0.189814
0.1908
0.19195
0.192772
0.188827
0.193758
0.194416
0.194416
0.19721
0.194416
0.197045
0.196059
0.196881
0.195895
0.196552
0.197374
0.192279
0.191457
0.195073
0.196388
0.199675
0.193594
0.198853
0.194909
0.196552
0.196881
0.196388
0.19721
0.194416
0.198853
0.198689
0.199182
0.200332
0.20099
0.200168
0.200168
0.198853
0.200661
0.199675
0.199675
0.200004
0.201154
0.196223
0.197045
0.200825
0.19836
0.197867
0.198853
0.206414
0.201647
0.206907
0.203455
0.205099
0.202962
0.203455
0.201647
0.203126
0.201812
0.203784
0.20099
0.20099
0.204934
0.202469
0.205099
0.20477
0.201812
0.205099
0.209536
0.206578
0.207728
0.206578
0.203126
0.206578
0.205427
0.204113
0.201647
0.203784
0.201319
0.204113
0.20099
0.203455
0.202469
0.205099
0.203291
0.204277
0.204441
0.205921
0.205592
0.20362
0.204441
0.200661
0.202633
0.201154
0.202469
0.200661
0.207728
0.200004
0.198689
0.198853
0.20477
0.205592
0.203455
0.204934
0.203948
0.205099
0.203455
0.204113
0.201647
0.207893
0.202469
0.205592
0.205099
0.202469
0.201812
0.202962
0.207071
0.207071
0.201647
0.198853
0.200825
0.203291
0.20099
0.203948
0.200825
0.200004
0.201319
0.198524
0.199018
0.195402
0.19721
0.200825
0.19573
0.19721
0.19836
0.194744
0.19836
0.194087
0.196552
0.195237
0.192772
0.195402
0.196552
0.196223
0.193265
0.190307
0.189978
0.193758
0.193922
0.189485
0.191293
0.194087
0.191786
0.19195
0.194087
0.191621
0.196059
0.192772
0.195402
0.190307
0.194416
0.194744
0.192936
0.192936
0.194416
0.19573
0.195237
0.195895
0.190471
0.20099
0.193101
0.195566
0.192279
0.195895
0.19458
0.193758
0.196388
0.195895
0.199675
0.193101
0.194416
0.19458
0.19195
0.197703
0.195237
0.193922
0.19721
0.19573
0.194087
0.203126
0.196717
0.196388
0.199346
0.194744
0.200168
0.198689
0.193265
0.193594
0.197867
0.199346
0.201812
0.197703
0.195073
0.199182
0.195895
0.196881
0.197045
0.197867
0.19836
0.198196
0.197374
0.205099
0.196223
0.196717
0.199675
0.196552
0.191128
0.195073
0.194744
0.190471
0.196223
0.192936
0.194251
0.193429
0.193265
0.19458
0.199346
0.19573
0.199839
0.198031
0.196059
0.199839
0.196717
0.188499
0.193758
0.196388
0.196059
0.199839
0.194251
0.196223
0.197867
0.196223
0.199018
0.197867
0.188663
0.194909
0.19573
0.196059
0.193758
0.191293
0.195895
0.195402
0.197045
0.194744
0.196059
0.18932
0.193265
0.194909
0.196552
0.198524
0.197538
0.197045
0.197703
0.199511
0.197538
0.196059
0.193758
0.19573
0.196388
0.198524
0.194251
0.199346
0.197374
0.195237
0.202305
0.199182
0.200825
0.196717
0.197538
0.200168
0.199182
0.197374
0.200004
0.197703
0.198689
0.199675
0.197538
0.199182
0.196388
0.195073
0.196881
0.197867
0.194087
0.195237
0.182417
0.149546
0.030716
0.009843
0.003926
0.006884
0.010171
0.020033
-1.9e-05
0.000639
0.00294
0.009843
0.020033
0.024635
0.032031
0.040577
-0.000512
0.0271
-1.9e-05
-1.9e-05
0.003104
0.012144
0.025785
0.031373
0.036962
0.046166
0.050768
0.059972
0.06556
0.066546
0.074435
0.081831
0.082488
0.089556
0.091035
0.097938
0.097774
0.107306
0.109279
0.113388
0.115853
0.121277
0.126536
0.124399
0.133275
0.131631
0.134918
0.138534
0.142314
0.144615
0.148724
0.143301
0.146259
0.144287
0.026114
0.033346
0.03614
0.051096
0.054055
0.061286
0.066381
0.075914
0.078051
0.084132
0.087584
0.091035
0.093665
0.102704
0.102869
0.107142
0.112894
0.116839
0.1267
0.12292
0.126865
0.130645
0.133768
0.133603
0.133603
0.139027
0.143301
0.145273
0.14856
0.149053
0.146752
0.151025
0.151683
0.155792
0.156778
0.161544
0.16138
0.161051
0.167297
0.16779
0.167132
0.168776
0.172392
0.171077
0.170419
0.171734
0.172392
0.173049
0.177322
0.172885
0.175515
0.178802
0.17535
0.177651
0.181596
0.180116
0.183239
0.178144
0.186855
0.184225
0.184718
0.184718
0.183897
0.183239
0.183568
0.185212
0.186198
0.190635
0.187513
0.187841
0.189814
0.191621
0.188663
0.191786
0.186033
0.196059
0.194087
0.192936
0.193594
0.190142
0.192936
0.191457
0.191128
0.193265
0.192608
0.1908
0.195237
0.192772
0.194087
0.193758
0.195073
0.197703
0.199182
0.195895
0.192115
0.193265
0.194416
0.197538
0.190964
0.195073
0.193922
0.198853
0.196552
0.200004
0.198853
0.195895
0.198524
0.198689
0.199346
0.197867
0.197538
0.198031
0.196717
0.200168
0.199346
0.198031
0.203455
0.201976
0.199839
0.197374
0.201483
0.199018
0.19836
0.197374
0.20362
0.203455
0.202962
0.200168
0.199346
0.20099
0.197867
0.201154
0.200168
0.202798
0.198031
0.202305
0.201483
0.198524
0.115853
0.080845
0.066875
0.048631
0.057506
0.065231
0.070819
0.075092
0.083475
0.085447
0.08857
0.094487
0.102047
0.104184
0.111908
0.111415
0.114867
0.121277
0.124235
0.126372
0.128837
0.132617
0.135411
0.139849
0.139192
0.14593
0.145437
0.152669
0.153819
0.158586
0.156449
0.157928
0.16401
0.159243
0.160887
0.161544
0.164503
0.163352
0.167297
0.168283
0.169105
0.170913
0.172392
0.176008
0.177487
0.177815
0.179623
0.176829
0.180938
0.17913
0.181267
0.182089
0.181267
0.181924
0.182746
0.186691
0.186526
0.185047
0.183732
0.186855
0.185047
0.18817
0.188334
0.190964
0.193265
0.189156
0.190142
0.187513
0.189649
0.182582
0.193758
0.186526
0.190635
0.191457
0.190635
0.193265
0.190307
0.193101
0.193594
0.195237
0.192936
0.194087
0.193101
0.19195
0.194087
0.195895
0.193101
0.194416
0.185212
0.198689
0.190635
0.19458
0.192772
0.195073
0.194909
0.198524
0.196388
0.194744
0.197374
0.19195
0.201483
0.193101
0.195237
0.192279
0.195073
0.192608
0.198689
0.197045
0.195237
0.195402
0.194416
0.196717
0.193922
0.197867
0.199675
0.197867
0.196552
0.20099
0.198031
0.19836
0.198853
0.196717
0.196717
0.19836
0.192772
0.197703
0.197703
0.198689
0.20362
0.200004
0.199675
0.195566
0.199346
0.202469
0.198031
0.198524
0.200168
0.199511
0.197867
0.20477
0.201483
0.199839
0.200004
0.19836
0.19836
0.203784
0.197538
0.196881
0.19836
0.199839
0.197867
0.199839
0.198689
0.20099
0.197374
0.197045
0.200168
0.197374
0.19573
0.198689
0.194251
0.19836
0.200168
0.201812
0.203455
0.198196
0.204113
0.196881
0.201812
0.200332
0.200332
0.200825
0.200004
0.20099
0.20099
0.201154
0.199346
0.206742
0.200168
0.205756
0.196717
0.202798
0.198853
0.199839
0.199182
0.201483
0.199511
0.199675
0.208879
0.197538
0.205592
0.197045
0.200497
0.199839
0.199839
0.196388
0.199839
0.197867
0.19573
0.195402
0.201483
0.202633
0.202962
0.20362
0.202633
0.203291
0.198031
0.200497
0.198524
0.201319
0.186855
0.197045
0.197703
0.202633
0.200497
0.200497
0.199346
0.199675
0.202305
0.201319
0.202305
0.19195
0.202962
0.199346
0.202469
0.201483
0.201812
0.199839
0.199018
0.202469
0.204277
0.200004
0.200332
0.202469
0.195402
0.201812
0.200168
0.201483
0.199511
0.201976
0.201647
0.195073
0.196881
0.201154
0.195895
0.199018
0.202305
0.198689
0.20099
0.199839
0.199018
0.199511
0.198524
0.201976
0.202798
0.199511
0.201483
0.200004
0.206085
0.199675
0.198853
0.200004
0.199346
0.201812
0.195566
0.196552
0.198196
0.199675
0.199182
0.202469
0.199018
0.20099
0.200168
0.20099
0.204606
0.202633
0.198853
0.20362
0.199511
0.199182
0.204113
0.201154
0.200332
0.201812
0.199346
0.20099
0.202469
0.200004
0.203948
0.199675
0.20099
0.201319
0.200168
0.201154
0.199018
0.203291
0.201319
0.20099
0.201812
0.199511
0.198196
0.197703
0.200168
0.202305
0.198524
0.200497
0.199018
0.203291
0.200332
0.197867
0.20099
0.200661
0.198853
0.195566
0.196717
0.200168
0.202633
0.200168
0.202962
0.199839
0.202798
0.200004
0.200497
0.20099
0.198524
0.201319
0.200661
0.200825
0.203126
0.199182
0.198196
0.203455
0.201154
0.204441
0.199346
0.202305
0.199839
0.201319
0.200332
0.200497
0.200497
0.197045
0.201812
0.206414
0.203291
0.200332
0.204113
0.198853
0.202798
0.203784
0.201812
0.199675
0.201976
0.200168
0.20214
0.201154
0.197867
0.197538
0.200497
0.201319
0.198196
0.199182
0.198031
0.204606
0.201483
0.207071
0.200168
0.203455
0.202962
0.20099
0.201976
0.196717
0.200661
0.201483
0.201483
0.199182
0.203948
0.199839
0.201319
0.200004
0.201483
0.198853
0.201812
0.203126
0.202305
0.204441
0.201647
0.203291
0.200497
0.200825
0.197538
0.202962
0.199839
0.205099
0.201812
0.203126
0.205592
0.199511
0.203126
0.208879
0.201154
0.203784
0.203948
0.201319
0.201483
0.204113
0.203291
0.199675
0.201483
0.200332
0.203784
0.19836
0.203126
0.206907
0.203291
0.204934
0.208222
0.205921
0.202798
0.206085
0.204277
0.204934
0.202469
0.204113
0.202962
0.205756
0.200825
0.203784
0.203126
0.205921
0.20477
0.209208
0.20477
0.207071
0.205099
0.203291
0.205263
0.20214
0.206414
0.203784
0.205592
0.201483
0.202633
0.200825
0.202962
0.19721
0.200332
0.198524
0.197374
0.210523
0.203126
0.202305
0.201483
0.206249
0.199018
0.203948
0.202305
0.201483
0.200168
0.198031
0.20099
0.199018
0.197703
0.199018
0.201812
0.198524
0.20214
0.199675
0.197045
0.199511
0.19836
0.200497
0.20214
0.200497
0.200168
0.199675
0.199182
0.197703
0.201483
0.197703
0.192443
0.199675
0.198031
0.199675
0.196223
0.19836
0.19836
0.19721
0.197867
0.199346
0.197703
0.199675
0.198031
0.198689
0.197045
0.19195
0.195895
0.194744
0.195073
0.19721
0.199511
0.195566
0.19573
0.199018
0.200004
0.19721
0.200497
0.193429
0.197538
0.196388
0.192772
0.192608
0.186033
0.19458
0.192115
0.189485
0.17535
0.136726
0.127687
0.123413
0.126207
0.123906
0.12555
0.124235
0.119797
0.122592
0.082817
0.056356
0.002282
0.000639
-0.001991
0.003597
0.003926
-1.9e-05
0.000803
0.000474
0.00146
0.00146
-1.9e-05
0.001132
0.00146
0.002447
0.00146
0.001789
-0.001005
0.000803
0.001132
0.00031
0.00031
0.000474
-0.001498
0.001132
-0.000183
0.000146
0.000146
0.000803
0.00146
-0.000676
0.001625
0.000639
0.002447
-0.003306
-0.000183
0.000146
0.000967
-0.002155
0.000967
-0.000183
0.000967
-0.002155
-0.002155
0.002447
0.000803
0.001132
-0.001662
0.00146
0.000967
0.001296
0.000967
0.001789
0.000146
-0.000512
-0.001005
0.000146
-0.002155
-0.001991
0.000803
-0.000841
-1.9e-05
-0.000512
0.001296
0.000474
-0.001498
-0.001169
0.001789
-0.001498
-0.000347
-0.000512
0.000967
-0.001662
-0.001662
-1.9e-05
0.000146
-0.001827
-0.001169
-1.9e-05
-0.002484
0.000146
0.000146
0.000639
-0.000512
0.00031
-0.001169
0.00146
-0.001334
-0.000183
-0.000841
-0.000841
-0.000676
-0.001005
-0.001169
-0.000347
-0.001827
0.000146
-0.000183
-0.001498
0.000474
-0.001334
-0.000676
-0.001169
0.000146
-0.000512
-0.000183
-0.000183
-0.000183
-0.001005

Kurve 7

-0.00232
-0.001169
-0.002813
0.001296
0.00146
-0.001169
0.002118
0.000474
0.001789
0.00935
0.003268
-0.000841
0.003597
0.000474
0.000967
0.002447
-0.001498
-0.001498
0.007377
-0.002977
0.008692
-0.001991
-0.001827
0.002611
-0.001498
-0.000183
-0.001005
0.00146
0.002447
0.003104
0.001296
0.003104
-0.001991
0.001789
0.003597
0.002611
-0.001169
-0.002648
-0.000183
-0.000512
0.000639
-0.004128
-0.010538
-0.000512
-0.001005
-0.000676
0.00031
-0.000183
0.003268
-0.000841
0.000146
0.001132
-0.001334
-0.011852
-0.003963
-0.000676
-0.004621
-0.001498
-0.002813
0.001625
-0.001662
0.001789
0.000146
0.001296
-0.005278
-0.001498
0.000639
-0.002977
0.000474
-0.004128
-0.001991
-0.00347
0.001296
-0.005443
-0.003963
-0.00232
-0.002813
-0.001991
-0.002155
0.000146
-1.9e-05
-0.000841
-0.002648
0.001954
-0.001334
0.001954
-0.000512
0.000146
-0.002648
-0.001827
-1.9e-05
-0.001827
-0.004292
-0.00347
-0.00232
-0.002484
-0.000512
-0.000512
-0.000512
-0.001827
0.002282
-0.001334
0.000967
-0.001662
-0.002155
0.000474
-0.002813
-0.001005
-0.001005
-0.005114
0.00031
-0.001334
-0.001005
0.000146
-0.001334
-0.001827
-0.001169
-0.002648
-0.000347
-0.002813
-0.007415
-0.00232
-0.001498
-0.001662
-0.001827
-0.001334
-0.005114
0.001132
0.002118
-0.003142
-0.000841
-0.00232
-0.002977
-0.002977
0.00031
-0.001827
-0.000183
-0.002155
0.000474
0.000146
-0.000347
-0.000512
0.00031
-0.005278
-0.00347
-0.004456
-0.00347
0.00146
-0.00347
-0.001169
-1.9e-05
-0.002484
0.00031
0.003104
-0.003635
0.000146
-0.001827
-0.000841
-0.002977
-0.005114
0.000639
-0.003306
-0.000347
-0.00232
0.003104
-0.003142
-0.002977
-0.000512
-0.000676
-0.006593
-0.005607
0.000474
-0.000841
-0.000841
-0.001334
0.002282
-0.002648
0.000146
0.000146
-0.001827
-0.001169
0.004255
-0.001005
-0.000183
-0.003142
-0.001005
0.00146
-0.00232
-0.001991
-0.000183
0.000639
-0.002648
-0.001827
-0.000676
0.00031
0.000967
0.001954
-0.001498
-0.001827
-0.003142
-0.002977
-0.003306
-0.002648
-0.002155
-0.001334
0.000967
-0.001991
0.002447
-0.002813
-0.001169
-0.004621
-0.00232
-0.001498
-0.001662
-0.002648
0.000474
-0.001169
-0.004949
-0.00347
-0.00347
-0.001498
0.001625
-0.001334
-0.001169
0.001132
-0.001827
0.002118
-0.000183
0.000474
-0.001991
0.001625
-1.9e-05
-0.002977
-0.000512
-0.003306
-0.00347
-0.004621
0.00294
-0.00232
-0.001662
0.002447
-0.002155
-0.001334
0.002775
-0.001169
0.001789
-0.001498
-0.001827
0.002282
-0.002484
-0.001662
-0.002648
-0.002484
-0.004621
-0.000512
-0.001827
-0.002484
-0.001827
0.00031
0.000803
-0.001334
-0.00232
0.000146
0.000803
-0.006429
-0.001334
-0.002813
-0.003799
-0.004456
-0.004785
-0.00347
-0.000512
-0.007908
-0.002155
-0.001005
-0.001827
-0.002977
0.000474
-1.9e-05
-0.003142
-0.001334
-0.000841
-0.000183
-0.000676
-0.000512
-0.002813
-0.001498
-0.004292
-0.000183
-0.0061
-0.000183
-0.004128
0.004748
0.000474
-0.000347
0.000967
-1.9e-05
-0.002813
-0.001005
-0.000512
-0.003635
-0.001827
-0.004128
-0.001169
-0.004128
-0.001827
-0.004785
-0.001169
-0.002484
-0.001005
0.003761
-0.001169
-0.001169
-0.001005
0.001789
-0.00347
-0.001991
-0.004292
-0.001005
-0.004292
-0.002484
-0.004621
-0.00347
-0.006264
-0.004456
-0.001169
-0.003799
0.001625
-0.003306
-0.007086
-0.002155
-0.001169
-0.003142
0.00031
-0.001827
0.000146
0.000639
-0.001169
-0.002813
-0.000841
0.000146
-0.00347
-0.003306
-0.006757
-0.00232
-0.004785
-0.000512
-0.001827
0.000639
-0.00347
0.000146
0.001132
-0.003799
-0.000841
-0.000512
-0.003142
-0.004292
0.000967
-0.000841
-0.001662
-0.007744
0.00294
-0.001662
-0.00232
-0.001334
-0.002484
-0.005114
-0.001662
-0.000841
-0.001169
-0.001827
-0.005114
-0.001991
-0.005443
-0.005278
-0.001169
-0.002484
-0.002977
0.00031
-0.004292
-0.000183
-0.003142
-0.00232
-0.001662
0.000639
-0.002155
-0.001662
0.000146
-0.002813
-0.001005
-1.9e-05
-0.001169
-0.006429
-0.001169
-0.004621
0.002118
-0.002813
-0.003142
-0.002977
-0.003635
-0.001991
0.00146
-0.000183
-0.000183
-0.002484
-0.001169
0.004912
-0.002484
-0.002155
-0.003306
-0.005771
-0.006593
-1.9e-05
-0.004621
-0.002977
-0.001169
-0.003306
-0.001334
-0.001169
-0.002648
-0.005114
-0.002648
-0.003635
-0.000183
-0.003963
0.00146
-0.000347
0.003433
0.00146
-0.003963
-0.001662
-0.00347
-0.002155
-0.002648
-0.001005
-0.002484
-0.000841
-0.006757
0.000967
-0.001991
-0.004456
0.000146
-1.9e-05
0.000967
-0.001662
-0.001827
-0.003963
-0.002977
-0.002484
-0.001498
0.001789
-0.005114
-0.00232
-0.001662
-0.002813
-0.000183
-0.002813
-0.00232
-0.001334
-0.003142
0.005405
0.00146
-0.006757
-0.000183
-0.003799
-0.005114
-0.001005
-0.003799
-0.005771
-0.003306
-0.001498
-0.003635
0.002775
-0.005607
0.003104
0.005076
0.000146
0.002118
-0.000183
-0.002977
-0.001498
-0.000512
-0.001662
0.00294
-0.004128
0.001954
0.00146
0.000474
-0.000512
-0.001334
-0.002484
0.000146
0.000146
-0.001991
-0.002484
0.001954
-0.001991
-0.001827
-0.001662
-0.00232
-0.000183
-0.005771
-0.001334
-0.005278
-0.003963
-0.009551
-0.001827
-0.00347
0.000474
-0.003799
-0.000841
0.000967
-0.002813
-0.000183
-0.001005
0.001954
-0.011359
-0.001005
-0.001991
-0.005771
-0.006922
-0.003142
-0.001169
-0.00232
-0.000183
0.000146
-0.000841
-0.012346
-1.9e-05
-0.003142
0.000146
-0.001827
0.00031
-0.001827
-0.001334
-0.002648
-0.005607
-0.001991
-0.013332
-0.004621
-0.004292
-0.004292
-1.9e-05
-0.001005
-0.001498
-0.001169
-0.003142
0.002611
-0.003963
-0.003142
-0.001169
-0.00347
-0.00232
-0.002155
-0.002977
-0.002977
-0.002813
-0.001827
-0.000183
-0.001991
-0.002155
-0.000841
-0.001827
-0.001827
0.001132
-0.00232
-0.003799
-0.000841
0.000474
-0.00347
-0.00232
-0.004949
-0.00347
-0.000676
-0.003142
0.000146
-0.000676
-0.002977
-0.001334
0.000639
-1.9e-05
0.000803
0.000967
-0.001005
-0.001334
-0.004128
-0.001005
-0.003635
-0.002155
-0.002648
-0.000676
-0.003142
-0.000183
-0.001991
-0.002648
0.000639
-0.000347
-1.9e-05
0.003597
-0.001498
-0.000841
0.00146
-0.000512
-0.001827
-0.003635
-1.9e-05
-0.004456
-0.001334
-0.001827
-0.001498
-0.00232
-0.00232
-0.000183
-0.000512
-0.002813
0.000639
-0.002484
-0.009716
-0.000512
-0.002484
-0.002155
-0.005607
-0.001991
-0.000676
-1.9e-05
-0.001827
0.000146
-0.001991
-0.003142
-0.001334
-0.000676
0.000967
0.00031
-0.001827
0.000967
0.006556
0.000639
0.000146
0.004255
-0.002813
-1.9e-05
-0.001498
-0.001662
-0.001991
-0.005443
-0.001662
-1.9e-05
-0.001005
0.00031
-0.000347
-0.001662
-0.001169
-0.002648
-0.002648
-0.001334
-0.001334
0.000639
-0.001169
-0.00347
0.001296
0.000803
-0.004621
-0.00232
-0.001827
-0.001334
0.000639
-0.001827
0.005569
0.000967
0.000474
-0.002813
0.000474
-0.003142
0.000967
-0.000183
-0.004292
-0.001169
-0.004456
-1.9e-05
-0.000841
-0.000512
-0.002813
0.00146
-0.00232
-0.001334
-0.004128
-0.001334
-0.005607
-0.003799
-0.000512
-0.000183
0.00031
-0.001827
0.006062
-0.003142
0.000803
-0.003306
-0.000183
-0.001169
-0.001498
-0.000512
-0.001334
-0.003635
-1.9e-05
0.001132
-0.000183
-0.000676
-0.000183
0.000639
-0.001827
-0.000841
0.000967
-0.001498
-0.005114
-0.001662
-0.004292
-0.004949
-0.007415
-0.001991
0.000803
-0.001827
-0.002648
0.002282
0.000967
0.000967
0.002447
-1.9e-05
0.00146
-0.001334
0.001296
-0.002977
-0.001827
-0.002977
0.000803
-0.004949
0.00031
-0.000676
0.000803
0.003597
0.001296
0.000639
0.000803
0.000967
-1.9e-05
0.000803
-0.000676
0.001625
0.001625
0.001132
-0.002155
-0.003963
0.001132
0.008199
0.019047
0.027265
0.035154
0.040249
0.047316
0.053069
0.062108
0.064902
0.071805
0.074599
0.082324
0.085776
0.092021
0.093665
0.097116
0.095473
0.101061
0.11158
0.110265
0.118976
0.121605
0.124235
0.130645
0.132617
0.135083
0.138699
0.138534
0.142807
0.144122
0.145273
0.144615
0.151683
0.155134
0.155463
0.157928
0.159901
0.155792
0.15875
0.162366
0.163845
0.165324
0.164503
0.170255
0.167132
0.171734
0.174364
0.176172
0.173378
0.172063
0.174528
0.176336
0.176336
0.176008
0.179459
0.182089
0.176829
0.183075
0.186198
0.183239
0.183732
0.184061
0.188334
0.187348
0.184718
0.187677
0.183239
0.184225
0.187348
0.188499
0.186033
0.192608
0.189978
0.186526
0.189485
0.191786
0.190964
0.192936
0.192443
0.191786
0.193922
0.196223
0.196223
0.194087
0.194251
0.191128
0.194744
0.190307
0.198196
0.193429
0.196059
0.195073
0.193429
0.195073
0.193594
0.198031
0.164338
0.059643
0.003926
0.002118
-0.002648
0.005405
0.012472
0.021512
0.026771
0.035811
0.043207
0.047152
0.054383
0.060958
0.065231
0.038276
0.047152
0.051918
0.055205
0.066381
0.074928
0.076407
0.080187
0.083639
0.088241
0.093665
0.099253
0.101554
0.105005
0.109279
0.116182
0.118154
0.11914
0.121934
0.124399
0.127358
0.12933
0.130645
0.131796
0.130316
0.140178
0.143465
0.146259
0.147574
0.146588
0.150039
0.152998
0.153984
0.1576
0.156449
0.160229
0.161215
0.165817
0.164831
0.169433
0.169762
0.171077
0.172392
0.174035
0.173049
0.175021
0.174364
0.178473
0.180445
0.182253
0.182253
0.18061
0.182582
0.182089
0.184554
0.186526
0.188006
0.186198
0.190471
0.194416
0.18932
0.189978
0.191293
0.191621
0.192115
0.193594
0.193101
0.196223
0.191457
0.194416
0.196388
0.195237
0.198524
0.197374
0.193429
0.198524
0.198853
0.198031
0.196881
0.194909
0.203126
0.200497
0.203455
0.20099
0.202305
0.200168
0.200825
0.200332
0.202469
0.20214
0.19836
0.203455
0.204606
0.202633
0.202305
0.20362
0.201812
0.202305
0.201154
0.203455
0.202469
0.199839
0.200825
0.200661
0.199839
0.199675
0.201812
0.201483
0.201812
0.202633
0.202633
0.200168
0.20214
0.199675
0.200168
0.20099
0.205099
0.195566
0.197538
0.197045
0.196552
0.191621
0.196059
0.197538
0.191293
0.197703
0.196881
0.195895
0.193265
0.202305
0.195895
0.193265
0.196059
0.193429
0.192772
0.194087
0.192443
0.191128
0.135576
-0.012017
0.00146
0.006391
0.013294
0.022005
0.033674
0.035154
0.045344
0.051425
0.054219
0.066053
0.064574
0.070819
0.076572
0.079694
0.081009
0.087912
0.092186
0.096952
0.099417
0.107635
0.11536
0.113223
0.117168
0.122427
0.122427
0.127687
0.13196
0.130974
0.135904
0.136726
0.13952
0.139027
0.14215
0.14478
0.149217
0.146259
0.15234
0.154312
0.158914
0.160887
0.160558
0.163845
0.156778
0.162366
0.165653
0.166968
0.166475
0.168118
0.168612
0.170255
0.171077
0.17157
0.172227
0.164503
0.174035
0.177322
0.179459
0.183897
0.181267
0.180445
0.183897
0.180445
0.185376
0.183075
0.177487
0.178144
0.187677
0.178637
0.182253
0.186033
0.187677
0.186855
0.189485
0.188827
0.191293
0.191457
0.1908
0.193429
0.189978
0.193758
0.191128
0.188827
0.192443
0.194251
0.192279
0.195895
0.193429
0.193265
0.19573
0.194416
0.193101
0.195237
0.197045
0.192772
0.200825
0.195566
0.199839
0.19836
0.198689
0.199346
0.201812
0.199839
0.198689
0.19836
0.198689
0.200168
0.199346
0.205592
0.201319
0.20362
0.202305
0.203126
0.20099
0.204113
0.197703
0.199346
0.203291
0.203455
0.20362
0.203291
0.207893
0.203455
0.207893
0.20477
0.206414
0.205427
0.205427
0.207564
0.208057
0.204934
0.209372
0.203948
0.207071
0.207564
0.206249
0.209372
0.206907
0.208057
0.20855
0.210029
0.204113
0.210687
0.211344
0.209372
0.212495
0.210523
0.21233
0.211344
0.216604
0.210523
0.214303
0.208386
0.215453
0.215125
0.212166
0.209043
0.21233
0.211016
0.212824
0.211509
0.215289
0.213974
0.216111
0.215453
0.215946
0.212166
0.215289
0.21759
0.21381
0.21759
0.213645
0.219069
0.21759
0.21759
0.215946
0.219727
0.216111
0.216111
0.216604
0.221863
0.217919
0.21381
0.219398
0.217919
0.218083
0.217426
0.221534
0.21759
0.220713
0.217754
0.216932
0.219398
0.221206
0.216439
0.216932
0.216932
0.21496
0.217919
0.214467
0.215125
0.21496
0.215289
0.213481
0.212824
0.216111
0.216932
0.210194
0.211016
0.209043
0.207235
0.207893
0.206414
0.205427
0.202305
0.203291
0.202962
0.205263
0.20099
0.201976
0.20099
0.202798
0.198689
0.200661
0.198196
0.196388
0.194416
0.197538
0.193922
0.194087
0.190635
0.191786
0.188663
0.186855
0.18817
0.186526
0.191128
0.184225
0.189485
0.18554
0.186855
0.184061
0.183239
0.185376
0.178473
0.181103
0.179788
0.177322
0.17798
0.183075
0.177158
0.179952
0.177815
0.179952
0.181596
0.182417
0.181596
0.178144
0.181103
0.176829
0.179459
0.177158
0.179952
0.178473
0.183568
0.169598
0.178637
0.060629
0.066381
0.006062
0.011486
0.001954
0.010336
0.00146
0.008035
0.017732
0.022005
0.030059
0.035811
0.041728
0.045672
0.01428
0.021676
0.025621
0.032031
0.040084
0.04748
0.054055
0.059807
0.063259
0.070162
0.076243
0.079366
0.085283
0.08594
0.091364
0.095308
0.09876
0.107635
0.105334
0.113059
0.114209
0.116839
0.118154
0.124235
0.132946
0.131796
0.133932
0.136891
0.137219
0.142314
0.143958
0.144451
0.145602
0.146259
0.153326
0.155463
0.153984
0.157435
0.157764
0.161873
0.161873
0.163023
0.165982
0.166968
0.165324
0.173049
0.170091
0.172392
0.17157
0.175515
0.178473
0.176829
0.177487
0.177651
0.176665
0.176829
0.181267
0.17913
0.181103
0.179623
0.185705
0.182582
0.185376
0.17913
0.186691
0.187348
0.186033
0.189978
0.187513
0.186855
0.188006
0.189649
0.182911
0.186526
0.187184
0.190964
0.188827
0.191293
0.192115
0.194416
0.192279
0.192936
0.192115
0.190142
0.196881
0.192608
0.192279
0.192443
0.19458
0.196717
0.195402
0.194744
0.196717
0.19458
0.195895
0.196717
0.19573
0.199511
0.197703
0.196388
0.199018
0.20099
0.199839
0.200497
0.19721
0.19836
0.196552
0.197045
0.197045
0.197538
0.197045
0.200004
0.198853
0.196717
0.201154
0.201647
0.199182
0.198689
0.200825
0.197045
0.200825
0.198689
0.198196
0.19721
0.198853
0.196881
0.196223
0.201976
0.19721
0.198853
0.199182
0.197374
0.201483
0.198853
0.197867
0.196059
0.197703
0.20099
0.19573
0.198196
0.194909
0.198524
0.200332
0.199346
0.196552
0.199346
0.198031
0.199839
0.200497
0.199346
0.200332
0.197867
0.197538
0.197374
0.200661
0.19836
0.203126
0.200661
0.200497
0.198689
0.200497
0.197703
0.199675
0.201154
0.201154
0.204113
0.19573
0.199675
0.199839
0.201154
0.200825
0.205592
0.20099
0.200661
0.201483
0.200332
0.201976
0.197045
0.198853
0.199346
0.200825
0.197867
0.198031
0.192608
0.194909
0.199346
0.200004
0.198196
0.199511
0.200168
0.202469
0.201319
0.201319
0.197703
0.200332
0.200497
0.194744
0.201483
0.196552
0.199675
0.199346
0.200332
0.200661
0.199839
0.198853
0.202305
0.198196
0.203455
0.199675
0.198031
0.202305
0.20214
0.200661
0.199675
0.205427
0.194251
0.198031
0.19721
0.197374
0.199018
0.200825
0.202633
0.202798
0.201976
0.201812
0.202962
0.19836
0.200004
0.19836
0.200004
0.199511
0.19721
0.194909
0.20099
0.20214
0.198196
0.201154
0.203126
0.199511
0.202798
0.199839
0.200168
0.20362
0.199018
0.203948
0.200004
0.201319
0.200661
0.199675
0.198524
0.200332
0.196881
0.20099
0.20477
0.199675
0.20214
0.202798
0.200497
0.200004
0.200825
0.199839
0.201319
0.199839
0.201812
0.199346
0.199511
0.199018
0.193594
0.199511
0.197045
0.199346
0.199346
0.201154
0.201154
0.201154
0.200497
0.200661
0.200497
0.201154
0.200497
0.203784
0.19836
0.19836
0.199182
0.19573
0.198524
0.198031
0.200497
0.198689
0.203948
0.197538
0.205756
0.196717
0.20099
0.197538
0.197538
0.201647
0.199839
0.201483
0.201319
0.203455
0.199675
0.207071
0.197703
0.199675
0.199675
0.201812
0.197045
0.191293
0.197045
0.20099
0.198689
0.203126
0.205921
0.199839
0.20099
0.199346
0.20099
0.199675
0.196717
0.198689
0.204441
0.196881
0.202305
0.196388
0.198031
0.198853
0.197374
0.205756
0.204277
0.201812
0.203455
0.201154
0.197374
0.201154
0.190964
0.197703
0.197374
0.199675
0.199182
0.201319
0.197374
0.199675
0.200332
0.20099
0.202633
0.187841
0.203784
0.199675
0.202305
0.19836
0.199511
0.201647
0.19836
0.201647
0.200497
0.198031
0.19721
0.201647
0.196881
0.200004
0.200004
0.200661
0.20099
0.200661
0.19836
0.201483
0.200497
0.201154
0.197374
0.200497
0.199675
0.201154
0.199511
0.202469
0.198853
0.198524
0.203291
0.201812
0.199511
0.199182
0.199675
0.200004
0.202305
0.19721
0.203126
0.19836
0.201647
0.200168
0.19836
0.198689
0.19836
0.199675
0.198524
0.200497
0.199182
0.200332
0.200168
0.20214
0.200332
0.201976
0.199346
0.199839
0.200661
0.200825
0.201483
0.202305
0.197703
0.200497
0.204277
0.201319
0.201319
0.200168
0.203291
0.199182
0.200497
0.19836
0.201319
0.199511
0.199675
0.201319
0.197374
0.204934
0.198853
0.203948
0.199182
0.200004
0.200168
0.198689
0.203291
0.201154
0.200004
0.199346
0.19836
0.199018
0.203126
0.202798
0.20099
0.200661
0.201976
0.201154
0.200661
0.198524
0.20099
0.199182
0.201647
0.199511
0.201154
0.198524
0.199511
0.200168
0.200497
0.20099
0.201483
0.20099
0.200825
0.199839
0.20855
0.198524
0.201319
0.204934
0.200332
0.204606
0.199182
0.201812
0.200825
0.199839
0.199839
0.201647
0.199182
0.199018
0.199511
0.199839
0.20099
0.197538
0.20477
0.200004
0.199346
0.196223
0.199839
0.19195
0.197045
0.196388
0.198689
0.199839
0.195237
0.201976
0.201319
0.201976
0.200661
0.202798
0.200497
0.202469
0.202305
0.204277
0.200004
0.19836
0.202798
0.201976
0.199018
0.198524
0.201319
0.196717
0.201812
0.200004
0.200004
0.197703
0.197867
0.199675
0.200168
0.199346
0.196717
0.201483
0.199511
0.200168
0.197538
0.198689
0.19836
0.199018
0.200825
0.20099
0.199839
0.200825
0.201154
0.200332
0.200661
0.204113
0.201647
0.20362
0.203455
0.205921
0.204113
0.199182
0.200825
0.202633
0.196881
0.198853
0.200168
0.199675
0.200332
0.203784
0.203291
0.201812
0.202469
0.20099
0.201483
0.201976
0.200332
0.201483
0.200497
0.199839
0.202798
0.203126
0.201154
0.201647
0.201319
0.202962
0.200497
0.206742
0.202469
0.202305
0.200661
0.205427
0.203784
0.20099
0.204277
0.195402
0.203291
0.200825
0.200332
0.200825
0.198524
0.201976
0.204277
0.203784
0.202469
0.203455
0.205921
0.203784
0.202798
0.201812
0.195237
0.197374
0.19836
0.203291
0.200825
0.198031
0.200825
0.200825
0.200497
0.201319
0.201812
0.199018
0.202469
0.200332
0.203291
0.203455
0.20362
0.198524
0.205099
0.199675
0.201812
0.199675
0.20214
0.199182
0.197538
0.200497
0.199839
0.200825
0.201319
0.207564
0.203455
0.202798
0.200497
0.197374
0.204113
0.202633
0.200661
0.201647
0.200661
0.199018
0.203784
0.202962
0.197374
0.19836
0.202962
0.200332
0.20099
0.197703
0.200497
0.199182
0.201483
0.202305
0.20099
0.199018
0.203126
0.200004
0.198524
0.200825
0.198853
0.199675
0.200004
0.201647
0.198524
0.201647
0.19836
0.199346
0.204441
0.198853
0.199511
0.203948
0.199346
0.201976
0.204934
0.202798
0.201154
0.198524
0.201483
0.199675
0.19836
0.201319
0.201812
0.19721
0.205921
0.202305
0.202798
0.202305
0.201319
0.200332
0.200825
0.201812
0.196223
0.202962
0.198524
0.202469
0.197374
0.19836
0.196223
0.199675
0.199511
0.196059
0.200825
0.201483
0.198524
0.197703
0.202469
0.203948
0.201154
0.199839
0.202305
0.200661
0.201976
0.20214
0.201647
0.198524
0.200661
0.206414
0.200825
0.201976
0.203126
0.201976
0.201647
0.202305
0.198689
0.206085
0.200661
0.199018
0.202962
0.203455
0.200825
0.199018
0.199018
0.200168
0.197867
0.200825
0.200497
0.198689
0.199675
0.201976
0.199839
0.202633
0.204934
0.20099
0.200497
0.200825
0.199675
0.195402
0.206085
0.199839
0.200661
0.205099
0.192936
0.200332
0.197374
0.200825
0.195237
0.199675
0.200661
0.201483
0.200825
0.204606
0.200004
0.204277
0.209865
0.198031
0.201976
0.200661
0.200825
0.201154
0.201976
0.199839
0.201483
0.197374
0.203126
0.202798
0.200004
0.199839
0.201483
0.201319
0.205427
0.203948
0.197045
0.202962
0.201647
0.200168
0.191786
0.201154
0.197703
0.202633
0.199675
0.201483
0.20214
0.202633
0.201812
0.20099
0.205263
0.19836
0.202633
0.202798
0.20362
0.201976
0.20099
0.200661
0.206249
0.199839
0.203126
0.197045
0.200168
0.200497
0.201647
0.202305
0.202633
0.20214
0.20099
0.202633
0.202633
0.203291
0.201976
0.205592
0.198196
0.200004
0.199182
0.205921
0.200825
0.201976
0.201483
0.200661
0.201483
0.200661
0.204277
0.204113
0.199675
0.199675
0.203291
0.199182
0.201976
0.200825
0.200661
0.201319
0.20099
0.200004
0.199346
0.197374
0.200661
0.202305
0.203784
0.206414
0.202962
0.204606
0.201154
0.202798
0.198853
0.202962
0.199675
0.195566
0.198031
0.202305
0.19836
0.20099
0.202962
0.201319
0.20214
0.201647
0.201319
0.199511
0.203948
0.201812
0.203291
0.201319
0.203291
0.202469
0.199182
0.201976
0.201483
0.203784
0.198031
0.202305
0.200004
0.200168
0.201647
0.20362
0.201647
0.203126
0.204441
0.201812
0.203291
0.199839
0.201319
0.202798
0.200332
0.199511
0.201319
0.201647
0.205099
0.201154
0.204606
0.202962
0.203126
0.199839
0.201154
0.200825
0.201812
0.201319
0.197867
0.198196
0.199675
0.198689
0.201319
0.201483
0.201319
0.202962
0.199182
0.203126
0.199182
0.200004
0.202962
0.201483
0.202305
0.205427
0.199839
0.202305
0.196223
0.200004
0.202469
0.196223
0.201319
0.20214
0.202962
0.200497
0.2074
0.202469
0.198524
0.200332
0.200825
0.199675
0.201319
0.202305
0.202469
0.201812
0.200004
0.205263
0.199018
0.201154
0.200004
0.202633
0.200004
0.201812
0.199675
0.200661
0.200332
0.198689
0.200661
0.197374
0.200825
0.199675
0.203291
0.200825
0.202305
0.20362
0.203126
0.20214
0.201647
0.200825
0.200332
0.199511
0.201812
0.202305
0.199018
0.202469
0.202305
0.203784
0.202798
0.201976
0.201319
0.201319
0.203126
0.202798
0.202798
0.203455
0.20099
0.2074
0.201647
0.201812
0.201647
0.199839
0.201647
0.196881
0.200332
0.200661
0.200004
0.200168
0.203784
0.20214
0.202469
0.202798
0.203455
0.201976
0.201319
0.200825
0.199018
0.20099
0.195073
0.201483
0.198689
0.197538
0.200168
0.200332
0.199018
0.205592
0.200497
0.20214
0.20362
0.199511
0.203126
0.200825
0.202633
0.20099
0.202962
0.19836
0.200332
0.201976
0.202305
0.20214
0.202469
0.202469
0.203784
0.202962
0.203126
0.204606
0.201976
0.204277
0.19836
0.200332
0.200332
0.197867
0.199346
0.202633
0.198689
0.200825
0.20214
0.203455
0.202962
0.203455
0.201647
0.201647
0.202469
0.2074
0.204277
0.201483
0.198689
0.19836
0.196223
0.196388
0.199675
0.199182
0.199675
0.196552
0.199839
0.199511
0.202469
0.202633
0.201319
0.203291
0.195237
0.205921
0.201154
0.201483
0.201812
0.201483
0.197045
0.201976
0.200168
0.200332
0.200661
0.200497
0.203126
0.201812
0.203784
0.201483
0.204441
0.199018
0.201647
0.198853
0.202798
0.20099
0.196388
0.199675
0.201319
0.199675
0.20362
0.204606
0.20099
0.197867
0.20099
0.204113
0.200004
0.205592
0.200332
0.205756
0.195895
0.202962
0.202633
0.200168
0.199018
0.199018
0.202469
0.197538
0.196717
0.201812
0.203455
0.200661
0.20362
0.201647
0.202633
0.201154
0.205592
0.20099
0.201483
0.199675
0.19836
0.20099
0.199839
0.203291
0.201483
0.202305
0.200168
0.203291
0.201647
0.201647
0.197867
0.197374
0.20099
0.203126
0.202305
0.199511
0.203784
0.198853
0.203455
0.201483
0.200661
0.200497
0.202469
0.200825
0.200168
0.200497
0.197374
0.197867
0.202798
0.204113
0.199675
0.202633
0.196388
0.202469
0.200825
0.200332
0.198196
0.197703
0.200661
0.206578
0.200004
0.203455
0.20099
0.199511
0.199675
0.200332
0.201812
0.201976
0.200661
0.201154
0.201647
0.200168
0.201976
0.199346
0.202305
0.198689
0.197538
0.199018
0.198031
0.195402
0.196223
0.19836
0.196717
0.201483
0.196717
0.194251
0.193101
0.194087
0.19195
0.19458
0.190471
0.192936
0.188499
0.188006
0.187348
0.183404
0.182746
0.178802
0.181431
0.178966
0.179459
0.176008
0.171406
0.174528
0.17157
0.150204
0.030387
0.000146
0.000474
0.005405
-0.000183
0.002282
0.001132
-0.000676
0.004748
0.004748
0.008363
0.018389
0.025128
0.030552
0.035482
0.046001
0.05011
0.056356
0.060629
0.067203
0.071148
0.074271
0.081174
0.083639
0.087912
0.092679
0.094815
0.101061
0.103855
0.105992
0.11158
0.113552
