Ladekurvenmessung

Zeit: 2018_05_04 09.55.27

Info: FVA3, v = 0.248, T = 23, F = 20, h = 198.9

Ladewiderstand[Ohm]: 1012700

Störkapazität[pF]: 0.000000

Entladezeit[ms]: 200

Abtastrate[Hz]: 250000

Anzahl der Messwerte: 2500.000000

Verzögerung[ms]: 3

Ladespannung[V]: 0.200000


Kurve 1

0.000967
0.000967
-1.9e-05
0.000967
-1.9e-05
0.000967
-0.001169
0.001296
-0.00232
-0.000512
0.000639
-0.005114
0.00031
0.000967
0.002118
0.000803
0.001625
-0.001498
0.00031
0.00031
-0.000183
-0.002484
0.000474
-0.002155
-0.002813
-0.001662
-0.001334
-0.000183
-0.001827
0.003268
0.006062
0.005076
-1.9e-05
0.000639
-0.003799
-0.003635
0.00031
-0.002813
-0.008072
-0.001827
-0.001334
-0.001991
-0.001827
-0.000676
-0.001991
-0.001827
-0.001334
0.000967
0.002447
0.00031
0.003761
-0.000676
0.00031
0.000474
-1.9e-05
0.001132
-0.002155
-0.004949
-0.002484
-0.000841
-0.001498
-0.002484
0.000639
-0.000841
-1.9e-05
0.000474
0.00031
-0.000676
-0.001498
-1.9e-05
0.00146
-0.003142
-0.00232
-0.001498
-0.002155
-0.002813
0.000967
-0.002813
0.000803
-0.005114
-0.005607
0.000803
-0.000512
-0.001169
0.001625
-0.001827
-0.002484
-0.000183
-0.003306
-0.005278
-0.002977
-0.003799
-0.002155
-0.000512
-0.004292
0.000474
-0.001498
-0.002977
-0.001005
0.000474
-0.005607
0.00146
-0.001991
0.001296
-0.001169
-1.9e-05
-0.001005
-0.003142
-0.000676
-0.000183
-1.9e-05
-0.004785
-0.000183
-0.002484
-0.001169
-0.000676
-0.001169
-0.000676
0.00031
-0.002648
0.000967
0.00031
-0.004128
-0.000183
-0.003306
-0.000183
-0.002155
-0.001334
-0.003142
0.001132
-0.001827
-0.006922
-0.003963
-0.004128
-0.001169
-0.001991
-0.002648
-0.003635
0.000639
-0.000512
-0.000512
-0.001498
-0.000183
0.00031
-0.001827
-0.001827
-0.002977
-0.000841
-0.002155
-0.001005
0.002775
-0.001334
-0.003635
0.001789
-0.003306
0.000639
-0.002813
-0.001498
0.000639
-0.002155
-0.000676
-0.001334
-0.003306
-0.000676
-0.001169
-0.001005
-0.002155
-0.003635
-0.001498
-0.003306
-0.001334
-0.002484
0.00031
-0.001169
-0.001169
-0.000183
0.001625
-0.001005
-0.001334
-0.003799
-0.000676
0.001954
-0.001498
-0.001498
-0.003306
-0.001991
-0.004456
-0.006593
-0.004949
0.000639
-0.002813
0.001296
-0.001827
0.000803
0.000639
-1.9e-05
-0.000512
-0.000512
-0.000183
0.00031
-0.002648
-0.000347
0.001789
-0.004785
-0.004456
-0.001169
0.00031
-0.001169
0.001132
0.000146
0.000146
0.000967
-0.004621
-0.000841
0.000803
-0.001498
-0.004292
-0.001005
-0.00347
-0.005278
-0.001169
-0.003306
-0.002484
-1.9e-05
-0.002155
0.000474
-0.001498
-0.000347
-0.001498
-0.000347
-0.000841
-0.003306
-0.000183
-0.004621
-0.003142
-0.003799
-0.002484
-0.0061
-0.003799
-0.001334
-1.9e-05
-0.001662
0.001954
-0.00347
-0.001169
0.003104
-0.002813
0.000474
-0.003306
-0.005607
-0.003799
-0.002648
-0.007908
-0.003142
-0.004128
-0.001334
-0.00232
-0.001005
0.00031
-0.000512
0.000474
-0.000183
0.000474
-0.004128
-0.000512
-0.001827
-0.001334
-0.004949
-0.000676
-0.003306
-0.000512
-0.002484
-0.002648
-1.9e-05
-0.002155
0.003104
-0.001991
0.000474
-0.003306
-0.000841
-0.001991
-0.005278
-0.006757
-0.000676
-0.004292
-0.003306
-0.003142
-0.002813
-0.001498
-0.001169
-0.001169
-0.003142
0.000967
-0.001827
0.000967
0.000474
-0.000347
0.002118
-0.001498
0.000146
0.000146
0.000474
-1.9e-05
0.000967
0.001625
0.000474
-1.9e-05
-0.001334
-1.9e-05
-0.001169
-0.001991
-0.001991
-0.002484
0.000474
-0.003306
0.001132
0.00031
-0.000512
-0.000347
0.006062
-0.00232
-0.001662
-0.001498
-0.001498
-0.003142
-0.002484
0.00294
-0.000347
0.001132
-0.000183
0.003268
0.00146
0.000967
-0.001334
-1.9e-05
-0.003306
-0.004621
0.000639
-0.001498
-0.003635
-0.001169
0.004748
-0.003963
0.00031
-0.002813
-0.001005
-0.001827
-0.002648
0.004419
0.003597
0.003268
0.00146
0.001625
-0.002813
-0.00232
-0.000676
0.000639
-0.002813
-0.000347
-0.00232
-0.000512
-0.003306
-0.001827
-0.004621
-0.001334
0.000967
-0.000183
0.001132
0.00146
0.001132
-0.000512
0.001296
-0.002484
0.002282
-0.008894
-0.001169
-0.004621
-0.000183
-0.000841
-0.001334
-0.000347
0.000146
0.002447
0.001296
-0.000183
-0.004785
-0.001169
-0.002977
0.00294
-0.000676
0.000639
-0.000512
-0.000183
-0.001169
-0.001498
-0.002648
-0.004785
-1.9e-05
0.001132
-0.000512
0.000474
0.000474
0.000474
-0.000841
0.002447
-1.9e-05
-0.000512
-0.002484
-0.001662
-1.9e-05
-0.000841
-1.9e-05
-0.000512
0.000146
-0.000512
-0.000183
-0.000183
-0.000183
-0.001827
-0.000347
0.000146
0.000146
0.000803
0.00031
-0.000183
-0.000512
-0.000676
-0.001169
-0.000347
-0.001334
-0.000347
0.000474
0.000639
0.00031
0.000474
0.00031
-0.000183
-1.9e-05
-0.000676
-0.000676
-1.9e-05
-1.9e-05
0.00031
0.000146
-1.9e-05
0.000474
-0.001169
-0.001334
-0.000841
-0.001005
-1.9e-05
-0.000512
-0.000676
0.00031
0.00294
0.000146
0.000474
0.00031
-1.9e-05
-0.000512
-0.000183
-0.000841
-0.000512
-0.000183
0.00031
0.000146
0.000146
0.000474
0.000146
-1.9e-05
-0.000347
-0.000183
-0.000841
-0.000183
0.000146
0.000146
0.000474
-0.000183
-1.9e-05
0.000474
-0.000512
-0.000183
-0.000347
-0.000512
-0.000347
-0.000183
0.000146
0.00031
0.00031
0.000146
0.00031
-0.000183
-0.000183
-0.000512
-0.000676
-0.000676
-0.000512
-1.9e-05
0.00031
0.000146
0.000474
0.00031
-1.9e-05
-0.000183
-0.000512
-0.000512
-0.000512
-0.000183
0.000146
-1.9e-05
0.00031
0.000474
0.000146
-1.9e-05
-0.000347
-0.000512
-0.000347
-0.000841
-0.000183
-0.000183
-1.9e-05
0.00031
0.000474
0.00031
0.000146
-0.000347
-0.000347
-0.000512
-0.000347
-0.000347
-0.000183
0.00031
-1.9e-05
0.000474
0.000474
-1.9e-05
-0.000347
-0.000512
-0.000347
-0.000347
-0.000183
0.000146
0.000146
0.00031
0.00031
0.00031
0.000146
-0.000512
-0.000347
-0.000512
-0.000512
-0.000512
-1.9e-05
-0.000183
-1.9e-05
0.00031
0.00031
0.000146
-1.9e-05
-0.000512
-0.000512
-0.000676
-0.000347
0.000146
-1.9e-05
0.00031
0.00031
0.00031
-0.000183
-0.000183
-0.000347
-0.000676
-0.000676
-0.000347
-0.000183
0.000146
0.000474
0.00031
0.00031
-0.000183
-0.000183
-0.000347
-0.000512
-0.000512
-0.000183
-1.9e-05
0.000474
0.00031
0.00031
0.000146
-1.9e-05
-0.000183
-0.000347
-0.000347
-0.000512
-0.000347
0.000146
0.000146
0.00031
0.000474
0.000146
-1.9e-05
-0.000183
-0.000676
-0.000676
-0.000512
-0.000183
-1.9e-05
0.000146
0.000474
0.000146
0.000146
-1.9e-05
-0.000347
-0.000347
-0.000512
-0.000512
-0.000347
-1.9e-05
0.000146
0.000146
0.00031
0.00031
0.000474
-0.000183
-0.000347
-0.000512
-0.000512
-0.000183
0.00031
0.00031
0.000146
0.000474
0.000639
0.000146
-0.000512
-0.000347
-0.000841
-0.000512
-0.000676
0.00031
-0.000676
0.000474
-0.000347
-0.000183
-0.000841
0.001789
0.000967
-0.000676
-0.000841
-0.000841
0.001132
-0.002484
0.00146
-0.002155
0.005405
0.000967
-0.002648
-0.003142
-0.003799
-0.001991
-0.001334
-0.000347
-0.003142
-0.000347
-0.002648
0.000474
-0.000183
-0.00232
-0.000347
0.001296
-0.002648
-0.001169
-0.001498
-0.000676
-0.001169
-0.000841
0.000146
-0.003142
-0.000347
-0.001169
-0.001498
-0.003963
-0.000841
-0.005443
0.000146
0.000803
-0.003306
0.001296
-0.000676
0.00146
-0.000347
0.000803
0.000639
-0.000512
-0.002484
-0.002813
-0.001498
0.003433
-0.001005
-0.001334
0.002447
0.001625
-0.00232
0.00146
0.001954
0.000639
0.002118
-0.00347
-0.002648
-0.001334
-0.001169
-0.001662
0.00031
-0.003306
0.000146
-0.005771
-0.004456
0.00031
-0.00232
-0.000183
-0.000183
-0.001662
0.000639
0.002118
0.000967
-0.002484
-0.005278
-0.000676
-0.002813
-0.003142
-0.002484
0.003433
-0.003635
-0.001334
-0.000676
-0.001991
-0.001498
0.001132
-0.002155
0.001789
-0.00232
-1.9e-05
0.001954
-0.001498
0.001132
-0.000841
-0.001334
0.000967
0.002611
-0.001498
0.00409
0.010829
0.017896
0.026114
0.033017
0.039263
0.048302
0.045672
0.050603
0.060958
0.06293
0.069504
0.075092
0.069011
0.072627
0.07838
0.081831
0.087419
0.087584
0.094651
0.104348
0.105334
0.108457
0.110265
0.116839
0.115524
0.119962
0.124728
0.1267
0.130316
0.135083
0.134918
0.131302
0.121112
0.116346
0.102704
0.101225
0.097281
0.092021
0.090542
0.084625
0.065395
0.018061
0.017239
0.01313
0.003104
0.003268
0.003597
0.002775
0.00146
-1.9e-05
0.001132
0.000639
-0.000183
0.006227
0.008035
0.015924
0.01576
0.026114
0.033181
0.041399
0.045508
0.049453
0.056684
0.061451
0.067203
0.070983
0.076079
0.080681
0.085776
0.089885
0.095966
0.099089
0.10139
0.104677
0.108128
0.112237
0.115195
0.121277
0.123413
0.12818
0.129495
0.133439
0.132289
0.134097
0.137877
0.141164
0.137877
0.142807
0.13952
0.136069
0.13837
0.141657
0.134425
0.124399
0.115195
0.10895
0.093665
0.082817
0.079201
0.00146
0.002611
0.007213
0.013787
0.017896
0.020855
0.015924
0.014609
0.0105
0.009514
0.003268
0.003104
0.006391
0.005405
0.008528
0.005898
0.003926
0.000803
0.003268
-0.002155
0.003268
0.000639
0.00409
-0.000512
0.000967
0.002282
0.00409
0.001789
0.00146
0.001296
-0.001005
0.000803
-0.000841
0.002775
0.000803
0.003433
0.001132
0.002775
-0.000183
0.000639
0.000639
-0.000347
-0.001005
-0.000183
0.003597
0.004419
0.000474
0.001789
-0.000347
0.000146
0.000967
0.000967
0.001132
0.000803
0.001296
-0.002648
0.003597
0.002611
-0.000676
0.001954
-0.001334
0.002447
0.00031
0.00146
0.000967
0.00294
0.001132
0.001954
-0.001005
0.001132
0.000474
0.001132
0.00031
-0.000183
-0.000347
0.001789
0.00031
0.00031
0.000803
-0.001827
0.001296
0.001296
-1.9e-05
-0.001169
0.002282
0.00031
0.000639
0.000803
0.001296
0.000803
0.000639
0.00031
0.000967
0.000474
-0.000512
0.00031
0.000146
0.000474
0.000146
0.00031
0.000146
0.001132
0.000803
0.001625
-0.000183
-0.000347
0.001132
-0.001498
-1.9e-05
-0.000183
-0.000183
0.000639
0.00294
-1.9e-05
0.001132
0.00031
-0.000841
-0.000347
-0.000183
-1.9e-05
0.00031
-1.9e-05
0.000803
0.000474
0.00031
0.000803
-0.000676
0.000639
-0.000347
-0.000183
0.000639
0.000474
0.001296
0.000474
0.000639
0.000639
0.000967
-1.9e-05
-0.000183
0.000474
-0.000347
-0.000512
0.000146
0.000146
0.00031
-1.9e-05
0.000639
0.00031
0.00031
-0.000183
-0.000512
-0.000512
0.000967
0.00031
0.000639
0.000639
0.000474
0.000639
-1.9e-05
-0.000183
-0.000676
-0.000183
-0.000841
-1.9e-05
0.00031
-0.000347
0.000967
0.00031
0.000146
0.000803
-1.9e-05
0.000146
-0.000512
-0.000841
0.00031
0.000146
0.000474
0.000146
-1.9e-05
0.000803
-1.9e-05
-0.000512
-0.000512
-0.000676
-0.000512
0.000146
0.000639
0.000803
0.000146
0.000639
0.000639
0.000146
-0.000183
-0.000183
-0.000512
-1.9e-05
-0.000676
0.00031
-0.000183
0.000474
0.000967
0.00031
0.00031
-0.000183
-1.9e-05
-0.000512
-1.9e-05
-0.000183
0.00031
-1.9e-05
0.000474
0.000474
0.00031
-0.000183
-0.000512
-0.000676
-0.000347
-0.000676
-1.9e-05
0.000146
0.00031
0.001132
0.000146
0.00031
-0.000183
-1.9e-05
-0.000183
-0.000183
-0.000841
-1.9e-05
-1.9e-05
0.000474
0.00031
0.00031
0.00031
-0.000183
-0.000347
-0.000347
-0.000347
-0.001005
-1.9e-05
0.000146
0.000474
0.00031
0.000474
0.000803
-0.000183
-0.000183
-0.000347
-0.000347
-0.000512
-0.000183
-1.9e-05
0.000146
0.000146
0.00031
0.00031
0.000146
-0.000183
-0.000183
-0.000512
-0.000512
-0.000347
0.000146
0.000474
0.000146
0.000146
0.00031
-1.9e-05
-0.000347
-0.000347
-0.000183
-0.000347
-0.000183
0.000146
0.00031
0.00031
0.000474
0.00031
-1.9e-05
-0.000183
-0.000347
-0.000512
-0.000347
-0.000183
-1.9e-05
0.000146
0.000146
0.00031
0.00031
-1.9e-05
-1.9e-05
-0.000183
-0.000512
-0.000183
-0.000347
0.000474
0.000146
0.00031
0.00031
0.000146
0.000146
-1.9e-05
-0.000183
-1.9e-05
-0.000841
-0.000183
-1.9e-05
0.000146
0.000474
0.000474
0.000639
0.000146
-1.9e-05
-0.000347
-0.000183
-0.000347
-0.000347
0.000146
0.000474
0.000146
0.000146
0.00031
0.000146
0.000146
-0.000512
-0.000183
-0.000512
-0.000183
0.00031
0.000474
0.00031
0.000803
-1.9e-05
0.000639
-1.9e-05
0.000146
-0.001005
-1.9e-05
-0.000183
-0.000183
0.00031
0.000146
0.00031
0.000146
-0.000183
-1.9e-05
-0.000183
-0.000347
-0.000183
-0.000512
0.000474
-1.9e-05
-1.9e-05
0.000474
0.000639
-0.000512
-1.9e-05
-0.000183
-0.000512
-0.000512
-0.000183
-0.000183
0.00031
0.00031
0.000474
0.00031
0.000146
-0.000183
-0.000347
-0.000183
-0.000347
-0.000183
0.000146
0.00031
0.00031
0.000639
0.000146
-1.9e-05
-0.000183
-0.000512
-0.000183
-0.000512
-0.000183
0.000146
0.000474
0.00031
0.000146
0.000146
-0.000183
-0.000347
-0.000183
-0.000512
-0.000347
-0.000183
0.00031
0.00031
0.000146
0.00031
0.000639
0.000146
-0.000183
-0.000347
-0.000183
-0.000347
-0.000347
-1.9e-05
0.000146
0.000474
0.00031
0.00031
0.000146
-0.000512
-0.000347
-0.000347
-0.000512
-0.000183
-1.9e-05
0.000474
0.00031
0.00031
0.000639
0.000146
-0.000183
-0.000183
-0.000512
-0.000676
-0.000183
0.000146
0.00031
0.00031
0.00031
0.000474
0.000146
-0.000347
-0.000347
-0.000347
-0.000347
-0.000347
-1.9e-05
0.000146
0.000474
0.00031
0.00031
-1.9e-05
-0.000183
-0.000347
-0.000183
-0.000512
-0.000183
0.000146
0.000474
0.000474
0.000474
0.000474
0.000146
-0.000347
-0.000347
-0.000183
-0.000512
-0.000183
-1.9e-05
0.000146
0.00031
0.00031
0.000474
0.000146
-0.000183
-0.000512
-0.000347
-0.000347
0.006227
0.012308
0.021348
0.033017
0.039756
0.043371
0.048631
0.058657
0.059972
0.069011
0.070983
0.077065
0.079694
0.087912
0.08594
0.090542
0.096623
0.09876
0.107306
0.109607
0.114538
0.118318
0.123742
0.125386
0.12933
0.129988
0.134754
0.135247
0.138863
0.139192
0.144122
0.145766
0.146095
0.15119
0.15234
0.155134
0.153819
0.155627
0.160394
0.158093
0.162695
0.166146
0.163023
0.168612
0.170748
0.166639
0.166968
0.168283
0.169433
0.171241
0.172885
0.1742
0.178966
0.178473
0.179295
0.181924
0.183404
0.179295
0.182253
0.185376
0.181924
0.182746
0.182089
0.180774
0.182582
0.183404
0.177487
0.182253
0.185212
0.187677
0.186362
0.189156
0.186526
0.193429
0.188992
0.193101
0.190635
0.191457
0.189485
0.188992
0.187019
0.190142
0.189978
0.189156
0.194251
0.194416
0.197045
0.193101
0.19458
0.193101
0.194416
0.000803
0.003597
0.012144
0.012965
0.01428
0.01954
0.026771
0.035318
0.041399
0.046001
0.057671
0.062273
0.066875
0.07049
0.07575
0.078051
0.084132
0.091199
0.092186
0.099582
0.102869
0.105663
0.107964
0.113552
0.118318
0.11914
0.12177
0.127851
0.129659
0.133932
0.135247
0.135576
0.141493
0.142314
0.145273
0.14593
0.14856
0.151354
0.157271
0.15497
0.158257
0.158257
0.159901
0.160229
0.164996
0.165489
0.16779
0.164667
0.169762
0.169926
0.171241
0.17272
0.172392
0.172556
0.173214
0.17798
0.177158
0.179459
0.179295
0.181596
0.184061
0.178144
0.183732
0.182746
0.179952
0.183404
0.185376
0.184225
0.186691
0.185047
0.186198
0.187677
0.188006
0.185212
0.18817
0.189156
0.190635
0.191786
0.1908
0.187677
0.194744
0.190964
0.193101
0.192936
0.191621
0.193429
0.188992
0.195073
0.195073
0.196223
0.194087
0.198524
0.196717
0.194909
0.192772
0.193922
0.193101
0.194416
0.195402
0.194087
0.194251
0.193429
0.19573
0.19721
0.196717
0.196388
0.197045
0.197374
0.197703
0.199346
0.197703
0.192443
0.193922
0.199182
0.197045
0.197045
0.198853
0.197045
0.198031
0.197538
0.194251
0.194744
0.196717
0.197374
0.197374
0.202305
0.200168
0.197374
0.200168
0.196223
0.20099
0.19458
0.195895
0.195073
0.199511
0.196552
0.199511
0.197867
0.195073
0.198853
0.196388
0.198853
0.198689
0.195895
0.194087
0.199675
0.197045
0.198524
0.19721
0.196881
0.197703
0.200497
0.197374
0.198689
0.196552
0.197867
0.198689
0.199346
0.200497
0.197374
0.196717
0.197703
0.200825
0.196223
0.198853
0.197538
0.196552
0.199346
0.198524
0.195895
0.200497
0.198689
0.199346
0.200004
0.195402
0.201154
0.196059
0.197867
0.20099
0.200332
0.199675
0.20214
0.198196
0.202798
0.200661
0.202305
0.201647
0.198853
0.201483
0.200825
0.200168
0.197703
0.19836
0.200332
0.198689
0.19836
0.198031
0.197538
0.199675
0.201647
0.201319
0.201976
0.200497
0.200497
0.200332
0.200004
0.201483
0.199018
0.198196
0.197703
0.196552
0.198524
0.200332
0.199675
0.199182
0.203455
0.200825
0.202305
0.207071
0.201483
0.202633
0.20099
0.200004
0.196881
0.201647
0.198031
0.200497
0.197703
0.199839
0.200004
0.199839
0.19836
0.206907
0.203291
0.203784
0.197703
0.206249
0.204277
0.200825
0.201319
0.201812
0.201319
0.19836
0.20214
0.195402
0.193922
0.20099
0.20099
0.203784
0.200497
0.202469
0.202633
0.203291
0.200825
0.201647
0.198524
0.201812
0.200004
0.201154
0.195402
0.197045
0.200168
0.202962
0.200332
0.201976
0.200168
0.200825
0.202469
0.203948
0.20099
0.197703
0.20099
0.198689
0.201483
0.19836
0.200497
0.197374
0.199839
0.199346
0.196881
0.201647
0.19836
0.201319
0.199182
0.201154
0.19721
0.202305
0.199675
0.199675
0.200825
0.198853
0.201483
0.199182
0.201483
0.201976
0.200497
0.201483
0.200497
0.198853
0.201154
0.200497
0.200497
0.202633
0.201154
0.201976
0.202633
0.201154
0.200004
0.199839
0.198524
0.196223
0.202305
0.200332
0.201319
0.201647
0.199346
0.20214
0.201154
0.054548
0.032688
0.040084
0.04896
0.056027
0.054712
0.056684
0.025128
0.029566
0.03992
0.046987
0.051754
0.054876
0.061944
0.066546
0.0769
0.080023
0.08331
0.087419
0.095473
0.095966
0.103197
0.103855
0.109114
0.11273
0.117003
0.119797
0.118318
0.126536
0.12555
0.130645
0.13459
0.138534
0.137877
0.141
0.142807
0.145437
0.147409
0.149875
0.151025
0.155956
0.155299
0.154148
0.163845
0.160722
0.163681
0.164338
0.166311
0.164831
0.168612
0.169269
0.170748
0.176172
0.17157
0.175021
0.175021
0.178637
0.173871
0.17798
0.178144
0.180116
0.182089
0.182746
0.182253
0.182417
0.182582
0.182582
0.18554
0.184718
0.185869
0.184225
0.184883
0.188006
0.190142
0.188663
0.189156
0.18817
0.191293
0.185869
0.188663
0.18932
0.191786
0.188663
0.191457
0.191621
0.1908
0.190964
0.192936
0.192279
0.192772
0.192279
0.193429
0.192279
0.192115
0.199675
0.194744
0.196552
0.196059
0.19573
0.193922
0.195402
0.19195
0.196059
0.172556
0.170748
0.176994
0.174693
0.176336
0.17798
0.179295
0.176172
0.181103
0.184554
0.182417
0.18176
0.181431
0.184554
0.183404
0.18439
0.185376
0.187513
0.183732
0.188992
0.187513
0.188663
0.187513
0.185376
0.190964
0.18932
0.193265
0.190471
0.19195
0.192279
0.189814
0.191457
0.191293
0.191786
0.192936
0.192772
0.19458
0.192443
0.193594
0.191786
0.194087
0.197045
0.196552
0.192443
0.196552
0.197374
0.194909
0.196059
0.194416
0.194909
0.190964
0.192936
0.19195
0.194416
0.193758
0.196552
0.197045
0.199675
0.198524
0.200004
0.198031
0.196717
0.195566
0.196059
0.200661
0.198196
0.199018
0.197703
0.199675
0.196552
0.199346
0.196223
0.195895
0.194909
0.198196
0.199346
0.199346
0.200661
0.198031
0.202633
0.197045
0.202469
0.201154
0.199839
0.197703
0.199018
0.19836
0.197374
0.199346
0.19721
0.196059
0.198196
0.199839
0.198853
0.20099
0.19721
0.201319
0.201976
0.197538
0.198196
0.196223
0.197703
0.197374
0.198524
0.197538
0.200661
0.199675
0.199346
0.200168
0.202962
0.200168
0.199346
0.200168
0.201319
0.198689
0.201812
0.200332
0.200825
0.198689
0.201154
0.198689
0.198853
0.201483
0.202305
0.201647
0.19836
0.20099
0.199018
0.199018
0.199018
0.199346
0.19836
0.201483
0.200332
0.202633
0.19836
0.201154
0.199511
0.201647
0.160558
0.117332
0.12292
0.123578
0.12933
0.129823
0.133932
0.137712
0.141657
0.142479
0.145602
0.145437
0.152176
0.153655
0.15497
0.156613
0.155792
0.160722
0.16138
0.160722
0.166475
0.166804
0.165817
0.168447
0.167954
0.171241
0.172227
0.174364
0.174693
0.175843
0.17913
0.17798
0.182417
0.17913
0.180774
0.179623
0.182089
0.179952
0.182746
0.183239
0.185376
0.183239
0.184061
0.186855
0.184718
0.188334
0.187348
0.188499
0.187184
0.1908
0.189485
0.19573
0.191128
0.191457
0.190635
0.194416
0.189156
0.191786
0.191128
0.19195
0.194251
0.192936
0.192443
0.199346
0.197703
0.193265
0.193429
0.191293
0.197703
0.192443
0.196223
0.194416
0.196552
0.197045
0.193758
0.19836
0.194416
0.198196
0.196552
0.196552
0.197374
0.199675
0.197538
0.197374
0.19573
0.198524
0.197374
0.19836
0.196881
0.199182
0.196223
0.198196
0.198524
0.195402
0.198689
0.19721
0.198853
0.198689
0.199346
0.197538
0.196881
0.196059
0.200168
0.200497
0.197703
0.20099
0.199511
0.198196
0.199511
0.196223
0.195237
0.200168
0.197045
0.201483
0.196552
0.19458
0.195402
0.200332
0.199018
0.196881
0.199839
0.197538
0.202469
0.199182
0.198524
0.198524
0.198853
0.199675
0.202633
0.198524
0.20099
0.199182
0.202633
0.200661
0.204113
0.200497
0.201812
0.201154
0.200497
0.201154
0.200332
0.201647
0.20099
0.201319
0.195566
0.198524
0.199018
0.198196
0.198031
0.200661
0.201976
0.200661
0.196059
0.199346
0.199018
0.198031
0.19836
0.197867
0.132946
0.130152
0.135411
0.133932
0.138699
0.142643
0.143465
0.141493
0.149053
0.152833
0.153655
0.155134
0.157271
0.161051
0.16401
0.16516
0.163681
0.169433
0.166475
0.168776
0.167461
0.170748
0.169926
0.173707
0.176829
0.174364
0.17798
0.177651
0.179788
0.178144
0.180445
0.181924
0.183075
0.182582
0.184225
0.184554
0.185212
0.184718
0.18554
0.184554
0.184883
0.186033
0.187348
0.189814
0.192608
0.189978
0.188006
0.195237
0.191457
0.192443
0.1908
0.191457
0.190142
0.18932
0.192279
0.191457
0.187019
0.193101
0.194087
0.191786
0.199346
0.194087
0.19573
0.195566
0.196717
0.196881
0.198031
0.195237
0.199675
0.199839
0.200825
0.199018
0.200004
0.194251
0.191786
0.192443
0.191128
0.195073
0.191786
0.194744
0.195895
0.195402
0.195895
0.198853
0.19458
0.196552
0.196223
0.196223
0.198031
0.195402
0.196552
0.19721
0.197538
0.195566
0.199675
0.195073
0.196388
0.200825
0.200004
0.199018
0.198031
0.199182
0.199182
0.199346
0.196059
0.200497
0.195073
0.195566
0.192772
0.023649
-0.002813
0.008692
0.018554
0.022334
0.03236
0.039263
0.048302
0.050603
0.054219
0.062108
0.067696
0.072298
0.080187
0.083639
0.091199
0.089885
0.099089
0.101718
0.103855
0.107306
0.112401
0.117003
0.120291
0.124893
0.125879
0.130645
0.131631
0.13574
0.134097
0.139685
0.141986
0.144944
0.147738
0.14856
0.148067
0.153655
0.155792
0.155299
0.156942
0.156778
0.159243
0.15612
0.162695
0.164338
0.166311
0.165489
0.171734
0.171734
0.173378
0.172392
0.177815
0.173871
0.175021
0.176172
0.177815
0.178309
0.176665
0.185376
0.180445
0.186526
0.190471
0.188663
0.182746
0.189156
0.185376
0.188827
0.002447
0.003761
0.014445
0.020855
0.026443
0.032031
0.043536
0.047152
0.054548
0.058985
0.065067
0.070983
0.078544
0.083803
0.089391
0.088898
0.095966
0.104512
0.086597
0.079859
0.083639
0.090049
0.100239
0.032688
0.011158
0.018882
0.022498
0.031538
0.046494
0.044686
0.051589
0.058657
0.063752
0.071312
0.074106
0.081338
0.086597
0.088898
0.09498
0.105992
0.098924
0.104677
0.108293
0.115031
0.118154
0.113223
0.123906
0.12933
0.130645
0.132617
0.136726
0.138041
0.13952
0.142479
0.143465
0.147409
0.146423
0.152833
0.151354
0.156285
0.154148
0.156942
0.15612
0.161873
0.162037
0.166146
0.165817
0.165817
0.172556
0.16894
0.171406
0.168612
0.166475
0.172392
0.172063
0.171406
0.175515
0.1742
0.175021
0.180116
0.178637
0.180445
0.182746
0.174857
0.181924
0.183239
0.185705
0.186362
0.184554
0.185869
0.185869
0.188334
0.187513
0.18932
0.177651
0.188663
0.191786
0.185047
0.191786
0.183732
0.182746
0.179623
0.180445
0.177651
0.184061
0.170584
0.182417
0.182746
0.183404
0.181596
0.181924
0.183568
0.184225
0.18554
0.184225
0.187348
0.18061
0.186526
0.186033
0.190142
0.188827
0.195402
0.190964
0.193429
0.196223
0.191128
0.191621
0.187184
0.186198
0.189156
0.190142
0.188992
0.192936
0.193429
0.192936
0.193101
0.194909
0.19458
0.195895
0.190964
0.186526
0.190307
0.128015
0.13311
0.136233
0.135576
0.140013
0.144615
0.142643
0.148067
0.146752
0.151025
0.152669
0.155463
0.158257
0.162037
0.164996
0.163681
0.167297
0.131138
0.136562
0.134918
0.139356
0.142314
0.145273
0.144287
0.152011
0.150039
0.150697
0.154312
0.155463
0.157107
0.161544
0.158093
0.163188
0.163516
0.160722
0.16894
0.166968
0.168118
0.169598
0.171899
0.170419
0.17272
0.173049
0.173542
0.175679
0.176829
0.18061
0.181924
0.179295
0.178802
0.177815

Kurve 2

-0.001498
0.000474
0.000639
0.000474
-0.001169
-0.001662
-0.001827
-0.003306
-0.000841
-0.002484
-0.001334
-0.001827
0.000146
-0.002648
0.001132
0.002118
0.000639
-0.001991
-0.001991
0.001132
-0.001169
-0.000183
-0.001498
-0.000512
-0.001662
0.000639
-0.003306
-0.000347
-0.001498
-0.001827
-0.004292
0.002611
-0.000841
0.000803
0.000146
-0.001498
0.002118
-0.001334
0.001296
-0.001005
0.001132
-0.003799
-0.001169
-0.002155
-0.004292
-0.00347
-0.003142
-0.000183
0.00294
0.002447
-0.003799
0.000474
-0.002977
0.00031
-0.002648
-0.001169
-0.002155
-0.002155
-0.002484
-0.001005
-0.000347
-0.001827
-0.002977
-0.00232
-0.000512
-0.000841
-0.000841
-0.001334
-0.002813
-0.0061
-0.000512
-0.004621
-0.008072
-0.001334
-0.002155
-0.001991
0.00031
-0.005278
-1.9e-05
-0.001827
-0.004128
0.000474
-0.001498
-0.003142
-1.9e-05
0.001132
-0.001827
0.000639
-0.001498
-0.00347
-0.001991
0.003926
-0.006429
-0.005278
-0.001498
-0.001991
-0.001662
0.002447
0.002447
-0.005607
-0.001169
-0.002155
-0.001169
-0.002648
-0.00347
-0.002813
-0.002155
-0.000512
-0.001498
-0.001169
-0.003635
-0.000676
-0.002155
-0.001334
-0.00347
-0.000183
-0.001498
-0.001169
-0.000347
-0.000512
-0.001991
0.001954
-0.004456
-0.004292
-0.001498
-0.005114
-0.002484
-0.000841
-0.00232
-0.001991
-0.001005
-0.002155
-0.001662
-0.000183
-0.002484
-0.000512
-0.003799
-0.000512
-0.002648
-0.005936
-0.003799
0.001954
-0.001827
0.00146
0.001625
-0.001334
-0.001169
-0.000183
-0.003306
-0.001498
-0.004456
-0.002813
-0.003635
-0.001005
-0.001827
-0.000841
-1.9e-05
-0.001827
0.000639
0.000146
0.000803
-0.002977
-0.000183
-0.001991
-0.000676
-0.003635
-0.002155
-0.007086
-0.005114
-0.003142
-0.004456
-0.003142
0.000639
0.001296
-0.001334
0.000639
-0.002155
0.00146
-0.000676
0.000146
-0.000512
-0.000183
-0.002977
-0.00232
-0.000841
-0.003635
-0.000841
-0.003963
-0.001662
0.005734
-0.001498
0.002611
0.001789
-0.001991
-0.001005
-0.005278
0.001132
0.000474
-0.003142
-0.000347
0.000967
-0.001005
-0.001334
0.000967
-0.004949
-0.00347
-0.003635
-0.001498
-0.002813
0.00031
-0.000347
0.001296
-0.001662
0.000474
0.002447
-0.003142
-0.001662
-0.002977
-0.0061
-0.005114
-0.002813
-0.001827
0.00146
0.003433
0.001132
0.005241
0.001132
0.000639
0.000803
-1.9e-05
0.000967
0.000474
-1.9e-05
-0.000676
-0.000512
-0.000841
0.003433
-0.000183
0.00031
0.000639
-0.000183
0.000803
0.00031
-0.000347
0.000474
-0.000512
-0.000183
0.003433
0.000146
0.000146
0.000639
-0.000183
0.000474
0.000146
-0.000347
-0.000183
-0.000183
-0.000183
0.002118
-0.000183
0.000146
0.000146
0.00031
0.000146
0.00031
0.000146
-0.000347
-0.000512
-0.000512
0.000474
-0.000183
0.00031
-1.9e-05
0.000474
0.000146
0.000474
-0.000183
-0.000183
-0.000676
-0.000347
-0.000347
-0.000183
0.000146
0.00031
0.000146
0.000474
0.00031
-0.000183
-0.000183
-0.000347
-0.000676
-0.000676
-0.000183
0.000146
0.000146
0.000474
0.000146
0.00031
0.000146
-0.000183
-0.000512
-0.000347
-0.000512
-0.000183
-1.9e-05
0.000146
0.000146
0.000474
0.000146
-0.000347
-0.000347
-0.000512
-0.000512
-0.000512
-0.000183
0.00031
0.000146
0.00031
0.000474
0.00031
0.000146
-0.000347
-0.000347
-0.000676
-0.000512
-0.000347
0.000146
0.000146
0.00031
0.000474
0.000639
-1.9e-05
-0.000512
-0.000512
-0.000841
-0.000512
-0.000183
-1.9e-05
0.00031
0.000474
0.000474
0.00031
-0.000183
-0.000347
-0.000347
-0.000347
-0.000676
-0.000183
0.000146
0.000146
0.000474
0.000474
0.000146
-1.9e-05
-0.000347
-0.000347
-0.000347
-0.000512
-1.9e-05
-1.9e-05
0.000146
0.000474
0.00031
0.00031
0.000146
-0.000183
-0.000183
-0.000512
-0.000512
-0.000183
-1.9e-05
0.000146
0.000474
0.00031
0.00031
0.000146
-0.000347
-0.000347
-0.000512
-0.000512
-1.9e-05
-1.9e-05
0.00031
0.00031
0.000146
0.00031
-1.9e-05
-0.000347
-0.000347
-0.000512
-0.000512
-0.000183
-1.9e-05
0.00031
0.000146
0.00031
0.00031
-0.000183
-0.000347
-0.000347
-0.000183
-0.000512
-0.000183
-1.9e-05
0.000146
0.00031
0.000474
0.00031
-1.9e-05
-0.000347
-0.000512
-0.000347
-0.000512
-0.000347
0.000146
0.00031
-1.9e-05
0.00031
0.00031
-1.9e-05
-0.000347
-0.000347
-0.000512
-0.000512
-0.000183
-1.9e-05
0.00031
0.00031
0.00031
0.000639
-0.000183
-0.000183
-0.000183
-0.000512
-0.000347
-0.000347
-1.9e-05
0.000146
0.000146
0.000474
0.00031
0.000146
-0.000183
-0.000347
-0.000347
-0.000512
-0.000183
0.000146
0.000146
0.000146
0.00031
0.000146
-1.9e-05
-0.000183
-0.000512
-0.000676
-0.000347
-0.000512
0.000146
0.000146
-1.9e-05
0.00031
0.00031
0.000146
-0.000183
-0.000512
-0.000347
-0.000512
-0.000183
0.000146
0.000146
0.00031
0.00031
0.00031
-1.9e-05
-0.000183
-0.000512
-0.000676
-0.000183
-0.000347
-1.9e-05
0.000146
0.000146
0.000474
0.00031
0.000146
-0.000512
-0.000347
-0.000347
-0.000512
-0.000347
-1.9e-05
0.000146
0.000146
0.00031
0.000474
0.000146
-0.000183
-0.000512
-0.000347
-0.000512
-0.000512
0.000146
0.00031
0.000146
0.00031
0.000639
0.00031
-0.000183
-0.000183
-0.000347
-0.000512
-0.000347
-1.9e-05
0.000146
-1.9e-05
0.00031
0.000474
0.000146
-0.000183
-0.000183
-0.000347
-0.000676
-0.000183
-1.9e-05
0.000146
0.000474
0.00031
0.000474
-1.9e-05
-0.000183
-0.000183
-0.000512
-0.000676
-0.000183
0.000146
0.00031
0.000146
0.00031
0.000474
0.000146
-1.9e-05
-0.000347
-0.000512
-0.000183
-0.000183
0.000146
0.000146
0.00031
0.00031
0.000474
0.000146
-0.000183
-0.000183
-0.000512
-0.000347
-0.000347
-1.9e-05
0.000146
0.000474
0.000474
0.00031
0.000146
-0.000183
-0.000183
-0.000512
-0.000512
-0.000183
0.00031
-1.9e-05
0.000474
0.00031
0.000474
0.000146
-0.000347
-0.000347
-0.000347
-0.000347
-0.000183
-1.9e-05
0.000146
0.00031
0.00031
0.000146
0.000146
-1.9e-05
-0.000183
-0.000512
-0.000347
-0.000183
-1.9e-05
0.000146
0.00031
0.00031
0.00031
0.000146
-0.000183
-0.000347
-0.000347
-0.000347
-0.000183
-1.9e-05
0.000146
0.000146
0.00031
0.000474
-1.9e-05
0.000146
-0.000347
-0.000512
-0.000183
-0.000347
-1.9e-05
0.00031
0.000146
0.00031
0.000474
0.00031
-0.000183
-0.000512
-0.000512
-0.000347
-0.000512
-0.000183
-1.9e-05
0.000146
-0.000183
0.000474
0.00031
-0.000347
-0.000183
-0.000347
-0.000347
-0.000512
0.000639
0.000146
0.000639
0.00031
0.00031
-1.9e-05
-0.000347
0.000639
-0.001827
0.000146
-0.001991
-1.9e-05
0.000474
0.001132
0.006884
0.003597
0.000639
0.005898
0.006391
0.004419
0.00935
0.000967
0.004583
0.000803
0.007213
0.000146
0.004255
-1.9e-05
0.00031
0.001954
-0.001498
-0.001005
-0.000512
0.002775
0.00031
0.000474
0.000639
0.000474
0.000146
-0.000183
-0.000347
0.000803
-0.000183
-1.9e-05
-1.9e-05
0.00031
0.003268
0.000639
0.000146
0.000146
-0.000183
-0.000183
-0.000512
-0.000676
-0.000183
-1.9e-05
0.000146
0.000146
0.00031
0.000474
0.000146
-0.000512
-0.000183
0.000967
0.003268
0.008528
-0.00232
0.003104
-0.000512
0.00146
0.00294
0.004419
-0.000183
-0.000183
-0.000512
-0.000347
-0.000347
0.00031
0.004583
0.006062
0.005076
0.001132
0.004255
0.002282
0.00031
0.00146
0.00031
-0.001827
0.001625
0.007706
0.006391
0.005734
0.003268
0.000967
-0.000676
-0.000512
-1.9e-05
-0.000512
-0.000347
0.000146
0.000146
0.000474
0.000146
0.00031
0.000146
0.00031
0.000474
-0.000183
-0.000512
-0.000512
0.002775
0.002611
0.001132
-0.001169
0.000803
0.000967
0.002447
0.005076
0.01313
0.01691
0.0271
0.033839
0.040906
0.048631
0.050932
0.058164
0.063752
0.074764
0.075585
0.082982
0.084296
0.093336
0.093993
0.097774
0.098431
0.107635
0.104019
0.110429
0.121112
0.120126
0.123906
0.125714
0.130645
0.130809
0.138205
0.137877
0.139192
0.143301
0.14478
0.147738
0.14856
0.149875
0.15497
0.151354
0.154641
0.155956
0.152011
0.160394
0.159901
0.161544
0.163845
0.165489
0.168283
0.173049
0.172885
0.171734
0.173214
0.173542
0.172885
0.173049
0.170419
0.176008
0.177158
0.176336
0.179623
0.178802
0.179459
0.180774
0.181596
0.182253
0.184883
0.182417
0.186526
0.182911
0.183404
0.187184
0.185705
0.184061
0.182746
0.188499
0.187019
0.188663
0.186855
0.188006
0.192608
0.191786
0.189978
0.195237
0.191293
0.193101
0.193758
0.194416
0.191457
0.191128
0.195073
0.193429
0.195237
0.190142
0.19721
0.190964
0.193758
0.193429
0.195237
0.19458
0.195402
0.197867
0.194416
0.196552
0.197045
0.196059
0.193429
0.196388
0.20099
0.196717
0.196388
0.197045
0.195895
0.19721
0.19721
0.199182
0.200168
0.196059
0.197045
0.199182
0.199511
0.197538
0.194909
0.195237
0.199182
0.198196
0.197538
0.195073
0.198031
0.196388
0.197703
0.199346
0.194416
0.198524
0.199511
0.197045
0.202798
0.200332
0.202633
0.199675
0.196881
0.199839
0.199018
0.198689
0.200332
0.200661
0.195073
0.197867
0.196552
0.199018
0.200168
0.199675
0.201976
0.198031
0.200497
0.197703
0.200168
0.199018
0.200332
0.200332
0.196388
0.197374
0.200661
0.19836
0.199346
0.199839
0.199018
0.203455
0.199511
0.199346
0.197867
0.197045
0.196552
0.199675
0.197867
0.198853
0.200168
0.199018
0.200825
0.199511
0.20099
0.199018
0.200825
0.19836
0.202469
0.19721
0.199018
0.19836
0.200004
0.201154
0.200661
0.197703
0.201154
0.201319
0.199182
0.20099
0.198853
0.199839
0.198689
0.199018
0.199018
0.201483
0.196223
0.198196
0.194909
0.202962
0.196717
0.199675
0.197867
0.188006
0.104348
0.098595
0.066381
0.06556
0.039263
0.021512
0.025457
0.017896
0.03236
0.034168
0.042385
0.050439
0.058328
0.063259
0.067532
0.073284
0.080516
0.084954
0.086433
0.094815
0.095144
0.102211
0.106156
0.110922
0.109607
0.115853
0.118647
0.122263
0.125057
0.127194
0.13459
0.133439
0.137219
0.140671
0.144122
0.143301
0.143136
0.150039
0.153655
0.155299
0.151025
0.155627
0.155956
0.158257
0.159243
0.163516
0.163681
0.165817
0.167954
0.16894
0.167625
0.173707
0.170091
0.174693
0.174857
0.176994
0.176172
0.178473
0.177158
0.174857
0.176829
0.179788
0.176501
0.180938
0.183897
0.18554
0.187184
0.184883
0.188663
0.186033
0.190635
0.18817
0.188006
0.187184
0.188334
0.188992
0.189649
0.189814
0.188663
0.191293
0.18932
0.193429
0.19195
0.194087
0.19195
0.193265
0.194744
0.197867
0.189978
0.193594
0.196388
0.19458
0.192443
0.195237
0.193429
0.19458
0.195073
0.193429
0.195402
0.193758
0.19573
0.197045
0.197867
0.197867
0.196059
0.199511
0.19721
0.198196
0.19836
0.201647
0.193594
0.196552
0.19836
0.196388
0.194416
0.198689
0.191293
0.196223
0.199675
0.197703
0.198524
0.200168
0.197538
0.199675
0.199675
0.198196
0.200332
0.198853
0.199182
0.197703
0.197538
0.197867
0.199018
0.198524
0.199182
0.198031
0.195566
0.19836
0.199675
0.195402
0.195895
0.199675
0.197374
0.197867
0.197703
0.20099
0.198853
0.198853
0.197867
0.198031
0.199346
0.197538
0.198853
0.200661
0.200168
0.197538
0.198031
0.196717
0.202305
0.194416
0.196552
0.197703
0.200825
0.195237
0.196881
0.199182
0.200004
0.196881
0.199018
0.198689
0.200004
0.200825
0.200661
0.198031
0.201154
0.200825
0.199839
0.200825
0.201154
0.20214
0.199839
0.199675
0.200168
0.200497
0.199346
0.199346
0.200168
0.197538
0.204606
0.204113
0.200004
0.199675
0.20099
0.199182
0.200168
0.200004
0.200004
0.199182
0.200004
0.198853
0.200332
0.197374
0.200661
0.201483
0.195566
0.197703
0.194251
0.19836
0.197374
0.196388
0.194087
0.195566
0.19458
0.196059
0.196717
0.194087
0.192608
0.189649
0.193101
0.192443
0.189485
0.18817
0.188499
0.189814
0.184883
0.185705
0.187184
0.185376
0.185376
0.183897
0.183568
0.183239
0.181596
0.18061
0.176829
0.179459
0.178966
0.177487
0.176665
0.179952
0.178637
0.177322
0.174528
0.176336
0.173871
0.175186
0.174364
0.172885
0.173542
0.171077
0.171899
0.171077
0.172227
0.170913
0.170913
0.167461
0.178144
0.167297
0.171406
0.16401
0.169926
0.168612
0.16779
0.170091
0.166639
0.170091
0.168118
0.170419
0.167132
0.169598
0.168776
0.167297
0.165489
0.167625
0.164996
0.166968
0.168447
0.164831
0.169598
0.166639
0.164996
0.166804
0.172556
0.164667
0.165982
0.162695
0.166804
0.164503
0.167297
0.163516
0.168447
0.166639
0.164831
0.159901
0.164667
0.166475
0.163845
0.16516
0.163845
0.165817
0.165324
0.166804
0.165489
0.166639
0.16516
0.166311
0.166146
0.164831
0.163845
0.162859
0.158586
0.161051
0.165653
0.161873
0.162202
0.162202
0.162366
0.16401
0.164831
0.164338
0.166475
0.16516
0.163516
0.16516
0.162859
0.164667
0.163516
0.16401
0.161709
0.161709
0.161215
0.162695
0.161051
0.168283
0.164831
0.166146
0.164503
0.163681
0.166146
0.162859
0.16516
0.161544
0.162695
0.162859
0.163023
0.160887
0.163516
0.160229
0.161873
0.16138
0.162202
0.162366
0.162037
0.163681
0.163188
0.167625
0.160558
0.162366
0.161709
0.160065
0.158093
0.161051
0.164174
0.16253
0.160722
0.15875
0.161215
0.162695
0.163188
0.160558
0.161215
0.163845
0.161709
0.162037
0.162202
0.16138
0.163681
0.159572
0.161215
0.159901
0.160722
0.158914
0.157764
0.159243
0.159408
0.160558
0.162202
0.16253
0.160229
0.159079
0.156449
0.15875
0.156778
0.025785
0.030387
0.036633
0.044686
0.046987
0.055863
0.059643
0.06556
0.070819
0.07575
0.078708
0.084296
0.08857
0.089391
0.089885
0.097116
0.097774
0.100403
0.100568
0.107964
0.10517
0.105663
0.10895
0.109279
0.113223
0.113552
0.118318
0.116839
0.118976
0.121441
0.121441
0.121441
0.126865
0.123578
0.128015
0.126865
0.126043
0.128673
0.12933
0.12933
0.130152
0.132289
0.131138
0.135411
0.136562
0.138041
0.137877
0.136398
0.138041
0.142972
0.141
0.146423
0.144451
0.144122
0.148067
0.147245
0.150532
0.150697
0.152011
0.152833
0.159901
0.160558
0.157764
0.1576
0.160887
0.162202
0.163516
0.165653
0.166475
0.167461
0.165489
0.170748
0.172227
0.173707
0.173378
0.177322
0.177158
0.17913
0.177651
0.177651
0.178966
0.182253
0.184718
0.182417
0.182911
0.183404
0.186033
0.186526
0.189156
0.185047
0.189814
0.186526
0.188499
0.187019
0.187513
0.187841
0.187841
0.18554
0.190635
0.1908
0.189978
0.189649
0.193594
0.192279
0.190471
0.192772
0.191786
0.194416
0.197703
0.193594
0.19195
0.193758
0.188006
0.190964
0.192608
0.192772
0.191457
0.194251
0.196717
0.193101
0.196059
0.192608
0.197867
0.19721
0.200004
0.200168
0.19721
0.195237
0.197045
0.19573
0.19721
0.197374
0.197538
0.198853
0.196552
0.198853
0.196223
0.198196
0.197867
0.20099
0.199839
0.200168
0.199018
0.200004
0.195402
0.197867
0.196223
0.192936
0.196388
0.19458
0.200332
0.19836
0.19836
0.197867
0.200332
0.02332
0.001625
0.000146
0.001625
0.00672
0.011651
0.024142
0.029401
0.030716
0.03992
0.05274
0.050932
0.059643
0.063752
0.073449
0.074435
0.083803
0.087912
0.09498
0.093172
0.10254
0.107306
0.106978
0.112894
0.113552
0.119797
0.121441
0.125386
0.12933
0.133275
0.13196
0.134425
0.139192
0.141328
0.143958
0.146752
0.150532
0.14971
0.154641
0.154806
0.158257
0.155134
0.155627
0.16138
0.16253
0.162366
0.16516
0.166804
0.167461
0.168118
0.173707
0.173214
0.173871
0.174693
0.176172
0.178144
0.17913
0.178966
0.177322
0.176829
0.177651
0.17913
0.180281
0.182253
0.179788
0.184061
0.18817
0.179295
0.184225
0.186855
0.186526
0.188827
0.18932
0.18932
0.190142
0.189156
0.193429
0.188663
0.191128
0.188992
0.193101
0.193429
0.190635
0.193758
0.191621
0.192772
0.194416
0.193758
0.194251
0.196059
0.193922
0.192936
0.19458
0.196223
0.19721
0.195402
0.195566
0.19721
0.195566
0.195073
0.19721
0.194744
0.197867
0.199346
0.195895
0.197374
0.198031
0.200004
0.198689
0.195237
0.198853
0.196717
0.198031
0.197045
0.197538
0.198524
0.194416
0.193758
0.194087
0.201647
0.198196
0.198031
0.199346
0.200332
0.197538
0.202962
0.199182
0.201154
0.201483
0.200497
0.204441
0.202469
0.199182
0.198031
0.200332
0.199675
0.19836
0.198031
0.203126
0.19836
0.204113
0.19721
0.20214
0.199675
0.200168
0.202962
0.200332
0.19836
0.198031
0.199675
0.199182
0.200004
0.197374
0.200661
0.196059
0.199182
0.197538
0.204934
0.199346
0.201154
0.200497
0.198524
0.200661
0.200661
0.198524
0.195402
0.200168
0.20099
0.20099
0.201812
0.201483
0.200661
0.200497
0.199346
0.200825
0.204606
0.198689
0.199675
0.200661
0.199839
0.200004
0.202633
0.199346
0.198196
0.202469
0.200168
0.20099
0.199346
0.199018
0.200004
0.199675
0.201647
0.201319
0.20362
0.198524
0.202962
0.202962
0.198196
0.200497
0.199182
0.201483
0.200332
0.199839
0.198689
0.199675
0.197374
0.20099
0.202798
0.204113
0.200661
0.198031
0.197538
0.198689
0.199346
0.196717
0.203784
0.199675
0.197703
0.200661
0.203948
0.200497
0.198853
0.199346
0.197538
0.200168
0.197703
0.202633
0.199346
0.199675
0.195566
0.200825
0.194416
0.201319
0.200497
0.199511
0.201319
0.199018
0.201483
0.201976
0.196552
0.202469
0.201812
0.199675
0.201319
0.19836
0.199675
0.197374
0.200661
0.201812
0.197374
0.200497
0.199346
0.20099
0.200168
0.198853
0.200004
0.200497
0.199346
0.20214
0.20099
0.202469
0.19458
0.198689
0.199675
0.19573
0.19836
0.202633
0.200168
0.200168
0.200497
0.198196
0.20099
0.197867
0.199346
0.202798
0.198853
0.197374
0.199018
0.199675
0.196717
0.196881
0.200168
0.199675
0.20099
0.200004
0.20477
0.200661
0.19721
0.20214
0.200168
0.20099
0.197045
0.197867
0.198689
0.198853
0.199018
0.201976
0.198524
0.198196
0.200332
0.200332
0.200497
0.199018
0.201647
0.19573
0.206249
0.199675
0.201812
0.19573
0.198196
0.197538
0.196552
0.197703
0.195566
0.197045
0.196388
0.201319
0.199511
0.205756
0.198031
0.198196
0.196881
0.20099
0.200168
0.199018
0.200825
0.200332
0.201154
0.199018
0.199839
0.199018
0.197867
0.196388
0.197703
0.186362
0.182253
0.171406
0.160722
0.149217
0.149217
0.143958
0.141986
0.143136
0.125221
0.116675
0.087912
0.061122
0.043865
0.035811
0.033674
0.041892
0.031538
0.031209
0.031867
0.017567
0.012637
0.016253
0.016088
0.018061
0.018554
0.017896
0.013623
0.008035
0.02332
0.022498
0.031045
0.031209
0.035811
0.040742
0.045508
0.047316
0.051589
0.034003
0.014938
0.018225
0.00672
0.00672
0.006227
0.010664
0.00935
0.013787
0.014116
0.018554
0.014445
0.002775
0.008528
0.005898
0.002447
0.003104
0.004255
0.00672
0.012472
0.010664
0.015595
0.00409
0.003268
-0.001334
0.005076
0.000803
0.002447
0.003926
0.000967
0.002775
0.00672
0.005076
-0.000841
-0.001991
0.004255
0.003597
0.00935
0.006556
0.005734
0.004419
0.004419
0.010336
0.01313
0.006884
0.003597
0.007213
0.002282
0.002775
0.007542
0.00935
0.021348
0.013459
0.000803
0.004255
0.008857
0.013623
0.021183
0.025457
0.029894
0.031373
0.034168
0.023977
0.028251
0.008692
0.004583
0.010993
0.000474
0.002611
0.001789
0.007213
0.00294
0.003433
0.010336
0.001789
0.002611
0.002447
0.000146
0.004255
0.000803
0.006884
0.001625
0.001954
0.004419
0.008199
0.017732
-0.004292
0.001132
0.000967
0.005405
0.002775
0.009843
0.013459
0.020362
0.021019
0.009021
0.008199
0.008363
0.013623
0.004912
0.004583
0.006227
0.006227
-0.0061
-0.000347
0.002118
0.001625
0.003761
0.00787
0.00294
-0.000347
0.004255
0.003104
0.003268
0.001789
0.000803
0.000967
0.003926
0.000803
0.00294
-0.001005
0.000803
0.00031
0.000474
-0.000347
0.000967
0.000967
0.000639
0.00031
0.000803
-0.000512
-0.000183
-0.000512
-0.000512
-0.000512
0.000146
0.000146
0.000474
0.00031
0.00031
0.00031
-1.9e-05
-0.000183
-0.000512
-0.000347
-0.000183
0.000146
0.000146
0.000146
0.00031
0.00031
0.000146
-0.000347
-0.000183
-0.000512
-0.000676
-0.000512
-1.9e-05
0.00031
0.00031
0.000639
0.00031
0.000146
-0.000347
-0.000512
-0.000347
-0.000676
-0.000841
0.00031
-0.000512
0.000639
-0.000183
0.002447
0.000967
0.002775
0.001132
0.002118
0.00146
0.001296
0.003597
0.000803
0.005898
0.003926
0.008857
0.007542
0.011486
0.013623
0.018882
0.022663
0.031538
0.035318
0.03992
0.049617
0.057835
0.064738
0.068518
0.078708
0.073449
0.089556
0.08972
0.093829
0.097938
0.100075
0.104019
0.108128
0.111908
0.116839
0.119797
0.122263
0.128673
0.127358
0.133439
0.131631
0.136891
0.14215
0.143465
0.148396
0.147081
0.150532
0.149546
0.153819
0.155134
0.157107
0.153819
0.15875
0.160558
0.163352
0.161051
0.165982
0.168283
0.167625
0.171077
0.172885
0.173542
0.173542
0.174857
0.174693
0.177487
0.17798
0.177487
0.178144
0.181924
0.175679
0.177487
0.182253
0.181103
0.180445
0.182253
0.185869
0.185869
0.184883
0.188663
0.186362
0.18932
0.186855
0.187184
0.190307
0.188499
0.189978
0.18932
0.190142
0.187841
0.187019
0.191128
0.191786
0.189649
0.193594
0.193101
0.192443
0.195566
0.193594
0.193594
0.189814
0.197703
0.194744
0.194087
0.194744
0.197374
0.194087
0.194744
0.193101
0.195237
0.197538
0.194087
0.197703
0.196881
0.197538
0.195073
0.199511
0.195237
0.194416
0.194744
0.197703
0.195073
0.193594
0.196223
0.196388
0.19573
0.196388
0.200168
0.196717
0.19836
0.197703
0.199839
0.196717
0.198689
0.196881
0.202305
0.200332
0.197867
0.197045
0.19836
0.199675
0.198853
0.196881
0.199346
0.200497
0.200168
0.200661
0.199018
0.199675
0.200332
0.199018
0.197703
0.199018
0.198853
0.196059
0.19721
0.199346
0.201812
0.198196
0.200332
0.198196
0.199346
0.19836
0.199675
0.196717
0.197703
0.194909
0.199839
0.198853
0.19573
0.19721
0.201154
0.20099
0.198853
0.199839
0.197538
0.199018
0.196388
0.20099
0.197867
0.197867
0.198689
0.198689
0.199018
0.200497
0.199346
0.200661
0.20099
0.19836
0.200825
0.199675
0.201319
0.20214
0.202633
0.198853
0.201976
0.197374
0.198689
0.19836
0.197538
0.199346
0.200825
0.198689
0.198853
0.201483
0.19721
0.199511
0.198524
0.199675
0.197374
0.199346
0.198689
0.198853
0.195237
0.199018
0.199018
0.19721
0.198524
0.196223
0.201976
0.198031
0.200332
0.204113
0.200168
0.200497
0.20362
0.201154
0.199511
0.19721
0.199839
0.197045
0.199018
0.197045
0.198853
0.200661
0.199511
0.20099
0.20099
0.199182
0.200497
0.198689
0.120291
0.124399
0.122427
0.129166
0.131138
0.13574
0.136069
0.140506
0.143465
0.141328
0.146752
0.14856
0.15119
0.153162
0.156778
0.1576
0.160887
0.160065
0.164338
0.163188
0.163516
0.165817
0.167461
0.167461
0.168447
0.173378
0.167625
0.170419
0.172227
0.171734
0.170913
0.173707
0.17913
0.18061
0.179459
0.183568
0.182746
0.181267
0.183897
0.184554
0.180116
0.183404
0.185376
0.184061
0.186526
0.183897
0.185212
0.187348
0.184225
0.187019
0.189978
0.187841
0.188827
0.190142
0.193101
0.190471
0.1908
0.189978
0.190142
0.192772
0.188334
0.192443
0.189978
0.191293
0.191128
0.192443
0.194087
0.193758
0.193265
0.193594
0.194744
0.193758
0.194744
0.195566
0.194251
0.193922
0.197867
0.191293
0.194251
0.191457
0.194416
0.190635
0.192936
0.19573
0.196223
0.19573
0.196059
0.197867
0.194416
0.195895
0.195402
0.198196
0.195237
0.197374
0.193922
0.197538
0.193758
0.194744
0.194087
0.196059
0.196388
0.196717
0.198031
0.195073
0.197867
0.193429
0.200004
0.193758
0.197538
0.197045
0.195237
0.195895
0.136562
0.133932
0.13459
0.141657
0.141
0.145437
0.147245
0.148724
0.151025
0.155956
0.153491
0.159243
0.153984
0.157764
0.162859
0.162366
0.161873
0.16401
0.16779
0.168283
0.16779
0.168118
0.172227
0.173871
0.174364
0.176665
0.177815
0.176501
0.180281
0.178802
0.183075
0.181431
0.18176
0.183075
0.182253
0.182911
0.186526
0.18554
0.184061
0.187513
0.18554
0.184883
0.182911
0.193101
0.188499
0.192115
0.189978
0.191621
0.192115
0.190307
0.1908
0.192443
0.189485
0.190635
0.195895
0.189978
0.192772
0.191786
0.19573
0.194416
0.195895
0.195895
0.196388
0.190964
0.193758
0.193758
0.193594
0.192608
0.192608
0.199511
0.197703
0.197703
0.194087
0.197374
0.195237
0.196059
0.196388
0.196552
0.199839
0.198196
0.199511
0.199346
0.201319
0.197045
0.199018
0.200497
0.201976
0.199182
0.197867
0.199675
0.195895
0.198689
0.201976
0.201154
0.200168
0.199018
0.201154

Kurve 3

-0.000512
0.005405
-0.001169
0.007542
-0.000676
-0.000676
-0.001005
0.000474
-0.001827
0.001132
-0.001005
-0.001334
-0.000841
-0.002977
0.001296
-0.00347
-0.000841
-0.001334
0.004419
0.000474
0.000146
-0.001827
-0.000347
-1.9e-05
-0.001005
-0.000183
-0.001662
-0.001169
-0.001169
-1.9e-05
-0.00347
-0.000512
-0.001827
-0.001334
-0.002648
0.000474
-0.005607
-0.003306
-0.001498
0.000803
0.001296
-0.000841
-0.000512
-0.002155
-0.001662
-0.002813
-0.002648
-0.004292
0.00031
-0.002155
-0.00232
-0.000512
-0.00232
-0.002813
0.000803
-0.000512
0.001132
-0.000512
-0.002155
-0.000512
-0.001334
-0.001498
-0.002648
-0.002648
-0.004456
-1.9e-05
-0.001827
-0.0061
-0.005443
-0.002813
-0.004292
-0.001498
-0.000512
-0.000841
0.000474
0.00031
0.00294
-0.002155
-0.001498
-0.001334
-0.002648
-0.004128
-0.000347
-0.001662
-0.001662
-0.001169
-0.001827
-0.002484
-0.001498
-0.000183
0.00294
0.004583
-0.000841
-0.000676
0.000474
-0.002648
-0.001334
0.000803
-0.002813
-0.001662
-0.002648
-0.001662
0.00031
-0.001662
-0.001991
0.001296
0.000639
-0.00347
0.000639
-0.001005
-0.004456
-0.004785
-0.001662
0.000146
-0.001334
-0.002484
0.001789
-0.003306
-0.00232
0.000967
-0.003963
-0.002813
-0.004128
0.000146
-0.004621
-0.004456
-0.00232
0.001954
-0.000676
-1.9e-05
0.00031
-0.001498
-0.001662
-0.001169
-0.001169
-0.000841
-0.002155
-0.00232
0.000803
-0.000347
-0.000841
-0.007908
0.00031
-0.000183
-0.001334
-0.001991
-0.001827
0.002118
-0.001498
0.001132
-0.001005
-0.001334
-0.000841
-0.001662
-0.003142
-0.000676
-0.002813
0.00031
-0.001334
0.000967
0.001296
0.004748
-0.001005
-0.001991
0.003104
-0.002484
-0.000841
-0.000841
-0.001991
-0.004128
-0.001991
-0.002977
-0.00232
-0.005278
-0.002484
-0.00232
-0.001498
-0.000676
0.000967
0.001132
-0.001005
0.00146
-0.000512
0.000803
-0.000676
-1.9e-05
-0.001169
-0.000512
-0.003142
0.00031
-0.001005
-0.001827
-0.002155
-0.00232
-0.000676
-0.001169
0.000639
-0.000183
-0.002484
-0.001169
0.003268
-0.003799
-0.001334
-0.001334
-0.002155
0.000146
-0.002648
-0.003142
-0.002813
-0.001005
-0.004456
-0.002813
-0.003142
0.001954
-0.000183
0.000967
-0.001498
-0.002813
0.000474
-0.000841
-0.003799
-0.002484
-0.005936
-0.001498
-0.00347
-0.002484
0.000967
-0.001991
-0.000841
0.001296
-0.001498
-0.000841
0.000803
-0.001827
0.000967
-0.000841
0.000146
-0.000841
-0.001005
-0.002155
-0.005443
-0.000347
-1.9e-05
-0.000512
-0.00232
-0.000183
-0.001991
-0.001169
-0.001662
0.001625
-0.001827
0.00146
-0.000347
-0.003306
-0.001991
-0.001498
-0.004292
-0.000347
-0.003142
-0.004292
-0.002484
-0.002648
0.000803
-0.003799
-0.003306
-0.001334
-0.001827
-0.001827
-0.001334
-0.002155
-0.00232
-0.00347
-0.001991
-0.002155
-0.002813
0.00031
-0.002813
0.00031
-0.002977
-1.9e-05
-0.001662
-0.000347
0.002447
0.00031
-0.000676
-0.000347
-0.001498
-0.000347
0.000474
0.001296
-0.001005
-0.002155
0.000474
0.001954
0.001789
-0.000841
0.00031
-0.002977
-0.001991
-0.000183
-0.00232
-0.001334
0.00031
-0.001334
0.000967
0.000146
-0.000676
-0.001498
0.00146
-0.001827
0.001625
-0.001498
-0.003306
-0.004456
0.001296
0.000474
0.00031
-0.000841
-0.000676
-0.002155
0.000803
-0.006264
-0.001662
-0.001827
0.001625
-0.000841
0.001296
-0.000512
-0.001991
-0.001827
-0.001169
-0.001005
-0.001991
-0.002484
-0.002813
-0.000347
-0.000841
0.000474
-0.000183
0.001954
-0.000841
0.000639
-0.002648
-0.00347
-1.9e-05
-0.001662
-0.001169
-0.000512
-0.001827
-0.002484
-0.001005
-0.00347
-0.001662
-0.003142
-0.001005
-0.001498
-0.000183
-0.001498
0.000803
0.004255
0.003104
-1.9e-05
-0.000512
0.002118
0.002282
0.000146
0.001132
-0.004128
-0.002813
0.000639
-0.001498
-0.002484
-0.002813
-0.001662
-0.004621
0.002447
-0.005443
0.001954
0.000803
-0.001498
0.00031
-0.001169
-0.001169
-0.001827
-0.004292
-0.001662
-0.001169
-0.001169
-1.9e-05
-0.003306
-0.000183
-0.000183
-1.9e-05
-0.000676
0.001789
-0.001005
-0.001334
-0.002484
-0.001991
-0.001169
-0.004128
-1.9e-05
-0.00232
-0.000512
-0.002977
-0.000183
-0.00232
-0.001662
-0.000676
-0.001005
-0.004128
-0.003306
0.001625
-0.006264
-0.003799
-0.001005
0.002611
-0.0061
-0.001498
-0.003635
-0.003142
-0.005114
-0.003635
-0.000183
-0.000512
0.000146
0.000474
0.006556
-0.002813
0.001789
-0.003142
0.000803
0.000803
-0.001827
-0.001498
0.000146
-0.001991
0.001789
0.008692
0.000146
-0.001334
0.001132
0.001625
0.00294
-0.001827
-0.000183
0.001132
-0.002484
0.002775
0.006884
-0.001498
-0.001169
-0.001498
-0.002648
-0.000512
-0.003142
-0.001169
-1.9e-05
-0.002977
-0.001169
-0.001991
-0.002484
-0.002648
0.000639
-0.001498
0.004912
-0.001498
-0.001005
0.000639
-0.001005
-0.002484
-0.004949
-0.003635
-0.00347
0.002447
-0.003963
-0.000347
0.002775
0.001789
-0.001827
0.00031
-0.000183
-0.006429
-0.001498
0.000639
-0.001005
-0.002813
-0.003306
-0.001169
-0.000183
-0.002155
0.003926
-0.000841
-0.009223
-0.003963
-0.001334
-0.001498
0.001132
-0.001334
0.000474
0.001625
-1.9e-05
-0.000183
-0.002155
-0.008401
-0.004621
-0.000676
-0.000512
-0.001662
-0.005607
0.000146
-0.000841
-0.001334
-0.000676
0.000639
-0.008072
-0.004128
-0.003635
-0.002648
-0.000347
-0.00347
-0.001334
-0.00232
0.000474
-0.001334
-0.000676
-0.006757
-0.002484
-0.004785
-0.001498
-0.000347
-0.002977
0.003597
-1.9e-05
0.001625
-0.000512
0.00146
-0.004621
-0.001662
-0.001827
-0.001827
-0.002155
-0.00232
0.000474
0.003597
-0.002648
-0.000841
-0.000841
-0.000841
-0.000183
-0.00347
-0.000183
-0.001005
-0.000841
0.001296
0.002611
-0.002484
-1.9e-05
-0.002155
-0.003635
-0.003963
-0.001662
-0.001169
-0.002155
0.00146
-0.002648
-0.00232
-0.003635
-0.002977
-0.003635
-0.001005
-0.004128
-0.002155
-0.002484
0.00031
-0.001498
-0.000512
0.000146
-0.001334
-0.001662
-0.001991
-0.000676
-0.002484
-0.000676
-0.0061
0.001625
0.001954
0.003926
-1.9e-05
0.00146
-0.000347
0.000146
-0.002813
-0.000347
0.001132
-0.000512
-0.000841
-0.001334
0.000146
-0.000512
-0.000512
-0.00232
-0.001169
-0.001662
-1.9e-05
-0.005443
0.000967
-0.002155
-0.000183
0.003926
0.000803
0.003104
-1.9e-05
0.000639
-0.002648
-0.002484
0.000146
0.002775
-0.002648
-0.000676
-0.001498
0.000474
-0.003306
-0.002813
-1.9e-05
-0.000841
-0.000183
-0.001498
-0.000183
-0.001498
-0.000512
0.00031
0.000803
-0.002484
-0.001334
-0.004785
-0.001991
-0.002813
0.000146
0.000474
-0.004292
-0.000347
0.00146
0.001954
0.001789
0.001789
-0.000347
-1.9e-05
-0.001334
0.000474
-0.002813
-0.001005
-0.002977
-0.001169
-0.000676
-0.001498
0.00031
0.000639
-0.001005
0.004255
0.00294
-0.002813
0.001625
-0.000676
0.00294
-0.002648
-0.002155
0.000474
-0.002155
-0.006593
-0.00232
-0.00347
-0.002155
-0.000841
0.000146
0.000803
-1.9e-05
0.00146
-0.001662
0.001954
0.00031
0.002775
0.000803
-0.001334
-0.002648
-0.003963
-0.001662
-0.003799
-0.001827
-0.001498
-0.000183
-0.001169
0.000146
-0.002155
0.005241
0.001132
0.001625
0.00146
-0.001498
0.001296
-0.001005
-0.003142
-0.002155
-0.001827
-0.002977
-0.001334
-0.00347
-0.001334
-0.002155
0.001954
0.000146
0.001954
0.000967
0.00146
0.001789
0.000803
-0.002813
-0.001005
-0.006429
-0.005936
-0.002648
-0.006429
-0.000841
-0.003306
0.003268
-0.002813
-0.001169
-0.001005
-0.003142
-0.000183
0.001296
-0.000512
0.002447
0.002611
0.000474
0.000474
-0.001662
-0.002977
-0.003306
-0.000676
-0.004128
-0.000512
-0.004621
0.000639
0.001789
-0.000512
0.000146
0.003268
0.00031
-0.001169
-0.000676
0.001132
0.012144
0.014116
0.027265
0.031702
0.040084
0.044029
0.054712
0.0603
0.063916
0.069176
0.074928
0.078544
0.083475
0.088734
0.089885
0.098595
0.099089
0.105334
0.108293
0.111251
0.115524
0.120619
0.120126
0.126865
0.127522
0.132946
0.133932
0.136233
0.143136
0.139685
0.142314
0.146423
0.155627
0.151354
0.151518
0.15497
0.157271
0.158421
0.159408
0.160558
0.161051
0.165817
0.167954
0.166804
0.166475
0.169105
0.166475
0.171406
0.171406
0.173707
0.174364
0.17535
0.174857
0.178802
0.179952
0.179459
0.178802
0.18439
0.183732
0.182582
0.183897
0.183404
0.183732
0.18061
0.183239
0.184225
0.185047
0.183239
0.194416
0.189156
0.189156
0.191293
0.190142
0.18932
0.189485
0.190307
0.189978
0.190964
0.184061
0.193101
0.184554
0.191457
0.191457
0.192279
0.192608
0.196059
0.192443
0.196059
0.193758
0.194251
0.196223
0.19836
0.19836
0.194909
0.196223
0.193922
0.196388
0.194744
0.194909
0.195237
0.194909
0.196388
0.199839
0.197045
0.198031
0.199346
0.193922
0.197045
0.199675
0.196717
0.196388
0.197703
0.198689
0.19836
0.196717
0.199018
0.195073
0.19836
0.197703
0.194251
0.194416
0.198196
0.197867
0.19836
0.200004
0.197538
0.198524
0.198196
0.198524
0.19836
0.19573
0.196717
0.197867
0.197045
0.200332
0.200332
0.198689
0.201647
0.197374
0.200825
0.199839
0.197703
0.198031
0.20099
0.19573
0.198689
0.199839
0.199018
0.198853
0.197538
0.19836
0.197538
0.199839
0.199182
0.200168
0.199675
0.198031
0.196388
0.200661
0.198031
0.200332
0.197867
0.199018
0.197703
0.197045
0.198196
0.19836
0.195073
0.196552
0.197538
0.193101
0.201483
0.196059
0.200168
0.199018
0.201483
0.197867
0.202305
0.203126
0.201154
0.199346
0.200661
0.199346
0.197374
0.201154
0.198031
0.200661
0.199511
0.199182
0.200168
0.200661
0.194251
0.201812
0.202305
0.198853
0.199839
0.200168
0.200168
0.19573
0.195073
0.201154
0.201483
0.197374
0.201319
0.199346
0.198524
0.199511
0.197538
0.196223
0.199182
0.200168
0.199675
0.203291
0.199346
0.196388
0.201154
0.19836
0.197867
0.19721
0.195237
0.197538
0.199346
0.199675
0.201812
0.200825
0.199511
0.203784
0.201319
0.20477
0.204441
0.202633
0.200332
0.199675
0.200825
0.199675
0.201483
0.197867
0.200825
0.196223
0.199018
0.197703
0.199018
0.202305
0.200661
0.203455
0.201483
0.201812
0.200332
0.200497
0.197867
0.202305
0.199346
0.199182
0.198031
0.199675
0.195402
0.196881
0.205756
0.20099
0.200332
0.198853
0.200004
0.197867
0.198689
0.198524
0.200825
0.198853
0.201319
0.198689
0.201483
0.197374
0.203126
0.200332
0.199675
0.202962
0.199346
0.199839
0.203126
0.201319
0.199511
0.199018
0.199346
0.20214
0.200004
0.201154
0.197867
0.198524
0.200661
0.199182
0.199675
0.201812
0.202305
0.200004
0.201154
0.201154
0.200497
0.199346
0.201483
0.199182
0.201976
0.199346
0.199675
0.200004
0.200004
0.198853
0.198853
0.196881
0.200497
0.201812
0.199346
0.203948
0.202962
0.196388
0.19573
0.202798
0.198196
0.198853
0.198031
0.199511
0.200004
0.200168
0.203948
0.205592
0.200497
0.201647
0.203455
0.191128
0.20099
0.198196
0.197538
0.199511
0.199346
0.19836
0.203126
0.199346
0.200004
0.201976
0.197703
0.201812
0.19836
0.199839
0.196388
0.198853
0.198031
0.201647
0.201154
0.199839
0.200332
0.19836
0.19836
0.199511
0.198853
0.200168
0.200332
0.200332
0.201647
0.199675
0.201647
0.196552
0.195237
0.19836
0.199018
0.198689
0.199346
0.197703
0.199511
0.199675
0.200332
0.200332
0.199346
0.201976
0.198689
0.204934
0.199346
0.200497
0.200661
0.200332
0.198853
0.199675
0.198689
0.199511
0.196223
0.199511
0.201319
0.199018
0.200004
0.200332
0.203126
0.198031
0.201483
0.203784
0.204934
0.199839
0.200332
0.199346
0.199511
0.200497
0.199018
0.199675
0.19836
0.201319
0.199346
0.20214
0.198689
0.201154
0.199675
0.20214
0.200497
0.202305
0.205592
0.201319
0.199839
0.20099
0.199839
0.194744
0.198031
0.198031
0.199346
0.196388
0.200825
0.198689
0.203455
0.199839
0.200825
0.198031
0.202469
0.201154
0.198524
0.202305
0.19721
0.19836
0.20477
0.200661
0.201319
0.204441
0.19721
0.198524
0.196881
0.198196
0.200497
0.200661
0.199675
0.202305
0.202633
0.201319
0.200332
0.196881
0.198524
0.199511
0.199675
0.198031
0.200825
0.198853
0.199839
0.199839
0.200661
0.201154
0.201154
0.199675
0.200661
0.200497
0.196717
0.197703
0.192115
0.19573
0.198524
0.195073
0.19836
0.201647
0.19836
0.198853
0.198853
0.199346
0.200497
0.198853
0.202305
0.201812
0.200332
0.199182
0.204606
0.200004
0.201647
0.200168
0.199675
0.195237
0.204441
0.197703
0.201319
0.199346
0.200661
0.202798
0.198524
0.200168
0.198196
0.202305
0.199675
0.199511
0.199511
0.199018
0.199018
0.200332
0.199839
0.198689
0.197045
0.199018
0.198853
0.198689
0.200825
0.200168
0.198689
0.199182
0.200497
0.199018
0.198853
0.199182
0.204441
0.199839
0.199182
0.199182
0.198689
0.199675
0.19836
0.200661
0.200497
0.199675
0.198853
0.199839
0.199346
0.20099
0.195895
0.202962
0.202633
0.202633
0.199346
0.199675
0.201319
0.197374
0.201154
0.199182
0.202305
0.195895
0.203948
0.196552
0.201812
0.201976
0.200004
0.197867
0.201319
0.200825
0.199182
0.201483
0.196059
0.201154
0.198524
0.200497
0.200497
0.200332
0.196717
0.200168
0.197374
0.199839
0.198196
0.197374
0.200497
0.200168
0.197703
0.195895
0.201154
0.197538
0.201154
0.199675
0.200332
0.200004
0.19836
0.199675
0.201319
0.199182
0.200497
0.199511
0.199018
0.200004
0.20099
0.201319
0.204113
0.199675
0.19836
0.199675
0.198689
0.202305
0.201319
0.199839
0.196059
0.199018
0.200661
0.199182
0.198524
0.199839
0.202469
0.199346
0.200825
0.204441
0.197538
0.20099
0.202469
0.198031
0.200168
0.197538
0.203126
0.199675
0.200004
0.199346
0.20477
0.200332
0.197374
0.199675
0.199182
0.199839
0.198031
0.203455
0.199675
0.199182
0.19721
0.207893
0.199182
0.199346
0.199675
0.199346
0.199511
0.19721
0.201483
0.198031
0.202469
0.199839
0.20477
0.196552
0.20099
0.20099
0.203948
0.203455
0.19836
0.202305
0.200168
0.202469
0.201154
0.196388
0.200661
0.197374
0.195566
0.202962
0.198689
0.198524
0.200825
0.202305
0.199346
0.202633
0.194416
0.199182
0.20099
0.195237
0.20214
0.201483
0.19721
0.201154
0.19836
0.197538
0.196717
0.185869
0.197538
0.194909
0.194909
0.130481
0.094158
0.063916
0.040084
0.026936
0.016417
0.013952
0.00031
0.003268
0.001296
0.005569
0.005569
0.004255
-0.000841
0.002447
0.004583
-0.000347
0.000639
-0.003306
0.002611
0.004912
0.004912
0.006227
0.003433
0.006062
0.006556
0.002282
0.003104
-0.000841
-0.00347
-0.000841
0.000639
-0.000347
0.00294
0.001789
0.001132
0.000639
0.000474
0.000146
-0.000512
-0.001334
-0.001498
0.000474
-1.9e-05
0.000146
-0.000512
-0.001827
-1.9e-05
0.00031
-0.000512
-0.001334
-1.9e-05
0.000146
0.000639
0.000803
0.000803
0.000146
0.001132
-0.000183
0.00031
-0.000841
-0.000512
-0.000841
0.001789
0.000146
0.000803
0.000146
0.001789
0.000803
0.00031
0.000803
-1.9e-05
-1.9e-05
-0.000347
-1.9e-05
-0.000183
0.000639
-0.000841
0.000803
0.000474
-0.000183
-0.000347
-0.000676
-0.001662
0.000146
-0.000183
0.000639
0.000474
0.000146
0.001789
0.000803
0.000803
0.00031
0.000146
-0.000841
-1.9e-05
-0.002155
0.00031
0.000146
0.000146
0.000474
0.00031
0.000639
-0.000676
-0.001169
0.000803
-0.000676
-0.000512
0.001296
0.00031
0.001296
0.001132
0.001954
-0.000347
-0.000183
-1.9e-05
-0.001334
-0.001169
-0.003799
0.000639
0.000803
0.000639
0.00031
0.002118
0.000474
0.001954
-0.000512
0.00031
-0.000183
-0.000512
-0.000183
0.000803
0.00294
-0.000676
0.003104
0.000146
0.000146
-0.001005
0.000474
-0.000841
0.00031
0.002775
0.000474
0.001954
0.000803
0.002118
0.003761
0.000803
-0.000347
-0.000512
-0.000676
-0.000347
-1.9e-05
0.001296
-0.000676
0.000639
0.001954
0.003433
-0.000183
0.000967
-1.9e-05
0.002118
0.000146
-0.000183
0.000967
-0.001169
0.003268
0.00031
0.002775
0.00031
0.00146
-0.001005
0.000803
0.001625
-1.9e-05
0.001789
0.001132
0.001132
0.001954
0.002282
-1.9e-05
0.000803
-0.000676
0.00031
-1.9e-05
0.000474
0.000474
0.000967
-0.00232
0.001132
0.000474
-0.001498
0.00031
-0.000183
-0.000676
0.002447
0.002282
0.001789
0.002447
-1.9e-05
0.003433
0.000474
0.000639
-0.001005
-0.000347
-0.000183
-0.000347
0.001789
0.00031
0.00146
0.002282
-0.000183
-0.001005
0.001296
-0.000676
0.000474
0.001296
0.000967
0.004748
0.000474
-0.003635
-1.9e-05
0.002447
0.000146
-0.000512
-0.000183
0.000967
-0.000347
0.001625
0.000803
0.001296
-0.001334
0.004748
0.000967
0.002775
0.002447
0.001954
-0.001005
0.002282
0.006227
0.002611
0.002447
0.001132
0.002611
-0.001498
0.001296
0.000474
0.000146
0.000639
0.001625
0.002118
0.001132
0.00031
0.001296
0.001296
0.000803
0.000474
-0.000676
0.000803
-0.000512
0.000474
0.00031
-0.001334
0.000639
0.001296
0.000474
0.001625
0.000474
0.000146
0.000639
-0.003142
-1.9e-05
0.001789
-1.9e-05
0.00031
0.001132
0.000803
0.000146
0.000146
0.000803
-1.9e-05
-0.000676
0.000474
0.000967
0.001132
0.000967
0.000639
-0.000183
0.000803
0.000639
0.000967
-0.000512
-1.9e-05
-0.001498
-1.9e-05
-0.000676
-1.9e-05
0.000967
0.000967
0.000803
0.002447
-0.000183
-0.000347
0.000803
-0.001169
0.002118
-1.9e-05
0.001296
0.000146
0.001296
0.001132
-0.000347
-0.000676
-0.000183
0.000146
0.000639
0.000474
0.000803
0.001296
0.000146
0.001954
0.003761
0.003104
0.000474
0.002611
0.001296
0.000639
0.001296
0.000803
-0.001169
0.001296
0.001789
-0.000347
0.002118
-0.000676
0.001954
0.001296
0.001954
0.002611
0.005734
0.008528
0.018554
0.022827
0.028744
0.035811
0.044851
0.050439
0.05389
0.061122
0.066053
0.073613
0.074764
0.084132
0.087255
0.092679
0.095144
0.103855
0.107306
0.109936
0.113716
0.115195
0.117003
0.118154
0.125057
0.1267
0.131138
0.130809
0.137877
0.136398
0.140342
0.14478
0.150697
0.15234
0.150697
0.153819
0.153819
0.156778
0.156449
0.160887
0.160229
0.164338
0.165653
0.165817
0.165489
0.168447
0.16779
0.171077
0.174857
0.173049
0.173542
0.179459
0.17157
0.17535
0.178966
0.173049
0.180938
0.179623
0.182582
0.181267
0.180116
0.182417
0.182746
0.183404
0.185212
0.187677
0.184225
0.186526
0.187184
0.188499
0.187841
0.188334
0.188663
0.187019
0.186855
0.192443
0.189814
0.192115
0.1908
0.190471
0.192279
0.191621
0.194087
0.196059
0.193594
0.190964
0.193758
0.193101
0.195237
0.193429
0.195402
0.193922
0.196717
0.196717
0.195402
0.195073
0.193429
0.194416
0.196388
0.195895
0.194251
0.199675
0.191786
0.196059
0.193758
0.194251
0.199675
0.19721
0.190471
0.202798
0.193922
0.195566
0.197703
0.197374
0.198524
0.197045
0.199018
0.196388
0.200332
0.19721
0.200332
0.200168
0.199511
0.193429
0.197867
0.197374
0.197374
0.200497
0.198689
0.196881
0.200497
0.200497
0.199346
0.197374
0.192936
0.19721
0.197374
0.19573
0.200332
0.197867
0.199346
0.200168
0.199675
0.198524
0.201647
0.201319
0.199675
0.195566
0.199346
0.199182
0.199346
0.19836
0.197538
0.196388
0.198853
0.198196
0.196388
0.197703
0.200661
0.198524
0.199675
0.19836
0.198853
0.203291
0.197703
0.200661
0.198853
0.20099
0.197867
0.200332
0.199511
0.200004
0.201647
0.201647
0.199018
0.198031
0.200332
0.201976
0.198524
0.198524
0.194251
0.184061
0.183568
0.181431
0.174035
0.16894
0.172227
0.168447
0.16779
0.168612
0.167132
0.172556
0.171406
0.174364
0.17535
0.18176
0.179952
0.180774
0.178802
0.180938
0.182746
0.180938
0.181267
0.180774
0.183732
0.181431
0.182089
0.181103
0.189485
0.187019
0.187348
0.188663
0.186855
0.188334
0.190471
0.190471
0.192443
0.194744
0.190307
0.191128
0.190964
0.191786
0.192279
0.19721
0.190471
0.195073
0.19458
0.19458
0.192772
0.193101
0.195073
0.19721
0.196059
0.196552
0.196881
0.19721
0.199346
0.195566
0.196717
0.195237
0.196059
0.193758
0.194909
0.195073
0.196059
0.200825
0.196552
0.197538
0.200332
0.198031
0.197374
0.198524
0.196388
0.195566
0.192936
0.197045
0.198524
0.200661
0.197703
0.200004
0.198196
0.199675
0.196059
0.198689
0.199346
0.198196
0.199182
0.198031
0.200332
0.197703
0.20099
0.197867
0.197538
0.19721
0.205427
0.197374
0.199018
0.181596
0.168118
0.156285
0.100239
0.014445
0.005241
0.002611
0.001296
0.002118
-0.001169
0.000146
0.000639
0.00031
0.000639
0.000146
-0.000347
-0.000347
-0.000347
-0.000512
-0.000347
-1.9e-05
0.000474
0.000474
0.00031
0.000474
0.00031
-0.000347
-0.000183
-0.000347
-0.000347
-0.001827
0.006884
0.011651
0.015102
0.020855
0.027593
0.032524
0.040084
0.048302
0.052575
0.058821
0.064738
0.071148
0.075257
0.081502
0.085776
0.091199
0.090049
0.097609
0.097609
0.095801
0.08216
-0.001827
0.00031
-0.001334
0.000639
0.00031
0.000639
0.00031
-0.000347
-0.000183
-0.000347
-0.000512
-0.000183
-0.000183
0.00031
0.000474
0.000474
0.000474
0.000146
-0.000183
-0.000183
-0.000512
-0.000347
-0.000512
-0.000183
-1.9e-05
0.00031
0.000146
0.00031
0.000474
-1.9e-05
-0.000512
-0.000347
-0.000347
-0.000347
-0.000183
0.000146
0.000146
0.000146
0.000474
0.00031
-1.9e-05
-1.9e-05
-0.000512
0.001789
0.0105
0.009514
0.011322
0.00672
0.015924
0.022334
0.030223
0.036469
0.045015
0.046823
0.054548
0.0603
0.061615
0.073449
0.071805
0.078544
0.084954
0.08972
0.096623
0.103855
0.103197
0.105992
0.112237
0.114867
0.114209
0.122756
0.121441
0.12818
0.127851
0.129988
0.139192
0.134425
0.140013
0.141986
0.146095
0.149053
0.152833
0.151025
0.1576
0.154641
0.160722
0.160229
0.159736
0.164667
0.164831
0.164174
0.166146
0.167954
0.168283
0.171077
0.169926
0.172885
0.175843
0.178309
0.175515
0.18061
0.178309
0.178309
0.180938
0.179952
0.182089
0.18061
0.183404
0.185376
0.182911
0.179788
0.188499
0.186526
0.187513
0.188006
0.188992
0.186198
0.187184
0.188827
0.190307
0.191621
0.188334
0.191128
0.187841
0.187348
0.185869
0.193594
0.1908
0.192608
0.191786
0.193429
0.192772
0.197374
0.19721
0.194087
0.194251
0.194087
0.198689
0.19195
0.195402
0.19836
0.19721
0.195895
0.197045
0.200332
0.196059
0.193429
0.19721
0.198196
0.196223
0.197867
0.200332
0.198196
0.200332
0.199346
0.204277
0.198031
0.197538
0.199018
0.19721
0.196881
0.194416
0.194251
0.195895
0.196223
0.19573
0.203291
0.197045
0.200661
0.199839
0.198689
0.199675
0.195895
0.20099
0.19836
0.198196
0.197703
0.206249
0.198524
0.197703
0.197538
0.197538
0.200825
0.193429
0.203126
0.198524
0.203291
0.202469
0.19573
0.200004
0.198031
0.197538
0.200497
0.198689
0.199018
0.200661
0.199346
0.198031
0.199839
0.190964
0.195895
0.202305
0.197867
0.20099
0.197703
0.199018
0.199182
0.201319
0.200332
0.200497
0.191293
0.197538
0.199346
0.199018
0.199018
0.199018
0.198853
0.199182
0.201154
0.201647
0.199182
0.188827
0.19721
0.200332
0.197867
0.200004
0.198689
0.197045
0.199839
0.200661
0.201154
0.200332
0.192608
0.198853
0.19836
0.200497
0.198031
0.199675
0.198689
0.203126
0.203455
0.199018
0.199839
0.196388
0.199511
0.200004
0.203455
0.196552
0.201976
0.200497
0.200825
0.202798
0.206414
0.202469
0.199182
0.200497
0.20099
0.200332
0.201319
0.199511
0.20099
0.20362
0.199675
0.202798
0.200168
0.201319
0.199018
0.199511
0.197374
0.200004
0.199018
0.200332
0.209043
0.206742
0.201647
0.204277
0.201154
0.197703
0.199346
0.197374
0.198031
0.199675
0.202798
0.201812
0.200825
0.199839
0.201319
0.199018
0.198689
0.198689
0.199511
0.200497
0.200825
0.203126
0.200332
0.201483
0.200004
0.204934
0.19836
0.193265
0.193758
0.190307
0.193922
0.192115
0.193101
0.19573
0.196223
0.193101
0.196059
0.193101
0.194087
0.184225
0.188334
0.186855
0.188992
0.185869
0.188663
0.187841
0.187841
0.187184
0.188006
0.186691
0.182089
0.184225
0.182911
0.187677
0.189814
0.190635
0.193758
0.192115
0.192608
0.196388
0.191621
0.193429
0.193429
0.194909
0.194087
0.193265
0.197045
0.193758
0.194744
0.19195
0.195566
0.191786
0.196059
0.192443
0.192608
0.192443
0.196717
0.190471
0.195895
0.197374
0.192279
0.196388
0.193594
0.192772
0.189814
0.191621
0.193101
0.195566
0.193101
0.194251
0.195237
0.195237
0.196223
0.197374
0.19573
0.195566
0.196881
0.195073
0.196223
0.192936
0.194416
0.197867
0.197703
0.195237
0.198196
0.194087
0.195237
0.195895
0.196388
0.200168
0.199675
0.196552
0.197703
0.198689
0.197045
0.201154
0.196059
0.19721
0.198853
0.19721
0.19836
0.199182
0.195073
0.196223
0.198196
0.196388
0.195566
0.180774
0.177487
0.176829
0.179952
0.183239
0.186033
0.182089
0.184554
0.182582
0.184061
0.180774
0.181431

Kurve 4

-0.000676
0.000146
-0.002155
-0.001662
0.000474
-0.000183
0.000967
-0.001498
0.001132
-0.002977
-0.001662
-0.000347
0.000146
-0.000676
0.001296
0.000474
0.001296
0.000639
-0.000183
0.000146
-0.001334
0.000639
-0.000841
-0.000841
0.00146
0.001132
-0.001334
0.000967
-0.001498
-0.000183
0.00146
0.00409
0.001954
0.00294
0.002282
-0.001498
0.002118
-0.000676
-0.002484
-0.001991
0.000639
-0.003306
0.00031
-0.002484
-0.000512
-0.000676
0.00031
-0.000347
0.000474
-0.000347
-0.001662
0.001296
-0.001498
-0.00232
-0.001991
-0.001005
-0.002813
-0.000512
0.000803
0.001132
-0.001005
-0.001662
-0.003799
-0.000676
-0.001827
-0.000512
-0.00232
-0.001662
0.000146
-0.001334
0.000474
0.000967
-1.9e-05
0.00146
0.003268
-0.004128
0.000967
-0.001827
-0.003799
-0.001334
0.002447
0.003268
-0.002155
-0.001827
-1.9e-05
-0.001169
-0.001498
0.000146
0.002447
0.000146
-0.002155
0.000474
-0.001991
-0.001991
-0.001334
-0.003306
-0.000512
-0.00347
0.000146
-0.001334
-0.000676
0.00031
0.004419
-0.000841
0.000967
-0.001334
0.000639
0.000146
-0.001005
0.002282
0.00031
-0.001005
-0.001991
0.001625
-0.007415
-0.000512
-0.003142
-0.000347
-0.003142
-0.001334
0.000639
0.001296
-1.9e-05
-0.000347
0.000967
-0.002648
-0.001334
-0.001662
-0.001827
0.000639
-0.003142
-0.002484
-0.003799
-0.003799
-0.001827
-0.003306
-1.9e-05
-0.000512
0.000803
-0.000183
-0.000347
-0.000676
-0.000347
0.003433
0.000146
-0.002648
-0.001334
-0.001991
-0.004292
-0.001169
-0.002977
-0.004785
-0.000841
0.000967
0.001132
0.001132
0.000803
0.000967
0.000146
-0.003306
0.001954
-0.000512
-0.002484
-0.001334
-0.003963
-0.004621
-0.001827
-0.004785
-0.002813
-0.002648
-0.001169
0.000146
0.000146
0.001625
-0.003963
-0.000347
-0.000183
-0.000347
-0.001991
-0.000841
-0.002813
-0.001662
-0.003799
0.002611
-0.000841
-0.002648
0.000639
-0.000183
-1.9e-05
0.001296
-1.9e-05
-0.001169
0.000803
0.000803
-0.000512
-0.001498
0.000967
0.000967
-0.002813
-0.00347
-0.001005
-0.003799
-0.004785
-0.001827
-0.002648
-0.000841
-0.001334
-0.000841
-0.00232
-0.001005
-0.002484
-0.000841
-0.002813
-0.001005
-0.003142
-0.003635
-0.002813
-0.000676
-0.003306
0.001296
-0.001169
0.000146
-0.001005
-0.000841
-0.005114
-0.001169
-0.001991
-0.001498
0.001296
-0.004128
0.000639
-0.000512
0.002447
0.001296
0.00146
-0.001991
0.000474
-0.000347
-0.001662
0.000639
-0.001005
0.00146
-0.00232
0.000639
-0.001498
0.000146
-0.002155
-1.9e-05
0.000474
-0.000512
0.00409
-0.001827
0.002447
-0.002484
-0.001334
-0.001498
0.000639
-0.003799
-0.002484
-0.002977
0.000146
-0.003142
-0.002813
0.000967
-0.001827
-0.001991
-0.000841
-1.9e-05
-0.001827
-1.9e-05
-0.001827
-1.9e-05
-0.00232
-0.000512
-0.004456
-0.005771
-0.001005
-0.001827
-1.9e-05
0.00031
0.00146
0.000474
0.001296
-0.002813
0.000639
-0.001662
-1.9e-05
-0.002648
0.000474
-1.9e-05
-0.003142
-0.001334
-0.001991
-0.00232
-0.001334
-0.004128
0.002447
-0.001334
-0.001005
0.000967
0.003268
-0.001005
0.000803
0.001789
-0.000512
-0.000183
-0.003142
0.00294
-0.005443
-0.003963
-0.000347
-0.000512
-0.003635
-0.001827
0.000474
-0.001498
0.001625
-0.001169
0.003268
0.000967
0.000967
-1.9e-05
-0.000512
-0.001005
0.002447
-0.003799
-0.002155
-0.001662
-0.002648
0.001954
-0.001827
-0.000512
-0.000676
0.001132
-0.003306
-0.004292
-0.003142
0.00031
-0.003799
-0.002977
-0.001662
-0.001498
-0.000676
-0.004128
0.001625
-0.005443
-0.000841
-0.003635
-0.001334
0.000146
0.000474
0.001296
0.003268
0.00031
-0.000347
-0.000347
-0.001991
-0.003635
0.00031
-0.000676
-0.002813
-0.000841
-0.004456
-0.000347
-0.000183
-0.002648
0.001625
-0.000841
0.000803
0.001132
-0.001005
0.000474
-0.001662
0.000639
0.00294
0.001789
0.000639
0.000474
-0.001169
-0.002977
0.000474
-0.001827
-0.000183
-0.00232
0.002447
-0.003963
0.001789
0.00031
0.002118
-1.9e-05
-0.000512
-0.000676
-0.001991
-1.9e-05
-0.000183
-0.000512
-0.002155
-0.000841
-0.006593
-0.000347
-0.003306
-0.001334
-0.00232
0.000474
-0.000841
-0.002484
0.00146
0.001132
0.002611
0.000803
0.002611
-0.001991
-0.001169
-0.002977
-0.00232
-0.002155
-0.005443
-0.001827
-0.001005
-0.000512
-0.001169
0.003597
-0.004292
-0.000841
-1.9e-05
0.003761
0.000803
-0.001662
0.001296
0.001296
-0.001827
0.000474
-0.001334
-0.000841
-0.002648
-0.002648
0.002282
0.001296
0.001132
0.001789
0.000639
-0.000183
0.000967
0.00146
0.001132
0.00031
0.00146
-0.001005
-0.002813
-0.001991
-0.003963
-0.000183
-0.00232
-0.000347
-0.002155
-0.004292
0.00294
-0.000347
-0.002648
-0.002155
-0.004456
-0.000512
-0.002155
-0.000841
-0.002648
-0.000347
-0.004128
-0.002484
-0.000347
0.000146
-0.000841
-0.002155
0.001625
-0.000512
-0.001498
-0.00347
0.006062
-0.002155
-0.000347
0.002775
-0.001827
-0.000347
-0.00347
-1.9e-05
-0.001498
-0.000512
0.00146
0.008199
-0.003306
-0.000841
-0.000347
0.001132
-0.002648
-0.001334
0.000639
0.00031
0.004748
0.001296
0.003926
-0.001005
-0.001169
-0.001334
-0.001662
-0.003306
0.000474
0.001132
-0.001169
-0.001498
-0.000841
-0.00232
-0.003306
-0.003306
-0.002155
0.00031
-0.002155
-0.001991
-0.000183
-0.000347
-0.000841
0.000146
-0.002813
-0.001169
-0.001827
-0.000347
-0.001662
0.000803
-0.003963
0.00146
-0.000841
0.000639
-1.9e-05
-0.006593
-0.001169
-0.002484
0.000803
-0.001991
0.000803
-0.002155
-0.001827
-0.00347
-0.002648
-0.001991
-0.011688
-0.002484
-0.001169
-0.000676
-0.001169
0.000474
-0.000676
0.001625
-0.001662
0.000474
-0.000512
-0.010209
-0.003306
0.001132
-0.000676
-0.002484
-0.000183
-0.001169
-0.001827
0.001954
-0.001662
-1.9e-05
-0.007908
-0.004949
0.003761
0.000474
-0.000183
-0.000183
0.00031
-0.000347
-0.000183
-0.000347
0.002447
-0.001498
-0.000183
0.001296
0.000146
-0.000183
-0.001005
0.004583
-0.003142
0.002611
-0.000183
0.001625
-0.001827
-0.001827
-0.001662
-0.005607
-0.001498
-0.001662
-0.001498
-0.003142
-0.005771
-0.002977
-0.000676
-0.002484
0.001296
-0.001334
0.000803
-1.9e-05
0.000474
0.001954
0.000639
-0.001169
-1.9e-05
0.000474
-0.000183
-0.00232
-0.006429
0.000474
-0.002155
-0.003963
-0.002484
0.001296
0.000474
0.005241
-0.001334
0.000803
0.001132
-0.000183
-1.9e-05
0.000474
-0.000512
-0.001498
0.002118
-0.001169
0.000146
-0.001827
-0.000676
-0.001498
-0.000676
-0.001005
0.000967
0.000967
0.002447
-0.000676
0.000803
-1.9e-05
0.00031
0.000639
-0.004949
-0.001827
-0.008072
-0.000676
-0.004785
-0.001827
-0.001005
-0.000841
-0.002648
0.002447
0.000803
-0.001005
0.001789
0.001132
0.003926
-0.004292
-0.000676
-0.000841
-0.002484
-0.002648
0.001789
-0.004456
-0.002648
-0.003799
-0.002977
-0.001827
-0.000347
0.002775
0.001296
0.003597
-0.001169
0.001625
-0.001169
0.000967
-0.00725
-0.003963
-0.001827
-0.001334
-0.001005
0.000639
-0.000512
-0.001169
0.001132
-0.000183
0.001132
-0.000512
0.000803
-0.001498
0.003268
0.004912
0.005076
0.000967
-0.001334
-0.003635
-0.000841
-0.000347
-0.001005
-0.000183
-0.002648
0.001954
0.000803
0.003433
0.000803
0.00146
0.000639
-0.001498
-0.000676
0.002611
-0.002484
-0.000841
-0.004456
0.001954
0.003104
-0.003635
0.001296
0.00146
0.002775
0.001296
0.001132
-0.002155
0.000146
-0.000347
0.003104
-1.9e-05
0.000474
0.00146
-0.001169
0.001789
0.000474
0.000146
0.000803
0.005076
-0.000183
0.003926
-0.000183
0.000803
-0.001005
0.001132
-0.000841
0.003104
-0.001991
-0.001169
0.000146
-0.001662
-0.000183
-0.001827
0.000967
-0.000347
-0.001005
0.004255
0.010993
0.014938
0.022334
0.032524
0.038276
0.043865
0.050274
0.057506
0.063916
0.069011
0.069833
0.081338
0.083968
0.089227
0.0935
0.098102
0.101883
0.106156
0.10517
0.113388
0.114374
0.11914
0.124235
0.125221
0.129659
0.133603
0.135904
0.135904
0.142972
0.143629
0.140178
0.145766
0.149546
0.150204
0.155134
0.151518
0.155134
0.15612
0.159079
0.160394
0.162695
0.162859
0.16516
0.167954
0.170255
0.169598
0.16894
0.172885
0.170091
0.173378
0.175843
0.173542
0.170913
0.177487
0.175843
0.180116
0.178966
0.178144
0.17913
0.183239
0.182253
0.180116
0.184718
0.186362
0.189156
0.185869
0.188334
0.185869
0.185212
0.187513
0.187348
0.188006
0.187677
0.189156
0.19195
0.1908
0.189814
0.195237
0.188006
0.190471
0.193922
0.19458
0.190471
0.192443
0.194744
0.191457
0.190635
0.194087
0.193758
0.192608
0.194416
0.192443
0.194251
0.194744
0.19458
0.195402
0.196881
0.195237
0.199839
0.198031
0.193101
0.198031
0.195566
0.194251
0.196717
0.19573
0.19573
0.196223
0.194416
0.196717
0.192936
0.196223
0.196717
0.197538
0.195073
0.198689
0.19573
0.196717
0.198524
0.196717
0.19836
0.197045
0.199182
0.196059
0.199839
0.195895
0.198524
0.195237
0.201154
0.201647
0.194744
0.197045
0.201976
0.198689
0.195073
0.199346
0.197538
0.197538
0.196059
0.200332
0.195402
0.199346
0.197867
0.199511
0.198196
0.198031
0.197374
0.200004
0.196388
0.192115
0.20362
0.195566
0.197374
0.198031
0.199839
0.197867
0.199346
0.198196
0.198031
0.19836
0.19573
0.197045
0.198196
0.200497
0.199182
0.198524
0.197538
0.203948
0.197374
0.202798
0.201812
0.198853
0.200497
0.200825
0.200168
0.200661
0.201647
0.198031
0.195237
0.198853
0.198689
0.194909
0.197045
0.198196
0.200332
0.198853
0.201812
0.200168
0.197867
0.201812
0.200332
0.197538
0.199675
0.195566
0.199182
0.199675
0.196881
0.19836
0.197045
0.200497
0.198524
0.198524
0.201812
0.200825
0.199675
0.199346
0.199511
0.200004
0.197867
0.197867
0.19721
0.198524
0.200497
0.197703
0.200661
0.199675
0.201812
0.197374
0.199839
0.201976
0.20099
0.199839
0.201319
0.200332
0.201154
0.20099
0.203948
0.20099
0.198689
0.199346
0.200825
0.202469
0.197538
0.199018
0.201483
0.199839
0.198689
0.200332
0.198524
0.196717
0.195237
0.192608
0.191293
0.175679
0.152011
0.045015
0.018718
0.004583
0.003433
-1.9e-05
0.00031
0.002447
-0.001334
-1.9e-05
0.000967
-0.000347
0.000639
0.000474
0.000146
-0.000183
-0.000512
-0.000347
-0.000183
-0.000347
-1.9e-05
0.000146
-0.000347
0.00031
0.00031
0.001296
0.000146
0.00031
0.000474
-0.000347
-0.000347
0.000146
-0.000183
0.000639
0.00031
0.000474
0.000474
0.000803
0.000146
-0.000183
-1.9e-05
-0.000676
0.000474
-0.000183
0.000474
0.000146
0.000639
0.000474
0.000146
-1.9e-05
-1.9e-05
-0.000183
-0.000841
-0.000512
-0.000512
0.00031
0.000146
-0.000183
0.000474
0.000146
0.000474
-0.000183
-0.000676
-1.9e-05
-0.000512
0.00031
0.000146
0.000146
0.00031
0.00031
0.000474
-1.9e-05
-1.9e-05
-0.000676
-0.000183
-0.000676
0.000474
0.000146
0.000474
0.00031
0.000639
0.00031
-0.000347
-0.000512
-0.000183
-0.000512
-0.000676
0.000146
0.000146
0.000639
0.00031
0.000474
0.000146
-0.000183
-1.9e-05
-0.000347
-0.000347
-0.000347
0.00031
-1.9e-05
0.00031
0.000146
0.000474
0.000146
-1.9e-05
-0.000347
-0.000347
-0.000347
-0.000183
0.000146
-1.9e-05
0.000474
0.00031
0.00031
0.000146
-1.9e-05
-0.000512
0.00031
-0.000841
0.000146
-1.9e-05
0.000146
0.000474
0.00031
0.00031
-1.9e-05
-0.000183
-0.000347
-0.000347
-0.000183
0.000146
-1.9e-05
-1.9e-05
0.000146
0.000639
0.000474
0.00031
-0.000183
-0.000347
-0.000512
-0.000512
-0.000183
-1.9e-05
0.000146
0.000474
0.00031
0.000474
0.00031
-0.000183
-1.9e-05
-0.000347
-0.000841
-0.000183
-1.9e-05
0.000474
0.000146
0.000474
0.000474
0.00031
-1.9e-05
-0.000183
-0.000512
-0.000512
-0.000841
0.000146
-1.9e-05
0.000474
0.000146
0.000146
0.00031
-0.000183
-1.9e-05
-0.000512
-0.000183
-0.000841
0.000146
-1.9e-05
0.000146
-1.9e-05
0.00031
0.00031
-1.9e-05
-0.000183
-1.9e-05
-0.000183
-0.000347
0.000146
0.00031
0.000474
-1.9e-05
0.00031
0.000639
-0.000183
-0.000347
-1.9e-05
-0.000676
-0.000512
-0.000183
0.000146
0.000146
0.000146
0.000474
0.000639
-0.000183
-1.9e-05
-0.000512
-0.000347
-0.000183
-1.9e-05
0.000474
-0.000183
0.000474
0.000146
0.000474
-0.000183
-0.000347
-0.000347
-0.000347
-1.9e-05
-1.9e-05
0.000146
0.00031
0.000474
-1.9e-05
0.00031
-0.000183
-0.000183
-0.000676
-0.000183
-0.000347
0.00031
-1.9e-05
0.000146
0.00031
0.00031
0.00031
-0.000183
-0.000183
-0.000676
-0.000183
-0.000183
0.000146
0.000146
0.00031
0.00031
0.000474
0.00031
-1.9e-05
-0.000347
-0.000347
-0.000512
-0.000512
0.000474
0.000146
0.000474
0.000639
0.000639
-1.9e-05
0.000146
-0.000183
0.000146
-0.000183
-0.001005
-1.9e-05
0.000146
0.000146
0.000639
0.000474
0.000146
-1.9e-05
-0.000512
-0.000183
-0.000347
-0.001169
-1.9e-05
0.000474
0.00031
0.00031
0.000474
0.00031
-0.000347
-0.000183
-0.000347
-0.000347
-0.000512
-0.000183
-1.9e-05
0.00031
-1.9e-05
0.000474
0.000639
-0.000183
-0.000183
-0.000347
-0.000347
-0.000347
-1.9e-05
0.000146
0.000146
0.00031
0.00031
0.00031
0.000146
-0.000183
-0.000347
-0.000347
-0.000183
0.000146
0.00031
0.00031
0.00031
0.000474
0.000639
-0.000347
-1.9e-05
-0.000347
-0.000347
0.000146
-0.000183
-0.000183
0.004583
0.016088
0.021512
0.0271
0.034661
0.044851
0.049617
0.055041
0.061944
0.07049
0.074435
0.078873
0.083639
0.089063
0.087912
0.099582
0.099746
0.101061
0.103362
0.10895
0.114867
0.116675
0.122098
0.123413
0.126043
0.129166
0.133439
0.138041
0.140342
0.140835
0.144451
0.145602
0.144287
0.145437
0.152669
0.153819
0.153984
0.156613
0.158914
0.159901
0.159736
0.16516
0.162037
0.162859
0.165489
0.169598
0.16894
0.171899
0.175843
0.171406
0.174528
0.176336
0.17913
0.181431
0.178637
0.181267
0.178802
0.179459
0.179623
0.182253
0.184718
0.184554
0.185212
0.189649
0.186033
0.188499
0.186526
0.187348
0.185376
0.18817
0.187841
0.192279
0.189649
0.192608
0.193265
0.188992
0.190635
0.189978
0.193265
0.191621
0.191293
0.193594
0.192608
0.192443
0.192279
0.200497
0.193594
0.192443
0.196059
0.193594
0.198031
0.192608
0.192772
0.19458
0.192279
0.197045
0.200004
0.194251
0.193758
0.196223
0.196717
0.198196
0.19573
0.199018
0.197703
0.197045
0.19721
0.19836
0.193101
0.198196
0.195073
0.196717
0.20099
0.194087
0.199675
0.197867
0.199346
0.197867
0.20362
0.197703
0.200497
0.20099
0.200825
0.199346
0.196717
0.199839
0.197045
0.199839
0.195895
0.194416
0.19573
0.200661
0.197538
0.19573
0.197703
0.19836
0.199346
0.201483
0.201647
0.20099
0.190471
0.197374
0.196881
0.195566
0.202305
0.194909
0.198031
0.201976
0.200825
0.200332
0.200825
0.18932
0.201154
0.201319
0.20362
0.204277
0.201812
0.201319
0.200332
0.202633
0.200168
0.200168
0.188827
0.195073
0.19836
0.198196
0.202798
0.201154
0.203784
0.206742
0.202633
0.203948
0.202633
0.194744
0.198689
0.200332
0.200168
0.198853
0.200332
0.199346
0.201976
0.199511
0.203784
0.199511
0.19458
0.201647
0.200004
0.200661
0.20362
0.203291
0.197703
0.203126
0.196717
0.199839
0.200661
0.203784
0.199018
0.200168
0.200497
0.20214
0.204277
0.199511
0.206414
0.201647
0.199182
0.204934
0.205756
0.201483
0.203126
0.200168
0.201647
0.201154
0.201319
0.201647
0.204441
0.200661
0.201483
0.205099
0.202469
0.203455
0.204441
0.203291
0.200332
0.20477
0.200332
0.202633
0.200497
0.202305
0.20099
0.199346
0.200168
0.200004
0.200497
0.204113
0.200825
0.200825
0.203784
0.200332
0.20214
0.199675
0.198031
0.198689
0.199346
0.198524
0.198031
0.202469
0.201812
0.19836
0.201319
0.200332
0.201976
0.200825
0.197374
0.205592
0.199839
0.200497
0.203291
0.202962
0.201319
0.202469
0.200332
0.202305
0.202469
0.199839
0.199675
0.200168
0.20362
0.202798
0.203126
0.20099
0.20099
0.199675
0.200168
0.199675
0.19836
0.20099
0.206085
0.199675
0.205756
0.204277
0.20099
0.202633
0.202305
0.205099
0.204606
0.202305
0.198853
0.202305
0.199346
0.201154
0.201812
0.199018
0.199018
0.20099
0.197374
0.200497
0.19721
0.199675
0.202469
0.199839
0.205099
0.202962
0.201154
0.198689
0.197374
0.200825
0.200004
0.197538
0.200825
0.200497
0.200661
0.20362
0.200004
0.201647
0.204441
0.202305
0.199839
0.200661
0.198031
0.201154
0.198689
0.199018
0.199018
0.201812
0.200004
0.200497
0.201647
0.200497
0.20214
0.197703
0.202962
0.203126
0.203126
0.201319
0.203948
0.202469
0.201647
0.200332
0.201154
0.201319
0.199839
0.200004
0.199839
0.201319
0.199182
0.198689
0.20099
0.200332
0.201812
0.201319
0.202469
0.200825
0.200661
0.201812
0.19836
0.202962
0.198031
0.198689
0.201483
0.197703
0.201647
0.201319
0.200825
0.201483
0.203291
0.200661
0.200168
0.198853
0.202469
0.202305
0.19836
0.201647
0.20362
0.197703
0.199346
0.200661
0.198853
0.200825
0.19836
0.200825
0.200497
0.201812
0.200168
0.201154
0.193922
0.201319
0.199018
0.198196
0.205263
0.196388
0.198196
0.199182
0.198524
0.19721
0.201647
0.198853
0.200497
0.201319
0.205921
0.201647
0.201483
0.204277
0.204113
0.202962
0.200004
0.204277
0.199346
0.201647
0.19836
0.201154
0.197538
0.199839
0.201812
0.201647
0.197867
0.201812
0.206249
0.202962
0.20099
0.203126
0.201483
0.199839
0.200332
0.201154
0.201319
0.200004
0.20214
0.201976
0.198689
0.199018
0.199018
0.200661
0.200004
0.201647
0.201976
0.198853
0.197703
0.202962
0.202305
0.200661
0.200825
0.195402
0.198853
0.198853
0.198031
0.199182
0.193594
0.19836
0.201647
0.19721
0.199839
0.199839
0.197867
0.196717
0.199018
0.194909
0.191293
0.186855
0.189814
0.185705
0.188499
0.187184
0.184718
0.185869
0.190471
0.188334
0.186691
0.189649
0.189814
0.19195
0.190635
0.193594
0.190471
0.19458
0.193429
0.197374
0.193429
0.192115
0.192772
0.193429
0.194087
0.193758
0.194251
0.192772
0.197045
0.197538
0.19721
0.197045
0.196717
0.196717
0.198031
0.19573
0.194909
0.198689
0.193594
0.194416
0.193758
0.19836
0.196388
0.198196
0.195237
0.192115
0.194087
0.196717
0.195566
0.197374
0.19836
0.199346
0.198689
0.201319
0.200661
0.203291
0.203291
0.199346
0.199839
0.200497
0.198031
0.19573
0.201154
0.197703
0.19721
0.198031
0.200661
0.199018
0.200661
0.200168
0.199346
0.201154
0.198853
0.199675
0.198524
0.200825
0.19836
0.200825
0.197867
0.200825
0.198853
0.200332
0.200004
0.20099
0.199675
0.197867
0.196881
0.194909
0.201154
0.198031
0.199346
0.198853
0.201976
0.198031
0.201812
0.197703
0.200497
0.199346
0.199018
0.200168
0.201154
0.201483
0.200332
0.201154
0.19836
0.196388
0.199018
0.202469
0.197045
0.20099
0.20099
0.200168
0.201319
0.200661
0.199511
0.199675
0.199839
0.200332
0.199839
0.200332
0.200004
0.197538
0.202798
0.199346
0.201483
0.199675
0.200497
0.201154
0.198853
0.199346
0.20099
0.199346
0.199839
0.199675
0.199018
0.207564
0.200168
0.200332
0.199346
0.199182
0.19721
0.201483
0.200661
0.204441
0.201319
0.200332
0.201319
0.200497
0.204277
0.200497
0.201483
0.196552
0.201976
0.197045
0.201319
0.20362
0.20099
0.20099
0.207235
0.200825
0.202469
0.202469
0.201647
0.201976
0.201319
0.201319
0.199675
0.199839
0.19836
0.201483
0.198853
0.199182
0.196388
0.200825
0.202305
0.202633
0.201483
0.201319
0.203126
0.201154
0.202633
0.199346
0.199511
0.199675
0.194251
0.193594
0.200332
0.197703
0.199182
0.200661
0.201483
0.20214
0.203291
0.200168
0.202633
0.202798
0.200168
0.20362
0.199182
0.202305
0.199182
0.198689
0.199675
0.201647
0.201483
0.199675
0.196388
0.201154
0.198524
0.200661
0.202469
0.201154
0.203291
0.200825
0.201647
0.201154
0.201319
0.200332
0.199675
0.19836
0.201319
0.199511
0.199182
0.20099
0.201483
0.201647
0.201647
0.201319
0.200004
0.203126
0.199346
0.202962
0.199675
0.199839
0.205921
0.196059
0.194087
0.199675
0.195566
0.196717
0.200661
0.199675
0.202633
0.200497
0.201812
0.202798
0.198689
0.201319
0.204277
0.201154
0.202633
0.201319
0.203455
0.20477
0.200825
0.202305
0.204113
0.205427
0.199018
0.203455
0.201647
0.200004
0.201812
0.200004
0.202305
0.203455
0.200332
0.203126
0.201812
0.200168
0.199511
0.199839
0.200168
0.200332
0.200497
0.199182
0.203291
0.200168
0.200332
0.20099
0.201483
0.20099
0.201812
0.199182
0.200004
0.203948
0.19721
0.201647
0.199346
0.199182
0.200332
0.200168
0.200168
0.201319
0.19836
0.196388
0.20099
0.20099
0.200825
0.203126
0.20099
0.202633
0.20214
0.198853
0.200497
0.199675
0.199839
0.196223
0.204934
0.196717
0.198689
0.197374
0.20099
0.200168
0.202305
0.202305
0.199675
0.203126
0.200497
0.202305
0.20099
0.202469
0.200332
0.201812
0.200497
0.200825
0.197703
0.20099
0.197538
0.198524
0.200497
0.20099
0.204277
0.200661
0.198524
0.199511
0.20477
0.198689
0.201976
0.200825
0.202305
0.202469
0.200332
0.19836
0.201812
0.201812
0.199346
0.200168
0.199675
0.202469
0.199346
0.203291
0.200332
0.197703
0.200825
0.203455
0.200825
0.200661
0.202798
0.202305
0.200168
0.201812
0.199675
0.201319
0.20099
0.201154
0.201154
0.203126
0.200661
0.199182
0.202469
0.201154
0.200661
0.204277
0.201154
0.202633
0.200825
0.201319
0.202469
0.199839
0.198853
0.197374
0.197867
0.201154
0.198853
0.199346
0.196552
0.20362
0.200661
0.204113
0.200168
0.199675
0.202962
0.200661
0.20099
0.200004
0.201483
0.200661
0.202305
0.197374
0.203126
0.199675
0.197867
0.202469
0.203455
0.200661
0.201647
0.206907
0.201976
0.202305
0.201483
0.201647
0.198689
0.200004
0.200004
0.201812
0.198524
0.202469
0.199018
0.200332
0.19573
0.201154
0.199182
0.200332
0.20214
0.199839
0.202962
0.200332
0.201154
0.20214
0.206578
0.201154
0.199018
0.198689
0.200004
0.196388
0.196881
0.199839
0.198031
0.196059
0.202305
0.201647
0.202962
0.201812
0.200497
0.201976
0.199182
0.202469
0.200332
0.200825
0.198031
0.200332
0.201976
0.203784
0.201812
0.205099
0.204113
0.200332
0.198689
0.196223
0.201812
0.195073
0.204934
0.201976
0.200661
0.201483
0.201976
0.201154
0.198689
0.19836
0.198031
0.198524
0.197045
0.201812
0.200332
0.200004
0.196552
0.205263
0.19836
0.202469
0.20099
0.201154
0.202469
0.199511
0.200825
0.200825
0.196223
0.195073
0.19836
0.19721
0.197538
0.199675
0.202633
0.203291
0.200332
0.199511
0.202798
0.203455
0.202305
0.20362
0.200168
0.201154
0.203291
0.202962
0.200661
0.202798
0.199346
0.201976
0.198031
0.204113
0.204113
0.201154
0.205099
0.203455
0.20099
0.201976
0.201976
0.204113
0.198524
0.201812
0.201483
0.197703
0.201154
0.198853
0.203291
0.199675
0.199839
0.199839
0.203291
0.200497
0.200497
0.200825
0.20099
0.198031
0.197374
0.201812
0.199675
0.197538
0.197867
0.202633
0.199182
0.200825
0.199675
0.201483
0.200332
0.199511
0.202798
0.201154
0.202305
0.200004
0.208222
0.201812
0.205263
0.201319
0.205099
0.200661
0.200004
0.199346
0.201154
0.201319
0.201976
0.200497
0.201483
0.160558
0.105663
0.081338
0.011815
0.003926
0.00294
0.000474
0.00031
-0.000841
0.000146
-0.000512
-0.000512
0.000474
0.001132
-1.9e-05
0.000474
0.000146
0.000146
0.000639
-0.000841
0.000146
0.000146
-0.000512
0.000146
0.001132
-1.9e-05
0.000146
-1.9e-05
-0.000512
0.000803
-0.000676
0.000146
-1.9e-05
-0.000183
-0.000347
0.003268
0.000146
0.00031
0.000639
-1.9e-05
0.000474
-0.000183
-0.000676
-0.000841
0.000146
-0.001169
0.003597
-0.000512
0.000146
-1.9e-05
0.000474
0.000474
0.000639
-0.000183
-1.9e-05
-1.9e-05
-0.000512
0.003268
-1.9e-05
0.000474
0.00031
0.000474
-0.000183
0.000967
-0.000183
0.000146
-0.000183
-0.000183
0.001625
-1.9e-05
0.00031
0.000474
0.000474
0.000639
0.000474
-1.9e-05
-1.9e-05
-0.000347
-0.000183
-0.000676
-0.000183
0.00031
0.000474
0.000146
0.000146
0.000639
0.000146
-1.9e-05
-0.000676
-0.000512
-0.002155
0.00031
0.000146
0.000639
0.000474
0.000803
-0.000512
-0.000183
0.000146
-0.000676
-0.000512
-0.00232
-1.9e-05
0.000146
0.000474
0.00031
0.000639
0.000146
0.00031
-0.000183
-0.000347
-0.000512
-0.00232
-0.000183
-1.9e-05
0.00031
-0.000183
0.00031
0.000146
-0.000183
-0.000183
-0.000183
-0.000347
-0.001169
-0.000347
0.000146
0.000146
0.000474
0.000639
0.00031
-1.9e-05
-0.000512
-0.000183
-0.000676
-0.000841
-0.000347
0.00031
-0.000347
0.000474
0.000146
-0.000183
0.000146
-0.000183
-0.000183
-0.000183
-0.000512
-0.000183
0.000146
-1.9e-05
0.000639
0.000146
0.000474
-0.000676
-1.9e-05
-0.000347
-0.000347
-0.000512
0.000474
-0.000183
0.00031
0.000803
0.000474
0.000639
-1.9e-05
-1.9e-05

Kurve 5

-1.9e-05
0.001132
0.001132
-0.000347
-0.000347
-0.001005
-0.002977
-0.001334
-0.001827
-0.000676
0.00031
-0.001827
0.006062
0.000967
0.002447
0.002447
-0.000347
0.001625
-0.000347
0.000803
-0.003635
0.000639
-0.002484
-0.001827
-0.000347
-0.000841
0.003597
0.002775
-0.000347
0.000639
0.000146
-0.000676
0.000803
-0.000512
-0.001334
-1.9e-05
0.00031
-0.000512
0.001625
0.000803
-0.00347
-0.002155
-0.001991
-0.000676
-0.002977
-0.000512
-0.000183
0.004419
-0.003306
0.00146
-0.000841
-0.000676
-0.000512
-0.000841
-0.001005
-0.001827
-0.002813
0.002611
-0.001827
-0.002977
-1.9e-05
-0.003306
-0.00232
-0.001827
0.000639
-0.003306
-0.004621
0.001789
-0.00232
-0.000676
0.001789
-0.000347
0.000474
-0.001334
-0.002648
0.000146
-0.002648
-1.9e-05
-0.001827
0.00031
-0.002813
-0.000512
-0.007579
-0.003963
-0.004621
-0.004621
-0.002813
-0.004128
-0.001662
-0.004785
-0.003963
-0.00725
-0.003306
-0.006757
-0.003142
-0.005278
-0.005771
-0.005114
-0.006429
-0.006593
-0.000512
-0.002813
-0.001827
0.000146
-0.001827
-0.001169
-0.002813
-0.002648
-0.00347
-0.001662
-0.005771
-0.004292
-0.007415
-0.001498
-0.000676
-0.001334
-0.00347
-0.001827
0.000474
0.001625
-1.9e-05
-0.002484
-1.9e-05
0.000967
-0.000676
-0.001005
0.002775
-0.002155
-0.002648
-0.003963
-0.002155
-0.00232
-0.003963
0.002775
-0.001169
0.00031
-0.001169
0.003268
-0.002155
0.002447
-0.004128
-0.002648
-0.002813
-0.002977
0.001132
-0.001498
-0.002648
-0.002648
-0.000347
-0.002648
0.002118
-0.001662
0.001296
-0.000347
0.001132
-0.000347
0.002447
-1.9e-05
-0.001827
-0.001662
-0.002977
-0.002648
-0.003306
-0.004456
0.000474
0.00146
0.000803
0.004255
-0.001827
-0.001169
-0.001662
0.000639
-0.001991
0.001625
0.000146
0.001132
0.001625
-0.000676
0.003433
-0.001498
-0.001827
-0.001498
-0.000676
-0.002813
0.000146
-0.001827
-0.000512
-0.000512
0.002118
0.002447
0.004419
-0.002484
-0.000676
-0.001827
-0.005443
-1.9e-05
-0.003142
0.000474
-0.000347
0.003104
0.00146
0.003926
-0.001005
0.000146
-0.000183
-0.000347
-0.002155
-1.9e-05
-0.00232
-0.002977
-0.000676
-0.001169
0.001954
-0.003142
0.001625
-0.001498
-0.000676
-0.000676
0.003104
-0.003635
-0.002977
0.000146
-1.9e-05
0.000146
0.00294
0.005076
-0.001005
0.003104
0.00031
-0.000183
-0.001827
0.000639
0.000803
0.00146
-0.001169
-0.001169
-0.000676
-0.001662
0.001296
0.003104
0.000639
-0.002813
-0.001991
-0.000841
-0.000347
-0.002813
0.001296
0.000803
-0.000512
0.000639
0.002611
-0.0061
-0.002977
-0.00347
-0.002484
-0.000347
-0.008401
-0.000841
-0.004949
-0.00232
-0.00232
-0.001334
-0.001827
-0.004292
-0.001662
0.00031
-0.001005
0.001132
-0.000183
-0.001991
-0.002648
-0.002977
-0.00232
-0.001169
0.002282
-0.000841
-0.000512
0.000803
0.000474
0.000639
0.001789
-0.001827
0.000474
0.000146
-0.000512
-0.000183
-1.9e-05
0.001789
-0.008401
0.002118
0.001789
0.003761
-0.000841
-0.000512
-0.000347
0.00031
-0.001005
0.002611
0.001789
0.001625
0.000803
-0.003142
-0.000512
-0.001498
-0.002155
-1.9e-05
0.00031
-0.00232
-0.005278
-0.002155
0.000803
-0.00232
-0.004128
-0.001334
0.00031
-0.001005
0.000639
0.001132
0.000146
0.001954
-0.001005
-0.001169
-0.000183
-0.000183
-0.000183
-0.001334
-0.001991
-0.001991
-0.002155
0.000803
-0.000676
0.001625
0.001789
0.000803
0.000639
0.00146
-0.000183
-0.001005
-0.000512
-0.002155
-0.00347
-1.9e-05
0.00031
-0.001334
0.003761
-0.00232
-0.000841
0.001296
0.001132
0.001789
0.001625
-0.000512
-0.004128
0.003268
0.000146
0.000967
-0.000183
0.000474
-0.005114
-0.002813
-0.000347
0.001132
0.001296
-0.006593
0.00409
0.003433
-0.000183
0.002118
-0.001991
-0.004785
0.002611
-0.002155
0.001296
-0.001827
-0.002155
-0.001169
0.001132
-0.001498
-0.000676
0.001132
-0.001991
0.000474
0.000474
0.000146
-0.000512
0.00031
-0.000347
0.002447
-0.001498
0.000639
-0.001005
-0.004456
-0.001991
-0.002484
-0.001662
-0.002648
-0.001334
-0.003963
0.003268
-0.000512
-0.001169
-0.000841
0.001789
0.001625
0.003104
0.000639
0.000146
-0.001498
-0.002155
-0.001827
0.00146
0.002118
0.001789
-0.000347
-0.000347
0.00146
-0.001334
-0.002484
-0.000183
0.003433
-0.001334
-0.002484
0.001954
0.001625
0.000639
0.000474
0.000639
-0.000183
-1.9e-05
-0.000183
0.001789
-1.9e-05
-0.000512
-0.004621
0.000474
-0.003635
0.000803
-0.000676
0.000474
-0.000183
0.003926
0.001296
-0.000676
0.001132
-0.00347
-0.001334
-0.001662
0.000146
-0.002813
-0.000347
-0.002648
0.00031
-0.002648
0.003268
0.004583
0.002282
0.000146
-0.002977
-0.001169
-0.002648
0.000639
-0.002813
-0.000347
0.00031
-0.000676
-0.002813
0.001132
-0.001169
-0.002977
-0.002155
0.00294
0.000803
0.003268
0.000639
0.000639
0.001625
-0.002648
0.006556
-0.001169
0.000639
-0.004949
-0.001169
-0.001991
-0.001827
-0.001991
0.000803
-1.9e-05
-1.9e-05
0.000967
0.00146
-0.001005
0.001789
0.004912
0.00031
0.001132
-0.000512
0.000146
-0.000347
-0.000676
-0.002484
0.001296
-0.002977
-0.001169
-0.000676
0.001296
-0.002155
-0.001169
0.001132
-0.004456
-0.001827
-0.000676
-0.000512
-0.00725
-0.001662
0.001132
-0.001005
-0.000676
-0.001334
-0.000347
-0.002155
-0.001991
-0.001662
0.002447
-0.005114
-0.000676
-0.000183
0.001789
-0.000183
0.001132
0.001132
-1.9e-05
0.001789
0.000474
-0.000512
-0.004456
-1.9e-05
-0.00232
0.001789
-0.002813
-0.000183
-0.000347
-0.003306
-0.003306
0.00146
-0.002648
-0.001991
-0.000183
0.000803
-1.9e-05
-0.000676
-0.001498
0.000639
0.000146
-1.9e-05
0.000803
-0.00347
-0.002813
-0.000676
-0.004785
-0.003142
0.00031
-0.005443
-0.000841
-0.000676
0.000474
0.002447
0.001789
0.000474
-0.000512
0.000639
-0.002155
0.002611
0.000967
0.004912
0.001132
0.001625
-0.000347
0.004748
-0.000512
0.001132
-0.000183
-0.000512
0.003104
-0.002648
0.004255
0.000474
0.000967
-0.002648
0.00672
-0.004949
0.001132
-0.001662
0.000474
-0.002484
-0.003142
0.001132
-0.000347
0.000474
0.00146
0.006391
-0.001169
0.001625
-0.000183
0.000803
0.001132
-0.000676
-0.001991
-0.002813
0.00031
0.000146
-0.001827
-0.002813
-1.9e-05
-0.000512
0.001296
-0.001991
0.002282
0.002118
0.002118
-0.001662
0.001296
-0.006429
0.000146
-0.001334
-0.001169
-0.00232
-0.000183
-0.001827
-0.000676
0.002282
0.000803
0.00146
-0.009551
0.001296
-0.000347
0.004583
0.000474
0.005734
-0.002155
0.002447
0.000803
-0.001005
-0.001991
-0.009716
-0.001334
-0.002484
0.000474
0.002775
0.000803
0.005241
0.003268
0.003597
0.005076
0.000967
-0.004785
-0.000512
-0.001169
-0.002484
-0.002813
-0.000676
-0.001991
-0.001005
-0.001169
0.002447
-0.001334
-0.002813
-0.005771
0.002611
0.002775
-1.9e-05
0.003761
0.002775
0.001789
-0.001991
-0.000347
-0.000676
-0.003306
-0.002155
0.001132
-0.00232
-0.000183
-0.002648
0.001789
-0.000512
0.000146
0.000146
0.001296
-0.000347
-0.002484
0.000639
-0.001334
-0.001169
-0.001169
-0.000841
-0.000183
-0.001169
0.001132
-0.004128
-0.004785
-0.003635
-0.002155
-0.002484
0.000967
0.002775
0.003268
-0.002155
0.000803
-0.001827
-0.00347
0.000474
-0.002813
-0.00347
-0.003142
-0.004292
0.002611
-0.001169
0.00294
0.002775
-0.003963
0.000639
-0.003635
-0.002484
-0.000512
-0.000183
-0.001334
0.001132
-1.9e-05
0.002282
0.000146
0.001132
-0.000512
-0.001498
-0.002648
0.000146
0.00031
-0.000841
-0.000347
-0.000183
0.00031
0.00146
0.002118
-0.000841
0.001132
-0.002648
0.000803
-0.00232
-0.001827
0.001296
0.006391
0.001789
0.00146
0.006391
0.010664
0.017074
0.025457
0.034332
0.037619
0.049288
0.051261
0.059643
0.064245
0.066546
0.074764
0.074271
0.083968
0.090213
0.093665
0.093665
0.103197
0.106156
0.110922
0.113881
0.118483
0.119304
0.124071
0.126536
0.128673
0.133932
0.135247
0.138041
0.138863
0.141
0.146423
0.147409
0.148724
0.148889
0.149217
0.156449
0.153326
0.158586
0.158586
0.16138
0.163188
0.165489
0.164667
0.170913
0.167297
0.167297
0.169105
0.173707
0.172227
0.173378
0.173707
0.176008
0.179459
0.174693
0.177322
0.176008
0.179459
0.180116
0.179952
0.18061
0.18176
0.184883
0.185705
0.184061
0.182746
0.185705
0.184554
0.17798
0.184225
0.185705
0.180774
0.186033
0.186198
0.18932
0.188499
0.188827
0.189649
0.189485
0.191621
0.190964
0.188499
0.187348
0.191457
0.191786
0.192936
0.190635
0.192608
0.192115
0.191128
0.194744
0.193101
0.193594
0.192443
0.193922
0.194744
0.199346
0.191293
0.192608
0.195402
0.195073
0.194744
0.197538
0.194087
0.195566
0.194251
0.194416
0.194251
0.197374
0.196223
0.197374
0.196223
0.196552
0.200497
0.198853
0.201976
0.197703
0.199182
0.202798
0.201812
0.198196
0.200168
0.197703
0.198689
0.202798
0.196388
0.200825
0.198031
0.20099
0.196059
0.199018
0.199346
0.199675
0.199018
0.200497
0.201812
0.199018
0.200661
0.199346
0.199839
0.199018
0.200497
0.19721
0.201812
0.199182
0.198196
0.200825
0.200497
0.201647
0.203455
0.201319
0.203784
0.199675
0.200661
0.200497
0.199511
0.200825
0.200497
0.196881
0.196881
0.200661
0.195566
0.196717
0.199675
0.204113
0.19721
0.202962
0.199346
0.200825
0.201483
0.197045
0.199346
0.200661
0.199182
0.198853
0.201812
0.199018
0.200497
0.195073
0.202305
0.198031
0.200332
0.199675
0.201154
0.199675
0.202633
0.203948
0.19836
0.202962
0.199182
0.200661
0.198524
0.195073
0.199839
0.199839
0.197703
0.197538
0.203455
0.201647
0.202798
0.203291
0.204277
0.201647
0.201647
0.199675
0.201647
0.200332
0.200661
0.198689
0.19721
0.197703
0.199839
0.197045
0.196388
0.196223
0.198031
0.199839
0.200168
0.201647
0.19836
0.199675
0.201483
0.202962
0.201483
0.201976
0.199675
0.199675
0.197538
0.19836
0.201812
0.199018
0.201812
0.200497
0.203455
0.199182
0.201154
0.201647
0.202633
0.200332
0.201976
0.198689
0.200497
0.197045
0.200497
0.196223
0.200004
0.19836
0.196059
0.19836
0.203126
0.201976
0.199346
0.203948
0.202633
0.201154
0.202469
0.201647
0.196552
0.199675
0.198196
0.195566
0.198524
0.198689
0.199839
0.194909
0.199839
0.199346
0.200497
0.199182
0.201647
0.202962
0.204441
0.199839
0.200825
0.20099
0.200168
0.202469
0.201812
0.199018
0.199346
0.202305
0.200497
0.19836
0.199675
0.200332
0.199511
0.201812
0.200332
0.200168
0.201483
0.200332
0.199511
0.202798
0.200661
0.199839
0.199511
0.200497
0.198853
0.197045
0.199182
0.201812
0.198524
0.199346
0.199839
0.200332
0.199182
0.200004
0.197703
0.197867
0.199182
0.201154
0.200497
0.199018
0.195566
0.200332
0.200825
0.201647
0.198196
0.202962
0.200332
0.199018
0.200661
0.198196
0.198853
0.200825
0.200825
0.202633
0.201812
0.199675
0.202962
0.200497
0.202798
0.198524
0.202633
0.197538
0.201812
0.200825
0.197867
0.200168
0.19721
0.201483
0.200168
0.201154
0.201812
0.20099
0.201154
0.200661
0.200497
0.200825
0.19836
0.198524
0.199182
0.199182
0.199675
0.197703
0.198031
0.199511
0.19836
0.198031
0.20099
0.199839
0.197867
0.198689
0.200004
0.201647
0.203291
0.200168
0.201976
0.200825
0.198689
0.198853
0.19573
0.19836
0.201483
0.203455
0.200497
0.202305
0.199675
0.201812
0.200661
0.201976
0.200332
0.201483
0.20099
0.201319
0.199511
0.199346
0.198689
0.195073
0.202633
0.195073
0.197538
0.197703
0.199511
0.199018
0.20099
0.200661
0.20214
0.197538
0.201976
0.199018
0.200004
0.197538
0.198524
0.200168
0.199182
0.20099
0.197867
0.200661
0.197703
0.200497
0.199018
0.199675
0.195237
0.200661
0.201812
0.203126
0.198524
0.200661
0.201483
0.198031
0.20099
0.201319
0.202305
0.200332
0.201976
0.199839
0.200497
0.201154
0.201647
0.200661
0.202798
0.20214
0.199675
0.201483
0.199511
0.201483
0.199182
0.200497
0.203291
0.199346
0.198853
0.200332
0.200004
0.197374
0.198689
0.200825
0.20099
0.200661
0.197374
0.199018
0.200168
0.198853
0.200497
0.200825
0.201154
0.200168
0.198689
0.19721
0.200168
0.19836
0.19836
0.199511
0.197538
0.199346
0.199018
0.199839
0.200497
0.200825
0.199675
0.201647
0.199346
0.202962
0.206578
0.200332
0.199018
0.203126
0.198196
0.199182
0.201483
0.198524
0.200825
0.198196
0.199839
0.199675
0.203291
0.201319
0.202633
0.200332
0.204934
0.201483
0.202798
0.199839
0.199018
0.199182
0.19836
0.200825
0.197538
0.199675
0.195237
0.201319
0.199346
0.200661
0.199511
0.202633
0.201483
0.201976
0.199839
0.197703
0.202633
0.195073
0.198196
0.199839
0.198196
0.191786
0.198031
0.198196
0.200004
0.200661
0.200661
0.199839
0.201483
0.200497
0.201319
0.198196
0.196717
0.199675
0.197045
0.200825
0.194909
0.199675
0.201154
0.196717
0.197703
0.199346
0.198031
0.20099
0.197374
0.200661
0.202798
0.199839
0.20099
0.199346
0.200661
0.196717
0.198853
0.197703
0.19573
0.195237
0.199839
0.197867
0.198689
0.200004
0.199839
0.200168
0.199346
0.201483
0.20099
0.19721
0.19836
0.199675
0.197045
0.199511
0.194744
0.196881
0.196552
0.200332
0.197045
0.199018
0.201812
0.198196
0.201976
0.200332
0.201154
0.196717
0.197538
0.19836
0.198689
0.198196
0.199346
0.199346
0.198196
0.200661
0.197867
0.199018
0.198853
0.20099
0.192443
0.199675
0.196388
0.198196
0.198853
0.198689
0.194909
0.198853
0.194909
0.199346
0.196552
0.195402
0.197045
0.198196
0.196223
0.197538
0.197703
0.196388
0.198689
0.19721
0.197538
0.19721
0.194416
0.194416
0.195566
0.193265
0.19836
0.198853
0.195402
0.196881
0.197703
0.195895
0.196388
0.195237
0.19458
0.19573
0.196717
0.193265
0.193265
0.200168
0.195566
0.199182
0.197045
0.197538
0.195895
0.195895
0.195237
0.194744
0.196388
0.196059
0.194087
0.193265
0.196223
0.194416
0.196223
0.192608
0.192279
0.194251
0.194909
0.193922
0.19721
0.200004
0.197374
0.195895
0.197538
0.194087
0.193758
0.195566
0.192279
0.194416
0.189649
0.190471
0.191786
0.194087
0.193594
0.197374
0.19721
0.19836
0.197374
0.193101
0.199675
0.194416
0.191786
0.196059
0.195402
0.191786
0.195237
0.192608
0.193429
0.197045
0.192772
0.195237
0.196059
0.192936
0.194744
0.196717
0.193429
0.193758
0.196717
0.197703
0.193265
0.194251
0.191457
0.192115
0.188992
0.191128
0.193429
0.191457
0.191786
0.196717
0.192608
0.194251
0.194744
0.187019
0.192115
0.191786
0.193594
0.192772
0.192443
0.185376
0.192443
0.189156
0.186855
0.189649
0.187348
0.1908
0.187677
0.193101
0.194744
0.19195
0.190307
0.197703
0.187513
0.189156
0.18817
0.186691
0.185705
0.189978
0.187677
0.189978
0.185212
0.187513
0.195566
0.18554
0.189978
0.186033
0.190471
0.18817
0.190142
0.192279
0.190471
0.191621
0.190142
0.192936
0.188663
0.188992
0.188499
0.1908
0.18932
0.191293
0.193101
0.188334
0.190964
0.191293
0.188499
0.192279
0.190142
0.191786
0.191128
0.192115
0.181596
0.192443
0.194087
0.187348
0.190142
0.186033
0.188663
0.173542
0.177815
0.178144
0.177487
0.111908
0.024964
0.017239
0.006391
0.006884
-0.004621
-1.9e-05
0.002282
0.011322
0.015595
0.020033
0.028415
0.040906
0.041399
0.053726
0.055698
0.052247
0.066053
0.074271
0.077886
0.086104
0.091364
0.092021
0.099089
0.101718
0.105992
0.108457
0.106485
0.111087
0.120784
0.119633
0.125386
0.128015
0.130974
0.135904
0.138205
0.141493
0.141986
0.141
0.143958
0.146423
0.149382
0.154312
0.100568
0.003433
0.011815
0.022334
0.022991
0.033017
0.039591
0.038934
0.057342
0.0603
0.066546
0.072627
0.079859
0.083475
0.087748
0.092021
0.096623
0.09498
0.103197
0.105827
0.114045
0.116182
0.113223
0.118483
0.122263
0.127358
0.130974
0.133768
0.137712
0.140013
0.140342
0.146916
0.144122
0.149546
0.150039
0.153491
0.153162
0.158257
0.156613
0.157928
0.160558
0.160887
0.166146
0.165982
0.164996
0.166475
0.170584
0.170913
0.173049
0.171734
0.1742
0.174364
0.176501
0.182253
0.179295
0.179623
0.178144
0.18439
0.179952
0.178802
0.184718
0.185047
0.182582
0.182582
0.186033
0.185869
0.188827
0.186855
0.192772
0.191457
0.189485
0.191293
0.188663
0.187677
0.189649
0.190964
0.188334
0.192115
0.193594
0.192936
0.194744
0.192608
0.194251
0.193922
0.193101
0.198689
0.196059
0.194909
0.194744
0.196059
0.195402
0.19721
0.194416
0.19836
0.194087
0.192443
0.193101
0.196552
0.193922
0.19721
0.19836
0.199675
0.198196
0.197374
0.196388
0.198524
0.19836
0.194744
0.201319
0.197867
0.198689
0.19721
0.201319
0.197045
0.199675
0.199839
0.200168
0.199182
0.199839
0.19836
0.197867
0.200332
0.200825
0.200497
0.201976
0.200332
0.198031
0.199675
0.198524
0.198031
0.199018
0.200332
0.196881
0.202469
0.200661
0.19836
0.197045
0.197538
0.200497
0.200332
0.201154
0.199675
0.202305
0.199511
0.199839
0.200004
0.19573
0.198196
0.197867
0.200004
0.198031
0.198689
0.199182
0.201483
0.199675
0.204441
0.201483
0.202305
0.202469
0.204441
0.204113
0.203126
0.197867
0.198853
0.200497
0.20099
0.202798
0.200332
0.20362
0.198689
0.203291
0.200825
0.203784
0.202305
0.199839
0.20099
0.201483
0.202962
0.201154
0.204113
0.203455
0.204113
0.202962
0.201319
0.198031
0.20099
0.200004
0.198853
0.20214
0.201976
0.202305
0.203455
0.204113
0.201483
0.201976
0.200661
0.19836
0.198031
0.199511
0.197045
0.200661
0.199182
0.201812
0.201647
0.201154
0.202798
0.202962
0.200332
0.203784
0.202798
0.205921
0.204277
0.202305
0.199675
0.198853
0.202798
0.199839
0.201647
0.199182
0.200168
0.200661
0.201319
0.201812
0.203291
0.202305
0.201483
0.202798
0.201812
0.203455
0.201319
0.200004
0.202633
0.203126
0.197703
0.201976
0.199675
0.201976
0.20099
0.201319
0.20099
0.202633
0.203291
0.20099
0.204606
0.196881
0.201647
0.199018
0.200004
0.199511
0.201976
0.20099
0.201319
0.198689
0.200497
0.201154
0.199346
0.20214
0.201647
0.203948
0.201483
0.203455
0.194744
0.198853
0.198689
0.199018
0.201319
0.200497
0.200497
0.20099
0.200004
0.200661
0.203455
0.199018
0.202469
0.200004
0.200168
0.200004
0.202633
0.196881
0.200168
0.201647
0.207235
0.203126
0.201647
0.199346
0.202633
0.19836
0.200332
0.200332
0.200825
0.204441
0.200168
0.201647
0.202305
0.19836
0.197538
0.203291
0.197703
0.202962
0.198524
0.200497
0.202798
0.201319
0.202962
0.201319
0.201154
0.200661
0.203784
0.20214
0.203784
0.200168
0.203291
0.199511
0.204113
0.200004
0.200825
0.201976
0.201647
0.201976
0.200497
0.201812
0.199511
0.202633
0.201976
0.201812
0.200004
0.20099
0.200004
0.201812
0.201647
0.205756
0.199675
0.198524
0.201319
0.200825
0.201319
0.202633
0.202469
0.200661
0.201154
0.200825
0.201976
0.198853
0.198196
0.200825
0.201483
0.200004
0.201812
0.200825
0.199182
0.200661
0.201154
0.200825
0.201319
0.200168
0.201319
0.204606
0.200004
0.199018
0.199675
0.201647
0.201154
0.202469
0.202798
0.203455
0.201154
0.200825
0.201647
0.200168
0.204606
0.20214
0.201976
0.20099
0.203126
0.199018
0.201976
0.197374
0.200497
0.20362
0.202962
0.202469
0.201976
0.20099
0.203455
0.203126
0.203126
0.204277
0.197374
0.203291
0.200497
0.201319
0.200004
0.198196
0.202962
0.196388
0.198853
0.199018
0.201154
0.198689
0.19836
0.199675
0.20362
0.201319
0.20362
0.200825
0.202798
0.202305
0.205099
0.201812
0.19836
0.202469
0.197867
0.203784
0.202469
0.20099
0.201976
0.201483
0.200004
0.203291
0.198689
0.203291
0.201812
0.202633
0.201812
0.200004
0.201647
0.201154
0.202305
0.199018
0.197538
0.197867
0.200825
0.202633
0.201812
0.200661
0.202798
0.201319
0.200825
0.20099
0.201647
0.201647
0.200825
0.20362
0.198689
0.200004
0.20099
0.199675
0.198689
0.200332
0.194909
0.203455
0.201647
0.202798
0.201976
0.202962
0.200825
0.201319
0.200497
0.202962
0.20099
0.200168
0.199018
0.196552
0.200332
0.199675
0.202633
0.19721
0.198853
0.202798
0.20362
0.200497
0.20099
0.200004
0.200661
0.200497
0.199839
0.201976
0.197374
0.19836
0.197703
0.201647
0.19573
0.197538
0.195895
0.199839
0.198689
0.198689
0.200825
0.200825
0.201319
0.200332
0.202962
0.198689
0.120784
0.100403
0.106978
0.107635
0.111908
0.117661
0.121934
0.122427
0.126865
0.130481
0.130974
0.139192
0.139685
0.141493
0.141164
0.147409
0.148067
0.151683
0.15119
0.15119
0.155134
0.157271
0.157107
0.160394
0.16138
0.162202
0.164503
0.166804
0.171734
0.170091
0.17272
0.170748
0.176994
0.172227
0.176665
0.173707
0.17913
0.178144
0.179623
0.180281
0.181431
0.183897
0.183897
0.183404
0.182253
0.185212
0.183404
0.184718
0.186198
0.187677
0.187677
0.188499
0.187841
0.191786
0.187019
0.185047
0.187184
0.189485
0.18932
0.189156
0.194744
0.188499
0.194909
0.196059
0.195073
0.190964
0.194744
0.193101
0.193758
0.194744
0.193594
0.196059
0.194087
0.194744
0.195073
0.196552
0.193594
0.197045
0.194416
0.197867
0.195402
0.195895
0.198031
0.198689
0.198853
0.201319
0.199839
0.200004
0.19573
0.197703
0.200661
0.197374
0.195895
0.196388
0.19836
0.197045
0.199018
0.199346
0.197867
0.199018
0.199675
0.198524
0.199018
0.199839
0.199182
0.198196
0.19721
0.201319
0.200825
0.200661
0.197374
0.198196
0.196388
0.199346
0.199018
0.200332
0.200825
0.200661
0.202305
0.202798
0.198524
0.200825
0.201647
0.200004
0.200497
0.199839
0.202962
0.200497
0.20099
0.200825
0.200168
0.19836
0.199839
0.199511
0.200332
0.206907
0.200825
0.202469
0.202305
0.200168
0.199839
0.201154
0.197374
0.200825
0.200332
0.201647
0.200825
0.199346
0.201154
0.200332
0.200004
0.198031
0.201812
0.198031
0.198689
0.200825
0.201319
0.202798
0.201647
0.200497
0.203126
0.202305
0.199839
0.201154
0.199182
0.198031
0.197867
0.202305
0.200825
0.205099
0.200825
0.203784
0.20099
0.202962
0.202633
0.204277
0.201154
0.20362
0.201319
0.201647
0.202962
0.202469
0.201154
0.200497
0.203784
0.205263
0.201647
0.200332
0.201812
0.200332
0.202962
0.201647
0.205099
0.206907
0.205756
0.202633
0.204277
0.202469
0.20099
0.200168
0.199018
0.197703
0.195895
0.201812
0.201154
0.200168
0.199839
0.20477
0.202469
0.204113
0.204934
0.206414
0.205099
0.201319
0.205592
0.203455
0.204441
0.202469
0.204441
0.201812
0.204113
0.200168
0.202305
0.201812
0.201319
0.204113
0.202469
0.202798
0.205592
0.203126
0.201647
0.204934
0.202305
0.205263
0.20362
0.203784
0.200825
0.204113
0.200825
0.201319
0.201483
0.200497
0.203126
0.205263
0.201154
0.201647
0.20362
0.201647
0.20362
0.202305
0.204934
0.200004
0.20099
0.200332
0.201976
0.198196
0.199839
0.202962
0.198196
0.205099
0.202305
0.202798
0.206742
0.204277
0.201812
0.203948
0.202469
0.20362
0.203948
0.206085
0.203948
0.202469
0.203455
0.20362
0.20214
0.202798
0.204441
0.202633
0.204277
0.202798
0.206414
0.20477
0.206907
0.201812
0.207893
0.203126
0.202962
0.20362
0.203126
0.201483
0.201812
0.204277
0.199839
0.201319
0.20099
0.204277
0.201319
0.203126
0.20214
0.20477
0.203455
0.201812
0.203126
0.201812
0.200825
0.202962
0.201647
0.201647
0.20214
0.199018
0.204606
0.199511
0.201647
0.203455
0.205427
0.201976
0.209043
0.20362
0.205592
0.203126
0.204277
0.202798
0.20362
0.20214
0.202469
0.205756
0.200497
0.205427
0.204113
0.201483
0.202798
0.204606
0.203948
0.203948
0.206578
0.207564
0.204277
0.205263
0.201812
0.203126
0.203291
0.201812
0.200004
0.202469
0.203455
0.201647
0.20477
0.20362
0.203126
0.202305
0.203291
0.200332
0.20214
0.202305
0.20099
0.204934
0.200825
0.207564
0.205099
0.203948
0.201319
0.206414
0.199018
0.202798
0.201976
0.202305
0.203126
0.199511
0.2074
0.205427
0.205099
0.201319
0.208879
0.202305
0.199346
0.20477
0.204113
0.199839
0.202962
0.200661
0.200004
0.200661
0.201483
0.209208
0.200168
0.207893
0.20214
0.204113
0.202633
0.200004
0.203126
0.203455
0.206907
0.204277
0.207235
0.202962
0.202962
0.201483
0.202305
0.198689
0.20214
0.200332
0.201154
0.200825
0.202962
0.208057
0.201319
0.203455
0.205427
0.203126
0.202633
0.202633
0.203126
0.201483
0.201154
0.202633
0.202633
0.202305
0.202305
0.203291
0.199839
0.20214
0.200004
0.204441
0.203948
0.201647
0.202469
0.201647
0.200497
0.202798
0.203455
0.198031
0.205099
0.200168
0.204606
0.206085
0.202305
0.202469
0.198853
0.20099
0.202798
0.200661
0.201976
0.202633
0.200661
