Ladekurvenmessung

Zeit: 2018_05_04 09.02.51

Info: FVA3, v = 0.749, T = 23, F = 20, h = 374.2

Ladewiderstand[Ohm]: 1012700

Störkapazität[pF]: 0.000000

Entladezeit[ms]: 200

Abtastrate[Hz]: 250000

Anzahl der Messwerte: 2500.000000

Verzögerung[ms]: 3

Ladespannung[V]: 0.200000


Kurve 1

-0.002813
-0.002648
-0.001991
-1.9e-05
-0.001498
0.000146
-0.000347
0.00146
-0.001169
0.00031
-0.001005
-0.002484
-0.000512
-0.005114
-0.001662
-0.001334
-0.001334
-0.003142
-0.00347
0.00031
-0.000512
-0.001991
0.003433
-0.001662
-0.001334
0.00031
0.000474
0.00031
-0.002155
-0.000512
-0.00232
-0.003963
-0.004292
-0.00725
-0.003635
-0.00347
-0.003963
-0.000347
-0.001827
-0.000841
-0.000183
-1.9e-05
-0.001498
0.000474
0.000967
-0.000183
-0.001334
-0.000676
-0.002484
-0.003142
-0.001827
-0.000841
-0.004949
-0.004456
-0.002813
-0.002484
0.00031
-0.001991
0.00031
0.000474
-0.000676
0.000967
-0.000676
-0.003142
-0.001991
-0.000347
-0.001991
-0.000676
-0.003306
0.00031
-0.001498
-0.000841
-0.002977
-0.002155
-0.001827
0.001132
-0.002155
-0.000183
-0.001005
0.000146
0.000639
-0.002484
-0.000841
-0.002155
-0.001169
-0.004785
-0.000512
-0.000841
-0.002155
-0.001827
-0.002155
0.000146
0.00146
-0.001498
-0.002155
-0.001498
-0.003635
0.000146
-0.002648
0.000803
-0.001662
-0.001827
-0.002484
-0.003799
-0.002813
-0.002484
-0.002484
-0.005278
-0.001827
-0.001169
-0.004292
-0.001169
0.000639
-0.000676
0.00031
-0.001991
0.00031
0.000803
-0.001498
-0.002155
-0.000183
-0.001498
0.000474
-0.000841
-0.002813
-0.001662
-0.001334
0.001625
-0.002977
-0.000676
-0.001827
0.000967
-0.001334
-0.001662
-0.002155
-0.001334
-0.000841
0.000146
-0.003306
-0.001498
-0.00232
-0.005278
-0.000512
0.00031
-0.001991
-0.002155
-0.001662
-0.002155
-0.001169
-0.00232
-0.000512
-0.004621
-0.003963
-0.001662
-0.001334
-0.001169
-0.003142
-0.000676
-0.00347
-0.000676
-0.002484
-0.000512
-0.00232
-0.000512
-0.000676
0.000474
-0.003635
-0.001005
0.000146
-0.00232
0.000967
-0.001827
-0.002155
-0.004128
0.003761
-0.003799
-0.002484
-1.9e-05
-0.004128
-0.000347
0.00031
-0.000347
-0.000841
-0.003799
-0.000347
-0.001005
-0.002484
-0.001169
-0.00347
-0.002648
-0.001991
-0.000841
-0.004292
-0.000676
-0.001827
-0.0061
-0.002484
-0.001005
-0.003306
-0.002484
-0.003963
-0.002813
-0.001005
-0.002977
0.000803
-0.001991
-0.001334
-0.001169
-0.002484
-0.002484
-0.001334
-0.003306
-0.00232
-0.001005
-0.001827
-0.000347
0.000474
-1.9e-05
-0.001334
-1.9e-05
-0.002484
0.00031
-0.003306
0.001132
-0.002813
0.001132
-0.002648
0.001132
-0.00232
-0.002484
-0.001662
-0.001662
-0.001334
-0.001991
-0.000347
-0.001827
0.000146
-0.002155
-0.001827
-0.001991
0.001132
-0.001334
0.000639
0.000803
0.000803
0.001132
0.000474
-0.001827
-0.002155
0.000146
-0.002648
0.000146
-0.001827
-0.006593
-0.001334
-0.000347
-0.000676
-0.000183
-0.000841
-0.000841
0.001625
-0.001169
-0.000512
-0.002648
-0.001005
-0.002484
-0.001827
-0.001662
-0.001991
-0.002155
0.000803
-0.000512
-0.001662
-0.001498
-0.003142
-0.003142
-0.002813
-0.001662
-0.00347
0.000474
-0.001827
-0.001662
-0.001005
-0.002155
-0.003635
-0.001498
-0.002648
-0.001005
-0.002484
0.000146
-0.00232
0.000639
0.000474
-0.001662
-0.000512
-0.005443
-0.004785
-0.001827
-0.002155
-0.004621
-0.002484
-0.004621
-0.001991
-0.003963
-0.001005
-0.001991
0.00031
-0.001827
-0.001498
0.00031
-0.002155
0.002118
-0.002155
-0.000183
-1.9e-05
0.001296
-0.004456
-0.001005
-0.003306
-0.002648
-0.002155
-0.000841
0.001296
0.002611
0.002447
0.00031
0.000474
-0.000841
0.001132
-0.001169
-0.000183
-0.001827
-0.001334
-0.003799
-0.004292
-0.002155
-0.003635
-0.000183
-0.002484
-0.001169
-0.001334
-0.000183
-0.004785
-0.001991
-0.003142
-0.000347
0.000967
0.003433
0.000474
0.001625
-0.005443
-0.003306
-0.003142
-0.0061
-0.004785
-0.002484
-0.001005
-0.001334
-0.000676
-1.9e-05
0.000639
-0.001991
0.000967
-0.001827
-0.001005
-0.001662
-0.000347
-0.001662
-0.000512
-0.002813
-0.002648
-0.003635
-0.001827
-0.001005
-0.002155
0.002611
-0.001827
0.002282
0.000967
0.003104
-0.001334
0.001132
-0.000841
-0.001498
-0.00232
-0.001827
-0.002155
-0.003306
-0.000183
-0.002155
-0.000676
-0.006922
0.000967
-0.001991
-0.000512
-0.001334
-0.000347
-0.002484
-0.005443
-0.001662
-0.003635
-0.002648
-0.004785
-0.000347
0.00031
-0.000841
-0.003306
-0.000183
-0.002813
-0.001169
-0.000676
-0.000841
-0.001169
-1.9e-05
-0.000841
0.000146
0.000474
-0.002155
-0.000183
0.000474
-0.001169
-0.002977
0.003104
0.00031
-0.001827
-0.00347
-0.000676
-0.001005
-0.001334
0.001132
-0.00232
-0.001827
-1.9e-05
-0.000676
-0.001498
-0.000512
-0.002813
-0.001498
-0.002648
-0.001334
-0.003963
0.000803
-0.001662
-0.000676
-0.001498
-0.001005
0.001954
-0.005443
-0.00347
-0.00347
-0.000841
-0.002813
-0.000841
-0.005114
0.000146
-1.9e-05
-0.000512
-0.002155
-0.003635
-0.001169
-0.000183
-0.004128
-0.002155
-0.001498
-0.001827
0.00031
-0.000841
0.000639
-0.001498
0.000639
-0.000512
-0.000347
-0.000841
0.000146
-0.004456
-0.002484
-0.003142
-0.000676
-0.007415
0.00146
-0.003963
-0.003142
-0.000841
-0.003963
-0.00232
0.000803
-0.001005
-0.000183
0.000639
-0.000676
-0.001334
-0.000512
-0.001169
-0.001662
-0.001827
-0.000512
-0.002648
0.000146
0.000967
-0.000512
-0.002977
0.000474
-0.004292
-0.001827
-0.002977
0.000474
-1.9e-05
-0.000841
-0.001169
-0.000347
-0.001005
-0.002648
-0.000676
-0.002484
-0.002484
0.000639
-0.00347
-0.002648
-0.002648
-0.00232
0.001132
-0.001005
0.000474
0.000146
-0.003142
-0.003799
-0.004456
0.000967
-0.002484
-0.001334
-0.003799
0.000474
-0.002977
-0.000347
0.001296
-0.005443
-0.00232
0.001954
-0.001169
0.001625
0.000639
0.00031
0.002118
-0.001991
0.000639
-0.001827
-0.002813
-0.004949
-0.004621
-0.004949
-0.005443
-0.003799
-0.002484
-0.000183
0.000474
0.00031
-0.004949
0.003104
-0.001169
-0.000676
-0.000676
-0.000512
-0.000512
-0.001169
-0.001005
-0.000841
-0.00232
-0.002484
-0.003142
-0.002977
0.001296
-1.9e-05
-0.002484
0.000803
0.000146
-0.003142
-0.001005
-0.001334
-0.010702
-0.002155
-0.001498
-0.001662
-0.000347
-0.003142
-0.001991
-0.002813
-0.001827
-0.000841
0.000146
-0.011195
0.001132
0.001625
0.00146
0.000639
0.000803
0.00031
-0.005278
-0.000841
-0.000676
-0.003799
-0.013332
-0.006264
-0.002484
-0.00347
-0.003142
-0.003963
-0.001334
-0.003306
0.000146
-0.001498
0.000967
-0.008894
-0.001334
-0.001662
-0.000676
-0.001334
-0.000676
-0.001498
-0.00347
0.00031
-0.001827
-0.001005
-0.004785
-0.003635
-0.001334
-0.003306
-0.004128
0.000474
-0.000347
-0.003306
-0.001005
-0.000183
0.000146
-0.004456
-0.003635
-0.00347
-0.003142
-0.003799
-0.001169
-0.00347
-0.001334
-0.000512
-1.9e-05
-0.000512
0.001954
-0.002648
-0.002484
0.002118
-0.004456
-0.003635
-0.001827
-0.001169
-0.003635
-0.002155
-0.001827
-1.9e-05
-0.003635
-0.002155
-0.00232
-0.000841
-0.001334
-0.000676
-0.000512
0.00146
0.000967
-0.002977
0.001296
-0.00347
-0.001827
-0.00232
-0.001827
-0.002484
-0.001169
-0.004292
0.00031
-0.002813
-0.004292
0.004583
-0.00232
-0.001827
-0.001169
0.000967
-0.002813
-0.001827
-0.005278
-1.9e-05
-0.003799
-0.002648
0.001296
-0.003142
-0.001827
-0.001169
-1.9e-05
-0.002977
-1.9e-05
-0.001334
-0.001334
-0.000841
-0.000183
0.002775
-0.003799
-0.001662
-0.002155
-0.004292
-0.003306
-0.003635
-0.001827
-0.001005
-0.001991
-0.000841
0.00031
-0.001991
-0.000676
-0.000347
-0.000512
0.000967
-0.003963
-0.001169
-0.001827
-0.000512
-0.000676
0.003268
-0.003306
-0.001005
-0.000183
-0.002813
-0.002648
-0.002155
-1.9e-05
-0.000676
0.00031
-0.000183
0.002118
-0.001334
-0.001991
-0.001662
-0.000676
-0.000512
-0.001005
-0.000676
-0.000347
0.000803
0.001789
0.00294
-0.001991
0.000803
-0.001827
-0.002155
-0.004621
0.000146
-0.000512
0.003104
0.006227
0.018554
0.03088
0.035318
0.041235
0.049124
0.053726
0.059314
0.066217
0.07312
0.077393
0.081502
0.087748
0.095801
0.09613
0.103197
0.106978
0.10895
0.113716
0.11799
0.122592
0.124071
0.126043
0.129166
0.131302
0.135904
0.134425
0.142314
0.141493
0.144122
0.147738
0.150861
0.152176
0.153162
0.158586
0.158586
0.159736
0.160394
0.162859
0.165817
0.169433
0.171077
0.171734
0.170255
0.172392
0.170584
0.170255
0.173049
0.174528
0.174528
0.176336
0.181924
0.184554
0.18439
0.183732
0.186033
0.184061
0.184225
0.185869
0.185212
0.184554
0.188334
0.183568
0.190471
0.190307
0.191457
0.191786
0.190964
0.192443
0.191457
0.194251
0.19195
0.192443
0.193594
0.192772
0.196552
0.193429
0.194087
0.195237
0.194087
0.192936
0.19458
0.192279
0.196717
0.194087
0.198689
0.198031
0.198031
0.196552
0.195237
0.201483
0.198689
0.196388
0.198031
0.197045
0.196881
0.197538
0.198196
0.197374
0.195402
0.199182
0.198031
0.199511
0.195073
0.197045
0.19721
0.19836
0.197703
0.200004
0.199182
0.197045
0.194251
0.194744
0.196717
0.194087
0.197045
0.194251
0.197374
0.196059
0.196881
0.196717
0.196388
0.198031
0.198031
0.193922
0.199018
0.196388
0.196059
0.195073
0.19458
0.197703
0.194087
0.192772
0.191621
0.19836
0.190142
0.193594
0.193922
0.19458
0.190471
0.195895
0.195402
0.194909
0.19573
0.193758
0.197374
0.192443
0.19195
0.189978
0.194744
0.191457
0.191457
0.194251
0.193101
0.192608
0.192443
0.194087
0.192936
0.195402
0.195237
0.196223
0.190635
0.194416
0.19458
0.19458
0.193594
0.19573
0.194251
0.193594
0.190471
0.193922
0.194087
0.19458
0.197703
0.19721
0.198524
0.195566
0.197703
0.196388
0.195073
0.193922
0.193922
0.196552
0.195895
0.193594
0.197703
0.194251
0.194744
0.197703
0.19458
0.192936
0.193429
0.193594
0.195895
0.196223
0.191786
0.19836
0.194909
0.195402
0.194087
0.196223
0.19573
0.196717
0.193101
0.192608
0.194416
0.193594
0.198689
0.19836
0.198524
0.200168
0.199018
0.196059
0.200332
0.195895
0.199346
0.198689
0.195566
0.198524
0.197538
0.196881
0.196223
0.199018
0.196059
0.197703
0.200004
0.197867
0.197374
0.199182
0.198031
0.200004
0.198031
0.198689
0.197374
0.19721
0.198196
0.197867
0.194744
0.197045
0.199675
0.198689
0.199182
0.196552
0.198853
0.196552
0.200168
0.195073
0.197374
0.19836
0.196881
0.197374
0.198524
0.199839
0.194251
0.199182
0.198524
0.197374
0.197045
0.199511
0.196552
0.200332
0.196552
0.200825
0.201812
0.199182
0.199346
0.201154
0.198689
0.197045
0.197867
0.196717
0.198196
0.193758
0.196223
0.194251
0.200332
0.196223
0.200004
0.197703
0.197867
0.200004
0.197538
0.198524
0.197703
0.199182
0.197538
0.201319
0.200004
0.201319
0.195073
0.198031
0.197374
0.199346
0.200004
0.19721
0.199018
0.196717
0.196552
0.198524
0.199018
0.196552
0.197374
0.199018
0.198689
0.199182
0.202305
0.202633
0.199018
0.196388
0.200168
0.200332
0.19721
0.199839
0.199346
0.199018
0.199018
0.198524
0.198689
0.200661
0.198689
0.200825
0.199511
0.19836
0.20099
0.198524
0.197374
0.199346
0.198524
0.198689
0.199018
0.19836
0.200825
0.199675
0.197045
0.198524
0.20099
0.196717
0.200332
0.197703
0.201483
0.200332
0.196223
0.195402
0.200497
0.196388
0.198524
0.200332
0.19721
0.20099
0.196717
0.19836
0.197045
0.200661
0.197703
0.201319
0.200168
0.203455
0.19721
0.198031
0.199839
0.198689
0.197867
0.199346
0.200825
0.196717
0.200661
0.196717
0.198689
0.198689
0.199182
0.199346
0.200661
0.202305
0.201812
0.201976
0.200825
0.200004
0.199675
0.200004
0.198689
0.199018
0.199018
0.200661
0.197045
0.199511
0.199182
0.199675
0.199675
0.200497
0.200004
0.197703
0.202798
0.198853
0.200004
0.199018
0.198031
0.199839
0.198196
0.196552
0.19721
0.196059
0.19721
0.198031
0.198196
0.199675
0.201976
0.200497
0.20099
0.201647
0.199346
0.20099
0.199018
0.199839
0.198689
0.199675
0.19573
0.197538
0.198031
0.197867
0.19836
0.19836
0.198689
0.200004
0.200497
0.197538
0.201483
0.198031
0.202305
0.198689
0.200332
0.199346
0.199018
0.196223
0.19721
0.197045
0.197867
0.198853
0.198524
0.200168
0.199839
0.197538
0.200825
0.200004
0.199018
0.198031
0.193101
0.198689
0.199018
0.197374
0.196552
0.199511
0.198524
0.198031
0.199675
0.198689
0.201319
0.198524
0.198689
0.199839
0.201976
0.199346
0.200661
0.199675
0.200497
0.200168
0.198853
0.196059
0.201647
0.199018
0.198031
0.199182
0.198853
0.199675
0.199182
0.200004
0.201154
0.199839
0.197374
0.201154
0.198196
0.199511
0.19721
0.199018
0.199182
0.198196
0.200168
0.199839
0.198689
0.197867
0.199182
0.197374
0.200332
0.197374
0.20099
0.199018
0.202469
0.195402
0.194251
0.199346
0.198853
0.196388
0.196059
0.199675
0.198853
0.199839
0.198524
0.200825
0.198031
0.199182
0.197703
0.20099
0.199182
0.199182
0.19836
0.201647
0.20099
0.201483
0.20099
0.198031
0.201483
0.198031
0.199839
0.197867
0.200825
0.19721
0.196881
0.19721
0.199675
0.200497
0.198853
0.198196
0.194744
0.202305
0.198689
0.199675
0.199346
0.199182
0.199346
0.200004
0.200332
0.19836
0.198689
0.198689
0.197374
0.197703
0.197703
0.19721
0.201154
0.196223
0.200332
0.196717
0.197538
0.199346
0.201483
0.199018
0.199675
0.199346
0.199346
0.197538
0.198524
0.201154
0.199018
0.200661
0.200004
0.200004
0.200004
0.199675
0.200004
0.209208
0.196388
0.202305
0.202305
0.198853
0.199182
0.199839
0.198031
0.196388
0.199346
0.199182
0.199675
0.197703
0.200004
0.199675
0.200332
0.199346
0.202469
0.19836
0.198031
0.201319
0.198524
0.198031
0.199675
0.200332
0.199346
0.199511
0.202469
0.202962
0.201319
0.200168
0.19836
0.202305
0.198853
0.198031
0.202305
0.20099
0.200661
0.199182
0.201976
0.200168
0.198031
0.199839
0.199839
0.197703
0.198689
0.198031
0.197867
0.197703
0.197703
0.199675
0.19836
0.198689
0.199346
0.200497
0.198524
0.19836
0.201483
0.200168
0.198689
0.201319
0.200661
0.200168
0.196552
0.199675
0.199675
0.199839
0.200004
0.200825
0.200168
0.200825
0.200661
0.20214
0.198853
0.197703
0.200825
0.194744
0.200332
0.19836
0.199839
0.198689
0.202633
0.200661
0.202633
0.201812
0.201154
0.20099
0.200168
0.202469
0.199182
0.203784
0.200825
0.202962
0.201647
0.203948
0.199839
0.202962
0.197867
0.20214
0.201647
0.201319
0.206907
0.202305
0.202469
0.202633
0.205427
0.200661
0.202633
0.20214
0.201154
0.201319
0.201647
0.198689
0.202469
0.200004
0.20099
0.201483
0.199839
0.202305
0.201319
0.20099
0.199182
0.201647
0.201647
0.204113
0.202469
0.201976
0.202469
0.199511
0.193922
0.197374
0.196552
0.198196
0.19836
0.197867
0.202962
0.198196
0.202305
0.198196
0.203291
0.201812
0.202798
0.200661
0.202305
0.202633
0.201647
0.200825
0.207071
0.200661
0.202798
0.203126
0.197867
0.201319
0.197703
0.201812
0.199018
0.202305
0.201812
0.205427
0.201483
0.205592
0.201647
0.201154
0.201154
0.197703
0.202798
0.199346
0.201647
0.198689
0.201154
0.200332
0.204606
0.202305
0.202305
0.202305
0.205263
0.202798
0.202305
0.202305
0.198853
0.201154
0.19573
0.199839
0.19721
0.201812
0.199675
0.202962
0.198689
0.200825
0.198524
0.205592
0.200004
0.201647
0.201976
0.200825
0.204606
0.199675
0.200661
0.199346
0.19836
0.199018
0.198853
0.196059
0.201483
0.199018
0.198853
0.200661
0.198689
0.201976
0.198853
0.199018
0.197867
0.200168
0.196717
0.198689
0.198031
0.198031
0.197045
0.19836
0.19458
0.199182
0.196388
0.195895
0.197538
0.196059
0.196717
0.195237
0.195237
0.192936
0.197703
0.196059
0.198031
0.196059
0.199675
0.195237
0.199018
0.196552
0.197374
0.193429
0.193265
0.197045
0.197538
0.196881
0.19458
0.196717
0.198031
0.192608
0.009678
0.019704
0.026771
0.035318
0.041564
0.053562
0.057506
0.058492
0.067696
0.072627
0.0769
0.082817
0.08857
0.090213
0.094815
0.099417
0.104512
0.102869
0.107635
0.112894
0.116182
0.118483
0.122263
0.124728
0.127029
0.129823
0.135247
0.138699
0.136398
0.142643
0.143136
0.144451
0.146588
0.14971
0.150532
0.15497
0.15612
0.157435
0.159736
0.160558
0.164338
0.164996
0.166475
0.167954
0.169269
0.166475
0.171406
0.169433
0.169762
0.175186
0.173378
0.176008
0.178966
0.179459
0.180116
0.181267
0.176336
0.180774
0.181431
0.182253
0.182746
0.185705
0.180445
0.185705
0.184718
0.184554
0.186691
0.186526
0.188006
0.188499
0.189814
0.189814
0.191293
0.192115
0.191457
0.188992
0.193429
0.192279
0.191128
0.190307
0.192772
0.186033
0.189156
0.195237
0.192279
0.196223
0.195073
0.196388
0.196388
0.19458
0.194087
0.198031
0.194416
0.196881
0.194909
0.194251
0.19458
0.196059
0.195402
0.192279
0.197045
0.195237
0.196717
0.199839
0.197045
0.198524
0.195402
0.200168
0.200168
0.197538
0.197703
0.199018
0.195237
0.196388
0.196717
0.196059
0.198031
0.196388
0.197374
0.199346
0.195237
0.197538
0.197045
0.200332
0.197867
0.198196
0.19458
0.198524
0.196881
0.20099
0.199018
0.195566
0.19195
0.195402
0.198853
0.196881
0.199018
0.198031
0.201154
0.196552
0.20099
0.198689
0.200332
0.192772
0.198524
0.199511
0.198689
0.200661
0.200497
0.199018
0.200004
0.202305
0.19721
0.203126
0.191128
0.200004
0.198853
0.203784
0.199018
0.200004
0.200332
0.197703
0.199839
0.201812
0.200332
0.190635
0.198853
0.199675
0.201812
0.197867
0.202305
0.199182
0.201319
0.199839
0.202798
0.202305
0.194087
0.195895
0.199675
0.199675
0.198524
0.200004
0.200497
0.196717
0.199675
0.20362
0.200497
0.198689
0.199182
0.199182
0.200332
0.201154
0.200168
0.201976
0.198524
0.20214
0.204277
0.200332
0.205427
0.199511
0.20362
0.201976
0.202305
0.200004
0.20099
0.198689
0.199675
0.199511
0.198853
0.203784
0.198524
0.200168
0.200661
0.20214
0.198853
0.201812
0.199511
0.202469
0.200332
0.201319
0.203948
0.199675
0.198524
0.197538
0.201319
0.198853
0.200332
0.200332
0.199839
0.197867
0.201483
0.20099
0.196388
0.194909
0.199839
0.202469
0.202469
0.198853
0.200004
0.199839
0.199346
0.196059
0.203455
0.200332
0.200004
0.201976
0.199839
0.202469
0.201319
0.20099
0.204277
0.202962
0.201483
0.202798
0.198196
0.200004
0.200497
0.19836
0.200332
0.200332
0.203948
0.200825
0.202305
0.201319
0.201319
0.199182
0.201154
0.199346
0.201154
0.199346
0.200332
0.199511
0.199182
0.194909
0.198853
0.20099
0.195895
0.202305
0.198853
0.199839
0.199839
0.200332
0.19721
0.20099
0.202798
0.201976
0.199675
0.197374
0.199182
0.199839
0.200168
0.200168
0.198031
0.200332
0.201812
0.201647
0.201812
0.197703
0.202962
0.197374
0.203455
0.200825
0.20099
0.202962
0.199675
0.200332
0.200661
0.201647
0.202633
0.20214
0.202633
0.202962
0.198524
0.200497
0.201319
0.20214
0.200168
0.199839
0.200332
0.200332
0.200661
0.198853
0.201319
0.197045
0.200004
0.201483
0.202469
0.197374
0.204277
0.199675
0.200168
0.197703
0.197538
0.202962
0.199346
0.196717
0.202305
0.202962
0.199346
0.204441
0.20099
0.201647
0.200168
0.20099
0.199182
0.201319
0.200661
0.20214
0.200497
0.19458
0.202305
0.201647
0.200661
0.200661
0.199839
0.200332
0.201483
0.200497
0.204113
0.203126
0.201319
0.200004
0.199182
0.20099
0.19721
0.198524
0.197703
0.199675
0.197867
0.201976
0.203948
0.202962
0.201154
0.201812
0.201647
0.201154
0.200661
0.20099
0.199839
0.197867
0.200332
0.199346
0.198196
0.199675
0.198524
0.200825
0.199018
0.199346
0.201812
0.19836
0.202305
0.202962
0.202962
0.202305
0.200168
0.20099
0.20099
0.198689
0.198524
0.196552
0.196717
0.198853
0.198853
0.200825
0.200004
0.20214
0.19836
0.203784
0.203455
0.19836
0.200825
0.20099
0.197045
0.199182
0.200332
0.199675
0.199675
0.197374
0.201154
0.197045
0.202633
0.201483
0.201976
0.201319
0.202469
0.204113
0.201976
0.201483
0.200332
0.197374
0.19573
0.198853
0.19836
0.19721
0.193594
0.201812
0.200004
0.200825
0.201976
0.200825
0.197867
0.201319
0.200825
0.201154
0.201976
0.198689
0.203948
0.199018
0.200332
0.200661
0.201812
0.198853
0.19836
0.199346
0.199018
0.200332
0.200168
0.201319
0.202962
0.202962
0.200661
0.201154
0.19721
0.201154
0.196881
0.19836
0.199346
0.201154
0.19836
0.199346
0.198196
0.199182
0.200332
0.200004
0.199675
0.198524
0.199511
0.198524
0.199346
0.197374
0.200661
0.197703
0.199182
0.200497
0.198689
0.196059
0.199182
0.199839
0.199675
0.199346
0.198689
0.202469
0.200168
0.200661
0.200332
0.203126
0.19721
0.200332
0.200497
0.200497
0.203948
0.201483
0.200168
0.201154
0.199511
0.200004
0.205592
0.197703
0.200825
0.197867
0.200661
0.199346
0.198853
0.205263
0.20214
0.201154
0.201976
0.203948
0.199018
0.196059
0.19836
0.201483
0.19721
0.199018
0.201647
0.201647
0.199182
0.199018
0.201812
0.199839
0.200004
0.203455
0.20362
0.20099
0.198689
0.20099
0.201812
0.198689
0.199839
0.201319
0.199839
0.198196
0.200497
0.199511
0.199839
0.198524
0.201483
0.200825
0.201647
0.199346
0.201976
0.199182
0.200661
0.199675
0.200661
0.201154
0.198853
0.201812
0.200825
0.201483
0.195895
0.201483
0.198524
0.200497
0.195402
0.1908
0.187513
0.183897
0.184061
0.174528
0.17535
0.171241
0.169598
0.16401
0.165817
0.160722
0.157928
0.154806
0.153819
0.153984
0.152505
0.151847
0.145437
0.145602
0.146095
0.148396
0.148067
0.148396
0.148396
0.146752
0.150697
0.153326
0.153819
0.156778
0.156942
0.158257
0.16138
0.162202
0.165817
0.165489
0.169762
0.168283
0.171406
0.170584
0.174528
0.171406
0.173707
0.176501
0.174693
0.176172
0.180445
0.176829
0.179788
0.183075
0.177487
0.185376
0.183239
0.185212
0.184061
0.185212
0.186198
0.187348
0.18554
0.189156
0.187841
0.188663
0.18817
0.18932
0.189978
0.188006
0.18932
0.188663
0.192936
0.190471
0.195073
0.194909
0.196552
0.190635
0.198196
0.193265
0.192443
0.193758
0.195402
0.195402
0.194087
0.195402
0.195402
0.197374
0.194909
0.19836
0.195402
0.197045
0.198689
0.197867
0.196552
0.19721
0.199018
0.198853
0.198853
0.196717
0.199018
0.197703
0.196717
0.196552
0.196717
0.1908
0.195073
0.195237
0.197703
0.196059
0.200004
0.198689
0.19836
0.199346
0.199018
0.198524
0.199675
0.200825
0.20362
0.201319
0.19721
0.200661
0.199018
0.198031
0.195566
0.198196
0.199182
0.198853
0.200497
0.200168
0.200004
0.19836
0.200825
0.203455
0.198689
0.197374
0.202469
0.198853
0.199511
0.198689
0.200825
0.198689
0.199675
0.200497
0.201319
0.198524
0.201483
0.20362
0.202305
0.202633
0.199018
0.203948
0.199346
0.199675
0.200332
0.202305
0.198853
0.19836
0.199018
0.197703
0.197867
0.19836
0.202962
0.198689
0.200332
0.204606
0.204277
0.196881
0.201154
0.199675
0.200004
0.196717
0.19836
0.19836
0.19836
0.198031
0.199018
0.200004
0.199018
0.200825
0.200497
0.201154
0.20099
0.202633
0.200168
0.202633
0.201154
0.203455
0.196717
0.20099
0.19836
0.200825
0.199511
0.199018
0.199839
0.200497
0.198031
0.196717
0.202469
0.199346
0.20099
0.200332
0.201154
0.200661
0.20214
0.199675
0.200004
0.200497
0.200332
0.198689
0.200168
0.198031
0.200004
0.201976
0.199346
0.200004
0.192443
0.204113
0.201976
0.202305
0.201812
0.198853
0.197374
0.20099
0.197867
0.197374
0.199675
0.199018
0.20099
0.199346
0.202633
0.200497
0.201154
0.201976
0.201483
0.200004
0.202962
0.199839
0.200004
0.201976
0.200004
0.200661
0.200168
0.200168
0.199839
0.200497
0.202305
0.201483
0.201976
0.199182
0.202469
0.200825
0.200497
0.200661
0.200661
0.200168
0.201154
0.199182
0.200497
0.198853
0.200825
0.200497
0.201812
0.200004
0.200332
0.197703
0.201812
0.200661
0.194416
0.197867
0.198524
0.197867
0.196881
0.200497
0.199675
0.202962
0.200332
0.200332
0.201483
0.200497
0.200661
0.201319
0.199018
0.201154
0.200825
0.201647
0.202798
0.200825
0.20214
0.199018
0.200825
0.200825
0.202798
0.202798
0.202798
0.201319
0.202798
0.202305
0.204113
0.201976
0.202469
0.200168
0.200825
0.200497
0.199346
0.202469
0.198853
0.201319
0.201812
0.203455
0.20099
0.202633
0.201319
0.201483
0.20362
0.202305
0.202962
0.201154
0.204113
0.201154
0.201319
0.200004
0.198689
0.200168
0.200332
0.200332
0.203291
0.20362
0.205427
0.202633
0.201976
0.203784
0.200004
0.200661
0.200168
0.202305
0.200332
0.201976
0.201812
0.20214
0.202962
0.203126
0.20214
0.200825
0.200004
0.202962
0.201154
0.200497
0.198853
0.202798
0.200497
0.200497
0.20099
0.199018
0.200661
0.200332
0.202633
0.200661
0.201154
0.201154
0.203126
0.20214
0.201483
0.20362
0.200497
0.198689
0.198196
0.200168
0.198524
0.195073
0.195237
0.199018
0.198524

Kurve 2

-0.001662
-0.001991
-0.000512
-0.003635
0.000474
-0.001334
-0.000512
0.00031
-0.001169
-0.001169
0.005405
0.002447
0.00146
0.002282
-0.000183
0.005076
-0.003142
0.002611
-0.000183
-0.003142
0.000967
0.002611
-0.001827
-0.001169
-0.000676
-0.000841
0.001132
-0.000512
-0.001169
0.00146
0.002118
-0.003635
0.000146
-0.000183
0.000803
-0.001169
-1.9e-05
0.000967
-0.001991
-0.00347
-0.001991
-0.001662
-0.001662
-0.000183
-0.001662
0.000639
-0.001991
0.000474
-0.002977
-0.001662
-0.002977
-0.002648
-0.002813
-0.003142
-0.001827
-0.001169
-0.001169
-0.001169
-0.000841
-0.00347
0.001789
-0.001005
-0.000347
-0.000512
-1.9e-05
-0.001662
0.002447
-0.001334
0.001132
-0.001005
-0.000841
-0.001334
-0.003142
-0.002648
-0.00232
-0.001662
0.000967
0.00031
-0.002813
-0.00232
0.000146
0.000474
-0.001827
-0.001662
-0.003142
-0.000512
0.000803
-0.001991
0.00294
-0.001662
0.000146
-0.001005
0.001296
-0.002484
-0.000183
-0.001991
-0.002155
-0.000676
-0.002813
-1.9e-05
0.002775
-0.001334
-1.9e-05
0.002611
-0.001991
-0.002484
-0.005443
0.000474
-0.00232
-0.004456
-0.001662
-1.9e-05
-0.001169
-0.000512
-1.9e-05
-0.001498
-0.000676
-0.000512
-0.000841
0.000474
-0.003306
0.000639
-1.9e-05
-0.001827
-0.000676
0.000639
-0.001498
-0.00232
0.000474
-0.004456
0.001296
-0.003963
-0.000512
0.002447
-0.001991
-0.000512
-0.003306
-0.000347
-0.001334
0.00146
0.002118
-1.9e-05
-0.001827
0.000803
-0.001662
0.000146
-0.00232
-0.001169
-0.002155
-1.9e-05
0.002282
-0.001005
-0.002813
-0.00347
-1.9e-05
-0.003799
-0.001169
-0.002484
-0.000347
-0.001991
-0.000676
-0.001662
-0.000183
-0.001827
-0.003963
0.000967
-0.001498
-0.000183
-0.001498
-0.001334
-0.001662
-0.000347
0.000146
0.00031
-0.000347
-0.000183
-1.9e-05
0.002775
-0.000512
-0.001662
0.001296
-0.002977
-0.000512
-0.00232
0.001132
0.00146
-0.004292
-0.004292
-0.004621
-0.003306
0.003268
-0.001334
0.000146
0.000967
-0.001991
-0.000512
-0.003635
-0.000676
-0.001827
-0.000841
-0.003963
-0.004128
-0.005443
-0.00347
-0.005443
-0.003799
-0.000841
0.003926
-0.001662
0.000803
-0.001498
-0.001005
-0.001827
-0.000841
-0.002813
-0.001498
-0.002155
-0.003142
-0.001169
-0.00347
-0.000512
-0.000183
0.001296
-1.9e-05
-0.000183
-0.000676
-0.000676
-0.000512
-0.00232
-0.000676
-0.00232
-0.001169
-0.001334
0.001789
-0.003142
-1.9e-05
-0.001662
-0.001827
-0.002813
-0.00232
0.000474
-0.004949
0.000639
-0.001334
0.000146
-0.00232
-0.003306
0.00146
-0.001991
-0.001991
-0.000676
-0.009223
-0.008237
-0.002155
-0.005114
-0.002648
-0.001991
0.001789
-1.9e-05
0.00031
-0.000183
-0.000512
-0.001169
-0.000512
-0.000512
-0.000347
-0.000183
-1.9e-05
-0.002155
0.00146
0.000474
-0.002648
-0.00232
-0.002155
-0.000841
-0.001498
-0.001005
0.000474
0.00031
-0.000841
0.001296
-0.001662
-0.000841
-0.000676
-0.001334
-0.002648
-0.002977
-0.003142
0.000639
0.004419
-0.001991
0.00031
-0.001498
-0.002484
-0.001991
0.000803
-0.003142
-1.9e-05
-1.9e-05
0.000639
-0.000512
-0.000676
-0.006757
-0.004456
-0.001991
-0.0061
-1.9e-05
-0.003963
0.000146
-0.000676
-0.001169
-0.00347
0.001296
-0.000841
0.00031
-0.001334
0.00031
-1.9e-05
-0.001498
-0.00232
-0.002484
-0.003142
0.002611
-0.003142
-0.003306
-0.001169
-0.002648
-0.001169
-0.001991
-0.002155
-0.000512
0.001132
0.00031
-0.000347
-0.000183
-0.00232
-0.001827
-0.002484
-0.004621
-0.007086
-0.00347
-0.002977
-0.000676
-0.001005
-0.00232
0.001954
-0.000183
-0.001498
-0.000841
-0.000183
-1.9e-05
-0.001005
-0.001169
-0.002155
-0.003799
-0.002813
-0.003635
-0.003635
-0.004621
-0.001334
-0.003142
0.000146
-0.002813
-0.001334
0.001132
0.00031
-1.9e-05
0.000474
0.000967
-0.001334
0.002775
-0.001827
-1.9e-05
-0.002648
-0.001169
-0.001498
-0.001334
0.000474
-0.000512
-0.004128
-0.004621
0.000639
-0.001662
-0.000183
-0.001662
0.001625
-0.001498
0.000474
-0.002813
-0.000183
-0.000841
-0.002813
-0.003799
-1.9e-05
0.00294
0.001132
0.000639
-0.001827
0.000639
-0.000841
0.001625
-0.004128
-0.000347
-0.004785
-0.000676
-0.002813
-0.001827
0.000474
-0.000676
-0.002155
-1.9e-05
0.002118
-0.00347
-0.001169
-0.007086
-0.003963
-0.000841
0.001625
-0.002155
0.000474
-0.000676
0.00031
-1.9e-05
0.000146
-0.000347
-0.000183
-0.00232
-0.002155
-0.003142
-0.002155
-0.001334
-0.003799
-0.000841
-0.002484
-0.001827
-0.001991
-0.003306
-0.00347
-0.001662
-0.004128
-0.001498
-0.000841
0.000474
0.00146
-0.002648
-0.002484
-0.005771
-0.003635
-0.005278
-0.002648
-0.005278
-0.006429
-0.005936
-0.002813
-0.003963
-0.001169
-0.003963
-0.001498
-0.000841
-0.003799
-0.000676
-0.003142
-0.000183
-0.001662
-0.00347
-0.003963
-0.002484
-0.005936
-0.000512
-0.001169
0.000967
-0.002155
-0.001827
0.00146
0.000474
0.001625
-0.00232
0.000146
-0.001334
-0.000512
-0.000676
-0.000347
-0.001827
0.000803
-0.002648
-0.00232
-0.001334
-1.9e-05
0.00146
0.002611
-0.001005
0.003104
0.000474
-0.000183
0.003597
0.001132
0.001789
-0.001169
-1.9e-05
-0.001827
0.000146
-0.001827
-0.000183
-0.000512
-0.000512
0.000639
-0.000183
0.000146
-1.9e-05
0.000146
0.000146
0.000803
-0.001991
0.001296
-0.003963
0.000474
-0.001662
0.000803
-0.001334
-0.002155
-0.000676
0.000146
0.000146
-0.001005
-0.001334
-0.000183
0.00031
-0.000183
0.002775
-0.000183
0.002118
0.001132
-0.001662
-0.000183
-0.001662
-0.000183
-0.001169
-0.001005
-0.002813
0.000967
-0.001498
-0.001662
-0.000347
-0.000183
-0.003963
-0.00232
-0.001169
-0.000841
-1.9e-05
-0.001827
-0.000347
-0.001662
-0.000676
-0.002155
0.00031
-0.002977
-0.001662
-0.002648
-0.001662
-0.000676
0.000967
0.000803
0.002775
-0.000347
0.003433
0.005405
0.003104
0.001625
0.000146
0.00146
-0.000347
-0.000512
-0.000183
0.002282
-0.000347
0.000803
0.000639
0.000474
0.00146
0.002282
-0.000676
0.001789
0.00294
0.00146
0.000474
0.001625
0.000967
0.000474
0.00031
-0.003306
0.000639
0.002447
0.002282
0.001625
0.002118
0.001789
-0.000347
0.001625
0.001296
-0.000183
0.000967
-0.000347
-0.001827
0.000146
-0.002484
0.001954
-0.003142
0.002118
-0.001169
-0.000512
-0.001662
0.000967
0.003104
0.004419
0.000967
-0.002155
0.000474
-0.002648
0.001789
-0.001827
0.000474
-0.001005
0.000474
-0.001498
0.000474
-0.001334
-0.003635
-0.000183
-0.001662
-0.000347
-0.000512
-0.000347
-0.001005
0.00146
-0.003799
0.003268
-0.001169
-0.001662
-0.002155
-0.002484
-0.004128
-0.005607
-0.003306
-0.004292
-0.001334
-0.001662
-0.000512
-0.003635
-0.002813
-0.003306
0.000146
-0.003142
-0.001662
-0.004456
-0.00232
-0.003635
0.00031
-0.004949
-0.002155
-0.005114
-0.00232
-0.001169
-0.002648
-0.004128
-0.005278
-0.002648
-0.002648
0.003433
-0.001169
-1.9e-05
-0.003306
-0.000841
-0.000841
-0.001498
-0.001991
-0.003635
-0.003306
-0.003635
-0.002155
-0.005114
-0.000183
-0.003142
-0.002813
-0.001005
-0.000841
-0.000676
-0.002813
-0.001662
-0.001498
0.000474
-0.00232
-0.000841
-0.004292
-0.001334
-0.005114
0.00146
-0.001827
-0.001334
-0.002484
-0.001827
-0.001827
-0.001334
-0.001662
-0.003142
-0.004456
-0.000841
-0.001827
-0.004785
-0.001991
-0.002813
-0.001662
-0.004292
-0.002484
-0.004456
-0.002648
-0.002155
0.00031
-0.004621
0.000146
-0.003963
-0.000841
-0.000676
-0.000347
-0.001005
-0.001334
-0.001498
-0.001169
0.000146
-0.001005
-0.000841
-0.002977
0.000474
-0.002484
-0.001169
-1.9e-05
-0.001498
-0.00347
-0.000512
-0.002484
-0.003635
0.00146
-0.00347
0.00031
-0.001991
0.00031
-0.002155
-0.001005
-0.000347
0.00031
-0.001334
-0.001005
0.002611
0.010336
0.01954
0.023977
0.033346
0.039098
0.045672
0.049946
0.061286
0.066217
0.070162
0.072956
0.08216
0.085447
0.090213
0.095966
0.098924
0.100239
0.108457
0.113388
0.114538
0.119797
0.12177
0.126865
0.126043
0.13196
0.133932
0.138699
0.140013
0.140013
0.145602
0.146259
0.149053
0.149053
0.151025
0.152176
0.156942
0.156449
0.156449
0.160229
0.161873
0.16401
0.168118
0.167132
0.16779
0.165653
0.16894
0.174364
0.172392
0.173542
0.174528
0.174364
0.172063
0.177815
0.175679
0.174857
0.178802
0.181596
0.182089
0.185047
0.183732
0.187677
0.188663
0.186198
0.18817
0.186526
0.184883
0.189649
0.191128
0.186362
0.189156
0.186198
0.192115
0.186198
0.19195
0.191293
0.193101
0.188992
0.1908
0.193101
0.191128
0.192936
0.195073
0.194416
0.193265
0.19195
0.19195
0.197045
0.189156
0.192115
0.193758
0.194744
0.19573
0.19721
0.197045
0.193594
0.196388
0.195566
0.195895
0.188992
0.194744
0.195073
0.191457
0.192608
0.194744
0.194909
0.19721
0.197703
0.197374
0.199018
0.189485
0.20214
0.199182
0.199018
0.19836
0.199675
0.039756
0.042714
0.005898
0.002611
-0.005443
-0.004456
-0.007908
0.001954
0.009843
0.02069
0.026443
0.032853
0.039756
0.042221
0.054383
0.058821
0.052575
0.067861
0.074435
0.077722
0.079694
0.084954
0.093993
0.099746
0.098595
0.103691
0.109772
0.103855
0.116346
0.119469
0.121441
0.127194
0.127194
0.13574
0.136233
0.137877
0.138205
0.140178
0.134754
0.141821
0.147081
0.150039
0.152011
0.154477
0.160558
0.160722
0.162202
0.161215
0.16401
0.15612
0.166804
0.167625
0.169433
0.172063
0.173707
0.172885
0.174857
0.175021
0.174693
0.177322
0.171077
0.177815
0.177322
0.179788
0.178637
0.181267
0.182582
0.185869
0.183404
0.181924
0.183075
0.178637
0.181596
0.187841
0.183239
0.185869
0.188663
0.187184
0.190471
0.192115
0.187841
0.186855
0.189814
0.188827
0.192115
0.190307
0.191457
0.1908
0.18932
0.192443
0.190964
0.19195
0.191293
0.195237
0.193594
0.194087
0.192772
0.193265
0.192936
0.194087
0.196388
0.196552
0.195566
0.200497
0.202469
0.194416
0.196881
0.195237
0.197538
0.197045
0.197703
0.194251
0.197703
0.195402
0.195895
0.201483
0.19573
0.197867
0.19836
0.199018
0.199018
0.200004
0.198524
0.199182
0.195073
0.198853
0.202305
0.198524
0.188827
0.201976
0.195895
0.196059
0.197045
0.197867
0.200825
0.193922
0.195895
0.202469
0.196223
0.195073
0.198853
0.198689
0.199675
0.199839
0.201812
0.197045
0.198689
0.197374
0.200004
0.197867
0.197045
0.199182
0.19836
0.20099
0.196552
0.197538
0.199018
0.20099
0.199346
0.201483
0.197538
0.19836
0.199346
0.198031
0.19721
0.19836
0.199182
0.199018
0.199511
0.200004
0.200661
0.197374
0.200825
0.198853
0.200004
0.198689
0.200168
0.199675
0.200825
0.196881
0.196388
0.20099
0.197045
0.19836
0.194909
0.198853
0.194744
0.197045
0.200497
0.199511
0.196717
0.201647
0.201483
0.199018
0.203126
0.20099
0.200168
0.198196
0.199839
0.198524
0.201154
0.198853
0.200168
0.200332
0.199018
0.194416
0.200497
0.200332
0.200497
0.199346
0.200168
0.200825
0.199018
0.199839
0.201483
0.198031
0.199346
0.199511
0.194416
0.198853
0.196552
0.199018
0.198853
0.199511
0.199346
0.201483
0.199182
0.200497
0.199182
0.19458
0.200004
0.197703
0.199839
0.200661
0.200825
0.197867
0.201319
0.195566
0.196552
0.19836
0.197374
0.194087
0.196717
0.204441
0.200497
0.207564
0.200168
0.201812
0.200004
0.199675
0.200497
0.200168
0.198031
0.199018
0.199675
0.200004
0.20362
0.199182
0.201812
0.199346
0.20099
0.198689
0.200168
0.200004
0.201647
0.20099
0.201154
0.201812
0.197045
0.19836
0.19836
0.197703
0.195895
0.198689
0.196717
0.199346
0.199675
0.199346
0.198524
0.197045
0.19836
0.20099
0.199182
0.200497
0.199346
0.199346
0.198689
0.199511
0.197045
0.19721
0.198689
0.195237
0.196552
0.194087
0.197867
0.202305
0.202633
0.197867
0.208386
0.200497
0.20362
0.199182
0.199839
0.199511
0.197045
0.199018
0.201647
0.197045
0.196717
0.200825
0.198196
0.199511
0.199182
0.202633
0.198853
0.20362
0.202305
0.200497
0.201812
0.198524
0.198689
0.198524
0.197045
0.197374
0.201154
0.196223
0.200661
0.197045
0.199346
0.200004
0.203784
0.201483
0.201976
0.201483
0.200497
0.202305
0.19573
0.198031
0.198524
0.198031
0.196552
0.19836
0.19836
0.199839
0.197538
0.196223
0.199018
0.199839
0.200661
0.198853
0.202305
0.200168
0.199346
0.200497
0.202305
0.199182
0.203126
0.19458
0.197703
0.196717
0.199839
0.196717
0.198524
0.198196
0.198689
0.201976
0.202305
0.201319
0.200661
0.201483
0.198853
0.199018
0.196552
0.20099
0.198031
0.200004
0.198524
0.200332
0.20099
0.199839
0.196881
0.199018
0.199675
0.199346
0.198689
0.196223
0.200332
0.196552
0.201154
0.19721
0.199839
0.197374
0.200825
0.200661
0.201319
0.197045
0.195895
0.200004
0.197867
0.200825
0.199839
0.20214
0.198853
0.201483
0.200332
0.20099
0.199839
0.196223
0.199675
0.199346
0.198524
0.201154
0.198196
0.199839
0.199018
0.198689
0.200825
0.198524
0.199511
0.199182
0.199839
0.199346
0.200497
0.199346
0.200168
0.200497
0.199675
0.198689
0.197045
0.198524
0.199346
0.201812
0.197538
0.20099
0.198196
0.199346
0.198524
0.197867
0.198524
0.200004
0.197045
0.199182
0.199839
0.200661
0.201154
0.202962
0.203126
0.199018
0.202305
0.198031
0.200497
0.197703
0.199675
0.200825
0.200497
0.199346
0.202798
0.198853
0.201319
0.200168
0.202305
0.201976
0.19836
0.201812
0.195073
0.199182
0.19836
0.199839
0.199018
0.197045
0.197703
0.200168
0.199182
0.199182
0.200825
0.200004
0.201483
0.198196
0.203126
0.200497
0.200168
0.200332
0.199675
0.198031
0.198853
0.199675
0.197538
0.199675
0.197045
0.19721
0.199182
0.199182
0.197703
0.199839
0.200825
0.20099
0.197538
0.202633
0.200497
0.200004
0.199018
0.199018
0.198196
0.200168
0.201154
0.19836
0.200168
0.199182
0.200661
0.200497
0.20477
0.200825
0.200004
0.201319
0.197703
0.198524
0.199511
0.197045
0.201319
0.197703
0.199511
0.200332
0.198524
0.201647
0.198031
0.198524
0.201812
0.200332
0.199511
0.199675
0.201154
0.200332
0.199675
0.200661
0.198689
0.199675
0.197374
0.199018
0.197867
0.196223
0.199018
0.199018
0.200332
0.198853
0.200004
0.200497
0.199182
0.19836
0.198689
0.200168
0.197374
0.200825
0.200661
0.200497
0.199675
0.200168
0.19836
0.199839
0.198196
0.200332
0.202469
0.197867
0.202798
0.201319
0.200168
0.200661
0.202633
0.199346
0.201647
0.199346
0.200497
0.200825
0.195402
0.198524
0.199511
0.196552
0.199675
0.199018
0.200004
0.199675
0.20099
0.199675
0.200168
0.200168
0.198689
0.202962
0.199675
0.19836
0.199511
0.19836
0.197045
0.200497
0.19721
0.197538
0.198196
0.20099
0.199839
0.199675
0.201154
0.201483
0.202469
0.197703
0.201647
0.197867
0.201976
0.199018
0.20099
0.197538
0.198524
0.199346
0.202305
0.198689
0.197867
0.20099
0.199346
0.201647
0.202633
0.201319
0.201319
0.201812
0.199346
0.20477
0.197703
0.200168
0.197867
0.198524
0.197538
0.19836
0.201154
0.198031
0.199018
0.200497
0.202469
0.199839
0.201812
0.200497
0.202798
0.197538
0.199182
0.198853
0.199018
0.197045
0.200332
0.200168
0.196552
0.201154
0.198524
0.201319
0.200332
0.198853
0.199346
0.200497
0.202962
0.202962
0.201976
0.201483
0.199675
0.200497
0.199346
0.199018
0.199182
0.199182
0.200004
0.200332
0.201154
0.200168
0.201483
0.199839
0.201976
0.199018
0.201483
0.198689
0.198031
0.197703
0.198853
0.199675
0.20099
0.198689
0.199511
0.199839
0.197374
0.201483
0.198031
0.198031
0.199675
0.201647
0.201647
0.20362
0.198196
0.198031
0.20099
0.197867
0.19721
0.196223
0.199182
0.199839
0.201483
0.198196
0.202305
0.197538
0.20214
0.201154
0.198689
0.202469
0.19721
0.201483
0.201319
0.200497
0.198853
0.202633
0.198689
0.202305
0.198524
0.200004
0.199839
0.199182
0.200332
0.199018
0.199675
0.198196
0.206249
0.200661
0.202962
0.200168
0.202798
0.19836
0.200661
0.201154
0.199346
0.20099
0.201154
0.200661
0.200168
0.199511
0.199511
0.199675
0.197867
0.197374
0.200497
0.198853
0.199839
0.200168
0.201812
0.202305
0.200825
0.201319
0.200661
0.200004
0.198689
0.200825
0.197538
0.199346
0.194744
0.199182
0.198853
0.19836
0.196717
0.20099
0.202633
0.19836
0.202633
0.201319
0.20214
0.201154
0.201647
0.200332
0.201319
0.198689
0.199346
0.198689
0.19836
0.19721
0.197374
0.196059
0.196059
0.201483
0.199839
0.20099
0.200661
0.200825
0.20099
0.200168
0.201154
0.200825
0.197374
0.19836
0.199346
0.194744
0.199018
0.198689
0.197045
0.197867
0.198853
0.200332
0.202962
0.200168
0.201976
0.201812
0.200332
0.201647
0.200661
0.200825
0.201647
0.204606
0.198689
0.200332
0.199839
0.199839
0.200168
0.199346
0.199839
0.201647
0.201319
0.201647
0.200497
0.203291
0.202962
0.197867
0.201154
0.199182
0.196881
0.199182
0.200168
0.199839
0.20099
0.198031
0.200661
0.202305
0.201319
0.199675
0.200004
0.201483
0.198524
0.201483
0.19836
0.199675
0.199018
0.198031
0.197374
0.20099
0.196552
0.196059
0.197045
0.196552
0.202305
0.200661
0.201154
0.200661
0.202305
0.196223
0.200661
0.199346
0.20099
0.194744
0.202633
0.198689
0.201319
0.199346
0.199511
0.199675
0.199675
0.201319
0.199839
0.201647
0.199346
0.200825
0.200661
0.201319
0.199018
0.202633
0.202633
0.204441
0.196388
0.200661
0.196059
0.194087
0.200497
0.197703
0.200004
0.200004
0.197703
0.198196
0.201647
0.199182
0.200168
0.197703
0.200332
0.20099
0.199511
0.198031
0.198689
0.197867
0.196552
0.199182
0.198689
0.201483
0.196717
0.199182
0.201976
0.201483
0.200661
0.203126
0.197538
0.200497
0.199346
0.200661
0.199511
0.196717
0.201483
0.200332
0.199839
0.200332
0.20099
0.196388
0.20099
0.200661
0.202305
0.199182
0.201647
0.200825
0.201812
0.19836
0.199182
0.200497
0.198031
0.203126
0.203784
0.200004
0.201319
0.200661
0.196717
0.200661
0.200825
0.199675
0.201812
0.199511
0.201483
0.20099
0.200004
0.198689
0.200825
0.196717
0.200004
0.201319
0.201319
0.199182
0.197538
0.198853
0.199018
0.199839
0.197538
0.201976
0.200004
0.204277
0.201976
0.200332
0.199839
0.199839
0.201319
0.202469
0.200004
0.19458
0.198689
0.200825
0.199839
0.199182
0.199511
0.200825
0.200661
0.201812
0.196552
0.200661
0.193265
0.198031
0.201976
0.20099
0.198524
0.19721
0.200004
0.197538
0.200004
0.199675
0.199839
0.194087
0.199018
0.200168
0.199346
0.199346
0.198031
0.198689
0.198196
0.202633
0.198689
0.202798
0.192772
0.199839
0.198524
0.202469
0.199346
0.200497
0.200661
0.199675
0.201154
0.200497
0.206249
0.193922
0.201154
0.20099
0.205756
0.198689
0.202305
0.201976
0.198524
0.201319
0.20099
0.200497
0.194087
0.197867
0.200661
0.197867
0.200168
0.202469
0.199675
0.201483
0.200168
0.199839
0.200168
0.198196
0.201647
0.200497
0.200661
0.200661
0.199675
0.200004
0.199182
0.198524
0.202305
0.199675
0.196388
0.194251
0.200825
0.198031
0.196388
0.199018
0.199839
0.199182
0.19836
0.200661
0.201976
0.201812
0.199346
0.201319
0.201154
0.202633
0.198689
0.203126
0.20099
0.200004
0.200825
0.200661
0.202305
0.200332
0.201647
0.199018
0.201812
0.200004
0.199675
0.200004
0.201647
0.199182
0.203948
0.204441
0.197867
0.201154
0.198853
0.200332
0.203784
0.202305
0.201812
0.203126
0.201976
0.203291
0.204113
0.200661
0.200004
0.200168
0.200825
0.201483
0.199511
0.196059
0.198031
0.200661
0.19836
0.202633
0.199182
0.20099
0.199675
0.199182
0.201812
0.201647
0.201647
0.200004
0.20362
0.200825
0.205263
0.200661
0.201319
0.19836
0.201319
0.201812
0.201319
0.201647
0.201483
0.202962
0.200661
0.206742
0.200661
0.202305
0.198689
0.206414
0.201319
0.203126
0.198689
0.202633
0.200497
0.19836
0.204606
0.198689
0.199018
0.199018
0.20099
0.199675
0.202962
0.203126
0.202469
0.202962
0.200332
0.201319
0.196717
0.198689
0.196717
0.199182
0.198689
0.203948
0.202305
0.204113
0.201483
0.201319
0.205263
0.202469
0.199018
0.204441
0.199839
0.199018
0.200497
0.202633
0.201976
0.198196
0.200332
0.201154
0.201812
0.199346
0.202633
0.201812
0.200004
0.201812
0.203948
0.202962
0.198689
0.204934
0.204606
0.202469
0.198853
0.201319
0.199346
0.201976
0.198853
0.202633
0.199839
0.199839
0.201154
0.204934
0.199346
0.201647
0.20099
0.200332
0.201976
0.198853
0.200332
0.198196
0.199839
0.199182
0.202305
0.198524
0.201483
0.201812
0.201812
0.201483
0.202633
0.203784
0.201319
0.201319
0.200168
0.203455
0.198524
0.20214
0.201647
0.202305
0.201976
0.200332
0.20214
0.201647
0.199839
0.200497
0.202469
0.200661
0.198031
0.202962
0.201483
0.197867
0.204606
0.20214
0.199018
0.201483
0.202305
0.20099
0.199346
0.198524
0.201154
0.202962
0.201812
0.200661
0.20099
0.202633
0.201154
0.199675
0.201483
0.199839
0.198689
0.199675
0.199018
0.20099
0.199018
0.199346
0.197867
0.201483
0.201647
0.202305
0.198524
0.198853
0.200497
0.199675
0.199675
0.201647
0.202469
0.201483
0.20362
0.201483
0.203126
0.200661
0.200497
0.202633
0.199675
0.201483
0.199511
0.20099
0.200168
0.201319
0.199839
0.198196
0.19836
0.203455
0.198524
0.202633
0.198196
0.20099
0.201812
0.199675
0.200497
0.201319
0.20362
0.196881
0.198689
0.198689
0.199511
0.198524
0.200825
0.200825
0.201812
0.200332
0.199511
0.200004
0.201319
0.198689
0.196881
0.198689
0.198524
0.199018
0.200661
0.201154
0.199018
0.201976
0.200332
0.200004
0.202798
0.203126
0.201812
0.202305
0.201483
0.202798
0.202469
0.201319
0.200168
0.200825
0.200332
0.199839
0.20099
0.196552
0.200825
0.199182
0.196552
0.199346
0.200332
0.199839
0.201483
0.200332
0.201483
0.199675
0.200825
0.200661
0.199346
0.196223
0.19836
0.201647
0.198031
0.200332
0.199018
0.19836
0.198853
0.200661
0.200004
0.197538
0.201154
0.202305
0.200497
0.200332
0.203291
0.197374
0.203948
0.200168
0.200168
0.199839
0.200332
0.202633
0.202305
0.200661
0.200497
0.201812
0.200497
0.20099
0.199675
0.201319
0.199511
0.200332
0.201154
0.200825
0.201483
0.200168
0.20099
0.198853
0.201483
0.196059
0.199839
0.197867
0.197374
0.201483
0.199346
0.199018
0.201483
0.199839
0.200332
0.194087
0.201976
0.201483
0.200168
0.197538
0.201154
0.201319
0.198031
0.196881
0.200332
0.199346
0.19836
0.200004
0.199675
0.201483
0.199018
0.201976
0.201154
0.201319
0.202305
0.203291
0.200168
0.200004
0.19721
0.199346
0.201319
0.197703
0.202469
0.199018
0.200168
0.201154
0.202798
0.200004
0.201647
0.201319
0.201812
0.200661
0.198689
0.206414
0.20477
0.204606
0.200661
0.203948
0.197703
0.199839
0.198853
0.201647
0.198524
0.199182
0.201812
0.201976
0.204934
0.204113
0.205427
0.200497
0.201812
0.198853
0.202469
0.19836
0.196552
0.197538
0.201483
0.19836
0.19836
0.201976
0.198853
0.201483
0.201319
0.201154
0.202305
0.201812
0.200168
0.200825
0.199675
0.200825
0.199675
0.200661
0.199346
0.201154
0.199839
0.19721
0.199675
0.202633
0.202633
0.20099
0.200332
0.200332
0.201976
0.200661
0.200168
0.201976
0.200168
0.198853
0.201812
0.199182
0.200168
0.199839
0.200004
0.200497
0.200168
0.201483
0.201154
0.20214
0.20214
0.200661
0.203291
0.204113
0.199346
0.20099
0.196717
0.196881
0.197045
0.198689
0.197867
0.198031
0.201319
0.199839
0.202469
0.201154
0.202962
0.201319
0.20477
0.20099
0.20362
0.199675
0.201812
0.202633
0.200825
0.200825
0.20099
0.200661
0.200661
0.201154
0.199346
0.201647
0.200661
0.198196
0.201483
0.204934
0.199839
0.197703
0.200661
0.200004
0.199182
0.199839
0.201154
0.199839
0.199182
0.200661
0.201154
0.200497
0.201319
0.198031
0.200825
0.197374
0.200004
0.198524
0.199182
0.200004
0.196881
0.198031
0.19836
0.201319
0.199511
0.199675
0.201647
0.201154
0.199511
0.202305
0.200004
0.201647
0.201647
0.20362
0.200497
0.201647
0.201647
0.20099
0.201647
0.201319
0.201976
0.199346
0.202469
0.200661
0.202305
0.200661
0.199839
0.199839
0.201154
0.200168
0.200168
0.203784
0.197867
0.201319
0.19836
0.201483
0.20099
0.202798
0.200004
0.200825
0.202469
0.203291
0.198524
0.200168
0.198689
0.194251
0.198853
0.199346
0.202633
0.201319
0.199182
0.200332
0.200332
0.200661
0.200661
0.201976
0.203455
0.200825
0.201647
0.201483
0.201812
0.200497
0.197703
0.198524
0.19836
0.200332
0.201647
0.201976
0.201976
0.205099
0.200825
0.202962
0.200825
0.203291
0.202633
0.201647
0.19836
0.204441
0.201976
0.200168
0.198853
0.20099
0.202633
0.202305
0.201154
0.201154
0.201976
0.199675
0.20477
0.201976
0.200825
0.203291
0.20099

Kurve 3

-0.001005
0.001625
-0.000512
0.000146
0.000146
-0.002813
-0.001498
0.000146
0.003597
0.001296
0.00294
0.001789
0.003761
0.000967
0.002118
-0.000183
0.00031
-0.000841
-0.00232
-0.000676
-0.001334
-0.001662
-0.001334
-0.002648
0.000639
0.001625
0.000146
0.000474
0.001296
0.00031
-0.001005
-0.001005
0.003433
-0.001005
0.002118
0.002775
0.001132
0.000639
-0.000676
-0.000512
-0.001169
-0.003963
0.000803
0.000146
0.000967
-0.000676
0.000803
-0.000183
-0.002813
-0.000676
-0.001991
-0.000183
-0.002484
-0.001498
-0.000676
-0.001498
-0.000512
0.00031
-0.001169
-0.001169
-0.00347
-0.000512
-0.000183
0.003104
-0.000347
0.00031
0.000639
-0.000841
-0.001334
-0.003306
-0.001334
-0.004456
-0.003635
-0.002155
-0.000183
-0.003799
-0.000347
-0.001662
-0.001827
0.000474
-0.000512
-0.001169
-0.001005
-0.002484
-0.001991
-0.001169
-0.005607
0.001296
-0.001991
-0.001662
-0.002484
0.001132
-0.002155
-0.000512
-0.000676
-0.002155
-0.001991
-0.005443
-1.9e-05
-0.003306
0.000474
-0.001991
-0.001169
-0.003306
-0.001169
-0.003306
0.000146
-0.001662
-0.003635
-0.001334
-0.001334
-0.002155
-0.002155
-0.000347
-0.006757
-0.00347
-0.003963
-0.001827
-0.003306
-0.003306
-0.002484
0.000967
0.00146
-0.002648
-0.000512
-0.001498
-0.00232
-0.001498
-0.001991
-0.002484
-0.003142
-0.001662
0.001296
-0.001169
-0.003963
-0.000512
-0.001169
-0.002813
-0.000841
-0.002484
-0.002155
-0.004292
-0.001334
-0.001169
-0.000676
-0.002155
-1.9e-05
-0.000512
-0.003963
-0.00232
-0.00347
-0.003306
-0.002484
-0.001827
-0.001169
-0.001662
-0.001827
0.00146
-0.001498
-0.001662
-0.001827
-0.001169
-0.002813
-0.002155
-0.002648
-0.005607
-0.004621
-0.005607
-0.002484
-0.004456
-0.003306
-0.002648
0.000474
-0.000183
-0.002813
0.000967
0.000474
-0.00232
-0.000841
0.002118
-0.000676
-0.000512
-0.002155
0.000474
-0.000347
-0.002977
0.00294
0.002282
0.00031
0.00146
-0.001498
-0.001005
0.001625
-0.000183
0.001296
-0.002813
0.000474
-0.000676
-1.9e-05
-0.002648
-0.000676
-0.00232
-0.002813
-0.001827
-0.003635
0.001625
0.00031
-0.001334
-1.9e-05
0.001132
-0.003963
0.003433
-0.000347
0.001296
-0.000347
0.004419
-0.002813
-0.001005
-0.003142
-0.000183
-0.002648
-0.002155
0.00146
-0.002484
-0.000183
0.000803
-0.000183
-0.001334
-1.9e-05
-0.001334
0.00146
-0.000512
0.001789
0.000639
0.002282
-0.001169
0.000146
-0.00232
-0.001991
0.000474
-0.001827
0.00146
-0.000676
0.001296
0.002447
0.001296
-0.000676
-1.9e-05
-0.000347
-0.000347
-0.002155
-0.002484
-0.001005
-0.002813
0.000474
-0.001991
0.001625
-0.001991
-0.001662
-0.001334
-0.000676
-0.004456
-0.000676
-0.002155
-0.001334
-0.006757
-0.000347
0.001296
-0.004785
-0.001662
-0.001334
-0.001662
-0.001827
-0.000676
-0.001498
-0.000841
-0.001334
-1.9e-05
0.004583
0.000474
-0.000676
-0.001827
0.000639
-0.005443
-0.001827
-1.9e-05
-0.004128
-0.001991
0.000146
-1.9e-05
-0.001169
0.000474
-0.001005
-0.00232
-0.001498
-0.001334
0.000639
0.000639
-0.000676
-1.9e-05
-0.001169
-0.002977
-0.001827
-0.001991
-0.002484
-0.001498
-0.003635
-0.000512
-0.002155
-0.001498
-0.001827
0.002447
0.000146
-0.001498
0.001132
-0.003142
-0.00347
-0.006757
-0.00232
-0.002155
-0.001827
-0.005278
-0.000183
-0.002813
-0.001498
-0.002648
-0.002484
-0.001498
-0.00232
0.00031
-0.000512
-0.000183
-0.003799
0.001789
0.000803
0.000474
0.002282
0.00146
-0.002813
-0.001334
-0.001827
0.001296
-0.002813
-0.001827
0.000639
-0.002813
-0.000512
-0.001334
-0.001498
-0.002484
-0.000512
-0.004949
0.002447
-0.003306
-0.000676
0.001132
-0.005114
-0.002813
-0.000676
-0.002977
-0.002977
-0.004785
-0.000676
0.00031
-0.001169
0.000967
0.001954
-0.000512
-0.003142
-0.000512
-0.002648
-1.9e-05
-0.001334
-1.9e-05
-1.9e-05
-0.001334
-0.001991
0.001954
-0.002484
-0.001005
-0.000512
-0.003142
0.001296
0.000639
0.003268
0.00031
0.000967
-0.004128
-0.001005
0.000146
0.000146
-0.002977
0.001296
-0.002484
-0.002648
0.001132
-0.001334
-0.001005
-0.002155
0.000803
-0.002813
-0.001662
-0.001827
-0.000676
-0.000512
-0.001827
-0.000512
-0.000347
-0.001662
-0.000183
0.003268
-0.003799
-0.004292
-0.002155
-0.000676
-0.003306
-0.000841
0.000146
-0.001334
-0.001498
-0.001662
0.000639
-1.9e-05
-0.000183
-0.000841
-0.000183
-0.001662
0.000474
-1.9e-05
-1.9e-05
-0.001005
-0.000676
0.003926
-0.001169
-0.002484
-0.000841
-0.001334
-0.000183
0.000803
0.002611
0.000146
-0.000676
0.000803
0.001954
-0.000841
0.000803
-1.9e-05
-0.002648
-0.001005
-0.002484
-0.001991
-0.001662
-0.001991
-0.000183
0.001789
-0.000841
-0.001334
0.000803
-0.001827
0.001296
-0.000183
0.003104
-0.001169
-0.000512
-0.00347
-0.000676
-0.006922
-0.002813
-0.006922
-0.000512
-0.000347
-0.001005
-0.000512
-0.001005
0.001132
-0.001827
0.00294
-0.000347
-0.000183
-0.000183
-0.001991
-0.002155
-0.000183
-0.003963
-0.00232
-0.002155
-0.00347
0.000146
-0.003142
0.000639
-0.003963
0.000639
-0.00232
-0.000347
-0.000183
0.000803
-0.000676
-0.000841
-0.001498
-0.002484
-0.00232
-0.003635
-0.002813
-0.002977
-0.001334
-0.001827
0.001132
-0.001662
-0.001334
-0.001498
-1.9e-05
-0.001991
-0.000347
-0.000841
-0.004456
-0.006429
-0.003963
-0.002977
-0.003799
-0.002484
-0.001334
0.000474
-0.001827
-0.004128
-0.002155
0.00031
-0.000841
0.001132
-0.000512
0.000803
-0.000347
-0.001662
0.002282
-0.00347
-0.001498
-0.00232
-0.001827
-0.002977
0.000474
-0.003306
-0.004456
-0.002813
-0.000841
-0.001334
0.001296
-0.000841
-0.001005
0.000639
-0.002977
-0.000183
-0.001498
-0.000347
-0.001827
-0.003142
-0.002484
-0.000841
-0.003306
-0.003142
0.001132
-0.003963
-0.003635
0.003268
-0.001827
-0.002155
-0.000347
-0.002155
-0.001662
-0.004785
-0.002155
-0.004128
-0.002813
-0.00347
-0.002813
-0.00347
-0.001169
-0.001827
-0.001005
-0.000512
-0.001498
-0.001005
-0.004292
-0.002977
-0.001005
-0.003142
-0.000676
-0.001005
-0.001991
-0.001005
-0.002484
-0.00232
-0.000676
0.001625
-0.001498
-0.000676
0.001296
-0.002155
-0.002977
-0.000183
-0.001991
-0.001662
0.000803
-0.002484
0.000146
-0.004292
-1.9e-05
-0.001005
-0.001005
-0.000841
-0.000183
-0.001169
-0.002648
-0.000512
-0.000512
-0.001005
-0.002977
-0.000676
-0.0061
-0.001169
-0.004292
-0.001662
-0.001991
-0.001498
-0.001005
-0.001334
-1.9e-05
-0.004128
-0.000512
-0.001991
-0.000183
-0.001991
-0.000183
-0.001991
0.000639
-0.003142
0.001132
-0.001498
-0.001991
0.00146
-0.001005
-0.000841
0.000474
0.000146
-0.003635
-0.000841
-0.001662
-0.000841
-0.002813
-0.00232
-0.002155
-0.002155
0.00294
-0.000841
-0.002155
-0.001005
0.000474
-0.001005
-0.002155
-0.002484
-0.00232
-0.001334
-0.001005
-0.002484
0.000474
-0.004456
-0.003799
-0.005114
-0.004785
-0.004456
-0.003963
-0.000676
0.001625
0.001625
-0.001005
-0.000183
-0.00347
-0.001334
-0.000183
-0.001005
-0.003142
-0.001662
-0.004128
-0.000347
0.002611
-0.003306
-0.000512
-0.00232
-0.001334
-0.000183
0.000803
-0.001827
-0.000347
-0.002484
-0.002813
-0.000841
-0.001662
-0.002813
-0.002484
-0.002977
-0.002813
-0.001991
-0.001662
-0.00232
-0.002648
-0.002648
-0.001005
0.00146
-0.004128
-0.002977
-0.003963
0.000474
-0.002977
-0.002155
-0.000347
-0.002484
-0.002648
-0.005936
-0.003799
-0.007086
-0.003142
-0.000347
0.001296
-0.001005
0.000146
-0.001827
0.002447
-0.002484
0.001296
0.00031
-0.007086
-0.002813
-0.001498
-1.9e-05
0.000474
-0.000512
-0.00232
0.000803
-0.002648
-0.000347
-0.001662
-0.007415
-0.003799
-0.000183
-0.003799
0.000639
0.000474
0.000474
-0.000676
-0.001991
-0.000841
-0.001991
-0.00988
0.001296
0.011651
0.01576
0.027758
0.034168
0.043207
0.04748
0.052082
0.063259
0.066217
0.061286
0.074599
0.081502
0.084954
0.088241
0.09235
0.103362
0.102376
0.10632
0.108786
0.114374
0.109443
0.120619
0.125386
0.128344
0.130481
0.13459
0.139685
0.139685
0.140178
0.147245
0.14971
0.143465
0.15119
0.151847
0.154148
0.154641
0.155463
0.161544
0.161709
0.163188
0.165489
0.168283
0.167297
0.170584
0.169433
0.173214
0.170913
0.174693
0.174857
0.176994
0.173871
0.17535
0.174364
0.180938
0.179788
0.18061
0.183404
0.184061
0.18176
0.186526
0.18932
0.184554
0.189156
0.185212
0.191128
0.186198
0.184883
0.184883
0.18554
0.182911
0.186033
0.190307
0.189485
0.190635
0.18817
0.19573
0.190307
0.192115
0.191293
0.19195
0.192608
0.196388
0.196388
0.193922
0.193922
0.192443
0.198689
0.190964
0.192772
0.192936
0.19573
0.195402
0.197374
0.197374
0.197374
0.194909
0.196552
0.200004
0.19458
0.19458
0.195402
0.192936
0.193758
0.197045
0.197867
0.197703
0.196059
0.198031
0.198689
0.196388
0.196059
0.197538
0.196717
0.196717
0.199511
0.196881
0.196388
0.199182
0.200497
0.200332
0.19573
0.198196
0.199182
0.196881
0.198853
0.197703
0.199511
0.198196
0.197538
0.200004
0.198031
0.195895
0.198524
0.199346
0.197867
0.199018
0.197374
0.200168
0.198196
0.198524
0.198524
0.200168
0.195237
0.193594
0.197374
0.197867
0.196059
0.199018
0.199018
0.197867
0.201319
0.195073
0.199346
0.19573
0.197045
0.19721
0.198524
0.197374
0.200168
0.198031
0.199839
0.194744
0.195895
0.199839
0.19573
0.195073
0.197045
0.201154
0.19836
0.197703
0.204441
0.201483
0.199018
0.201154
0.199839
0.200168
0.196223
0.197045
0.197867
0.197374
0.200332
0.194909
0.198689
0.199675
0.199346
0.199675
0.199182
0.198031
0.199182
0.19836
0.200497
0.198524
0.201154
0.194251
0.197703
0.199346
0.195566
0.198689
0.197374
0.198524
0.199346
0.20099
0.197867
0.201812
0.19836
0.200497
0.200168
0.200661
0.197867
0.200661
0.197703
0.194416
0.19721
0.193922
0.197045
0.195073
0.195402
0.19836
0.199346
0.197703
0.202962
0.199675
0.200825
0.198524
0.201319
0.199675
0.197703
0.198853
0.197538
0.197374
0.197538
0.200497
0.195566
0.199018
0.198196
0.199675
0.199675
0.200825
0.199018
0.199346
0.200168
0.197538
0.200168
0.195895
0.200332
0.200497
0.199182
0.198031
0.200004
0.198689
0.203455
0.201483
0.200497
0.198524
0.199839
0.199182
0.198689
0.202305
0.198196
0.199675
0.198031
0.198031
0.19573
0.194087
0.195895
0.197374
0.19573
0.197538
0.19836
0.199839
0.200661
0.199182
0.199675
0.201812
0.197867
0.19836
0.198031
0.197867
0.197867
0.198524
0.200825
0.199346
0.203291
0.199018
0.200497
0.198031
0.199675
0.200168
0.199018
0.199675
0.196388
0.201483
0.200004
0.200004
0.200332
0.201812
0.199346
0.198031
0.198031
0.198524
0.199346
0.198689
0.200332
0.199182
0.199675
0.198524
0.199511
0.199346
0.200332
0.196881
0.199839
0.197538
0.199182
0.201976
0.19836
0.197867
0.195895
0.194909
0.197045
0.19721
0.199675
0.197867
0.19836
0.198689
0.198524
0.200004
0.198031
0.200661
0.197045
0.199182
0.199182
0.196552
0.197374
0.197374
0.199346
0.199182
0.198689
0.197538
0.198853
0.198196
0.197045
0.197538
0.200004
0.197867
0.198689
0.198524
0.202633
0.193101
0.196223
0.19836
0.199018
0.197045
0.19836
0.198031
0.194909
0.19836
0.196717
0.198853
0.197374
0.19721
0.19458
0.19836
0.195895
0.190635
0.194251
0.192608
0.19195
0.188499
0.189485
0.182746
0.180116
0.174693
0.177651
0.16516
0.161215
0.15497
0.143629
0.140178
0.133603
0.128673
0.119633
0.108621
0.09991
0.091199
0.07049
0.06556
0.064738
0.058985
0.060465
0.062601
0.064738
0.070983
0.075421
0.077229
0.081995
0.083968
0.08857
0.0935
0.096952
0.100568
0.103691
0.109443
0.113223
0.115853
0.119633
0.115853
0.124728
0.123578
0.127522
0.131796
0.135904
0.136233
0.141328
0.133932
0.135904
0.140013
0.011486
0.007706
0.01428
0.021512
0.031702
0.03729
0.042057
0.052082
0.056191
0.063259
0.070326
0.074106
0.080516
0.085447
0.08972
0.094651
0.099582
0.101225
0.108786
0.109772
0.113881
0.119304
0.123742
0.124893
0.128015
0.12933
0.133768
0.136726
0.137055
0.143794
0.143794
0.14856
0.148231
0.154148
0.151518
0.155134
0.157107
0.159572
0.160558
0.160722
0.163352
0.167461
0.166146
0.164667
0.172885
0.166804
0.168612
0.171734
0.173378
0.17272
0.172556
0.178473
0.180445
0.178473
0.180774
0.182417
0.179952
0.183239
0.181924
0.181596
0.183239
0.183568
0.183897
0.186198
0.184718
0.186198
0.186855
0.185212
0.187348
0.190142
0.190635
0.187184
0.189156
0.192443
0.190635
0.190635
0.192279
0.192443
0.190635
0.18932
0.192608
0.1908
0.191457
0.191293
0.194251
0.194251
0.197045
0.193758
0.194087
0.196881
0.197045
0.195895
0.197538
0.195402
0.192443
0.19721
0.193922
0.194087
0.193758
0.196717
0.196881
0.196552
0.198689
0.194416
0.197867
0.198524
0.200661
0.198524
0.200168
0.199018
0.19836
0.197703
0.199018
0.197703
0.199018
0.195402
0.19836
0.198524
0.19836
0.198524
0.196059
0.199839
0.197374
0.199346
0.19836
0.199346
0.19836
0.198853
0.199511
0.199839
0.196717
0.199182
0.199018
0.195566
0.199675
0.198031
0.200004
0.199018
0.199511
0.199346
0.200332
0.199182
0.200661
0.199018
0.19836
0.199839
0.196059
0.19721
0.199511
0.195566
0.196717
0.199511
0.199018
0.201319
0.199511
0.199018
0.200332
0.201976
0.199675
0.201483
0.197867
0.201976
0.201483
0.19836
0.199839
0.19836
0.19836
0.199018
0.201976
0.199182
0.200825
0.202305
0.203455
0.200004
0.202305
0.202305
0.20099
0.199018
0.199675
0.199511
0.200332
0.198524
0.199182
0.199675
0.198524
0.199675
0.198853
0.201319
0.19836
0.199018
0.198196
0.202962
0.200332
0.200825
0.201319
0.198689
0.200825
0.198689
0.19573
0.195073
0.199346
0.200332
0.200004
0.196552
0.200168
0.199018
0.200332
0.200497
0.200004
0.200497
0.199839
0.199839
0.200332
0.200004
0.200004
0.199182
0.200004
0.199675
0.196717
0.203455
0.198524
0.19836
0.198689
0.20214
0.200825
0.201976
0.200825
0.201976
0.199018
0.199675
0.20099
0.198524
0.200661
0.197867
0.20099
0.196881
0.201976
0.199511
0.199018
0.200332
0.203784
0.200825
0.198689
0.204441
0.198524
0.195566
0.196059
0.199675
0.196881
0.199346
0.199346
0.201812
0.200825
0.200661
0.199182
0.199182
0.199675
0.199675
0.198196
0.198524
0.201154
0.199511
0.200332
0.199675
0.202633
0.20099
0.201154
0.200004
0.201154
0.199511
0.198196
0.199675
0.19836
0.200168
0.199182
0.199675
0.198196
0.201976
0.196059
0.199839
0.198524
0.199182
0.199675
0.200497
0.198524
0.201483
0.202962
0.199511
0.200497
0.199346
0.197538
0.19836
0.199346
0.193265
0.19721
0.197538
0.197867
0.199511
0.199839
0.199346
0.201154
0.200497
0.20099
0.200661
0.200332
0.200825
0.199675
0.20099
0.199018
0.198524
0.196552
0.201319
0.197867
0.199018
0.199675
0.199839
0.199346
0.203455
0.201812
0.202962
0.201647
0.200661
0.19836
0.193101
0.198853
0.197538
0.196388
0.198524
0.199018
0.197703
0.200004
0.197867
0.201319
0.196059
0.200004
0.200004
0.199675
0.201483
0.19836
0.198689
0.196059
0.199675
0.198196
0.19721
0.194909
0.202962
0.197045
0.197703
0.198524
0.200004
0.200825
0.200825
0.201812
0.199675
0.200825
0.198853
0.200168
0.198524
0.199018
0.200168
0.199511
0.200004
0.200004
0.201812
0.198689
0.198196
0.19836
0.200168
0.200168
0.199018
0.197374
0.201319
0.200004
0.200168
0.199346
0.199182
0.198689
0.200004
0.197703
0.199675
0.19721
0.199182
0.19836
0.199675
0.201319
0.201647
0.199346
0.198196
0.199018
0.194909
0.200168
0.199839
0.200332
0.201319
0.202305
0.196717
0.199018
0.196059
0.197867
0.197703
0.194416
0.198689
0.196881
0.199839
0.199182
0.200661
0.199839
0.203455
0.199182
0.200825
0.20099
0.199346
0.199182
0.199346
0.200004
0.198853
0.200661
0.198031
0.200661
0.198031
0.197703
0.199182
0.203126
0.199839
0.199018
0.202633
0.199839
0.199018
0.198524
0.202633
0.19721
0.199675
0.198196
0.199018
0.197374
0.200004
0.198853
0.199018
0.199839
0.197374
0.201647
0.201812
0.200497
0.200661
0.199511
0.195895
0.195566
0.200497
0.198689
0.197538
0.201647
0.196552
0.200168
0.197703
0.199511
0.199018
0.199675
0.199346
0.200004
0.202469
0.201154
0.202469
0.198196
0.201483
0.199511
0.203291
0.201154
0.199839
0.197867
0.200497
0.198031
0.197867
0.202962
0.199511
0.201483
0.199675
0.199346
0.198524
0.20099
0.199018
0.201154
0.199675
0.197538
0.199346
0.200332
0.197538
0.199018
0.198031
0.199346
0.199018
0.200168
0.201647
0.199511
0.19836
0.199675
0.198524
0.19836
0.204441
0.199675
0.202305
0.199839
0.198689
0.19721
0.199182
0.201319
0.199511
0.196552
0.197538
0.201319
0.200168
0.199182
0.200825
0.199018
0.198196
0.199182
0.196059
0.200168
0.199018
0.198524
0.199018
0.198196
0.198853
0.203291
0.199675
0.199839
0.199675
0.198689
0.196881
0.198689
0.20362
0.196717
0.200004
0.198524
0.200332
0.197867
0.198524
0.200168
0.199018
0.199346
0.198031
0.202798
0.198853
0.200004
0.195895
0.197045
0.196223
0.200004
0.195895
0.197867
0.198031
0.196881
0.19836
0.200004
0.199675
0.198689
0.199018
0.198031
0.200168
0.19836
0.203291
0.201154
0.195895
0.197703
0.198031
0.20362
0.198524
0.199511
0.19721
0.199675
0.199511
0.200004
0.200661
0.200332
0.200168
0.203455
0.19836
0.201154
0.196881
0.200497
0.197867
0.197703
0.199346
0.199182
0.196388
0.199511
0.200661
0.198524
0.200661
0.198196
0.199839
0.201647
0.201647
0.197867
0.199018
0.193594
0.195566
0.197045
0.194744
0.194744
0.197045
0.198853
0.200332
0.201812
0.199839
0.200004
0.196388
0.198524
0.199018
0.200661
0.198689
0.200661
0.197045
0.199018
0.199511
0.200168
0.197867
0.19836
0.200332
0.197867
0.199839
0.200168
0.201812
0.199018
0.200168
0.201976
0.198689
0.196223
0.195895
0.197374
0.19836
0.196717
0.196059
0.200004
0.197045
0.200004
0.198524
0.200661
0.196552
0.19836
0.200004
0.201976
0.199346
0.198689
0.198031
0.197045
0.19721
0.199839
0.195073
0.192115
0.202305
0.195895
0.197703
0.199018
0.200332
0.199675
0.197867
0.200825
0.200825
0.198524
0.195073
0.197538
0.19836
0.193758
0.199346
0.201976
0.199182
0.200004
0.198031
0.201483
0.19836
0.194251
0.196881
0.201812
0.198689
0.200004
0.200168
0.199839
0.194087
0.199675
0.199018
0.197045
0.192443
0.195566
0.200004
0.197538
0.199018
0.199018
0.200825
0.200497
0.201647
0.201647
0.198853
0.191293
0.19573
0.197867
0.19573
0.199018
0.198031
0.201647
0.202469
0.199839
0.198524
0.201319
0.189978
0.199511
0.20099
0.199511
0.199511
0.201319
0.203126
0.201154
0.202962
0.194909
0.200661
0.190635
0.199018
0.199346
0.201154
0.197703
0.201647
0.20099
0.201812
0.204277
0.200332
0.201319
0.190635
0.200004
0.198031
0.200004
0.200661
0.200825
0.200168
0.200497
0.200332
0.199182
0.200825
0.196059
0.198524
0.198524
0.199018
0.201812
0.200004
0.198853
0.201154
0.200332
0.20099
0.19836
0.197703
0.200332
0.200168
0.195402
0.198853
0.198524
0.198689
0.201319
0.198853
0.200004
0.20099
0.202962
0.19721
0.200825
0.202962
0.200497
0.200004
0.201976
0.203126
0.197538
0.201319
0.20099
0.205756
0.197045
0.200497
0.19573
0.199182
0.193922
0.200661
0.201647
0.199346
0.198524
0.203126
0.206085
0.199839
0.200004
0.199675
0.20099
0.19836
0.199346
0.202469
0.197538
0.197045
0.198524
0.202962
0.195566
0.199018
0.198524
0.199675
0.199511
0.199018
0.201976
0.20214
0.201483
0.199182
0.206578
0.199182
0.199675
0.200004
0.20099
0.200825
0.199675
0.201483
0.202469
0.202633
0.20099
0.205099
0.199182
0.199182
0.198853
0.200332
0.199182
0.200332
0.200825
0.20099
0.195895
0.196223
0.202798
0.196388
0.199018
0.199182
0.198853
0.199511
0.198689
0.201483
0.203126
0.200168
0.199346
0.198524
0.198689
0.200497
0.200168
0.196717
0.195073
0.199675
0.199675
0.195566
0.198196
0.199182
0.199018
0.196881
0.197867
0.201647
0.201319
0.197374
0.207235
0.201647
0.201319
0.201647
0.200497
0.200168
0.19836
0.19836
0.200825
0.202305
0.199182
0.202633
0.202305
0.198524
0.199182
0.20099
0.200661
0.199839
0.197867
0.199675
0.201483
0.203126
0.200168
0.201976
0.197374
0.200004
0.200004
0.198524
0.200168
0.199839
0.199675
0.198031
0.202798
0.199511
0.202962
0.199839
0.201483
0.203291
0.202469
0.198031
0.201319
0.199018
0.197045
0.200168
0.198031
0.199346
0.196059
0.199511
0.199675
0.20214
0.203126
0.201976
0.200332
0.200332
0.200168
0.201154
0.199018
0.198689
0.20099
0.200825
0.202633
0.198031
0.200168
0.197703
0.198689
0.197703
0.201647
0.201319
0.200825
0.202633
0.200825
0.203784
0.199018
0.200661
0.199018
0.199675
0.199675
0.199346
0.199675
0.199675
0.200004
0.200168
0.201483
0.201154
0.201812
0.201319
0.201976
0.202305
0.202469
0.201647
0.204934
0.200825
0.199675
0.199839
0.199346
0.201154
0.200004
0.200497
0.200332
0.20099
0.205592
0.199511
0.20099
0.199675
0.203291
0.201483
0.198031
0.201812
0.20099
0.201812
0.200661
0.201154
0.202962
0.201812
0.200332
0.201812
0.201483
0.201483
0.202469
0.20099
0.20099
0.202633
0.202633
0.202469
0.202469
0.201976
0.201647
0.201154
0.201647
0.199182
0.201483
0.200825
0.20214
0.201319
0.201154
0.203784
0.202962
0.204113
0.199675
0.20099
0.199675
0.202305
0.199839
0.200332
0.200661
0.199839
0.201319
0.203455
0.203455
0.199182
0.203126
0.199346
0.202305
0.198689
0.203126
0.20362
0.201319
0.201154
0.202962
0.203126
0.201319
0.201154
0.20099
0.200497
0.20214
0.200661
0.202962
0.201976
0.199511
0.209043
0.204113
0.201647
0.20362
0.203126
0.200332
0.201812
0.200168
0.205921
0.20099
0.200825
0.202633
0.200332
0.201154
0.201319
0.203126
0.199511
0.20099
0.199839
0.205592
0.203784
0.201154
0.19836
0.202469
0.199182
0.200661
0.201647
0.199346
0.202469
0.201483
0.203948
0.201976
0.201976
0.204113
0.201154
0.201976
0.203948
0.200661
0.20362
0.202798
0.198031
0.203948
0.201319
0.201154
0.200332
0.208715
0.200825
0.20099
0.20214
0.201483
0.199839
0.199839
0.199675
0.199675
0.199346
0.199346
0.202305
0.200497
0.202305
0.199018
0.202305
0.199182
0.199839
0.201647
0.202305
0.201976
0.199675
0.202962
0.20099
0.196717
0.196881
0.198031
0.197867
0.195895
0.197867
0.208386
0.203291
0.204441
0.202962
0.201154
0.199346
0.201319
0.200661
0.200661
0.19721
0.200332
0.198689
0.199839
0.199675
0.197045
0.200497
0.198689
0.200004
0.201483
0.200825
0.194087
0.201647
0.200825
0.200497
0.200332
0.201319
0.197045
0.198524
0.198689
0.196552
0.198031
0.196059
0.201319
0.199346
0.197867
0.198031
0.201976
0.198031
0.200825
0.197867
0.201976
0.199182
0.196223
0.199675
0.198524
0.198689
0.19836
0.198689
0.194744
0.194909
0.192936
0.196552
0.197045
0.196881
0.199018
0.199675
0.201154
0.199346
0.20099
0.196552
0.199346
0.197867
0.196881
0.198031
0.197703
0.197374
0.200168
0.196388
0.199182
0.197045
0.19721
0.201483
0.199182
0.197867
0.200661
0.198196
0.199839
0.198524
0.195566
0.198031
0.197538
0.19836
0.196388
0.199182
0.196881
0.199346
0.197045
0.200661
0.199182
0.200004
0.197867
0.199346
0.198689
0.19836
0.19836
0.195402
0.197867
0.192936
0.201647
0.197538
0.195073
0.194251
0.198031
0.199675
0.19836
0.200168
0.199346
0.197374
0.200004
0.20099
0.196717
0.201976
0.200004
0.201812
0.200004
0.199675
0.198524
0.200168
0.19836
0.199182
0.202633
0.19836
0.200004
0.200825
0.202469
0.199018
0.201483
0.199018
0.20099
0.198689
0.201319
0.201154
0.201483
0.200332
0.202305
0.199839
0.20099
0.20099
0.200004
0.199182
0.200168
0.200004
0.200497
0.203291
0.200825
0.202962
0.198524
0.199182
0.199346
0.197703
0.199182
0.199018
0.199018
0.201812
0.20099
0.198031
0.202962
0.197045
0.202469
0.20362
0.202469
0.199675
0.204934
0.200497
0.20362
0.202962
0.204277
0.201647
0.204606
0.202633
0.200168
0.20214
0.202469
0.201319
0.199346
0.20214
0.20099
0.201812
0.201647
0.203948
0.200661
0.20099
0.201483
0.200825
0.199675
0.200332
0.201154
0.199675
0.201154
0.198524
0.202305
0.201812
0.199018
0.201647
0.199182
0.197867
0.200497
0.199839
0.200825
0.202962
0.202633
0.206249
0.201483
0.199839
0.201812
0.201976
0.199182
0.200168
0.200661
0.200825
0.204934
0.200825
0.201647
0.203291
0.200497
0.203455
0.203948
0.199346
0.204606
0.195073
0.200168
0.200168
0.198689
0.199511
0.201812
0.199839
0.201647
0.201154
0.201647
0.200661
0.202305
0.20214
0.201483
0.20214
0.200825
0.201976

Kurve 4

0.001789
0.002118
0.002118
0.001954
0.003597
0.000803
0.00146
0.004419
0.001954
0.000967
0.002447
0.000639
0.001132
0.000639
-0.000347
0.001789
0.00031
0.000803
0.003926
0.000146
-0.001005
0.004748
0.000474
0.002447
-0.000183
0.001625
0.002118
-0.000183
0.00146
0.005405
-0.000183
-0.001005
0.003926
-0.002155
0.002611
0.001789
0.001625
0.000967
-0.001498
-0.003635
0.002282
-0.005278
-0.002155
-0.001498
-0.003963
0.000146
0.001954
0.004255
0.002775
0.003433
-0.000183
0.007049
-0.001827
0.000474
-0.000347
0.001132
-0.001991
0.000967
0.001789
0.000639
0.002282
0.00146
0.004748
-0.001827
0.00031
-0.000512
0.000803
-0.001498
0.001789
0.00146
0.000967
-0.001498
0.001954
0.002611
-0.003142
-0.003635
-0.001005
-0.000676
-0.001169
0.000639
-0.00232
0.000146
-0.000676
0.001296
0.00409
-0.000676
-0.002484
-0.001662
0.001789
-0.00347
0.004748
0.000639
-0.001169
-0.001827
-0.002813
0.001132
-0.005278
-0.003635
-1.9e-05
-0.004456
0.000146
-0.000676
0.001954
0.000967
-0.001005
-0.000347
0.000967
-0.001005
0.000803
-0.002813
-0.000841
0.001789
0.000639
0.00146
-0.000347
0.000803
-0.000512
0.001954
-0.001334
-0.000183
0.000474
-1.9e-05
-0.002813
-0.001169
0.000967
-0.002484
-0.002155
-0.001662
0.00031
-0.004292
-0.000347
-0.001662
-0.001334
0.000474
0.000639
0.00031
-0.001334
-1.9e-05
0.000967
0.003433
-0.000347
-0.001662
-0.004785
-0.003142
-0.002813
-0.002813
-0.005607
0.000146
0.001296
-0.002813
-0.00232
0.000803
-0.000841
0.000803
0.000803
-0.000512
0.001625
-0.000183
0.000967
-0.002648
-0.001498
-0.001334
-0.000676
-0.003306
-0.000512
-0.000676
-0.001169
-0.000183
0.000967
0.00031
0.00031
-0.001498
-0.001005
0.00031
-0.001334
0.000146
-0.001498
-0.001334
-0.002484
-0.000512
-0.00232
-0.002484
0.000146
0.000639
-0.001827
0.000639
-0.001334
-0.000676
0.002282
-0.001991
0.000967
-0.002977
-0.00232
-0.001991
-0.003963
-0.002155
-1.9e-05
-0.002977
-0.000183
-0.001005
0.000146
0.001954
0.00146
0.002447
0.004419
0.001296
-0.002155
0.000967
-0.001169
-0.00347
-0.002484
-0.001991
-0.001334
0.00031
-0.002813
-0.000512
0.001132
-0.00232
-0.000512
0.000146
-0.000841
0.000474
0.000803
0.000967
0.001132
-0.001991
-1.9e-05
0.000967
-0.002648
-0.00347
-0.001827
-0.000347
-0.002155
-0.00232
-0.00232
-0.000347
-0.001334
-0.00232
-0.002155
-0.002484
-0.005278
-0.003142
-0.003635
-0.001827
-0.00232
-0.001334
0.000146
-0.002484
0.001132
-0.001169
-0.000676
-0.000512
0.003597
-0.001991
-0.001334
-0.001827
0.000639
-0.000512
0.001296
-0.005114
0.000803
0.000803
-0.003635
-0.001334
-0.000676
-0.001334
-0.003306
0.00031
-0.000841
0.00031
-0.000676
0.000803
-0.003306
-0.001005
-0.001827
-0.001498
-0.001005
-0.003142
0.000639
-0.001498
-0.000347
-0.000512
0.00031
-0.001169
-0.001169
-0.003142
-0.000183
-0.001334
-0.001498
-0.000512
-0.002484
-0.00347
-0.001334
-0.000512
-0.004456
-1.9e-05
-0.004949
-0.000512
-0.000841
-0.002484
0.000474
-0.000676
-0.000512
-0.001005
-0.001827
-0.001662
0.000639
-0.001334
0.000803
-0.001334
-0.001005
0.000639
0.00031
-0.000676
0.001625
-0.002155
-0.001005
-0.001662
-0.000841
-0.001005
-0.00347
-0.006593
-0.002813
-0.000676
-0.002813
-0.000676
-0.001662
-0.001991
-0.002813
-0.001662
-0.001827
0.000967
-0.004621
0.000474
-0.001498
-0.001334
-0.001662
-0.001827
-0.002813
-0.001498
0.003268
-0.001662
-0.000676
-0.00232
-0.000841
-0.004456
0.000967
-0.003142
-0.001662
-0.004456
-0.003799
0.00146
-0.001991
-0.004128
-0.006429
-0.002155
-0.00347
-0.000347
-0.000676
0.001954
-0.002155
-0.000183
-0.002155
-0.001169
-0.001991
-0.001991
-0.000183
-1.9e-05
-0.001498
-0.000347
-0.001334
0.000967
-0.001827
-0.00232
-0.000676
-0.003963
0.000474
-0.003799
-0.001827
-0.001827
-0.000512
-1.9e-05
-0.001169
-0.001005
-0.004128
0.001132
-0.001827
-0.002648
-0.000512
-0.001498
-0.006429
-0.001169
-0.002813
-0.002484
-0.003963
-0.000512
0.001296
-0.001334
-0.002155
0.000474
-0.000512
-0.000676
-0.000183
-0.001662
-0.003963
-0.002648
-0.002484
-0.001662
-0.001498
-0.004128
0.000967
-0.001991
-0.001991
-0.001334
-0.001334
0.001132
-0.002977
-0.000183
-0.000183
0.001296
-0.002813
0.001132
-0.000841
0.00031
-0.001005
0.000639
-0.004128
-1.9e-05
-0.00347
-0.002484
-0.002977
-0.001991
0.000639
0.001789
0.000639
-0.001662
0.002611
-0.002155
0.001296
-0.000841
-0.002648
-0.004128
-0.001991
-0.002977
-0.002977
0.000146
0.000803
0.001296
-1.9e-05
-0.000347
-0.000841
-0.000347
-0.000841
0.00031
-0.001169
0.000967
-1.9e-05
-0.000183
0.000967
-0.002155
-0.001005
-0.000183
-0.002977
-0.001827
-0.004456
0.000639
-0.002484
0.000146
0.000639
0.001296
-0.000347
-0.002484
0.000639
-1.9e-05
0.000474
-0.001991
0.00031
-0.001662
-0.000512
-0.003306
-0.00232
-0.000512
-0.002648
0.00031
-0.005443
-0.000347
-0.002484
0.00146
-0.000347
0.00031
-0.00232
0.001132
-0.003142
-0.002484
-0.007415
-0.000841
-0.00725
-0.002977
0.000146
-0.003799
0.00146
-0.001662
-0.001005
-0.002155
-0.000347
-0.001169
0.00031
-0.001334
-0.001169
-0.000347
-0.001005
-0.000347
-0.002484
-0.001662
-0.003142
0.001625
-0.005278
0.00031
-0.004621
-0.002648
-0.001498
0.00031
-0.002484
-0.000347
-0.001662
-0.003142
-0.003635
-0.003142
-0.002155
-0.003799
-0.002484
-0.00232
-0.001991
-0.003799
-0.001662
-0.000841
-0.001991
-0.003963
-0.002484
-0.00232
-0.001169
-0.001827
-0.005443
-0.001005
-0.00873
-0.001334
-0.005936
-0.002977
0.00031
-0.001662
-0.006757
-0.001334
-0.003799
-0.001991
-0.003142
-0.001334
-0.000841
-0.000512
-0.001334
-0.00232
-0.000676
-0.001334
-0.001005
-0.002155
-0.003963
-0.001827
-0.00347
-0.004456
-0.001334
-0.001827
-0.005443
-0.002977
-0.002484
-0.000676
-0.004456
-0.003306
-0.002648
-0.001827
-0.003963
-0.001169
-0.00347
-0.000676
-0.001334
-0.00232
-0.002813
-0.002813
-0.00347
-0.003142
-0.000512
-0.001169
-0.002648
-0.004456
-0.004785
-0.004128
0.000146
-0.003963
-0.001991
0.000639
0.002611
-0.001005
-0.000512
-0.001827
-0.002155
-0.002484
-0.002977
-0.005936
-0.005443
-0.000841
-0.001498
-0.001662
-0.001827
-0.000183
-0.001169
-0.00232
0.000967
0.002447
0.002775
0.000967
0.000639
-0.001827
0.000639
-0.002484
-0.001991
-0.00232
0.000639
-0.003306
-0.00347
-0.002155
-0.001005
-0.002484
0.000474
-0.000512
0.000146
0.000803
0.00031
-0.000183
-0.001169
-0.002813
-0.004128
-0.00347
-0.007744
-0.000512
-0.005114
-0.005443
-0.003306
-0.002484
-0.002155
0.001625
-0.000183
-0.000841
0.000474
-0.001498
0.000803
-0.002155
-0.000183
-0.000841
0.00146
-0.002977
0.00031
-0.001991
-0.00232
-0.000841
0.00031
0.003268
0.00146
-0.000841
-0.000183
-0.000347
-0.002484
-0.001005
-0.003635
-0.001498
-0.000347
-0.001498
-0.003635
-0.001334
-0.002648
-0.002813
0.002611
-0.004292
-0.000512
-0.000512
-0.001169
0.000146
-0.000183
-0.002484
0.00146
-0.001827
0.000474
-0.000183
-0.003635
-0.003799
-0.001827
-0.001169
-0.003306
-0.00232
-1.9e-05
-0.003142
-0.003142
-0.001169
0.000146
-0.002155
-0.001498
-0.000183
-0.002484
-0.000676
-0.001662
-0.000841
-0.001005
-0.001005
-0.001334
-0.000183
-0.003142
-0.002155
-0.005443
-0.002484
-0.001498
-0.001498
0.00146
0.004255
0.000967
-0.001169
0.003761
-0.004128
-0.003963
-0.001169
-0.003142
-0.002977
-0.004128
-0.001005
-0.002977
0.000146
-0.002484
-0.001498
-0.001498
-0.001334
-0.003799
-0.001169
-0.001662
-0.001334
-0.001991
-0.006922
-0.004456
-0.003306
-0.001991
-0.005607
0.001132
0.000146
0.000146
-0.003963
0.000146
0.001789
0.011979
0.019047
0.027758
0.035318
0.04107
0.047645
0.054055
0.058821
0.065888
0.068847
0.074928
0.080352
0.083475
0.091199
0.095801
0.098102
0.104677
0.10517
0.107635
0.118154
0.116839
0.122756
0.125386
0.126372
0.131467
0.135411
0.135247
0.135083
0.143629
0.141
0.146259
0.146423
0.150368
0.150861
0.155627
0.155299
0.15875
0.156942
0.159572
0.16401
0.161051
0.164996
0.164667
0.170091
0.169598
0.174035
0.171406
0.174364
0.172885
0.174693
0.175186
0.177158
0.176994
0.176829
0.180938
0.18061
0.182911
0.180774
0.186033
0.182089
0.183239
0.184883
0.187348
0.184883
0.18554
0.188006
0.185705
0.184718
0.189814
0.192443
0.188827
0.188499
0.188992
0.190635
0.192936
0.1908
0.18932
0.193265
0.1908
0.191128
0.195566
0.18932
0.191457
0.190964
0.19573
0.19195
0.192936
0.194744
0.193594
0.193101
0.195073
0.194744
0.19458
0.193429
0.19458
0.192936
0.197374
0.193758
0.197374
0.196388
0.194909
0.196059
0.195237
0.196223
0.195073
0.196717
0.196717
0.197045
0.19573
0.19721
0.194909
0.200497
0.199675
0.197703
0.196717
0.196223
0.196717
0.198196
0.199675
0.196717
0.19721
0.197374
0.195237
0.197045
0.200004
0.195073
0.198196
0.197703
0.197703
0.198853
0.198524
0.198524
0.196552
0.199511
0.196388
0.196881
0.197374
0.196059
0.192279
0.194744
0.19573
0.198031
0.195895
0.20099
0.196059
0.196388
0.19836
0.197867
0.198689
0.198853
0.198031
0.199018
0.19836
0.197867
0.200168
0.197703
0.199182
0.195895
0.197867
0.19721
0.199018
0.200332
0.200497
0.196717
0.199346
0.199182
0.197045
0.200168
0.196223
0.193594
0.195237
0.198196
0.196059
0.196552
0.198031
0.198689
0.198196
0.199675
0.199675
0.198689
0.199675
0.19836
0.199511
0.197703
0.197703
0.19836
0.199675
0.197703
0.198524
0.195895
0.195237
0.196059
0.19458
0.198524
0.197374
0.198196
0.196059
0.201976
0.197374
0.201647
0.199511
0.198196
0.199511
0.199346
0.199018
0.199018
0.198031
0.196059
0.198689
0.198196
0.202798
0.200004
0.200168
0.198853
0.201319
0.200497
0.200497
0.19836
0.196717
0.198689
0.199511
0.199346
0.195073
0.196388
0.197867
0.19836
0.19721
0.199346
0.198196
0.196717
0.199675
0.20099
0.19836
0.196223
0.199018
0.19573
0.199511
0.196881
0.198196
0.195073
0.19721
0.199182
0.199839
0.196717
0.192443
0.193922
0.197703
0.198524
0.200332
0.19836
0.200661
0.197538
0.200497
0.201319
0.199182
0.187513
0.187841
0.18817
0.182253
0.183568
0.07575
0.006884
0.003104
0.002775
0.001625
0.001625
-0.006593
0.001954
0.000639
0.003597
0.003433
0.004583
0.001789
0.000803
0.001296
-0.000676
0.000474
-0.007908
-0.000841
0.000146
0.000146
0.001132
0.002775
0.001625
0.00409
0.00031
0.001954
0.003597
-0.004128
0.001296
0.002447
0.001132
0.001954
0.000146
-0.001827
0.002118
-0.000183
0.00031
-0.000512
-0.000841
0.000146
0.00146
0.001625
0.002118
0.000967
0.000474
0.001132
-1.9e-05
-1.9e-05
-0.000841
0.003104
0.000474
0.001954
-0.002648
0.000967
0.000639
0.000474
0.001132
0.000803
0.000146
-0.000841
0.004748
-0.001334
-0.000183
-0.000183
0.000474
0.00031
0.000474
-0.000512
0.000146
-0.001662
0.000146
0.006227
-0.000183
-0.000347
0.000639
0.000146
0.000639
-0.000347
0.00031
0.000474
-1.9e-05
0.00031
0.005569
-0.000183
-0.000841
0.002118
0.000803
-0.001169
0.00031
0.004583
0.00146
0.010007
0.017403
0.029401
0.030716
0.037783
0.046166
0.051261
0.059643
0.062437
0.070819
0.076407
0.081502
0.085776
0.09498
0.092021
0.097116
0.103526
0.105334
0.107142
0.111251
0.118154
0.120126
0.12555
0.1267
0.137219
0.133603
0.135576
0.138534
0.139685
0.14215
0.145108
0.149217
0.147738
0.156449
0.155134
0.158093
0.152998
0.158586
0.158586
0.16253
0.161544
0.16779
0.169762
0.167132
0.170913
0.169926
0.175679
0.171406
0.173214
0.173707
0.176501
0.174857
0.180281
0.179623
0.180281
0.181267
0.182253
0.185869
0.180445
0.184718
0.18554
0.186362
0.183897
0.187513
0.188006
0.187677
0.18554
0.188006
0.188499
0.184883
0.189156
0.192772
0.189485
0.188827
0.194416
0.193758
0.192115
0.192608
0.192115
0.193101
0.191786
0.190471
0.190471
0.189649
0.191786
0.192443
0.192608
0.191128
0.193922
0.193758
0.196223
0.192936
0.196223
0.192772
0.197045
0.196552
0.194909
0.198031
0.19573
0.19573
0.194251
0.197045
0.193429
0.19573
0.19573
0.195402
0.196223
0.195402
0.202469
0.192279
0.197374
0.197045
0.199182
0.195237
0.197703
0.197374
0.197538
0.196059
0.19721
0.196881
0.198031
0.198689
0.196388
0.197867
0.197538
0.196059
0.19573
0.199018
0.200168
0.199346
0.197703
0.197045
0.195237
0.193758
0.19573
0.194087
0.194087
0.194909
0.196059
0.196059
0.199018
0.19836
0.199018
0.200497
0.198689
0.196552
0.199511
0.197538
0.198524
0.196717
0.19836
0.19836
0.198524
0.197867
0.196881
0.198524
0.196717
0.196881
0.19573
0.196388
0.191786
0.197703
0.198853
0.197538
0.199675
0.199182
0.198853
0.199182
0.196717
0.196059
0.19721
0.19573
0.197374
0.193594
0.198689
0.195237
0.196717
0.198196
0.199182
0.19721
0.202305
0.197867
0.19836
0.197703
0.196223
0.200825
0.196059
0.19836
0.19573
0.199346
0.192279
0.200825
0.199675
0.200332
0.197703
0.199182
0.200332
0.200004
0.200168
0.198853
0.202633
0.196223
0.200661
0.198031
0.199839
0.19573
0.199346
0.198689
0.198689
0.197867
0.197703
0.197703
0.197703
0.196388
0.199018
0.200497
0.199018
0.196388
0.199839
0.200332
0.198524
0.197538
0.199182
0.192936
0.196552
0.198196
0.195073
0.195237
0.19721
0.200332
0.202633
0.200332
0.199346
0.201154
0.198689
0.198689
0.200497
0.194251
0.195402
0.198853
0.197374
0.196223
0.197045
0.19573
0.199018
0.198689
0.196717
0.197703
0.198853
0.200825
0.195895
0.201812
0.199675
0.200168
0.197374
0.201976
0.197867
0.197867
0.197045
0.20099
0.199675
0.196717
0.201319
0.197374
0.199182
0.19836
0.20099
0.197867
0.197538
0.19836
0.199018
0.196223
0.198853
0.200332
0.200168
0.200004
0.198689
0.20214
0.197538
0.197045
0.198031
0.198853
0.19721
0.193429
0.198031
0.19836
0.196223
0.19836
0.197867
0.199346
0.199839
0.197045
0.195566
0.196881
0.197538
0.19836
0.200168
0.19836
0.19836
0.198524
0.199018
0.197538
0.198689
0.19836
0.202469
0.19573
0.20099
0.200004
0.199511
0.200497
0.195566
0.199839
0.201647
0.198853
0.199346
0.20099
0.194909
0.19836
0.19573
0.197374
0.198689
0.19836
0.198524
0.200168
0.20214
0.200332
0.197703
0.196388
0.200004
0.196881
0.199839
0.196388
0.196552
0.191621
0.19573
0.197374
0.194251
0.196388
0.199839
0.199346
0.199018
0.202305
0.199346
0.203455
0.198689
0.199839
0.197703
0.196388
0.198031
0.19836
0.197045
0.197045
0.199511
0.197374
0.202469
0.196223
0.199018
0.198524
0.199839
0.199018
0.199511
0.193758
0.197867
0.197374
0.196717
0.194909
0.194744
0.193922
0.192772
0.194416
0.193265
0.195237
0.196717
0.196223
0.197703
0.199839
0.197538
0.195895
0.194251
0.195895
0.196388
0.19721
0.193594
0.196388
0.195402
0.196059
0.19573
0.193922
0.194251
0.197703
0.196552
0.197867
0.199511
0.195566
0.201483
0.198031
0.200332
0.198853
0.196223
0.196881
0.200332
0.19836
0.199839
0.196881
0.196552
0.19836
0.197538
0.199839
0.197703
0.198196
0.198196
0.199839
0.198689
0.19836
0.199346
0.198524
0.194744
0.195895
0.196552
0.198031
0.19721
0.194251
0.197538
0.19458
0.197045
0.197867
0.195073
0.199018
0.199511
0.198031
0.19836
0.199511
0.197538
0.196717
0.194251
0.192279
0.196388
0.192608
0.192772
0.19721
0.195237
0.197374
0.199675
0.198853
0.198524
0.198853
0.198524
0.199346
0.197374
0.200004
0.20099
0.198031
0.200004
0.199018
0.199346
0.197374
0.198689
0.198031
0.196059
0.197703
0.199346
0.200168
0.199182
0.197703
0.200004
0.200332
0.196388
0.203126
0.197703
0.200661
0.197703
0.199182
0.196059
0.200004
0.197867
0.198031
0.198853
0.198196
0.198853
0.199511
0.196717
0.200825
0.200004
0.198524
0.198524
0.192608
0.19721
0.196717
0.194251
0.195402
0.196881
0.198031
0.195402
0.198031
0.197045
0.199018
0.196881
0.199839
0.19721
0.199675
0.196881
0.201154
0.199675
0.197867
0.199839
0.201483
0.197045
0.199018
0.199675
0.197703
0.197538
0.198524
0.198689
0.199839
0.196881
0.200497
0.199018
0.198853
0.201319
0.200332
0.200168
0.199018
0.199675
0.198524
0.197867
0.197374
0.197703
0.199675
0.19573
0.200004
0.197374
0.194909
0.194909
0.200497
0.197703
0.201647
0.195895
0.19836
0.199839
0.201976
0.199018
0.200332
0.196717
0.197538
0.198031
0.198031
0.199511
0.196059
0.199346
0.198853
0.199675
0.19836
0.201483
0.197703
0.199018
0.199839
0.199018
0.199346
0.196388
0.199675
0.198031
0.196552
0.195237
0.200332
0.19573
0.194087
0.195566
0.194744
0.19573
0.196881
0.198524
0.198031
0.200168
0.19721
0.201812
0.196223
0.197374
0.197703
0.199018
0.196388
0.19721
0.19721
0.19721
0.197867
0.193594
0.20214
0.195895
0.19836
0.199346
0.199018
0.199675
0.198524
0.196717
0.197867
0.196059
0.201483
0.199511
0.196881
0.19836
0.199346
0.199346
0.199511
0.199839
0.200497
0.200497
0.201647
0.200332
0.200168
0.200661
0.198853
0.20099
0.199346
0.200661
0.199346
0.202305
0.201154
0.200004
0.203291
0.200332
0.200332
0.200661
0.199675
0.199018
0.201483
0.199018
0.202962
0.200825
0.201647
0.200661
0.203455
0.199839
0.199018
0.19836
0.19721
0.199675
0.19573
0.19836
0.19458
0.197538
0.197045
0.20214
0.199346
0.203126
0.202633
0.20362
0.201647
0.200497
0.202798
0.201319
0.201483
0.20099
0.20477
0.196717
0.200825
0.199346
0.201319
0.199839
0.200497
0.20099
0.202305
0.202469
0.202305
0.204441
0.19836
0.199839
0.201483
0.198853
0.201647
0.202633
0.20099
0.200661
0.199182
0.202469
0.201483
0.200497
0.200332
0.200661
0.200661
0.201319
0.202305
0.200168
0.199018
0.200825
0.199346
0.197867
0.194744
0.198689
0.201647
0.199018
0.204113
0.198853
0.201483
0.201647
0.200661
0.203455
0.201976
0.200825
0.200661
0.200168
0.200004
0.200004
0.197703
0.199839
0.197374
0.200497
0.197703
0.199675
0.19836
0.200168
0.199675
0.198524
0.201319
0.199839
0.201319
0.19721
0.200168
0.198524
0.198689
0.198196
0.198689
0.196223
0.199346
0.19836
0.19721
0.199511
0.200497
0.200004
0.200168
0.200661
0.200497
0.20214
0.198196
0.201812
0.196881
0.196717
0.200497
0.200661
0.197374
0.199839
0.196059
0.195895
0.196881
0.198031
0.199839
0.198689
0.200168
0.200004
0.201812
0.201319
0.197374
0.200497
0.201976
0.199675
0.196717
0.198853
0.200661
0.196881
0.200004
0.199511
0.198853
0.20214
0.200004
0.202798
0.199675
0.20214
0.196388
0.201976
0.196717
0.195402
0.200004
0.197867
0.197538
0.201154
0.198853
0.198689
0.199346
0.198524
0.201483
0.197374
0.200661
0.200661
0.198524
0.196717
0.199018
0.202305
0.198196
0.196717
0.198031
0.199511
0.199018
0.198853
0.201483
0.20099
0.199839
0.203291
0.198031
0.199018
0.199675
0.198689
0.198853
0.198853
0.200168
0.199346
0.201483
0.200004
0.201647
0.197538
0.198031
0.199346
0.20099
0.199511
0.195895
0.161544
0.156778
0.15875
0.160887
0.162695
0.164831
0.164667
0.166146
0.169598
0.168283
0.172556
0.174857
0.173542
0.171899
0.176994
0.175679
0.177815
0.175843
0.178637
0.178802
0.177158
0.179623
0.182582
0.17913
0.179952
0.185705
0.182746
0.186033
0.186526
0.187019
0.186033
0.187677
0.185869
0.188334
0.186855
0.188006
0.18932
0.188006
0.191128
0.188334
0.192772
0.192115
0.192608
0.191293
0.19573
0.190964
0.195073
0.196223
0.196059
0.192115
0.196717
0.191457
0.190964
0.193922
0.192115
0.198524
0.196223
0.19458
0.19573
0.196552
0.195237
0.196881
0.197045
0.19721
0.197538
0.197703
0.194744
0.196059
0.193429
0.196717
0.193758
0.192608
0.193758
0.194087
0.196881
0.197045
0.197867
0.198196
0.196717
0.196388
0.197538
0.196388
0.195895
0.19836
0.19836
0.196059
0.197538
0.198524
0.198524
0.200004
0.197374
0.197867
0.196717
0.199182
0.198524
0.200825
0.19836
0.199346
0.197867
0.20099
0.197867
0.196552
0.199182
0.196059
0.196059
0.200168
0.200332
0.199182
0.197703
0.199346
0.201154
0.199018
0.203784
0.19573
0.197703
0.199675
0.197703
0.198031
0.195566
0.197374
0.197374
0.192608
0.193922
0.201319
0.192936
0.196552
0.20099
0.200004
0.19836
0.197374
0.20362
0.200497
0.201812
0.199018
0.201319
0.192608
0.19836
0.199018
0.199346
0.196552
0.201319
0.199511
0.198196
0.199346
0.199346
0.199346
0.191786
0.198031
0.196717
0.198689
0.197867
0.199346
0.197703
0.199182
0.198853
0.200168
0.200168
0.195073
0.197045
0.198853
0.200825
0.199511
0.199346
0.199839
0.199511
0.199182
0.201319
0.199182
0.191621
0.197538
0.20099
0.197374
0.194744
0.19836
0.199675
0.19458
0.199018
0.199346
0.196223
0.192279
0.200825
0.198196
0.197867
0.203455
0.199346
0.201483
0.197045
0.201319
0.200661
0.200661
0.196059
0.200004
0.200825
0.198689
0.199346
0.199675
0.199511
0.199675
0.202798
0.199511
0.202962
0.196223
0.200168
0.199675
0.200168
0.198853
0.202305
0.201647
0.199511
0.201319
0.200497
0.199675
0.197045
0.20099
0.197538
0.201812
0.199018
0.201483
0.198853
0.199839
0.199675
0.200332
0.199018
0.202798
0.196717
0.19836
0.200004
0.200168
0.200661
0.19836
0.196223
0.195073
0.200661
0.201647
0.205592
0.201319
0.200661
0.201319
0.201812
0.201812
0.202962
0.196223
0.199675
0.201154
0.199182
0.206578
0.196059
0.203126
0.199675
0.199675
0.201976
0.201483
0.199346
0.201319
0.201976
0.200332
0.208057
0.200004
0.201812
0.199182
0.200004
0.199346
0.200661
0.197045
0.200661
0.20099
0.199511
0.205427
0.195895
0.196717
0.201319
0.200825
0.196223
0.204277
0.19721
0.201647
0.201154
0.20099
0.201647
0.199675
0.198853
0.198031
0.20362
0.201812
0.200825
0.200825
0.199511
0.201483
0.202469
0.203291
0.201319
0.197374
0.201647
0.197867
0.200332
0.201154
0.19573
0.200497
0.202305
0.197538
0.202962
0.199675
0.199182
0.200004
0.199182
0.20099
0.20214
0.199182
0.20099
0.202305
0.200661
0.201812
0.198853
0.199839
0.199675
0.200332
0.199182
0.198853
0.196881
0.197538
0.201647
0.195895
0.200004
0.19836
0.201647
0.200825
0.202633
0.198524
0.200332
0.203784
0.202305
0.201319
0.204113
0.201319
0.198031
0.200497
0.199018
0.199675
0.199346
0.200661
0.20099
0.201647
0.201154
0.199839
0.202305
0.200004
0.197867
0.201154
0.199346
0.199182
0.20099
0.201154
0.200004
0.198031
0.199018
0.20214
0.198196
0.198689
0.20099
0.200004
0.202469
0.201976
0.201976
0.200497
0.201319
0.200661
0.199182
0.199511
0.198524
0.198031
0.196388
0.196717
0.196388
0.197374
0.198524
0.200661
0.200168
0.203455
0.197045
0.200661
0.199346
0.200168
0.201812
0.198196
0.198853
0.199346
0.200332
0.197538
0.201812
0.19836
0.200004
0.198853
0.20099
0.203291
0.205099
0.205756
0.200661
0.203126
0.201319
0.201976
0.200004
0.200825
0.19836
0.198524
0.197867
0.203291
0.199675
0.198196
0.200661
0.199839
0.201812
0.200004
0.200168
0.203126
0.201647
0.20099
0.203948
0.199018
0.201647
0.197374
0.201319
0.200661
0.192936
0.196223
0.197703
0.197867
0.197374
0.20099
0.202798
0.201154
0.203291
0.201812
0.200825
0.198524
0.197703
0.200332
0.199675
0.200004
0.200168
0.20362
0.199018
0.200332
0.200497
0.201647
0.201812
0.201976
0.200004
0.200825
0.202633
0.200497
0.202962
0.199675
0.202633
0.200332
0.200332
0.19573
0.196388
0.198689
0.199182
0.200332
0.200661
0.203948
0.199675
0.201483
0.200168
0.202962
0.197045
0.198031
0.197703
0.200661
0.197045
0.195895
0.204113
0.201483
0.199839
0.181924
0.107471
0.108128
0.115524
0.117003
0.122756
0.12292
0.129001
0.131631
0.133603
0.140835
0.143301
0.145766
0.144451
0.146752
0.149053
0.15119
0.150368
0.154641
0.154806
0.161709
0.159736
0.162202
0.162037
0.163845
0.166639
0.168118
0.167461
0.169926
0.170419
0.175021
0.175843
0.17913
0.176994
0.177487
0.178309
0.178637
0.181103
0.178802
0.179459
0.180774
0.182911
0.181596
0.182253
0.185212
0.184718
0.18554
0.185869
0.190635
0.189978
0.190635
0.187184
0.193101
0.190964
0.190471
0.189649
0.189156
0.193429
0.190964
0.191621
0.196223
0.196552
0.192608
0.195073
0.194744
0.196717
0.193265
0.19195
0.193101
0.195073
0.192115
0.196223
0.192936
0.192608
0.195237
0.197867
0.19573
0.19573
0.195895
0.196717
0.199675
0.193922
0.198524
0.197703
0.197867
0.198031
0.198196
0.196388
0.196388
0.19573
0.196717
0.196552
0.194416
0.195895
0.196552
0.195237
0.196717
0.196552
0.196552
0.197374
0.199018
0.199346
0.196717
0.198196
0.19836
0.198524
0.196388
0.202633
0.196881

Kurve 5

-0.000841
0.001625
-0.000183
-1.9e-05
0.000803
0.000803
0.000803
-0.002484
-0.000183
-0.002977
-0.001169
-0.003306
0.001132
0.00146
0.000474
0.002118
0.000146
-1.9e-05
-0.000183
-0.000512
-1.9e-05
-0.001662
0.001296
0.001954
0.00294
0.003268
0.002282
0.000967
0.00146
0.003761
0.001954
0.00146
0.000803
-0.001334
-0.000183
0.000146
-0.000183
0.002118
-1.9e-05
-0.001005
0.000803
-0.001334
-0.002648
-0.001827
0.000474
-0.002155
0.000146
0.001296
0.000967
-0.000183
0.001132
0.000146
-1.9e-05
-0.001827
-0.000841
-0.002648
-0.003963
-1.9e-05
-0.002813
0.000146
0.001954
0.00031
0.000639
-0.000676
-0.000183
-0.000512
0.002775
-0.000841
-0.000841
0.001296
0.00031
0.001132
0.000967
0.00031
0.00294
-0.000676
-0.004128
-0.001169
0.000146
0.00031
0.003104
0.00146
0.001132
0.003433
-0.001169
0.002118
-1.9e-05
0.00146
-1.9e-05
-0.001498
-0.001827
-0.000183
0.000146
-0.003306
-0.002155
-0.002648
-0.00347
-0.001169
-0.00232
-0.001662
-0.001991
-0.001827
-0.000183
-0.002977
-0.00232
-0.001662
-0.004456
-0.003635
-0.003635
-0.006429
-0.001498
-0.004456
-0.001498
-0.001498
-0.001498
-0.000512
0.000146
-0.000347
-0.00347
-0.000347
-0.001991
-0.00232
-0.001991
-0.000841
-0.001498
0.002447
0.000639
0.000967
-0.000512
-0.001827
0.001132
-0.001005
-0.00232
-0.001334
0.002282
-0.000841
0.002775
-0.000841
0.002447
-1.9e-05
-0.002155
-0.006264
-0.004292
-0.000512
-0.003142
0.000146
-0.001662
0.000474
-0.001334
0.003104
-0.003142
0.000474
-0.000512
0.001625
-0.000676
-0.000512
-0.00232
-0.000676
-0.002813
-0.002813
-0.001334
-0.003142
-0.001662
-0.001498
-0.00347
0.000474
0.00146
0.00146
0.001625
0.001625
-0.000347
-0.000841
-0.000676
-0.001334
-0.001169
-0.000841
-0.003635
0.00031
-0.001662
-0.000183
-0.002813
-0.001005
0.000474
-0.002484
-0.000676
0.001625
0.00294
-0.000512
-0.003306
-0.000347
-0.000841
-0.00347
0.00146
-0.001827
-0.001827
-0.001991
-0.001169
-0.001662
0.001132
-0.004128
-0.000512
-0.003142
-0.000183
0.002611
0.000803
-0.001827
-0.003799
-0.001334
-0.001169
-0.002484
-0.004128
-1.9e-05
0.000474
-0.001169
-0.003963
-0.004128
-0.003306
-0.000183
-0.000183
-0.001169
-0.001498
-0.001827
-1.9e-05
-1.9e-05
0.001132
-0.002155
0.000474
-0.000676
-0.000512
-0.000512
-0.000347
-0.001334
-0.00232
-1.9e-05
-0.000183
0.001954
-0.003142
-0.004785
-0.003799
-0.001169
-0.003635
-0.001005
-0.000841
-0.001334
-0.001334
0.000639
-0.000183
0.000474
-0.00232
-0.000512
-0.002155
-0.001169
-0.001005
-0.002155
-0.003306
-0.002155
-0.001169
-0.002977
-0.000512
-0.002648
0.000803
0.000967
0.000146
-0.000183
0.001132
-0.000183
-1.9e-05
-0.002813
-0.00232
-0.002648
-0.002813
0.000146
-0.003306
-0.000841
-0.000347
0.00031
-0.001662
0.001132
-0.000676
0.001625
-1.9e-05
-0.002813
0.000146
-0.000512
-0.004128
-0.003306
-0.00232
0.001625
-0.000512
-0.001498
0.000639
-0.001334
-0.001334
-0.001827
-0.000347
-0.001005
-0.000347
0.001296
-0.001827
-0.000512
-0.001005
-0.000512
-0.001498
-0.003142
-0.004292
-0.001827
-0.002648
-0.004456
-0.002648
-0.002484
0.000474
0.001296
-0.001498
-0.005936
-0.001498
-0.001169
0.00146
0.002775
-0.001334
-0.000512
-0.001827
-0.001827
-0.000183
-0.00232
-0.006922
-0.003142
-0.000512
-0.00232
0.00146
-0.001169
0.002282
-0.001827
-0.000841
0.001296
-0.001334
-0.0061
-0.000183
-0.001498
-0.004785
-0.002484
-0.00232
-0.002813
-0.00347
-0.000347
0.000474
0.000474
-0.009716
-0.001334
-0.000347
-0.000841
0.00031
-0.001005
0.000639
-0.003635
-0.000512
-0.003799
-0.003142
-0.009716
-0.004292
-0.003306
-0.001334
-0.000512
0.000474
0.001296
-0.001662
0.002118
-0.00347
0.003104
-0.00232
0.000967
-0.003306
-0.001991
-0.002813
-1.9e-05
-0.001991
-0.003963
0.000803
-0.001005
-0.001334
0.005569
-0.002155
-0.00232
0.00031
-0.004621
-0.000676
-0.0061
-0.006757
-0.00347
-0.005114
-0.003306
0.002447
-0.00347
-0.000512
0.001132
-0.000347
0.001132
-0.000676
-0.001169
0.000967
0.00031
-0.000512
0.005569
-0.001498
0.00031
-0.000183
-0.001498
-0.004292
-0.002484
-0.00347
-0.003306
-0.002484
-0.002155
0.00031
-0.002813
-0.001005
-0.000183
0.001132
-0.004456
-0.001498
-0.004949
0.000639
-0.000841
0.000146
0.000967
-0.004621
-0.001662
-0.000183
-0.003963
-0.002813
-0.000183
-0.006264
-0.001498
-0.001005
-0.000512
-0.00232
-0.003142
-0.002648
-0.000347
-0.000183
-0.004785
-0.003635
-0.003142
-0.003142
-0.004456
-0.001169
-0.002155
-0.001827
-0.002648
-0.000512
-0.002155
-0.002977
-0.001991
-0.001334
-0.004128
-0.002648
-0.001169
-0.001827
-0.004621
-0.004128
0.000146
-0.000676
-0.002155
-0.002648
-0.004456
-0.004456
-0.002813
-1.9e-05
0.003926
-0.002977
-0.001827
0.000146
-0.000512
0.000146
-0.002648
-0.000841
-0.000183
-0.002648
-0.000841
-0.002155
-0.003635
-0.001169
-0.00232
-0.001662
-0.000347
-0.004128
0.003926
-0.00232
-0.00232
-1.9e-05
-0.001334
-0.001334
0.000967
-0.003306
-0.001662
-0.001169
-0.002813
-0.00347
-1.9e-05
-0.001498
-0.001005
0.000803
-0.002813
-0.000183
-0.00347
-0.003963
-0.002813
-0.001827
-0.003306
-0.001827
-0.001498
-0.001005
-0.001662
-0.001498
-0.001991
-0.000841
-0.003799
-0.001498
0.000803
-0.001334
0.001954
0.000639
-0.000676
-0.001169
-0.001169
-0.002155
-1.9e-05
-0.00232
-0.000676
-0.001498
-0.00232
-0.001827
-0.000841
-0.002484
-0.001498
0.003926
-0.001827
0.000639
-0.000347
-0.002484
-0.00232
0.002447
-0.003635
-1.9e-05
-0.001169
-0.002484
0.000967
-0.001662
-0.000347
-0.001498
-0.000347
-0.001169
-0.002155
0.001296
0.000967
-0.004456
-0.000841
-0.00232
0.000146
-0.002813
-0.001169
-0.000347
-0.002484
-0.00232
-1.9e-05
-0.001334
0.00031
0.002447
-0.00347
0.000639
-0.000676
0.001296
-0.000676
0.000146
-0.000347
-0.000183
-0.000512
0.001625
0.00294
-0.000183
0.000803
-1.9e-05
-0.001169
-0.000841
0.003268
-0.000841
0.000803
-0.000841
0.00031
0.000639
-0.004128
-0.002813
-0.001827
-1.9e-05
-0.001498
-0.000841
0.003433
0.00146
-0.000512
0.00146
0.002611
-0.001662
-0.000841
0.002282
-0.001005
-0.001005
-0.002155
-0.001991
0.001625
-0.002977
-0.000841
0.003268
0.000474
0.000146
0.002611
-0.000183
0.002611
0.000474
0.000803
-0.002155
0.001625
-0.000512
-1.9e-05
-0.001991
-0.000841
-0.000183
0.000803
0.000474
0.001954
0.003104
0.00294
0.001954
-1.9e-05
0.005405
-0.001827
-0.002155
0.000146
-0.001334
-0.001827
0.002282
-1.9e-05
-0.000841
0.001954
0.001789
-0.001827
-0.001334
0.003104
-0.004128
-0.001991
-0.002648
0.001625
-1.9e-05
0.00031
-0.002648
-0.004292
-0.004128
-0.004785
-0.006264
-0.004128
-0.002648
-0.006922
0.00409
-0.001334
-0.000183
-0.001498
0.002118
-0.002155
-0.000841
-0.002155
-0.004785
-0.002155
-0.003635
-0.000183
-0.00232
-0.003635
-0.001827
-0.001005
-0.005607
-0.000841
-0.003799
-0.003142
-0.00347
-0.001005
0.00031
-0.001334
-0.005278
-0.001498
-0.003142
-0.003142
-0.004128
-0.005114
-0.004128
-0.003142
-0.003963
-0.004456
-0.001498
-0.004456
-0.004456
-0.004128
-0.003306
-0.002484
-0.002977
-0.004456
-0.00347
-0.005443
-0.005114
-0.00232
-0.005114
-0.004292
-0.006922
-0.007744
-0.005114
-0.003963
-0.005278
-0.005771
-0.006757
-0.001498
-0.003142
-0.003635
-0.0061
-0.004621
-0.000347
-0.008401
-0.001991
-0.005114
-0.003963
-0.003142
-0.001498
-0.003635
-0.003142
-0.005607
-0.004292
-0.00347
-0.004785
-0.005114
-0.006757
-0.001991
-0.004949
-0.001498
-0.003306
-0.002155
-0.002484
-0.002813
-0.003963
-0.006757
-0.005114
-0.003963
-0.005443
-0.003306
-0.002648
-0.002648
-0.000347
0.001296
0.007049
0.018882
0.025128
0.028744
0.038605
0.046659
0.050274
0.056356
0.063752
0.068682
0.074599
0.080187
0.083639
0.089391
0.092514
0.098102
0.09876
0.106485
0.108293
0.115195
0.114538
0.123413
0.124071
0.128344
0.127851
0.13311
0.135904
0.138205
0.138534
0.139685
0.146095
0.143136
0.147574
0.150039
0.149546
0.154148
0.1576
0.157107
0.161544
0.160394
0.16138
0.166804
0.167954
0.168283
0.167297
0.169433
0.169433
0.171899
0.170748
0.173378
0.1742
0.173049
0.177815
0.176829
0.177487
0.180445
0.18176
0.180445
0.180774
0.183404
0.183404
0.183404
0.181103
0.185869
0.184554
0.185376
0.186362
0.184554
0.186855
0.186526
0.189978
0.189156
0.189649
0.18932
0.190964
0.193429
0.189814
0.18932
0.192115
0.1908
0.192443
0.190635
0.188006
0.193758
0.189649
0.192115
0.191457
0.19195
0.194087
0.195402
0.193594
0.196552
0.197045
0.195237
0.195402
0.194251
0.19573
0.19458
0.195237
0.193101
0.195566
0.191293
0.191128
0.193429
0.191457
0.19458
0.193594
0.197703
0.196059
0.198524
0.197045
0.197374
0.196059
0.197867
0.19573
0.196717
0.19721
0.196552
0.19721
0.197374
0.197374
0.195895
0.200825
0.197045
0.197045
0.196881
0.19836
0.19721
0.197867
0.198031
0.199346
0.199675
0.198689
0.200497
0.196223
0.196223
0.197374
0.197703
0.195237
0.198031
0.196223
0.200168
0.196059
0.196552
0.196717
0.198196
0.197703
0.199182
0.199346
0.198524
0.196881
0.196881
0.196552
0.196388
0.194416
0.197045
0.196717
0.196552
0.198689
0.198031
0.199346
0.198031
0.201319
0.200004
0.200825
0.201647
0.202798
0.198853
0.199182
0.198524
0.198196
0.199182
0.196059
0.199018
0.197374
0.199346
0.19836
0.20099
0.200332
0.198524
0.198524
0.200332
0.204441
0.200332
0.199675
0.200168
0.196717
0.196881
0.198689
0.19573
0.198689
0.194251
0.193101
0.196881
0.193758
0.199675
0.200332
0.199182
0.200168
0.200168
0.199511
0.201154
0.195895
0.199346
0.194416
0.197045
0.195402
0.198031
0.197045
0.198689
0.199839
0.198524
0.199346
0.200332
0.20099
0.200168
0.198689
0.198689
0.201647
0.198196
0.200825
0.198196
0.198196
0.197374
0.198689
0.197867
0.19721
0.196552
0.199675
0.198853
0.200168
0.200332
0.196388
0.201483
0.199018
0.201319
0.198031
0.19836
0.197374
0.199839
0.198031
0.195402
0.199182
0.199675
0.196552
0.199675
0.200661
0.199346
0.200825
0.19573
0.202305
0.201319
0.203126
0.198196
0.198689
0.197703
0.198196
0.198196
0.19721
0.197374
0.19721
0.19836
0.200661
0.201647
0.196223
0.19573
0.197703
0.199839
0.196717
0.201319
0.200004
0.197867
0.200661
0.199511
0.199018
0.198853
0.197867
0.19721
0.199839
0.198031
0.199346
0.199346
0.196717
0.19721
0.198853
0.197867
0.199346
0.198031
0.199346
0.197045
0.19573
0.198524
0.198689
0.199839
0.199018
0.205099
0.199346
0.200332
0.199675
0.198031
0.197867
0.195402
0.19836
0.200497
0.195237
0.199018
0.200332
0.200497
0.199182
0.200004
0.200332
0.194087
0.200332
0.197538
0.197374
0.198853
0.199018
0.199182
0.200661
0.199182
0.200497
0.198524
0.198853
0.200004
0.199675
0.202305
0.19573
0.200332
0.198853
0.199346
0.198031
0.203126
0.199346
0.196223
0.197374
0.199346
0.197538
0.197538
0.199675
0.199675
0.201154
0.198196
0.201154
0.20099
0.199511
0.200332
0.197045
0.197703
0.198031
0.197374
0.196059
0.195237
0.195566
0.198524
0.197538
0.198031
0.197374
0.199675
0.196717
0.200497
0.199018
0.200661
0.200332
0.201319
0.199839
0.199182
0.194416
0.200497
0.198196
0.198196
0.199675
0.199018
0.200004
0.200332
0.201976
0.200825
0.20099
0.197374
0.200497
0.198853
0.196552
0.19721
0.200497
0.200004
0.199675
0.200004
0.198853
0.199675
0.199018
0.199018
0.197374
0.199511
0.198031
0.201647
0.199018
0.202798
0.19573
0.195073
0.197867
0.197538
0.194416
0.197867
0.19721
0.196881
0.199182
0.198031
0.196717
0.197374
0.199675
0.194909
0.199511
0.198524
0.199675
0.199675
0.193101
0.199675
0.199018
0.198031
0.199018
0.198853
0.198031
0.19458
0.198524
0.201812
0.197703
0.201483
0.199182
0.20099
0.198853
0.199675
0.202305
0.196881
0.196223
0.19721
0.196552
0.197374
0.199018
0.195237
0.196717
0.195566
0.198524
0.198196
0.197045
0.199511
0.198689
0.196059
0.196552
0.194251
0.196059
0.201154
0.198524
0.199675
0.199182
0.198689
0.194909
0.198196
0.196881
0.196552
0.193594
0.198853
0.199018
0.199839
0.19836
0.200332
0.20099
0.199511
0.200661
0.199346
0.200497
0.198524
0.200332
0.196223
0.202305
0.199839
0.200497
0.198689
0.198196
0.198524
0.20099
0.20099
0.197867
0.200661
0.199511
0.202469
0.199346
0.202305
0.199511
0.197374
0.198689
0.199839
0.197374
0.197045
0.197867
0.200497
0.199018
0.198524
0.200168
0.197703
0.203291
0.194744
0.198853
0.197703
0.194744
0.200004
0.19836
0.196388
0.197374
0.199839
0.197374
0.200004
0.196552
0.200332
0.197538
0.200497
0.199511
0.200168
0.199346
0.201812
0.201647
0.199511
0.199182
0.199839
0.200332
0.200168
0.196717
0.197867
0.199182
0.197538
0.197703
0.200168
0.19836
0.197538
0.196223
0.199675
0.200332
0.199182
0.201319
0.198689
0.204113
0.201319
0.197867
0.199675
0.196717
0.198853
0.196388
0.199675
0.19573
0.200332
0.194744
0.20099
0.199839
0.201483
0.195073
0.198853
0.199018
0.196552
0.197374
0.196059
0.202633
0.20214
0.203126
0.199018
0.202798
0.198031
0.197538
0.197867
0.200497
0.197374
0.199675
0.203126
0.200497
0.201976
0.198853
0.201154
0.198031
0.199511
0.197867
0.198853
0.197703
0.197538
0.199018
0.199182
0.198689
0.198689
0.203948
0.197703
0.199511
0.202633
0.199675
0.201483
0.199839
0.196223
0.201647
0.199346
0.200004
0.200004
0.196717
0.197538
0.198524
0.198031
0.197867
0.197867
0.199018
0.200168
0.194909
0.200825
0.196717
0.199018
0.19573
0.195402
0.194744
0.198031
0.197045
0.199346
0.198524
0.198853
0.200168
0.199839
0.199839
0.198853
0.200825
0.199839
0.199839
0.199018
0.200497
0.200825
0.200004
0.199511
0.201976
0.198196
0.199346
0.199182
0.19836
0.199018
0.198196
0.201647
0.19721
0.195566
0.194087
0.197045
0.19721
0.198196
0.198524
0.198689
0.199346
0.197703
0.198853
0.198196
0.197045
0.199346
0.202962
0.195895
0.197538
0.200825
0.198196
0.196881
0.198031
0.194416
0.197867
0.200497
0.202962
0.200004
0.196059
0.201647
0.199675
0.199511
0.19836
0.199182
0.198196
0.199675
0.197374
0.199182
0.198524
0.19836
0.19836
0.199839
0.200332
0.199182
0.201154
0.199511
0.200332
0.201812
0.200332
0.199018
0.199182
0.197374
0.200332
0.198689
0.200168
0.195073
0.197374
0.196388
0.199018
0.200004
0.198524
0.199675
0.199018
0.201154
0.199675
0.199346
0.197703
0.199018
0.19573
0.196717
0.196552
0.194909
0.197045
0.199839
0.202962
0.199839
0.197374
0.195566
0.201647
0.197045
0.20099
0.199675
0.197045
0.200004
0.197867
0.195402
0.197867
0.196223
0.195402
0.19836
0.195073
0.199182
0.19573
0.195073
0.19573
0.192608
0.173214
0.172063
0.170913
0.170584
0.170419
0.152833
0.130152
0.107471
0.10139
0.061122
0.028251
0.013294
0.009843
0.008857
0.007542
0.008199
0.009678
0.013623
0.02069
0.023977
0.033674
0.038769
0.034496
0.014609
0.017239
0.020197
0.026936
0.034332
0.035318
0.043536
0.047645
0.057013
0.061286
0.061122
0.064409
0.072134
0.072134
0.078215
0.081174
0.085776
0.085447
0.089227
0.094158
0.097116
0.101718
0.10139
0.108293
0.106485
0.109114
0.110429
0.113388
0.105827
0.116182
0.118811
0.120126
0.122592
0.126043
0.125221
0.126043
0.127029
0.125386
0.130481
0.11914
0.127358
0.129988
0.12933
0.124235
0.119797
0.115195
0.110593
0.108786
0.106978
0.104184
0.081667
0.08331
0.082982
0.066217
0.056027
0.063423
0.04633
0.028251
0.013623
0.003761
0.007706
0.005734
0.007706
0.010829
0.010336
0.010993
0.009021
0.009185
0.008528
0.007377
0.0105
0.007049
0.00787
0.003433
0.006062
0.002611
0.005898
0.002447
0.00672
0.006884
0.004255
0.004748
0.003104
0.012308
0.001625
0.006556
0.000639
0.002611
0.001954
0.00409
0.004419
0.002611
0.004912
0.003597
0.008035
0.003104
0.004255
0.004748
0.005405
0.004748
0.006884
0.00294
0.003926
0.00294
0.005569
0.008528
0.002282
0.003597
0.003761
0.004419
0.008035
0.006062
0.004419
0.003597
0.006391
0.005569
0.005405
0.004255
0.004419
0.004912
0.005734
0.006391
0.00787
0.005734
0.005898
0.005898
0.005241
0.008363
0.005076
0.008035
0.007049
0.008692
0.010993
0.015595
0.017074
0.026114
0.032688
0.034003
0.041235
0.0437
0.049124
0.055205
0.059972
0.065724
0.069833
0.07312
0.078051
0.085283
0.08709
0.092843
0.094815
0.099746
0.102047
0.107142
0.111251
0.114538
0.115195
0.119797
0.12555
0.12933
0.134097
0.13311
0.13574
0.136398
0.140013
0.143465
0.145766
0.148067
0.15119
0.15119
0.156942
0.157107
0.156449
0.159079
0.160229
0.162695
0.163352
0.166804
0.167132
0.171406
0.169269
0.175186
0.173214
0.172227
0.171734
0.176336
0.176336
0.174364
0.177158
0.178802
0.181267
0.178473
0.183568
0.183239
0.184225
0.182746
0.184225
0.185047
0.186198
0.18554
0.184718
0.186198
0.185376
0.186691
0.190635
0.190471
0.189649
0.192772
0.189485
0.191786
0.192279
0.19195
0.190635
0.191128
0.191128
0.194416
0.191786
0.192279
0.19721
0.192443
0.194087
0.194909
0.196223
0.195073
0.196388
0.194909
0.197045
0.196223
0.195402
0.198196
0.195073
0.195895
0.198196
0.19836
0.195895
0.196223
0.193594
0.199182
0.195895
0.194744
0.198031
0.198031
0.196881
0.20099
0.197045
0.199346
0.201812
0.196223
0.198031
0.197374
0.198031
0.192772
0.196388
0.19836
0.200004
0.199346
0.19721
0.198689
0.201812
0.199839
0.200332
0.195895
0.201647
0.20099
0.199018
0.201647
0.200332
0.198853
0.198196
0.198031
0.199511
0.199182
0.19836
0.196717
0.198689
0.199182
0.200332
0.201976
0.201319
0.201319
0.19836
0.200168
0.200332
0.197374
0.198524
0.199018
0.197703
0.200332
0.201319
0.198689
0.199675
0.199018
0.201812
0.199346
0.198196
0.201976
0.200661
0.201483
0.199182
0.200661
0.199839
0.199346
0.194744
0.202962
0.200168
0.199182
0.197538
0.19836
0.200004
0.199839
0.203291
0.200825
0.202798
0.203455
0.20362
0.199675
0.200497
0.199018
0.201647
0.199182
0.201319
0.200661
0.201647
0.199346
0.199346
0.203126
0.199511
0.198196
0.202962
0.205592
0.200661
0.20099
0.200825
0.201483
0.199018
0.200661
0.200661
0.199511
0.198853
0.199346
0.201154
0.197045
0.199839
0.201812
0.201812
0.199675
0.201154
0.200168
0.20099
0.196881
0.198853
0.19458
0.196552
0.200332
0.198031
0.201976
0.200332
0.200661
0.199346
0.196717
0.199346
0.20099
0.198196
0.200004
0.196881
0.200497
0.19573
0.199675
0.199511
0.200004
0.199511
0.198196
0.19836
0.19836
0.19836
0.196388
0.199675
0.197703
0.200825
0.200168
0.198689
0.197703
0.199182
0.198031
0.199839
0.197867
0.196552
0.202633
0.197045
0.197538
0.199839
0.197703
0.197538
0.199018
0.196881
0.201319
0.195895
0.197045
0.20099
0.199839
0.201154
0.201812
0.200497
0.194251
0.199675
0.199346
0.197374
0.199511
0.198689
0.199839
0.198689
0.19836
0.199511
0.196717
0.194087
0.198031
0.197045
0.198031
0.203126
0.19836
0.199675
0.202469
0.200661
0.20099
0.20099
0.201154
0.197374
0.196881
0.196223
0.200497
0.196552
0.198853
0.200497
0.198031
0.200004
0.201319
0.199675
0.199346
0.197867
0.196223
0.201483
0.198196
0.200497
0.200332
0.200168
0.197867
0.20099
0.198031
0.198524
0.199018
0.199346
0.194087
0.196059
0.198031
0.195073
0.199511
0.199182
0.202633
0.199346
0.200004
0.198196
0.198853
0.198853
0.199511
0.197703
0.202469
0.200168
0.19721
0.203948
0.199018
0.200497
0.199182
0.201812
0.200004
0.199182
0.200168
0.200168
0.199675
0.197703
0.197867
0.198196
0.198524
0.199018
0.200004
0.197867
0.198853
0.198689
0.199346
0.196881
0.201483
0.19836
0.199511
0.199018
0.200497
0.201154
0.200004
0.196223
0.199675
0.199675
0.200004
0.200332
0.197867
0.19836
0.195237
0.194087
0.195895
0.196388
0.194744
0.202469
0.199511
0.201319
0.20099
0.200004
0.199511
0.201976
0.200168
0.20099
0.197867
0.198031
0.201154
0.198853
0.199346
0.198853
0.198524
0.200004
0.200825
0.201319
0.200168
0.200661
0.198689
0.200004
0.203126
0.199675
0.198853
0.201319
0.19573
0.196552
0.196552
0.199018
0.197703
0.195237
0.200332
0.201319
0.199839
0.199675
0.200497
0.197867
0.200332
0.199346
0.200168
0.195895
0.194416
0.199346
0.199346
0.197703
0.195073
0.200004
0.197374
0.197867
0.199511
0.198524
0.198689
0.200661
0.201483
0.201154
0.199839
0.201647
0.199675
0.19836
0.197374
0.199675
0.19721
0.197867
0.197538
0.200497
0.200004
0.20099
0.200825
0.202305
0.200825
0.19721
0.201812
0.201483
0.199346
0.199018
0.199839
0.198689
0.201812
0.199182
0.197538
0.197703
0.196881
0.199511
0.199182
0.197867
0.199675
0.20099
0.198853
0.201647
0.200332
0.199182
0.19721
0.197538
0.196717
0.199675
0.195237
0.195237
0.201154
0.19836
0.200497
0.198196
0.201319
0.199346
0.201319
0.198524
0.20099
0.198689
0.195237
0.200661
0.196388
0.198689
0.198524
0.198031
0.195237
0.197867
0.196223
0.199511
0.197538
0.198853
0.200497
0.201483
0.19836
0.202469
0.200168
0.199346
0.198524
0.198031
0.198196
0.199182
0.197538
0.198524
0.197867
0.199018
0.200168
0.198853
0.197703
0.197538
0.197867
0.201812
0.201319
0.197867
0.199839
0.199182
0.198196
0.200168
0.198853
0.19836
0.19836
0.199018
0.194744
0.203126
0.197538
0.200825
0.200168
0.200332
0.200497
0.201483
0.196059
0.200004
0.200497
0.198689
0.200825
0.199839
0.19836
0.195237
0.200825
0.196881
0.200661
0.199675
0.199346
0.201812
0.199839
0.200661
0.199511
0.201154
0.199675
0.203784
0.198689
0.199346
0.19721
0.200497
0.199182
0.200168
0.200332
0.200004
0.198196
0.20099
0.201812
0.198524
0.200825
0.201154
0.199346
0.198524
0.197045
0.19721
0.198689
0.198853
0.199511
0.199018
0.203784
0.199675
0.199018
0.199346
0.200168
0.200332
0.198196
0.200497
0.198853
0.202962
0.202305
0.20477
0.200332
0.20477
0.199675
0.200168
0.201483
0.199675
0.199018
0.201319
0.200168
0.204277
0.199018
0.199675
0.200168
0.198853
0.201483
0.196223
0.199675
0.200004
0.202469
0.200332
0.201812
0.201647
0.201976
0.200168
0.201483
0.200661
0.198689
0.200497
0.198689
0.199346
0.19836
0.200004
0.198853
0.200004
0.197538
0.200332
0.200332
0.202305
0.20099
0.20099
0.198689
0.201319
0.20099
0.199511
0.20214
0.198196
0.200661
0.201319
0.202469
0.200661
0.201319
0.206085
0.20362
0.202305
0.202798
0.203455
0.199839
0.201976
0.199346
0.201812
0.198853
0.199346
0.199675
0.20099
0.197867
0.200497
0.203291
0.200825
0.200332
0.201812
0.201483
0.20099
0.201154
0.200168
0.201647
0.199511
0.201154
0.199839
0.199182
0.198524
0.198031
0.198031
0.200497
0.198689
0.201483
0.201319
0.204606
0.201647
0.20477
0.201483
0.199182
0.200168
0.199511
0.20099
0.199346
0.20099
0.199511
0.204113
0.19836
0.199839
0.200497
0.200825
0.201976
0.200497
0.20099
0.199675
0.200661
0.200168
0.201483
0.200168
0.200825
0.199675
0.200497
0.199675
0.20214
0.199346
0.197703
0.200497
0.200004
0.201812
0.201647
0.200004
0.198853
0.201483
0.198689
0.202962
0.200825
0.201483
0.201483
0.200497
0.200004
0.198196
0.19836
0.197538
0.197703
0.196717
0.199839
0.200497
0.197374
0.206414
0.199018
0.197374
0.200661
0.200004
0.20099
0.201154
0.201154
0.199018
0.201319
0.199675
0.200168
0.20099
0.201154
0.201647
0.197374
0.201647
0.198853
0.201154
0.198689
0.207564
0.198853
0.205756
0.203948
0.201647
0.200661
0.200168
0.199839
0.198689
0.199182
0.199018
0.199511
0.197374
0.199675
0.199346
0.201483
0.199839
0.203126
0.201812
0.200168
0.202305
0.199182
0.200332
0.199839
0.20099
0.199182
0.199182
0.197374
0.201976
0.192115
0.195895
0.194416
0.197867
0.199346
0.200004
0.202469
0.200004
0.201812
0.200004
0.205099
0.199018
0.200497
0.201812
0.199839
0.199346
0.19836
0.199182
0.199839
0.199511
0.200004
0.201319
0.200825
0.196881
0.204606
0.204277
0.199675
0.199346
0.201483
0.202305
0.197703
0.200825
0.199182
0.200004
0.198196
0.199675
0.20099
0.200004
0.200004
0.202305
0.201647
0.200004
0.198689
0.199839
0.203948
0.198031
0.197703
0.198196
0.200332
0.200497
0.202305
0.202798
0.200168
0.201154
0.201812
0.20099
0.201319
0.200332
0.200661
0.201812
0.199346
0.205756
0.199018
0.201483
0.201319
0.201154
0.198853
0.200168
0.200497
0.199675
0.200332
0.202962
0.205263
0.205263
0.203126
0.201154
0.20362
0.199346
0.200497
0.199839
0.199182
0.199511
0.199839
0.199511
0.200168
0.198853

Kurve 6

-0.001498
0.00031
0.001789
0.00031
-0.000347
0.00146
0.001132
0.001296
-0.001827
-0.001334
0.001954
-0.001169
-0.000183
0.000803
-0.000512
0.000967
-0.000183
-0.000183
-0.000512
-0.000512
-0.000512
0.000474
-0.001334
-0.000512
0.001625
0.001625
0.002447
-0.002813
-0.002648
0.000639
0.00031
-0.003963
-0.001005
-0.001827
0.003926
0.000474
-0.000841
-0.002484
-0.002977
0.000146
-0.001827
-0.000183
-0.000676
-1.9e-05
-0.001169
-1.9e-05
-1.9e-05
0.001296
0.00031
0.000474
-0.001498
-0.000512
0.000639
-0.001005
0.002282
0.000967
0.001132
-0.001334
-0.000183
-1.9e-05
0.003761
-0.001169
0.00031
-0.002484
-0.000841
-0.001498
0.000967
-0.000676
0.000146
-0.000512
-0.000676
0.000474
-0.001169
-0.000676
-0.003306
-0.001334
-0.00347
-0.001498
-0.000841
-0.002977
-0.001662
0.000803
-0.005114
-0.006593
0.000474
0.000146
0.002282
-0.001991
-0.00347
-0.001991
-0.000347
-0.001991
-0.000512
-0.003142
0.000803
-0.001662
-0.001991
-0.002484
-0.001005
-0.000512
-0.000841
0.000146
0.000474
0.001954
0.001296
0.000146
-0.002977
-0.000841
0.000803
0.001954
-0.004128
-1.9e-05
-0.002484
-0.002155
-0.001662
-0.001498
-0.000676
-0.000676
-0.001005
-0.000347
-0.000512
-0.002484
0.000803
-0.001334
-0.000183
-0.001991
-0.002813
-0.005443
-0.000183
-0.003963
-0.002977
-0.002648
-1.9e-05
-0.000841
0.001625
0.001296
0.001625
0.005076
-0.002484
0.001296
-0.001498
0.000639
-0.00232
-0.001662
-0.001498
0.000146
-0.001334
-0.000512
0.001132
-0.000512
-0.001169
0.00146
0.000146
-0.000841
0.002118
-0.003799
0.00031
-0.001169
-0.001005
0.000803
-0.006429
-0.004785
-0.00232
-0.004128
-0.00232
-0.001169
-0.000183
0.000474
-0.000347
-0.000183
-1.9e-05
-1.9e-05
-0.001662
0.000639
-0.001169
-1.9e-05
-0.001334
0.000639
-0.001334
-0.002648
-0.005771
-0.001662
-0.000347
-0.001169
0.000474
-0.001005
0.00146
-1.9e-05
0.005569
0.001789
0.002447
-0.000676
-0.000512
0.001954
-0.000676
-0.000676
-0.000512
-0.000512
-0.001827
0.000803
-0.000841
0.000146
-0.001169
0.001954
-0.004292
-0.001498
-0.001662
-0.000841
0.00031
-0.001991
0.001625
0.002447
0.001132
-0.001498
0.00146
-0.000347
-0.000512
-0.002813
-0.001169
-0.001991
-0.001498
-1.9e-05
0.000146
-0.001334
0.000967
0.000967
-1.9e-05
-0.002484
-0.002484
-0.001169
-0.005278
-0.007744
-0.004128
-1.9e-05
-0.002484
-1.9e-05
-1.9e-05
0.002447
0.000639
0.000146
-0.000676
0.001789
-0.001169
-0.001334
0.00146
-0.001169
0.003268
0.000474
-0.001169
0.00146
-0.00347
-0.003635
0.000146
-0.003306
-0.004949
-0.001169
-0.001169
-0.001498
0.003597
-1.9e-05
-0.000841
0.001789
-0.002648
-0.000183
-0.002155
0.00031
-0.002155
-0.001005
-0.001827
0.001296
-0.002484
-0.001662
-0.002484
-0.001498
-0.000512
-0.002648
0.000474
-0.001169
-0.001005
-0.001991
0.002775
-0.004785
-0.003306
-0.002813
-0.000841
-0.002484
-0.001991
-0.001991
-0.001169
0.001789
-0.001498
0.001625
-0.001991
-0.001169
0.000146
-1.9e-05
-0.001498
-0.001334
0.000146
0.001296
-0.001991
-0.00347
-1.9e-05
-0.001498
-0.007744
-0.002813
-0.00347
-0.003142
0.000803
-0.001334
-0.001991
-0.002155
-0.005114
-0.000512
-0.002484
-0.003963
-0.000841
-0.000841
-0.002648
-0.002484
-0.000841
0.000146
-0.002155
-0.001005
-0.000512
-0.001005
-0.004292
-0.004292
-0.002813
-0.002648
-0.001991
0.003104
-0.000183
0.000967
0.000967
0.00031
-0.001991
-0.001334
-0.000841
0.001789
-0.002484
-0.00232
0.000967
-0.001827
-0.000841
-0.000676
0.000146
-0.001662
-0.001334
-0.001005
-0.000676
0.000639
-0.002648
-0.002977
-0.004785
-0.000347
-0.000676
0.000803
-0.004621
0.00031
-0.003799
-0.001169
-0.004949
-0.000347
0.003926
-0.002484
-0.000841
0.000474
-0.000347
-0.003963
-0.000183
-0.001498
0.00031
-0.001991
-0.001334
-0.002977
-0.002977
-0.003142
-0.004456
-0.006429
-0.00347
-0.001498
-0.000841
-0.000841
-0.001498
0.000803
-0.000512
0.00146
-0.002813
0.003104
-0.002155
-0.000512
-0.002155
-0.000183
-0.001169
-0.002484
-0.002155
-0.001334
-0.000512
-0.002155
-0.000676
0.001296
-0.001662
-0.001662
-0.003963
-0.003306
0.000146
-0.001005
-0.000841
-0.001662
-0.001169
-0.001498
-0.002813
0.000146
-1.9e-05
-0.001498
-0.000841
-0.001662
-0.001334
0.002118
-0.000512
-0.000676
0.001954
-0.001169
0.000146
-0.001991
-0.003142
-0.001334
-0.004621
-0.005607
-0.005278
-0.002813
-0.00232
-0.00347
-0.004292
-0.002648
-0.001498
-0.00232
0.000639
0.000146
-0.001334
0.001296
-0.000183
-0.000841
-0.001334
-0.006429
-0.001334
-0.001169
-0.003799
-0.000183
-0.003142
-0.001498
-0.000347
-0.001662
-0.006757
-0.000183
-0.002977
-0.000512
-0.000841
-0.002484
-0.003963
-0.002977
-0.001662
-0.001498
-0.004128
-0.006429
-0.001827
-0.004456
-0.003963
-0.001662
-0.00232
-0.000676
0.000967
-0.001498
0.001625
-1.9e-05
-0.001005
-0.001005
-0.002813
-0.001005
-0.00347
-0.00347
-0.003635
-0.001169
-0.002648
-0.002484
0.000803
0.000803
0.001132
0.001296
-0.000676
-0.001169
0.000474
-0.000841
-0.001991
-0.001334
-0.002484
-0.001169
-0.001827
-0.002484
-0.001005
-0.002813
-0.002648
-0.002155
-0.003306
-0.002977
-0.002155
-0.000512
0.000803
-0.000676
-0.005278
-0.001662
-0.00347
-0.00232
-0.005278
-0.003963
-0.003635
-1.9e-05
-0.00232
-0.001334
-0.001991
-0.005278
-0.002155
-0.000347
-0.001498
-0.004785
-0.001005
-0.005278
-0.001498
-0.00232
-0.000512
-1.9e-05
-0.0061
-0.003306
0.000474
-0.002648
-0.003142
0.00031
0.001132
-0.001169
0.00031
-0.000676
-0.001005
-0.007744
-0.002648
0.000474
-0.001991
-1.9e-05
-0.000841
-0.00232
-0.006264
0.001296
-0.002977
-0.003306
-0.007908
-0.007086
-0.001498
-0.002813
-0.002648
-0.002484
-0.000841
-0.00347
-1.9e-05
-0.001662
-0.00232
-0.009716
-0.000183
-0.001169
-0.001662
0.00031
-0.001662
-0.002813
-0.00347
0.001625
-0.002813
-0.006429
-0.013332
-0.005607
-0.005936
-0.001827
-0.002813
-0.001005
-0.000183
-0.002813
-0.000347
-0.001334
-0.000676
-0.005607
-0.000841
-0.003963
-0.001005
-0.001991
-0.001827
-0.005278
-0.00232
0.000639
0.000639
-1.9e-05
-0.001169
-0.000512
-0.002484
-0.000183
-0.002155
-0.000512
0.000967
-0.005443
-0.001169
0.001132
-0.004292
-0.000347
-0.003635
-0.002155
-0.000183
-0.001169
-0.001169
0.002282
-0.000512
0.000639
0.000474
-0.000347
0.000474
-0.002813
-0.000676
-0.002648
-0.001498
-0.002484
-0.005607
-0.005443
-0.00232
-0.003799
-0.004949
0.004419
-0.002977
-1.9e-05
-0.001005
-0.001827
-0.001991
-1.9e-05
-0.005443
-0.001005
-0.002155
-0.000183
0.003268
-0.00347
-0.002484
-0.002484
0.000639
-0.000676
-0.001005
-0.001827
-0.000347
-0.003799
0.001789
0.002447
0.00146
0.002447
-0.000676
-0.001827
-0.001005
-0.002813
-0.004785
0.000803
-0.002155
-0.001005
0.002611
-0.001662
-0.002155
0.000146
-0.003799
-0.000676
-0.002648
-0.002155
-0.001827
-0.001827
-0.000183
0.005076
-0.005607
-0.002155
-1.9e-05
-0.002813
-0.003306
-0.001334
-0.004292
-0.003963
-0.001662
-0.00347
-0.000512
-0.004785
-0.003142
-0.00347
-0.001005
-0.002484
-0.001334
-0.003306
-0.001334
-0.001498
-0.003306
0.000803
-0.003306
-0.001991
-0.002813
-0.001334
-0.001991
-0.000183
-0.003306
0.000146
-0.000347
-0.001498
-0.00232
-0.000841
-0.003963
-0.003799
-0.001334
-0.004292
-0.000676
-0.004621
-0.001334
-0.001827
-0.003306
-0.002155
-0.002484
-0.001662
-0.000347
-0.000183
-0.003963
-0.000676
-0.002648
-0.001169
-0.002484
-0.002155
-0.003142
-0.001662
-0.0061
-0.002648
-0.002813
-0.001169
-0.003799
-0.000512
0.00031
-0.000183
0.000639
-0.001005
-1.9e-05
-0.002484
-0.001827
-0.001827
-0.001827
-0.002484
-0.001498
-0.004128
-0.001334
0.001954
0.011651
0.017732
0.027429
0.029072
0.03992
0.048302
0.051918
0.061944
0.063916
0.070983
0.074764
0.081338
0.082982
0.087748
0.093336
0.098924
0.097281
0.110429
0.115195
0.117496
0.11799
0.120784
0.125879
0.122592
0.130809
0.132124
0.134261
0.135083
0.141493
0.143136
0.145602
0.147245
0.150039
0.153162
0.152998
0.158421
0.159901
0.159243
0.159079
0.166968
0.16516
0.167297
0.166968
0.168118
0.171734
0.168118
0.170584
0.174364
0.169926
0.17272
0.177815
0.176008
0.182089
0.179295
0.182089
0.18176
0.182089
0.18061
0.182746
0.181267
0.185047
0.186033
0.184883
0.185212
0.186526
0.185869
0.186691
0.189485
0.188663
0.190142
0.187841
0.184554
0.190471
0.187841
0.1908
0.191128
0.189978
0.191457
0.187019
0.191786
0.191621
0.19195
0.192279
0.193265
0.194416
0.191457
0.192772
0.19195
0.195895
0.193429
0.195073
0.193265
0.193922
0.196552
0.196717
0.197374
0.194909
0.19721
0.195237
0.198196
0.19458
0.195566
0.194416
0.199675
0.193429
0.197538
0.197538
0.19573
0.195237
0.196717
0.196059
0.194909
0.197374
0.196717
0.197867
0.196223
0.19836
0.196223
0.194087
0.196388
0.198524
0.197374
0.197538
0.196059
0.195073
0.195895
0.198196
0.198196
0.197867
0.196223
0.199675
0.198689
0.197538
0.19836
0.199675
0.195237
0.195073
0.199018
0.195402
0.198689
0.196223
0.198689
0.199346
0.197538
0.194087
0.197538
0.198689
0.196059
0.19721
0.201647
0.20099
0.198689
0.200004
0.197538
0.197538
0.195895
0.196717
0.199182
0.194744
0.192279
0.195566
0.198524
0.197045
0.199511
0.19836
0.199018
0.198031
0.199839
0.198689
0.197867
0.196552
0.196881
0.198524
0.196717
0.198031
0.194251
0.19573
0.19573
0.196059
0.201483
0.200168
0.198196
0.200661
0.199675
0.200497
0.196881
0.20214
0.197538
0.197703
0.196223
0.194416
0.199346
0.196223
0.196388
0.199182
0.199018
0.197867
0.200004
0.19836
0.200661
0.197538
0.200168
0.201483
0.197867
0.195237
0.199346
0.19721
0.199346
0.20099
0.199675
0.197867
0.195895
0.198853
0.196881
0.20099
0.195566
0.200661
0.200332
0.200332
0.199346
0.199511
0.19721
0.19458
0.195895
0.197703
0.196717
0.193429
0.200004
0.199346
0.199675
0.197045
0.200332
0.197374
0.19836
0.198853
0.198196
0.198853
0.196059
0.202305
0.198853
0.198031
0.198524
0.20362
0.195073
0.200825
0.197374
0.20214
0.196223
0.196717
0.200825
0.200168
0.199018
0.199018
0.201647
0.196388
0.199346
0.197538
0.198031
0.193265
0.198031
0.200004
0.20099
0.199675
0.197374
0.200825
0.197538
0.198689
0.19836
0.198689
0.197538
0.199018
0.198853
0.199675
0.196059
0.197538
0.199675
0.195237
0.191786
0.196059
0.197374
0.198196
0.198196
0.20099
0.200004
0.198689
0.200825
0.201319
0.199839
0.196552
0.200168
0.198689
0.199182
0.197538
0.201812
0.198031
0.198031
0.197374
0.199182
0.195895
0.200497
0.197538
0.197703
0.19836
0.195237
0.203291
0.19836
0.200168
0.199018
0.199018
0.196059
0.19458
0.196552
0.197538
0.19836
0.19721
0.19836
0.197374
0.200004
0.196717
0.200332
0.19721
0.198689
0.198524
0.199018
0.197374
0.199018
0.199346
0.197045
0.198031
0.201647
0.202305
0.196059
0.19836
0.196223
0.198524
0.197703
0.197703
0.198853
0.199346
0.199182
0.200825
0.200004
0.200332
0.199018
0.198524
0.199182
0.199018
0.194087
0.200168
0.200004
0.196059
0.199018
0.198031
0.199839
0.199346
0.200825
0.198853
0.19836
0.19721
0.200004
0.203948
0.196881
0.199346
0.19836
0.197045
0.19721
0.199018
0.195895
0.199018
0.195237
0.198524
0.195073
0.197538
0.197867
0.197374
0.198524
0.198196
0.201647
0.201647
0.199839
0.194909
0.19573
0.200004
0.198524
0.196881
0.200661
0.197045
0.197538
0.197703
0.197867
0.199839
0.197045
0.20099
0.198853
0.199839
0.19721
0.199511
0.199675
0.200661
0.198689
0.198031
0.197045
0.199346
0.199182
0.19836
0.19836
0.196223
0.198689
0.196881
0.201812
0.199182
0.196059
0.200168
0.199018
0.197703
0.201483
0.199511
0.195566
0.198524
0.199018
0.196552
0.197374
0.198853
0.195566
0.197045
0.196223
0.200332
0.194909
0.196223
0.19721
0.198689
0.199182
0.204441
0.199018
0.199182
0.198689
0.199346
0.19721
0.19836
0.199346
0.199675
0.198524
0.197703
0.197867
0.198524
0.199511
0.197045
0.201319
0.197538
0.200332
0.201154
0.199346
0.199018
0.19836
0.199511
0.199839
0.200497
0.194744
0.201647
0.19573
0.199182
0.20099
0.201319
0.198196
0.200332
0.199182
0.198196
0.200332
0.197867
0.200825
0.19836
0.19836
0.196552
0.196552
0.197867
0.193758
0.1908
0.195237
0.197374
0.196717
0.197538
0.199839
0.197538
0.196881
0.199839
0.197538
0.199182
0.198524
0.200661
0.196388
0.197538
0.197703
0.198689
0.197703
0.198853
0.19836
0.197374
0.198524
0.200004
0.199346
0.199511
0.199675
0.199675
0.198689
0.197703
0.19573
0.198196
0.196059
0.19573
0.196717
0.191293
0.19573
0.199018
0.19721
0.199018
0.200004
0.199675
0.199018
0.199182
0.199182
0.20099
0.198196
0.196552
0.195237
0.196881
0.196881
0.19721
0.192115
0.199839
0.200168
0.198196
0.200825
0.200825
0.202469
0.199675
0.201319
0.199182
0.200497
0.198031
0.198031
0.199675
0.196717
0.197538
0.198031
0.19721
0.19721
0.197538
0.198853
0.197538
0.196881
0.202633
0.19836
0.199511
0.200004
0.201319
0.196552
0.197045
0.199346
0.196881
0.196059
0.198853
0.194416
0.195895
0.197703
0.197045
0.200332
0.196881
0.197045
0.199182
0.200004
0.199346
0.19573
0.199675
0.197045
0.197538
0.194744
0.197374
0.203291
0.199511
0.199018
0.199182
0.196717
0.201976
0.198689
0.196223
0.196059
0.199346
0.19721
0.197374
0.200168
0.200497
0.198689
0.19836
0.198689
0.200168
0.196552
0.197703
0.19836
0.197045
0.198524
0.196552
0.199675
0.199839
0.19721
0.200661
0.200332
0.198524
0.19836
0.201154
0.197538
0.197374
0.197867
0.197374
0.197867
0.196552
0.195402
0.201483
0.195237
0.197045
0.198031
0.195402
0.195073
0.197538
0.196881
0.198196
0.19836
0.202305
0.202962
0.196059
0.199511
0.198853
0.198524
0.197703
0.197374
0.196059
0.196881
0.199182
0.197045
0.20099
0.19836
0.197703
0.198031
0.200168
0.197374
0.199675
0.199018
0.20099
0.200168
0.197045
0.201483
0.199511
0.196881
0.200004
0.193594
0.195237
0.197045
0.196059
0.197538
0.197045
0.195073
0.201976
0.201647
0.197703
0.199346
0.199675
0.198689
0.195237
0.198689
0.197045
0.19721
0.19836
0.198031
0.198853
0.194909
0.196388
0.198196
0.199511
0.194087
0.196552
0.198196
0.200168
0.199675
0.200332
0.19721
0.198689
0.203126
0.197867
0.199182
0.198031
0.201319
0.196552
0.197703
0.199675
0.199018
0.198196
0.201154
0.198196
0.199182
0.199346
0.197374
0.197867
0.199182
0.200168
0.195073
0.20099
0.194744
0.19836
0.197703
0.195895
0.196388
0.201812
0.20099
0.200004
0.199018
0.199675
0.20099
0.195402
0.199018
0.196717
0.198196
0.19721
0.19573
0.194744
0.197867
0.197045
0.199018
0.193101
0.195895
0.197374
0.198031
0.198031
0.197374
0.200004
0.197374
0.200661
0.197703
0.197374
0.19721
0.199182
0.195895
0.198689
0.197703
0.198689
0.198031
0.198196
0.200004
0.200004
0.199182
0.199675
0.199346
0.19721
0.197867
0.199675
0.201647
0.197703
0.199839
0.19836
0.198689
0.199346
0.197045
0.197374
0.20099
0.201319
0.196881
0.198853
0.197703
0.198196
0.200661
0.199346
0.19573
0.19836
0.197374
0.197703
0.195237
0.197703
0.199839
0.196881
0.197538
0.196552
0.198689
0.197538
0.197703
0.199018
0.199182
0.199182
0.198524
0.196388
0.201319
0.200168
0.198853
0.197703
0.198031
0.197374
0.198031
0.199346
0.196717
0.19836
0.197867
0.198196
0.199182
0.199675
0.194744
0.197538
0.198031
0.199675
0.19836
0.19836
0.200661
0.197867
0.196717
0.199346
0.200497
0.196223
0.192772
0.195895
0.19836
0.197867
0.200004
0.199346
0.199018
0.195566
0.200004
0.201976
0.195402
0.191128
0.197867
0.199511
0.197374
0.196717
0.197703
0.199346
0.196717
0.199511
0.197867
0.200168
0.190964
0.199839
0.202633
0.201483
0.201154
0.200661
0.199839
0.199018
0.199675
0.198853
0.199018
0.188334
0.198689
0.197538
0.198689
0.199675
0.195237
0.199182
0.198524
0.199018
0.201483
0.199182
0.193429
0.199346
0.197045
0.199346
0.196059
0.195895
0.197045
0.19836
0.198689
0.197374
0.200332
0.195566
0.197703
0.199346
0.197374
0.198196
0.200332
0.197045
0.198196
0.19836
0.201976
0.197703
0.199839
0.19721
0.196881
0.199839
0.19721
0.199182
0.199839
0.200168
0.204277
0.200661
0.200168
0.204441
0.196881
0.200004
0.199346
0.199182
0.198689
0.198689
0.198689
0.201812
0.199675
0.200004
0.203455
0.197703
0.200661
0.198196
0.199346
0.199018
0.199839
0.199511
0.201154
0.200004
0.196552
0.204113
0.19721
0.198524
0.199511
0.197538
0.200004
0.200332
0.197045
0.201483
0.200332
0.20099
0.203784
0.196388
0.196552
0.201319
0.204277
0.198196
0.198853
0.200332
0.200661
0.20099
0.200825
0.201976
0.200825
0.199018
0.202798
0.196388
0.19721
0.198031
0.199346
0.199018
0.201483
0.199018
0.20477
0.198196
0.200004
0.202469
0.202469
0.201812
0.200825
0.200332
0.198689
0.199839
0.199511
0.200497
0.196059
0.197374
0.200497
0.198524
0.201154
0.201154
0.200004
0.200497
0.202469
0.201154
0.201976
0.197703
0.19836
0.195237
0.198031
0.19721
0.198853
0.19573
0.20099
0.200825
0.200497
0.204441
0.201154
0.20362
0.199182
0.201154
0.199839
0.201483
0.197703
0.200661
0.198689
0.197374
0.197045
0.196059
0.201319
0.195566
0.200168
0.203784
0.200661
0.19721
0.201154
0.201483
0.204606
0.200825
0.200497
0.201154
0.19836
0.19721
0.199346
0.196552
0.197538
0.199018
0.197538
0.200661
0.20362
0.199675
0.200168
0.201319
0.199511
0.200004
0.200497
0.197374
0.197867
0.19721
0.196552
0.199839
0.195895
0.19573
0.199511
0.196059
0.200661
0.196881
0.196717
0.199839
0.201483
0.198689
0.203291
0.199182
0.200332
0.198031
0.198524
0.196388
0.19458
0.190635
0.194416
0.193594
0.189814
0.192115
0.190307
0.189485
0.184225
0.185376
0.181924
0.186526
0.180281
0.180445
0.176829
0.173049
0.176172
0.172227
0.17157
0.171406
0.174364
0.17157
0.171241
0.171241
0.174693
0.173378
0.177487
0.180445
0.178637
0.177158
0.181267
0.179295
0.177322
0.181596
0.180938
0.18176
0.182089
0.186033
0.1908
0.18439
0.186033
0.18817
0.18817
0.189814
0.189156
0.189978
0.190635
0.191786
0.193101
0.192443
0.19195
0.19195
0.19721
0.193265
0.193922
0.192608
0.193758
0.193594
0.193265
0.193594
0.192443
0.193265
0.195237
0.195895
0.193594
0.199182
0.19458
0.197045
0.198196
0.19573
0.193758
0.196223
0.193265
0.196552
0.195895
0.196388
0.195402
0.196388
0.199346
0.197374
0.196881
0.198031
0.197867
0.197538
0.197538
0.195237
0.196388
0.198196
0.19836
0.20362
0.200497
0.199346
0.197867
0.199511
0.197867
0.198689
0.197374
0.199018
0.198853
0.201154
0.200661
0.200825
0.201647
0.200332
0.199182
0.199675
0.200661
0.199346
0.198031
0.197374
0.199839
0.200004
0.200825
0.199182
0.200168
0.197703
0.199018
0.198853
0.200332
0.200004
0.201483
0.206742
0.206249
0.199675
0.200004
0.199346
0.196223
0.199839
0.197703
0.199018
0.198524
0.200004
0.200497
0.200004
0.197538
0.201647
0.197867
0.199018
0.200004
0.197703
0.195895
0.19836
0.199346
0.200661
0.199675
0.199511
0.201812
0.199346
0.20099
0.199511
0.199675
0.200497
0.20362
0.199018
0.199182
0.196388
0.198031
0.198031
0.196717
0.201319
0.197867
0.199511
0.199346
0.200332
0.196388
0.201154
0.200497
0.199839
0.200332
0.198524
0.199018
0.199346
0.199018
0.19836
0.199346
0.199839
0.201483
0.19836
0.204441
0.198524
0.196717
0.197703
0.195895
0.198031
0.200497
0.199675
0.201812
0.201812
0.201647
0.203948
0.201319
0.200825
0.198689
0.20099
0.199018
0.200497
0.199839
0.199839
0.198031
0.201812
0.199018
0.201483
0.199511
0.202633
0.198853
0.207071
0.203291
0.199346
0.202962
0.20099
0.201483
0.201812
0.201647
0.198853
0.201812
0.201647
0.199839
0.200004
0.199675
0.200825
0.199346
0.200661
0.199346
0.202633
0.199511
0.200661
0.199511
0.199675
0.200497
0.200825
0.198689
0.196552
0.197374
0.199346
0.197045
0.196717
0.201154
0.198196
0.200825
0.200332
0.199346
0.199675
0.20099
0.198031
0.198031
0.19721
0.200661
0.198853
0.198031
0.198689
0.199018
0.199675
0.196881
0.199675
0.197703
0.200497
0.199018
0.20214
0.201483
0.200825
0.200332
0.203455
0.200825
0.199839
0.196552
0.199511
0.202633
0.199839
0.199346
0.199346
0.20099
0.197867
0.198689
0.199182
0.200497
0.197045
0.202798
0.200004
0.20362
0.200661
0.201483
0.198031
0.19573
0.197374
0.195073
0.198689
0.194087
0.199675
0.200332
0.199018
0.198196
0.202633
0.199511
0.203126
0.200332
0.199839
0.201976
0.200168
0.201812
0.200825
0.200332
0.200332
0.200168
0.197374
0.200004
0.197703
0.199346
0.199346
0.199182
0.201154
0.200661
0.202305
0.199675
0.206249
0.199675
0.200825
0.197045
0.19721
0.197867
0.197045
0.198689
0.199511
0.200332
0.200332
0.199675
0.199675
0.200004
0.200004
0.199346
0.199018
0.199675
0.199839
0.199018
0.196717
0.200004
0.20099
0.200004
0.19836
0.199511
0.196552
0.197703
0.199839
0.199346
0.202962
0.200168
0.194744
0.198689
0.199346
0.19721
0.200661
0.198524
0.201812
0.198524
0.198196
0.199839
0.200004
0.199018
0.199346
0.200497
0.19836
0.202798
0.199675
0.199018
0.199018
0.195402
0.196388
0.201976
0.199675
0.201812
0.201319
0.199346
0.198031
0.201154
0.199346
0.197867
0.201319
0.200004
0.201647
0.200497
0.201154
0.199346
0.200004
0.197374
0.20099
0.201154
0.197374
0.20099
0.199675
0.201812
0.200497
0.201483
0.200497
0.199675
0.200004
0.201483
0.200661
0.202798
0.200661
0.201812
0.201976
0.200332
0.202798
0.200661
0.201319
0.200004
0.201154
0.199675
0.199346
0.201483
0.201154
0.200825
0.199182
0.197374
0.200004
0.199839
0.201319
0.199018
0.199182
0.197538
0.201319
0.200497
0.199346
0.201647
0.201319
0.20099
0.200497
0.198689
0.200168
0.201483
0.197045
0.197703
0.199182
0.198524
0.199346
0.200168
0.198853
0.199675
0.202633
0.200332
0.201647
0.201154
0.201812
0.202305
0.199018
0.199018
0.200004
0.196717
0.200004
0.199675
0.199346
0.20214
0.200661
0.201647
0.200497
0.20362
0.199675
0.204934
0.200332
0.203455
0.202305
0.200332
0.199675
0.200497
0.201483
0.199182
0.199675
0.200497
0.200332
0.200497
0.201154
0.201647
0.202798
0.20099
0.201319
0.202305
0.201483
0.200332
0.200661
0.200661
0.199511
0.198031
0.19836
0.201976
0.199346
0.198853
0.200168
0.202962
0.201319
0.203455
0.201812
0.202469
0.20362
0.200825
0.201647
0.200004
0.202469
0.198196
0.197374
0.199839
0.201319
0.199346
0.202633
0.200825
0.202633
0.199675
0.202305
0.200661
0.203455
0.200825
0.202469
0.202305
0.20099
0.19836
0.196059
0.200332
0.198031
0.200168
0.199511
0.204277
0.200661
0.200497
0.202305
0.201154
0.200004
0.201812
0.199675
0.200004
0.201483
0.197045
0.200825
0.199839
0.199839
0.196717
0.20214
0.199346
0.201483
0.198853
0.205427
0.199511
0.201976
0.20214
0.199182
0.197703
0.200168
0.201647
0.199018
0.203455
0.202469
0.20214
0.200825
0.201154
0.199346
0.204606
0.201154
0.20214
0.201154
0.200497
0.201483
0.201812
0.201154
0.201976
0.200332
0.197374
0.201483
0.199839
0.201483
0.20099
0.200004
0.198853
0.199346
0.199182
0.201812
0.197867
0.201154
0.201483
0.200825
0.201976
0.201812
0.200497
0.197867
0.201483
0.199675
0.202798
0.197374
0.20214
0.20099
0.202798
0.20099
0.201154
0.200168
0.199511
0.203948
0.201483
0.199675
0.200332
0.202305
0.200497
0.206085
0.202962
0.203784
0.202962
0.201647
0.200332
0.201319
0.200497
0.198689
0.202305
0.199346
0.20362
0.200825
0.202633
0.199346
0.198689
0.202633
0.202469
0.200661
0.201483
0.201976
0.200332
0.203948
0.201976
0.201319
0.200825
0.20214
0.195073
0.203126
0.200497
0.199839
0.20099
0.20214
0.200497
0.202798
0.198689
0.201319
0.200004
0.197867
0.19721
0.197703
0.200004
0.198524
0.198196
0.199018
0.201319
0.199018
0.201483
0.201154
0.20099
0.197867
0.209043
0.199511
0.203291
0.204934
0.199018
0.200168
0.200332
0.199346
0.200168
0.20099
0.199511
0.201483
0.199018
0.199182
0.204934
0.204441
0.203455
0.201483
0.202305
0.201154
0.200661
0.198853
0.20362
0.196717
0.200004
0.200332
0.201154
0.201154
0.201812
0.197867
0.198524
0.200332
0.197538
0.198853
0.199346
0.199346
0.197703
0.199018
0.200332
0.20099
0.200168
0.200661
0.197867
0.199018
0.198689
0.199018
0.200004
0.200497
0.198689
0.196881
0.203291
0.201647
0.20099
0.200332
0.201647
0.198524
0.200168
0.201812
0.200332
0.198524
0.201812

Kurve 7

0.001625
0.001132
0.003104
0.000967
0.001132
-0.001005
-0.000512
-0.007579
-0.004785
-0.002813
-0.001169
0.000474
-0.001498
-0.002484
0.000803
0.002447
-0.000512
0.002611
-1.9e-05
0.001296
0.000639
0.001954
0.000146
-0.000183
-0.000183
-1.9e-05
-0.001498
0.005734
0.002118
0.001132
0.000967
-0.000676
0.001789
-0.001498
0.000967
0.001625
0.001954
-0.001005
-0.000183
0.001954
0.000146
-0.000183
-0.001991
-0.000183
-0.001498
0.000474
-0.000183
-0.000676
-0.002648
0.001296
-0.004128
0.001625
0.000639
-0.000676
0.002611
-0.001662
0.00294
0.004255
-0.000841
-0.001498
-0.001991
-0.002648
-1.9e-05
-0.004128
-0.002813
0.001132
0.00031
-0.001991
0.00146
0.000146
-1.9e-05
-0.002484
-0.000512
0.00146
-0.001005
0.000639
0.001296
-0.001169
-0.003963
0.000474
-0.001498
-0.000841
-0.000841
-0.001827
-1.9e-05
0.000474
-0.002484
0.000803
-0.002813
0.002282
0.00146
-0.001827
0.000639
-0.003306
0.000803
-0.003306
-0.001169
-0.003635
-0.000841
-0.001005
-0.001662
-0.000183
0.000803
-0.000676
-0.001169
0.000639
-0.00232
-0.000183
-0.000676
0.002611
-0.00347
-0.001827
-0.002155
-0.001169
-0.004785
-0.002155
-0.00232
-0.001991
0.000967
-0.002484
0.001296
0.000146
0.001132
-0.001827
0.004912
-0.003142
-0.002155
-0.001827
0.003597
-0.002648
-0.001334
-0.001991
-0.002484
-0.001005
-1.9e-05
0.001296
-0.003142
-1.9e-05
-0.000841
0.001132
-0.000841
-0.000841
0.001132
0.000803
-0.003799
-0.000183
0.000967
-0.002648
-0.000841
-0.000841
-0.000347
-0.001169
0.000803
-1.9e-05
0.001789
0.000967
0.001954
-0.00347
0.002118
0.001132
-0.000512
-0.003306
-0.001334
-0.001498
-0.001827
-0.003963
-0.002155
-0.000676
-0.001827
0.000474
-0.000512
-1.9e-05
-1.9e-05
0.000967
-0.003142
0.000474
-0.001827
0.003597
-0.003142
-0.002977
-0.002813
-0.001662
-0.000512
-0.001005
-0.000183
-0.002484
0.000474
0.000803
-0.001498
0.00031
0.002282
-0.000512
0.000803
-0.001005
-0.000841
-0.001827
-0.002648
0.001132
-0.002155
-0.002813
0.000967
0.00146
-0.002813
-0.000183
-0.003963
-0.00232
-0.001169
0.000146
-0.006593
-0.001991
-0.001169
-0.004128
-0.000347
-0.003142
-0.000347
-0.001498
-0.001498
0.000146
-0.001334
0.000146
-0.001498
-0.001662
-0.001827
-0.000347
0.000474
-0.001005
0.003104
0.001789
0.000967
0.001954
0.001789
0.001954
0.000146
0.000803
-0.001169
-0.000512
-0.002155
-0.000676
-0.001827
0.000146
-0.001498
-0.000512
-0.000183
-0.004128
-0.000183
0.001296
-0.001498
-0.001169
0.000146
-0.000512
-0.000183
-0.001662
0.005076
-0.001991
-0.000347
-0.00232
-0.000676
-0.001498
-0.000841
-0.003799
-0.004128
-0.002155
-0.003142
-0.002977
-0.003142
0.001132
-0.001498
0.00146
-0.000183
-0.000183
-0.001334
0.002775
-0.002977
-0.002484
0.001132
0.003104
0.002447
-0.001498
0.001789
0.001132
-0.001334
-0.001662
0.001625
-0.001991
0.000474
-0.000841
-0.000183
-0.001005
-0.000512
0.000639
-0.001827
-0.001334
-0.004128
-0.001334
-0.003306
-0.003963
-0.001662
-1.9e-05
-0.001827
0.000474
0.00031
0.001625
-0.001498
-0.000676
-0.000512
-0.001005
-0.004621
0.003761
0.001132
-0.004128
-0.002155
-0.001991
-0.002155
-0.005771
-0.001169
-0.002648
0.00031
-0.000347
0.000803
0.000639
-0.001005
0.000146
0.00146
-0.002484
0.000146
-0.000512
-0.001005
0.000474
-0.004621
-0.002484
-0.003306
-0.001498
0.001132
0.002447
-0.001827
0.001132
-0.000512
-0.000841
-0.000676
-0.001991
0.002282
-0.00232
-1.9e-05
-0.002484
0.001789
-0.001498
-0.001827
-0.00232
-0.002155
0.000146
-0.001334
0.000146
-0.003142
-0.000512
-0.002155
0.000474
-0.000183
0.002118
-0.004128
-0.001005
-0.002977
-0.002977
-0.007908
-0.000676
-0.000512
-0.001662
0.00146
-0.001662
-0.000183
0.000474
0.00031
-0.001662
-0.000512
-0.001334
0.002282
-0.001991
-0.00232
-0.001005
-0.001991
-0.001991
-0.001827
0.000474
0.003268
-0.000676
0.00031
0.000146
-0.001827
0.000474
-0.000347
0.001789
-0.001662
-0.001662
-0.001005
-0.002484
-0.003306
-0.000183
-0.001005
-0.001005
-0.000183
0.00031
0.002447
-1.9e-05
-0.001827
-0.003142
0.000474
-0.001005
0.000639
-0.003142
0.001296
0.001296
0.000803
-0.002813
-0.003142
-0.00232
-0.00347
-0.003635
-0.002813
0.00031
-0.005114
0.000639
-0.001662
0.002282
-0.001334
0.003433
-0.003306
-0.002484
-0.001334
-0.002813
-0.001662
-0.000676
-0.000676
0.000803
0.001954
-0.00347
-0.001498
-0.000183
-0.002484
0.001132
-0.002648
-0.001334
0.001296
-0.001005
-0.000676
0.000803
-0.001169
-0.001005
-0.001991
-0.004785
-0.001662
-0.001169
-0.004949
0.002118
-0.00232
-0.001827
0.001132
-0.001827
-0.003142
-0.001005
-0.000183
-0.000512
0.000639
-0.000676
-0.000841
-0.003142
-0.001169
0.00031
-0.001334
-0.002648
-0.001334
-0.001334
-0.000183
-0.004949
0.00146
-0.002648
-0.003306
-0.001169
-0.001498
-0.000512
-0.002155
-0.000183
-0.001991
-0.003306
-0.004292
-0.00232
-0.001169
-0.002155
-0.00232
0.001132
-0.002648
-0.000512
-0.001334
-0.00232
-0.000676
-0.003963
0.001132
-0.001005
0.000639
-1.9e-05
-0.001005
-0.00232
-0.004456
-0.003963
-0.001662
-0.005607
-0.001991
-0.000347
0.000146
0.000146
-0.002813
0.000803
-0.003635
0.000146
-0.000676
-0.002484
-0.003963
-0.001991
-0.001169
-0.000347
-0.001827
-0.001334
-0.002977
-0.001662
-0.001662
-0.004128
-0.002155
-0.006264
-0.000676
-0.001662
0.000146
-0.003799
0.001132
-0.001334
-0.001334
0.000639
-1.9e-05
-0.002484
-0.000841
-0.000676
-0.003799
-0.000676
-0.00232
-0.002648
-0.004621
-0.001005
-0.00347
-0.002155
-0.005443
0.001132
-0.000676
0.001132
-0.001334
-0.001991
-0.000512
-0.0061
-0.001662
-0.001991
-0.002813
-0.005114
-0.004949
-0.004292
-0.000841
-0.004292
-0.000512
-0.004128
-0.001005
-0.002155
-0.001005
-0.000183
-0.002977
-0.000841
-0.003306
-0.000676
-0.002155
-0.002977
-0.004128
-0.003635
-0.002813
-0.002813
-0.004785
-0.000676
-0.001334
-0.002484
-0.002155
0.001625
0.000474
-0.003799
0.000146
-0.002484
-0.001827
-0.001662
-0.00347
-0.004292
0.00031
-0.000676
-0.004456
-0.002155
-0.002813
-0.005114
0.000146
0.00146
-0.000676
-0.000183
-0.00232
-0.000676
-0.001498
-1.9e-05
-0.002484
-0.001827
-0.008072
-0.002977
-0.001827
-0.004621
-0.003306
-0.001991
-0.001005
-0.001334
-0.000347
0.00031
-1.9e-05
-0.004456
0.001625
-0.002648
-1.9e-05
-0.004128
-0.002155
-0.005607
-0.00232
-0.002813
-0.002648
-0.001662
-0.004456
-0.001991
-0.004292
-0.001334
-0.004949
-0.003142
-0.003799
0.000146
-0.002484
-0.000183
-0.00232
-0.004292
-0.001498
-0.003799
-0.004128
-0.004949
-0.000183
-0.008237
-0.006922
0.000803
-0.000676
-0.00347
-0.001498
-0.002484
-0.000512
-0.001991
-0.000183
-0.001498
-0.003142
-0.000676
0.000639
-0.003142
-0.004785
-0.004949
-0.001991
-0.00232
-0.002484
-0.001169
-0.000512
-0.001827
-0.001005
0.001789
-0.000512
-0.003963
-0.003799
-0.001827
-0.002813
-0.00347
-0.001827
-0.001005
-0.003306
-0.002155
0.00031
-0.002155
-0.002484
-0.004128
0.001789
-0.001169
-1.9e-05
0.00146
-0.001169
-0.002813
-0.001169
-0.001005
-0.002155
-0.0061
-0.004128
-0.000676
-0.004128
-0.001498
-0.002977
-0.000676
-0.006429
-0.000183
0.000639
-0.003963
-0.00347
-0.001827
0.00146
-0.000841
-0.00232
-0.00232
-0.001662
-0.005114
-0.001991
-0.002484
-0.000676
-0.006264
-0.002648
-0.001334
-0.001005
-0.000841
-0.000512
-0.000183
-0.005278
-0.001498
-0.003142
-1.9e-05
-0.009387
0.000639
-0.002155
-0.001991
-0.00232
-0.000676
-0.002155
-0.000841
0.003597
-1.9e-05
-0.000676
-0.008072
-0.002484
-0.001827
-0.001169
-0.004128
0.000474
-0.000676
-0.001005
-0.000841
-0.002155
-0.002155
-0.008401
0.000146
0.011486
0.017239
0.025785
0.033346
0.03992
0.044358
0.054383
0.057835
0.063423
0.0603
0.071148
0.082817
0.08594
0.091199
0.094815
0.100239
0.102704
0.106978
0.110429
0.114374
0.110265
0.118811
0.127029
0.126043
0.130809
0.13311
0.137712
0.13952
0.142314
0.143136
0.146588
0.139685
0.146095
0.153984
0.154312
0.153655
0.154312
0.160229
0.159079
0.162366
0.161215
0.16516
0.157928
0.169762
0.169105
0.171899
0.173378
0.171406
0.175021
0.176172
0.175186
0.176008
0.175843
0.170419
0.176665
0.176336
0.171406
0.104677
0.048467
0.003926
0.005076
0.001954
0.006556
0.008363
0.00294
0.002775
0.002611
0.004912
0.009514
0.016746
0.019868
0.021676
0.021841
0.026114
0.026278
0.029566
0.022498
0.024142
0.023977
0.026278
0.028415
0.034168
0.041892
0.043371
0.048467
0.054055
0.056027
0.061615
0.06671
0.067861
0.076243
0.080352
0.085447
0.092679
0.095637
0.097609
0.101883
0.108293
0.104841
0.110758
0.112401
0.115853
0.117496
0.121605
0.122263
0.125386
0.123085
0.126043
0.132617
0.126207
0.114538
0.109936
0.011815
0.015595
0.019704
0.003926
0.005076
0.001789
0.005241
0.009843
0.002282
0.00146
0.003268
0.00031
0.001789
0.002118
0.003761
0.000639
0.000967
0.000803
0.012637
0.001789
0.00146
0.005898
0.003597
0.004583
0.001625
0.003597
-1.9e-05
0.001296
0.001625
0.004912
-0.000676
0.001625
0.005076
0.005241
0.00672
0.016253
0.022498
0.025457
0.034496
0.028086
0.032031
0.031867
0.029894
0.024799
0.0271
0.029072
0.030223
0.034168
0.03236
0.033017
0.031538
0.032853
0.014773
0.007377
0.003926
0.003433
0.001954
0.005405
0.004255
-0.000183
0.00031
-0.001498
0.002447
0.00031
-0.000183
0.000146
0.001625
0.000474
0.00031
0.002447
0.00146
0.007213
0.015102
0.025292
0.029894
0.03729
0.045508
0.050768
0.054712
0.063423
0.066053
0.072791
0.075257
0.08331
0.087748
0.091692
0.095801
0.102376
0.105663
0.109607
0.114045
0.119304
0.120126
0.120948
0.123413
0.127029
0.130809
0.130316
0.134425
0.13837
0.142807
0.142807
0.147574
0.148231
0.152011
0.154312
0.15612
0.156449
0.159079
0.161051
0.160065
0.168118
0.166475
0.168776
0.168776
0.169433
0.167297
0.171406
0.169926
0.171406
0.173214
0.175021
0.175515
0.179459
0.18061
0.182746
0.183897
0.179952
0.184883
0.182911
0.18176
0.182582
0.182089
0.18061
0.185376
0.185212
0.185376
0.185869
0.187184
0.189485
0.186198
0.188499
0.188827
0.192443
0.18817
0.188992
0.192279
0.189485
0.18932
0.190307
0.192443
0.191128
0.190635
0.192115
0.192936
0.192443
0.19458
0.194744
0.195073
0.192608
0.199182
0.195895
0.191457
0.195073
0.19573
0.195237
0.19458
0.195895
0.196223
0.194251
0.19573
0.19721
0.196552
0.198031
0.19458
0.19721
0.197045
0.192443
0.189156
0.196388
0.195566
0.197538
0.19721
0.198853
0.194909
0.195566
0.196717
0.196717
0.201976
0.200004
0.199839
0.198853
0.200661
0.19721
0.197374
0.192279
0.198031
0.19573
0.195566
0.196717
0.196388
0.19721
0.199182
0.199839
0.197538
0.199018
0.196059
0.198853
0.196717
0.198031
0.196388
0.197045
0.19836
0.199346
0.198853
0.201647
0.197867
0.192772
0.197703
0.198524
0.196552
0.198031
0.19836
0.200332
0.199346
0.20099
0.197374
0.197374
0.198031
0.197867
0.200332
0.197045
0.198689
0.199182
0.199182
0.201483
0.198196
0.194909
0.199839
0.195402
0.195895
0.199346
0.193758
0.198031
0.198196
0.196059
0.197045
0.198524
0.198524
0.198196
0.195566
0.198524
0.200004
0.200168
0.200661
0.199018
0.199182
0.196223
0.200168
0.196552
0.199675
0.19836
0.197374
0.199182
0.198853
0.199511
0.200661
0.201976
0.202469
0.202305
0.19836
0.200168
0.199018
0.20214
0.19721
0.197867
0.197045
0.197045
0.198689
0.197538
0.199675
0.196717
0.198689
0.198031
0.199346
0.199182
0.203455
0.199018
0.200497
0.201976
0.201154
0.19836
0.199018
0.199182
0.195237
0.198196
0.196388
0.19721
0.197538
0.194744
0.195237
0.201812
0.199346
0.201976
0.202962
0.198524
0.200825
0.198853
0.200825
0.197703
0.197374
0.198689
0.199511
0.194744
0.200332
0.19836
0.197538
0.200004
0.198689
0.194909
0.201647
0.199018
0.200661
0.201647
0.198524
0.199346
0.199675
0.197703
0.197703
0.198196
0.195402
0.200004
0.195073
0.200497
0.198524
0.200004
0.196881
0.200332
0.198853
0.200004
0.198853
0.19836
0.198689
0.19458
0.198031
0.19721
0.199018
0.19573
0.19836
0.196059
0.198524
0.199018
0.199018
0.199346
0.19721
0.20214
0.202305
0.198031
0.197703
0.200332
0.199018
0.199182
0.198031
0.198853
0.197867
0.200497
0.199839
0.196059
0.195402
0.198853
0.200332
0.199182
0.200004
0.200004
0.199018
0.200497
0.199018
0.199018
0.199675
0.198853
0.197867
0.198853
0.198031
0.197374
0.197867
0.200332
0.198031
0.199182
0.200332
0.19721
0.201647
0.200497
0.198689
0.201647
0.197703
0.197538
0.197374
0.198196
0.194909
0.196717
0.197867
0.198853
0.197867
0.199018
0.19836
0.197538
0.197045
0.196717
0.202305
0.198689
0.201483
0.198524
0.200332
0.203126
0.200332
0.195237
0.200497
0.199675
0.196059
0.196388
0.19458
0.201483
0.196552
0.198031
0.197703
0.200004
0.199182
0.200825
0.196059
0.198524
0.200497
0.197538
0.198524
0.200497
0.197867
0.19573
0.200004
0.194416
0.199346
0.19573
0.200168
0.196059
0.197538
0.196717
0.200661
0.196223
0.19836
0.19836
0.196223
0.195895
0.194909
0.199018
0.19721
0.196717
0.195895
0.199511
0.198524
0.199346
0.198524
0.200661
0.199018
0.199839
0.198853
0.201154
0.200332
0.199346
0.199839
0.197374
0.200497
0.201812
0.19721
0.196552
0.20099
0.196881
0.197538
0.196717
0.199675
0.197374
0.20099
0.198689
0.200004
0.199182
0.198031
0.198524
0.197374
0.198689
0.193922
0.19836
0.198689
0.199511
0.19573
0.19836
0.198031
0.195402
0.197374
0.199675
0.197538
0.195566
0.200332
0.197538
0.201483
0.199675
0.199018
0.198196
0.199346
0.19721
0.200004
0.197374
0.19721
0.199182
0.198524
0.201976
0.200168
0.199675
0.197045
0.20099
0.198031
0.200168
0.200825
0.199346
0.201319
0.201319
0.198031
0.200332
0.196059
0.197867
0.198853
0.19573
0.200332
0.197538
0.197045
0.198524
0.198031
0.199346
0.198689
0.198853
0.200661
0.196881
0.200825
0.199346
0.201319
0.198689
0.199675
0.199511
0.19836
0.199675
0.194909
0.195073
0.196552
0.198524
0.19836
0.199018
0.197867
0.200168
0.20099
0.198524
0.199511
0.199346
0.198524
0.199182
0.196388
0.197538
0.199839
0.196059
0.196552
0.19721
0.199182
0.197374
0.198853
0.19721
0.198196
0.200332
0.198196
0.198853
0.196552
0.199675
0.197374
0.198196
0.196881
0.199018
0.195895
0.197703
0.197045
0.197374
0.200825
0.200168
0.203455
0.199346
0.203948
0.199182
0.200004
0.197374
0.193429
0.194251
0.195895
0.19573
0.196552
0.194744
0.195895
0.197045
0.200332
0.201976
0.199511
0.199839
0.198853
0.200825
0.198031
0.199018
0.200497
0.198689
0.199182
0.198689
0.200661
0.201483
0.198524
0.197045
0.19836
0.19836
0.200825
0.198524
0.19836
0.198031
0.199839
0.199839
0.200332
0.198196
0.197538
0.197703
0.197867
0.19721
0.197374
0.198196
0.197045
0.198853
0.20099
0.202469
0.196881
0.198524
0.20099
0.199511
0.19721
0.198196
0.20099
0.203455
0.197538
0.200168
0.196717
0.197374
0.196717
0.195402
0.199182
0.196388
0.201483
0.199346
0.199018
0.199511
0.204441
0.198524
0.199018
0.198853
0.199511
0.197045
0.196717
0.201483
0.199675
0.198031
0.19836
0.201319
0.198853
0.20099
0.196223
0.202469
0.197867
0.198031
0.198524
0.200661
0.199182
0.198031
0.199018
0.196717
0.197867
0.198524
0.19836
0.198031
0.197867
0.195895
0.198689
0.19836
0.198689
0.200004
0.19836
0.198853
0.200332
0.198524
0.196059
0.198196
0.19573
0.197867
0.195402
0.201976
0.201812
0.195073
0.198689
0.201483
0.197045
0.199511
0.199018
0.199511
0.199675
0.199675
0.199675
0.204277
0.199018
0.19836
0.199839
0.199346
0.198853
0.198524
0.201976
0.200497
0.203948
0.196717
0.199839
0.198196
0.198853
0.199839
0.200497
0.19721
0.200332
0.200168
0.199675
0.200004
0.199182
0.200661
0.199675
0.196881
0.196717
0.198524
0.196223
0.197867
0.199018
0.199346
0.199018
0.198031
0.193594
0.19836
0.198031
0.196881
0.199839
0.199346
0.20099
0.199511
0.200825
0.199346
0.198853
0.199346
0.198196
0.197867
0.201154
0.198689
0.199018
0.202962
0.201483
0.202633
0.200168
0.202633
0.201319
0.200661
0.200825
0.200661
0.201483
0.199018
0.197867
0.199839
0.198689
0.197538
0.201647
0.199675
0.197374
0.199839
0.199839
0.198689
0.198031
0.196881
0.202305
0.19721
0.19721
0.198031
0.197867
0.196059
0.197703
0.198689
0.197538
0.200497
0.195895
0.20099
0.19836
0.20099
0.199675
0.200497
0.196552
0.198853
0.199182
0.197867
0.197703
0.197867
0.199346
0.19721
0.200332
0.196717
0.200332
0.198196
0.199511
0.199182
0.200004
0.198524
0.201812
0.201812
0.200497
0.202305
0.202798
0.200004
0.19836
0.200168
0.19836
0.200168
0.197867
0.199511
0.19836
0.199018
0.199346
0.200661
0.199511
0.200332
0.199675
0.200004
0.197703
0.201647
0.200332
0.19721
0.201812
0.199675
0.199839
0.19721
0.199675
0.19721
0.200661
0.198524
0.199511
0.197867
0.199018
0.200004
0.200332
0.202469
0.197045
0.203455
0.198689
0.199675
0.202633
0.197045
0.195895
0.201154
0.198031
0.199839
0.199511
0.197538
0.198853
0.199675
0.199839
0.201154
0.201647
0.197374
0.203784
0.198689
0.199182
0.200825
0.198853
0.197703
0.199346
0.197703
0.199182
0.198524
0.196223
0.200497
0.201154
0.202469
0.198689
0.199346
0.199018
0.20099
0.198853
0.201319
0.202633
0.19573
0.197703
0.199511
0.200661
0.195895
0.197867
0.197538
0.199511
0.199675
0.199182
0.199511
0.199346
0.200825
0.202305
0.199511
0.202798
0.198196
0.199675
0.199346
0.199675
0.199675
0.198196
0.197867
0.20099
0.199839
0.198196
0.200332
0.195237
0.200661
0.200004
0.201812
0.199511
0.201154
0.199182
0.199675
0.198853
0.199346
0.197538
0.195566
0.198689
0.195895
0.20214
0.200497
0.201154
0.197374
0.202633
0.201154
0.20099
0.197538
0.199511
0.198853
0.197374
0.200004
0.193429
0.195895
0.197374
0.201483
0.198524
0.199346
0.193758
0.198853
0.199018
0.200168
0.200004
0.201647
0.20362
0.20099
0.20362
0.200332
0.200825
0.192936
0.198524
0.196059
0.20099
0.197867
0.200004
0.195895
0.196388
0.200332
0.201483
0.201483
0.192608
0.199018
0.200661
0.200004
0.199675
0.199511
0.198196
0.19836
0.198853
0.200825
0.198196
0.192936
0.19836
0.201319
0.199018
0.201154
0.200825
0.199675
0.199839
0.199346
0.197867
0.19836
0.192608
0.192279
0.199018
0.199346
0.200332
0.199511
0.199018
0.19836
0.200661
0.200168
0.199182
0.192608
0.200332
0.200332
0.199839
0.201483
0.199182
0.201319
0.198853
0.201319
0.200825
0.20099
0.19195
0.196881
0.199675
0.198689
0.204277
0.199182
0.200661
0.198524
0.200168
0.199018
0.201647
0.195073
0.197703
0.19836
0.198196
0.201647
0.199511
0.199182
0.195566
0.200332
0.200004
0.200168
0.19721
0.199839
0.197374
0.198689
0.199839
0.198524
0.199675
0.197703
0.199511
0.201647
0.202305
0.201319
0.198031
0.199346
0.199018
0.19836
0.197703
0.199839
0.199182
0.199839
0.199675
0.198031
0.204113
0.196717
0.201647
0.200168
0.201812
0.199346
0.200661
0.20477
0.202305
0.200825
0.202305
0.205592
0.195566
0.198689
0.198031
0.199346
0.196717
0.20214
0.200661
0.200661
0.200168
0.201483
0.206742
0.197538
0.203291
0.19721
0.201647
0.198524
0.200332
0.200332
0.199018
0.196552
0.19721
0.203126
0.195073
0.197538
0.204606
0.203126
0.201154
0.203784
0.201154
0.202469
0.201812
0.199182
0.202962
0.196881
0.19836
0.198853
0.198031
0.197703
0.200004
0.203126
0.201483
0.198524
0.198853
0.205756
0.201976
0.197703
0.199675
0.199182
0.199182
0.200661
0.201647
0.19836
0.198524
0.198031
0.203126
0.195566
0.197703
0.202962
0.198689
0.200825
0.201976
0.198524
0.203455
0.204441
0.202305
0.203291
0.196717
0.199182
0.196552
0.196223
0.19573
0.201483
0.200168
0.197045
0.201812
0.199182
0.205263
0.196881
0.200497
0.199182
0.202305
0.198524
0.201976
0.20214
0.200004
0.198853
0.199018
0.203784
0.19721
0.201647
0.199675
0.201154
0.19836
0.198689
0.200825
0.200168
0.199511
0.20214
0.202798
0.198689
0.20214
0.199018
0.200332
0.198031
0.199018
0.198689
0.199675
0.197867
0.198524
0.201154
0.198196
0.199182
0.197867
0.196223
0.200332
0.200004
0.200497
0.202633
0.198196
0.200497
0.199675
0.201976
0.19836
0.197374
0.19721
0.200497
0.198196
0.197538
0.19721
0.200332
0.201812
0.202962
0.200497
0.200661
0.201483
0.199675
0.201976
0.200004
0.201976
0.201483
0.201154
0.199018
0.202305
0.195566
0.201154
0.200004
0.198524
0.202305
0.199346
0.201483
0.201976
0.201647
0.200004
0.20099
0.197045
0.199511
0.198689
0.200825
0.198031
0.200661
0.19836
0.200332
0.196059
0.19458
0.200825
0.198524
0.198524
0.198853
0.202798
0.198689
0.198524
0.199839
0.200332
0.197867
0.19721
0.198031
0.200332
0.199675
0.200004
0.198196
0.19836
0.19836
0.199839
0.200004
0.199675
0.201483
0.199018
0.201812
0.200168
0.201812
0.200168
0.200497
0.198524
0.199511
0.202305
0.200004
0.199839
0.199346
0.200168
0.199511
0.201976
0.196223
0.202469
0.20099
0.205592
0.199839
0.201976
0.201319
0.198031
0.19836
0.200004
0.198031
0.199675
0.200497
0.197374
0.20099
0.199511
0.201319
0.198689
0.206085
0.19836
0.200168
0.199182
0.197538
0.198524
0.195895
0.198853
0.199511
0.199182
0.199182
0.202633
0.194909
0.201154
0.199018
0.201154
0.200332
0.198689
0.202633
0.198689
0.202305
0.199839
0.202469
0.198689
0.200661
0.198524
0.199346
0.199182
0.198689
0.197867
0.201319
0.20099
0.199346
0.203291
0.199346
0.200497
0.197374
0.201154
0.201812
0.19721
0.199675
0.200497
0.199839
0.201154
0.200004
0.199839
0.198689
0.198853
0.198031
0.193101
0.195895
0.200661
0.199018
0.196881
0.198031
0.200332
0.200825
0.198689
0.201812
0.19721
0.202798
0.19836
0.201812
0.199675
0.200168
0.199675
0.199675
0.199346
0.200332
0.19573
0.204934
0.20362
0.199346
0.204113
0.200497
0.20099
0.199839
0.201319
0.199511
0.199839
0.200004
0.201647
0.199018
0.197374
0.200004
0.196881
0.200004
0.198689
0.200332
0.196552
0.203126
0.199675
0.200825
0.201483
0.199346
0.201154
0.201976
0.200332
0.200825
0.200168
0.198524
0.195073
0.195073
0.200004
0.191786
0.197045
0.199346
0.200168
0.199018
0.202305
0.202469
0.20099
0.201154
0.199675
0.199675
0.199675
0.198689
0.199018
0.203784
0.196881
0.196881
0.198853
0.197374
0.19836
0.199018
0.200168
0.200332
0.198853
0.201812
0.202962
0.199675
0.202798
0.201319
0.199182
0.197867
0.197867
0.198031
0.199839
0.197374
0.200332
0.199839
0.199675
0.202633
0.203455
0.200004
0.200497
0.200825
0.199182
0.199839
0.197867
0.204113
0.199511
0.202633
0.198031
0.19836
0.197538
0.199346
0.199346
0.196388
0.203291
0.201154
0.201647
0.202798
0.201483
0.200168
0.20099
0.19836
0.198853
0.19721
0.197374
0.19836
0.202633
0.20099
0.201976
0.200825
0.198689
0.202305
0.201319
0.200332
0.201812
0.202798
0.199018
0.20214
0.20099
0.199182
0.20214
0.199839
0.199839
0.200004
0.19836
0.199675
0.200332
0.198853
0.201483
0.200332
0.201812
0.201483
0.203948
0.203948
0.197867
0.195566
0.199018
0.198196
0.19836
0.19836
0.202633
0.201976
0.201319
0.200332
0.20099
0.20099
0.201154
0.200661
0.200004
0.204441
0.200332
0.202962
0.201483
0.20362
0.203291
0.201483
0.200004
0.198196
0.200661
0.199018
0.201319
0.199346
0.202962
0.200825
0.201976
0.20099
0.20214
0.201319
0.20099
0.198031
0.203291
0.201154
0.198524
0.202633
0.200168
0.200497
0.200825
0.200825
0.200004
0.201812
0.198524
0.198524
0.199018
0.199675
0.200332
0.200332
0.200168
0.196552
0.199511
0.199346
0.200004
0.19721
0.199511
0.199675
0.199839
0.201483
0.200497
0.199182
0.200168
0.201154
0.201319
0.197538
0.205427
0.201647
0.20099
0.199346
0.203948
0.205099
0.203126
0.202633
0.203126
0.201812
0.199018
0.202469
0.200004
0.199511
0.199346
0.201154
0.201647
0.200004
0.201154
0.201154
0.20099
0.199182
0.204277
0.199675
0.201647
0.198689
0.200497
0.199018
0.200497
0.200332
0.201154
0.198524
0.198196
0.201319
0.201319
0.20214
0.197703
0.201647
0.200332
0.202305
0.201154
0.204934
0.199346
0.199018
0.198196
0.20099
0.199675
0.199346
0.201976
0.20214
0.199182
0.199018
0.199675
0.200661
0.202798
0.199346
0.201647
0.199018
0.201154
0.199182
0.200168
0.199346
0.199839
0.200004
0.199346
0.199839
0.199018
0.201319
0.200332
0.198853
0.20099
0.201319
0.200825
0.203784
0.199675
0.199675
