Ladekurvenmessung

Zeit: 2018_05_04 09.57.28

Info: FVA3, v = 0.533, T = 23, F = 20, h = 381.9

Ladewiderstand[Ohm]: 1012700

Störkapazität[pF]: 0.000000

Entladezeit[ms]: 200

Abtastrate[Hz]: 250000

Anzahl der Messwerte: 2500.000000

Verzögerung[ms]: 3

Ladespannung[V]: 0.200000


Kurve 1

0.000474
0.003433
0.002447
0.000803
0.00409
0.003433
0.001296
0.000967
0.003104
0.002447
0.004583
0.003597
0.003104
0.003761
0.000146
0.001132
0.004583
-0.000347
0.000967
0.006391
0.000639
0.000639
0.003597
-0.002155
-0.002977
-0.001498
0.002282
-0.000841
-0.001169
0.002282
0.008199
-0.000676
0.00146
0.003268
-0.000512
0.003104
0.001954
0.002611
-0.001169
0.002611
-0.003142
0.000146
-0.001991
-0.002484
-0.002648
-0.002484
0.001296
0.001132
0.003597
0.001296
0.002118
0.002775
0.000639
-0.000676
0.000803
-0.001169
0.000474
-0.000183
0.000474
0.002447
-0.001662
0.000639
0.002118
-0.011688
0.001954
0.001625
-0.000512
0.004748
0.000967
0.001296
0.00409
-0.001991
0.00031
-0.003306
-0.013332
-0.005114
-0.002484
-0.004128
-0.00232
-0.001169
-0.000183
0.002282
0.001789
0.000803
0.002118
-0.005114
-0.001005
-0.000512
-0.000512
0.000803
-0.000676
-0.005278
-0.001169
-0.004128
-0.004128
-0.001662
-0.0061
-0.001498
0.000146
0.003104
0.000146
0.002447
0.000639
0.002447
0.000967
-0.000512
-1.9e-05
-0.004621
-0.001498
-0.003799
-0.002484
-0.001498
0.002775
0.000146
0.001625
0.002611
0.005734
-0.001005
0.000803
-0.001334
0.002611
0.000639
0.000639
-0.002484
0.003926
-0.001827
-0.005114
0.002447
-0.003142
0.000639
-0.001662
0.002611
0.001625
0.002118
0.00146
-1.9e-05
-0.001662
0.006062
0.006227
-0.000676
0.003926
-0.000676
-0.001498
-1.9e-05
0.002282
-0.003142
0.001625
0.00409
0.001296
0.00409
0.003761
0.00294
0.002775
0.003104
0.004255
0.00146
0.00294
0.005076
0.001789
0.00409
0.003268
0.002775
0.00146
0.005076
0.005734
0.001789
-0.002977
0.001132
0.004255
0.002282
0.004419
0.001296
0.003597
0.004583
0.002447
-1.9e-05
0.004748
0.001789
0.002447
0.003433
0.00294
0.002775
0.001789
0.001296
0.001132
0.002282
0.007542
0.000967
-0.000512
0.002611
0.000803
0.003597
0.000146
0.001132
0.002447
0.005405
0.001296
0.003268
-0.00232
0.000474
0.001789
0.002447
0.002611
0.00146
0.001954
0.001296
0.004419
0.001625
0.002282
0.00146
0.002611
0.005076
0.002447
0.001132
0.001954
0.003761
0.004419
0.003104
0.001954
0.000146
-1.9e-05
-0.000183
-0.000676
0.001789
-0.000841
0.003597
-0.000512
0.00146
0.001132
0.000639
-0.001827
0.000474
-0.001991
-0.001169
-0.001827
-0.003306
-0.004128
-0.008072
-0.002813
-0.001991
-0.003963
-0.004949
-0.001662
-0.001827
-0.00232
-0.000841
-0.003635
-0.001498
-0.003799
-0.001334
-0.002484
-0.001498
-0.00347
-0.004949
-0.005278
-0.00232
-0.004128
-0.003635
-0.002155
-1.9e-05
-0.003306
-0.002648
-0.000183
-0.005443
-0.003799
-0.010209
-0.0061
-0.004128
-0.00232
-0.004785
-0.002484
-0.004456
-0.004621
-0.002155
-0.003963
-0.002484
-0.003142
-0.001169
-0.00347
-0.002813
-0.003306
-0.001005
-0.003635
-0.002155
-0.002813
-0.005771
-0.00232
-1.9e-05
-0.000841
-0.002977
-0.001334
-0.006593
-0.001827
-0.003142
-0.00347
-0.000841
-0.002648
-0.004128
-0.000512
-0.001991
-0.000841
-0.002977
-0.001662
-0.003306
-0.001334
-0.002155
-0.001498
-0.001005
-0.002155
-0.002155
-0.003635
0.001954
-0.003142
0.002118
0.001625
0.002447
0.000474
-0.001991
-0.001991
-0.001334
-0.00232
-0.00232
-0.001498
-0.004292
-0.000183
-0.000841
-0.000347
-0.005114
-0.001991
-0.001498
-1.9e-05
-0.000512
0.002118
-0.00232
0.000967
0.00409
0.00146
-0.000183
-0.008072
-0.003963
-0.004456
-0.001334
-0.0061
-0.001827
-0.000676
-0.001991
-0.002155
0.003104
0.00031
0.001625
0.001625
0.000639
0.001789
-0.000676
0.000639
-0.000841
0.00031
-0.000183
-0.000676
-0.001498
-1.9e-05
0.001296
-0.000512
-0.00347
0.000639
-0.001662
-0.000183
0.005734
0.00294
0.001954
0.001132
0.000146
-0.000512
0.00146
-0.001498
-0.002155
-0.001498
0.00031
-0.003635
-0.001827
-0.000183
0.000474
0.001296
0.003926
0.003104
-0.000676
0.000639
0.000146
0.004255
0.002282
0.001789
-0.000512
-0.000512
-0.004128
0.000803
-0.004292
-0.003799
-0.000676
-0.000512
0.001954
0.000146
0.001132
0.001132
-0.000183
0.000146
0.004583
-0.00232
0.002118
-0.001169
0.000146
-0.001498
0.000803
0.002118
0.003104
0.001132
-0.002155
-0.000676
-0.001334
0.003597
-0.001498
0.003597
0.000146
-0.001005
-0.000183
0.00031
0.000639
-0.000841
-0.002155
-0.000841
0.001954
0.001296
-0.000841
-0.001662
-1.9e-05
-0.002484
0.000803
-0.000841
0.000967
-0.002484
-0.000347
-0.004621
-0.004621
-0.000841
-0.003142
-0.002813
-0.000512
0.000146
-0.002155
-0.000841
-1.9e-05
0.000639
-0.000841
0.001954
0.001954
0.00146
-0.001334
0.002775
0.002611
-0.001005
0.002118
0.003926
-0.002648
-0.000512
0.000146
0.000639
0.001296
-0.002648
0.000146
-0.001169
0.000474
-0.001827
0.00031
0.000474
0.000474
-1.9e-05
0.001296
0.000967
0.000967
0.001789
0.00031
0.001789
-0.000183
0.00409
-0.0061
-0.003306
-0.000841
-0.001334
-0.001334
-1.9e-05
-0.002648
0.004255
-0.000183
-1.9e-05
0.004255
-0.001991
-0.000676
-0.001169
0.001625
-1.9e-05
0.001296
0.000146
0.002447
0.002282
-0.002484
0.000146
0.000803
0.000146
0.001625
0.000803
-0.003306
0.003433
0.002447
0.00031
-0.001827
0.002447
0.001132
0.002775
-0.004128
0.000474
-0.003963
-0.001498
-0.001662
0.000639
0.001789
0.003433
0.000967
0.000639
0.002447
-0.000512
0.00294
0.001132
0.00409
0.001132
-0.001334
0.003433
0.000967
0.000639
-0.001005
0.000146
0.000967
0.004255
0.001789
-0.000347
0.001132
0.004748
0.003597
0.003104
0.003104
0.003597
0.003104
0.00146
0.000474
0.000967
-0.001005
0.00031
0.002611
0.000474
0.003433
-0.001005
0.004255
0.00294
0.004748
0.003268
0.004255
0.003433
0.001954
0.00146
0.004419
-0.001169
0.000803
0.000639
-0.00232
0.000967
-0.001005
0.004419
0.000146
-0.001334
-0.000676
0.00294
-1.9e-05
0.003926
0.00146
-0.000676
-0.000183
0.002118
0.002282
-0.000676
0.001954
-0.001005
-0.005936
-0.004292
-0.001005
-0.002484
-0.0061
-0.001498
0.001132
0.000803
0.002118
-0.000676
0.002282
0.003104
-0.003799
0.001954
0.001132
0.000146
0.000474
0.000146
-0.001662
0.000967
-0.003963
-0.001005
0.000639
0.001132
-1.9e-05
-1.9e-05
-0.001169
0.001132
0.004419
0.000146
0.00031
-0.000183
0.001296
0.000146
0.001954
-0.001005
0.003268
-0.002648
-0.001498
0.000474
-1.9e-05
-0.000347
-0.002155
0.000639
-0.001498
0.001296
0.003761
0.002118
0.000146
0.00031
-0.000183
0.000639
-0.002648
0.000474
-0.001662
-0.002155
0.001296
-0.002484
-0.002648
-0.000841
0.000967
-0.001498
0.001789
0.001132
0.001132
0.001296
0.002118
0.004419
0.000639
-0.000676
0.00031
-0.002648
-0.002484
-0.000676
-0.002813
-0.001334
0.000146
0.000803
0.003433
0.003433
0.00031
-0.000512
0.000146
0.00294
0.00146
-0.001498
-0.001498
0.000967
0.003268
-0.002648
0.000146
-0.000676
-0.000512
-0.00232
0.001296
0.003104
0.003761
-0.001991
0.003268
0.001954
0.003761
-0.001498
0.004583
0.003926
-1.9e-05
-0.001991
-0.002977
-0.001005
-0.001005
0.002611
0.001625
0.000474
-0.002155
0.005898
-0.001005
0.001954
0.002447
0.000639
0.001296
0.002611
0.006062
0.001132
-0.002648
0.000146
0.00294
-0.003635
0.001296
-0.001169
0.002282
0.000639
0.000474
0.002282
0.002118
-1.9e-05
0.000639
0.001625
-0.001005
0.000967
-1.9e-05
-0.000347
-0.000347
0.000639
0.001132
0.001625
-0.001169
0.003433
0.000474
0.00031
0.003104
0.00146
-0.001498
-0.001169
0.00294
0.001132
0.001789
-0.004128
0.000803
-0.00232
0.000967
-0.000676
0.000474
-0.000676
0.004419
0.014445
0.021183
0.027593
0.034168
0.042385
0.047809
0.053726
0.059972
0.066875
0.07049
0.077229
0.081174
0.088734
0.090049
0.092514
0.101554
0.102376
0.10517
0.109936
0.114045
0.117168
0.120619
0.125879
0.130974
0.129001
0.135083
0.134754
0.141164
0.141328
0.143136
0.143794
0.144451
0.149875
0.153819
0.156449
0.154148
0.157107
0.160229
0.160394
0.159243
0.162366
0.16253
0.164338
0.166475
0.174364
0.173707
0.172392
0.174857
0.174528
0.177322
0.17535
0.178309
0.176501
0.183732
0.17798
0.17913
0.179459
0.183732
0.183404
0.18554
0.18817
0.184061
0.187348
0.186855
0.188663
0.186198
0.188006
0.185376
0.191128
0.18439
0.189156
0.190635
0.186526
0.189485
0.190635
0.193265
0.193265
0.19195
0.193101
0.195402
0.194087
0.192279
0.189978
0.19195
0.192115
0.193101
0.192608
0.190964
0.1908
0.193101
0.194087
0.193265
0.194744
0.205099
0.195402
0.197703
0.200168
0.196059
0.198524
0.197703
0.198031
0.198031
0.198524
0.195237
0.200168
0.194416
0.19721
0.197374
0.197374
0.199675
0.197538
0.201976
0.197867
0.201483
0.199675
0.200825
0.196223
0.19721
0.196223
0.197867
0.19836
0.19836
0.196223
0.196388
0.202633
0.197867
0.206414
0.198853
0.199839
0.200004
0.201319
0.199346
0.198689
0.196881
0.198689
0.200332
0.199511
0.205921
0.19836
0.19836
0.20099
0.197045
0.197538
0.20477
0.200332
0.199018
0.199675
0.201319
0.206578
0.203291
0.199018
0.201647
0.200332
0.201319
0.203784
0.199346
0.200661
0.20214
0.201483
0.194909
0.201154
0.20099
0.201319
0.201154
0.199675
0.199182
0.199346
0.19721
0.202633
0.202798
0.189485
0.199675
0.198689
0.200332
0.198524
0.20099
0.199511
0.200332
0.200661
0.198689
0.199346
0.1908
0.201647
0.200497
0.19836
0.202798
0.200332
0.19721
0.197867
0.200004
0.199511
0.198031
0.193758
0.199018
0.205756
0.200825
0.198689
0.198853
0.201812
0.196223
0.202305
0.203126
0.199182
0.200332
0.199839
0.204934
0.200825
0.201812
0.200004
0.20099
0.198853
0.201319
0.199839
0.200825
0.198689
0.197045
0.200825
0.201154
0.202469
0.200497
0.202633
0.198031
0.202305
0.198524
0.201483
0.197538
0.200168
0.199018
0.201319
0.198689
0.199182
0.200825
0.203126
0.204606
0.203948
0.203291
0.202633
0.198689
0.198524
0.201483
0.197703
0.199839
0.200004
0.201812
0.200332
0.19721
0.198196
0.199511
0.199346
0.198524
0.202469
0.199182
0.198689
0.197538
0.201976
0.200497
0.200332
0.203784
0.20214
0.201154
0.201812
0.202633
0.199839
0.200168
0.199675
0.204277
0.202469
0.203126
0.201976
0.201812
0.201647
0.201647
0.200497
0.204934
0.200168
0.203126
0.202305
0.202798
0.203291
0.200825
0.200825
0.200661
0.204606
0.200825
0.20362
0.203455
0.202962
0.200825
0.204277
0.199511
0.20214
0.189814
0.192936
0.194251
0.190964
0.192115
0.196388
0.195402
0.167297
0.170419
0.171241
0.173214
0.165817
0.143794
0.050274
0.013787
0.022827
0.03236
0.036304
0.046166
0.053562
0.056684
0.063587
0.066217
0.07953
0.075421
0.081995
0.063094
0.068189
0.07312
0.078051
0.08331
0.089063
0.094651
0.099089
0.106156
0.106485
0.112073
0.113059
0.119469
0.121605
0.125221
0.126536
0.127851
0.130481
0.139192
0.140013
0.141821
0.143794
0.144451
0.152669
0.150204
0.150039
0.155627
0.156449
0.160558
0.165817
0.166968
0.16516
0.167297
0.173707
0.170748
0.171899
0.171406
0.172556
0.175021
0.17535
0.178966
0.178637
0.17798
0.179623
0.181103
0.180445
0.185869
0.179459
0.182582
0.186362
0.185047
0.185869
0.188663
0.187019
0.183897
0.188663
0.185376
0.188499
0.188334
0.190142
0.191293
0.192936
0.191621
0.197703
0.192608
0.195073
0.197703
0.1908
0.191128
0.192936
0.194744
0.194087
0.192608
0.192279
0.197374
0.19195
0.195073
0.195566
0.198524
0.196881
0.204441
0.199839
0.198853
0.201976
0.198031
0.200004
0.197703
0.19721
0.196881
0.196881
0.195566
0.19721
0.196717
0.198031
0.197045
0.19836
0.197374
0.197374
0.198031
0.199018
0.198031
0.195073
0.196388
0.196881
0.195237
0.192772
0.193429
0.192936
0.193922
0.191457
0.194087
0.192443
0.191621
0.193429
0.197045
0.193922
0.19721
0.200004
0.195237
0.193101
0.190635
0.192936
0.191128
0.192443
0.189156
0.195073
0.192443
0.193922
0.194251
0.193594
0.194087
0.193594
0.195402
0.195402
0.192608
0.189978
0.19836
0.19573
0.19573
0.193101
0.195237
0.191457
0.194416
0.192772
0.19195
0.193429
0.195895
0.197867
0.196223
0.193922
0.196388
0.199675
0.193758
0.195895
0.193758
0.196059
0.191128
0.196388
0.196881
0.193429
0.194909
0.197538
0.195402
0.193429
0.19721
0.194416
0.199182
0.194744
0.198031
0.198524
0.197045
0.194087
0.194909
0.194744
0.191457
0.191621
0.196881
0.195237
0.195402
0.196388
0.197374
0.198853
0.197703
0.19836
0.199511
0.199018
0.19573
0.198689
0.197374
0.200168
0.198031
0.197867
0.202305
0.200168
0.199346
0.201812
0.196223
0.196223
0.199018
0.195895
0.197867
0.197045
0.199182
0.197374
0.198689
0.197867
0.20099
0.196881
0.197867
0.199018
0.196717
0.200497
0.193758
0.201154
0.195895
0.199675
0.196552
0.19721
0.196881
0.196388
0.195566
0.193922
0.192608
0.195402
0.195073
0.19573
0.198524
0.198031
0.199018
0.196223
0.198689
0.19721
0.199511
0.195566
0.197867
0.195073
0.198853
0.200825
0.20099
0.199018
0.197374
0.199182
0.194251
0.198853
0.195895
0.199018
0.199346
0.198689
0.197374
0.198689
0.196388
0.197374
0.200825
0.199018
0.19721
0.198689
0.199675
0.199018
0.200332
0.19721
0.200825
0.200661
0.199018
0.198853
0.199839
0.196223
0.199839
0.196388
0.197867
0.198031
0.201154
0.204606
0.201319
0.19573
0.198196
0.202798
0.197703
0.200661
0.198689
0.202633
0.200004
0.199675
0.195237
0.200497
0.198689
0.19721
0.200004
0.198524
0.200825
0.198031
0.20099
0.204606
0.205099
0.204606
0.20477
0.200661
0.199675
0.198853
0.199346
0.199182
0.194744
0.20214
0.19721
0.200332
0.19721
0.201647
0.198853
0.198524
0.200168
0.196388
0.200004
0.201319
0.199839
0.200497
0.199511
0.199018
0.197867
0.19836
0.199346
0.196717
0.196881
0.194416
0.199182
0.199018
0.20099
0.199511
0.199839
0.197374
0.200497
0.199511
0.199018
0.20362
0.198853
0.201483
0.200332
0.200661
0.199675
0.198689
0.201812
0.199182
0.199675
0.199182
0.196059
0.197867
0.195073
0.199839
0.202305
0.200004
0.201319
0.200497
0.200497
0.197045
0.199346
0.196552
0.19836
0.193101
0.199839
0.198031
0.19573
0.200168
0.200497
0.19836
0.199346
0.198853
0.199675
0.200004
0.195402
0.202469
0.199675
0.201647
0.196223
0.200168
0.193758
0.193101
0.194744
0.196717
0.198524
0.196223
0.203126
0.198524
0.200661
0.201976
0.201319
0.201483
0.198689
0.198689
0.200004
0.199346
0.199675
0.196059
0.198689
0.196717
0.198196
0.195073
0.202798
0.200661
0.200168
0.199839
0.20099
0.200004
0.200825
0.203126
0.199675
0.201154
0.200825
0.19836
0.198196
0.199346
0.197374
0.198853
0.198853
0.198031
0.203455
0.199018
0.196881
0.200661
0.199018
0.198196
0.200004
0.200168
0.199675
0.19721
0.200661
0.194087
0.19573
0.196059
0.194416
0.197374
0.196223
0.197045
0.194251
0.19836
0.199018
0.199839
0.200004
0.199346
0.19836
0.201483
0.200004
0.194744
0.19573
0.199511
0.198853
0.202962
0.201647
0.194087
0.198524
0.197538
0.201647
0.195237
0.200332
0.198031
0.200004
0.199018
0.201976
0.201483
0.199839
0.199346
0.198196
0.199675
0.19721
0.200332
0.195895
0.201319
0.19573
0.202962
0.200497
0.203291
0.198689
0.196717
0.199839
0.197045
0.199675
0.198689
0.200004
0.199182
0.204277
0.199511
0.201812
0.201647
0.19836
0.200332
0.200004
0.197374
0.201647
0.201319
0.199511
0.204606
0.20214
0.201812
0.206085
0.205099
0.206085
0.201647
0.198689
0.200661
0.202305
0.203291
0.203784
0.203291
0.202962
0.199839
0.203455
0.201976
0.200497
0.201154
0.201483
0.199182
0.202633
0.203126
0.204277
0.202633
0.202305
0.201483
0.197867
0.198689
0.201154
0.203948
0.203948
0.201483
0.202305
0.206249
0.201319
0.20477
0.204934
0.195073
0.203126
0.204441
0.203455
0.203126
0.202469
0.205592
0.203948
0.205592
0.206085
0.203291
0.196059
0.200825
0.204113
0.20477
0.209043
0.200004
0.205263
0.207728
0.205099
0.207564
0.205756
0.201976
0.20362
0.200825
0.202305
0.20477
0.201812
0.205263
0.204441
0.204113
0.205099
0.202798
0.20099
0.203291
0.205427
0.204606
0.205592
0.203784
0.205592
0.203291
0.203291
0.201319
0.204606
0.201483
0.20362
0.201647
0.200497
0.202798
0.205592
0.204113
0.203784
0.202305
0.20477
0.204277
0.204441
0.203455
0.202305
0.205099
0.20099
0.203948
0.201976
0.201319
0.201647
0.205263
0.201812
0.202962
0.203784
0.204113
0.20214
0.202469
0.200661
0.197867
0.202798
0.199511
0.202798
0.20099
0.202305
0.198689
0.198689
0.199346
0.199346
0.199346
0.200332
0.197867
0.201483
0.201976
0.200004
0.202469
0.19836
0.202305
0.199018
0.197703
0.199182
0.197538
0.193594
0.19836
0.196388
0.19458
0.198853
0.197538
0.198196
0.197045
0.19836
0.19836
0.199839
0.192936
0.200004
0.196881
0.196388
0.197538
0.197867
0.19573
0.19573
0.194744
0.193594
0.197045
0.192608
0.194909
0.193758
0.19573
0.196223
0.200661
0.197703
0.197703
0.197045
0.197045
0.196552
0.193101
0.19573
0.196223
0.192608
0.193101
0.198853
0.193265
0.195402
0.19458
0.19458
0.195402
0.193594
0.198031
0.200332
0.196059
0.201154
0.195566
0.189978
0.196717
0.192936
0.191786
0.195073
0.194251
0.19458
0.197045
0.195566
0.196223
0.199018
0.196717
0.195895
0.197867
0.198853
0.198524
0.195237
0.198689
0.196059
0.194087
0.193265
0.194416
0.195566
0.193429
0.197867
0.194909
0.197045
0.196388
0.199675
0.197538
0.199182
0.199675
0.198031
0.199511
0.195895
0.197538
0.196223
0.197867
0.194251
0.197538
0.195402
0.199018
0.19573
0.200004
0.192772
0.193758
0.199018
0.195895
0.198031
0.193758
0.196881
0.196388
0.198524
0.190471
0.197374
0.200332
0.197045
0.197538
0.19836
0.19721
0.195895
0.198524
0.198031
0.199675
0.197867
0.200332
0.198853
0.199839
0.198853
0.197374
0.194909
0.200004
0.200661
0.200661
0.19836
0.199182
0.197703
0.198524
0.196552
0.193429
0.200004
0.197374
0.199018
0.198853
0.201154
0.198524
0.200661
0.199346
0.200661
0.199018
0.200497
0.197867
0.200661
0.198196
0.198853
0.197703
0.197867
0.199346
0.199018
0.198524
0.196881
0.195237
0.200332
0.19721
0.195073
0.200332
0.201319
0.198031
0.205099
0.199839
0.19836
0.198196
0.200332
0.197374
0.201154
0.198689
0.201647
0.200497
0.201154
0.198031
0.19836
0.199675
0.202305
0.201154
0.199675
0.20099
0.199839
0.198853
0.204277
0.201647
0.202305
0.200497
0.199675
0.20214
0.199346
0.200004
0.201812
0.200332
0.200332
0.201483
0.201812
0.200332
0.202798
0.201319
0.203291
0.199511
0.202798
0.198031
0.200661
0.198524
0.200168
0.200004
0.199839
0.197374
0.198031
0.199346
0.200497
0.202633
0.19573
0.202305
0.200661
0.201647
0.201647
0.199839
0.199511
0.200332
0.20099
0.19836
0.203455
0.197045
0.197538
0.200168
0.201154
0.200332
0.201812
0.200004
0.20099
0.199839
0.202798
0.202305
0.20362
0.200004
0.20214
0.198196
0.199675
0.201154
0.200168
0.197538
0.198853
0.200825
0.198689
0.202798
0.198689
0.204277
0.199511
0.202633
0.201483
0.200497
0.197703
0.19721
0.196717
0.196388
0.197703
0.196223
0.202798
0.200497
0.20099
0.200497
0.202469
0.199182
0.20214
0.198196
0.202469
0.199839
0.202962
0.198524
0.201812
0.202798
0.19836
0.201154
0.192772
0.201154
0.198853
0.200497
0.200004
0.200332
0.20214
0.202305
0.202305
0.202305
0.202798
0.196059
0.198196
0.199018
0.199182
0.197867
0.200497
0.197538
0.198853
0.199346
0.200004
0.199839
0.195237
0.202962
0.197867
0.200661
0.200661
0.200497
0.20099
0.198196
0.197703
0.200004
0.196552
0.201319
0.200004
0.201483
0.200168
0.200332
0.199018
0.201483
0.200332
0.200661
0.20099
0.201483
0.202469
0.200497
0.20214
0.199511
0.20099
0.201319
0.19836
0.196388
0.19721
0.197374
0.199675
0.198196
0.200332
0.200004
0.201647
0.200825
0.198689
0.199675
0.198196
0.201319
0.198196
0.200497
0.196388
0.198196
0.19836
0.200004
0.198853
0.199839
0.198689
0.20099
0.200332
0.199675
0.202798
0.200497
0.202305
0.201483
0.197045
0.197538
0.202962
0.199346
0.19836
0.197867
0.201319
0.200661
0.198524
0.200168
0.198524
0.200332
0.199346
0.201319
0.200168
0.199346
0.200661
0.201154
0.20099
0.202469
0.205263
0.201154
0.200332
0.198853
0.197045
0.199018
0.203948
0.197703
0.201812
0.198689
0.199675
0.202305
0.201154
0.201976
0.20214
0.199182
0.202305
0.201319
0.200004
0.203291
0.201976
0.20099
0.198196
0.201647
0.198853
0.200661
0.19836
0.199346
0.201647
0.202633
0.197045
0.20099
0.198524
0.197867
0.19836
0.199182
0.204441
0.197538
0.201812
0.201483
0.201154
0.00409
0.013952
0.018225
0.02973
0.035482
0.042714
0.049453
0.056356
0.063752
0.07049
0.077722
0.078544
0.087748
0.087255
0.092843
0.096952
0.099417
0.104841
0.108293
0.113716
0.117496
0.120291
0.128837
0.128344
0.128673
0.133603
0.137877
0.138041
0.141986
0.146916
0.145602
0.149875
0.151683
0.152505
0.153162
0.154148
0.155627
0.158914
0.160558
0.161051
0.162366
0.163681
0.166804
0.166475
0.170419
0.170748
0.174035
0.17535
0.176336
0.176665
0.178309
0.177651
0.17798
0.177322
0.181924
0.181267
0.181924
0.184061
0.18176
0.181267
0.183732
0.188827
0.183404
0.189649
0.186198
0.188006
0.189649
0.190142
0.187841
0.188499
0.18932
0.19195
0.192279
0.188006
0.191457
0.192608
0.192279
0.191128
0.197538
0.190964
0.199182
0.194251
0.195237
0.19573
0.197867
0.195237
0.194416
0.193594
0.192279
0.197045
0.190635
0.196223
0.19721
0.197703
0.001296
0.00672
-0.001169
-0.001005
-0.001169
0.000639
0.015431
0.020526
0.03088
0.039263
0.040742
0.042714
-0.000347
0.000967
-0.000183
0.009678
0.012637
0.01691
0.01313
0.014116
0.018389
0.0105
0.000474
0.004255
0.00031
0.006062
0.017732
0.006227
0.013787
0.016088
0.023484
0.031045
0.011979
0.015595
0.032524
0.04107
0.046166
0.054055
0.062273
0.071805
0.073942
0.076243
0.081831
0.086269
0.088898
0.095801
0.102211
0.099089
0.106649
0.109772
0.117332
0.118318
0.121112
0.126207
0.1267
0.130809
0.134261
0.139849
0.138041
0.141821
0.142314
0.14478
0.145273
0.149382
0.14971
0.153491
0.154477
0.158093
0.162859
0.16401
0.163516
0.164174
0.159243
0.164996
0.170748
0.165653
0.173542
0.170584
0.173707
0.173542
0.171241
0.176665
0.181596
0.167954
0.176665
0.180116
0.180281
0.179295
0.183404
0.185705
0.18554
0.186526
0.186198
0.187841
0.176665
0.183568
0.187677
0.188827
0.188499
0.187841
0.191128
0.192772
0.191128
0.189814
0.19573
0.185705
0.187677
0.198196
0.192936
0.193758
0.193594
0.195237
0.194909
0.195073
0.195237
0.193758
0.189485
0.188827
0.193265
0.194251
0.19573
0.197867
0.195402
0.196059
0.199675
0.198196
0.196881
0.200168
0.194909
0.198853
0.199511
0.198031
0.195073
0.195402
0.198031
0.195895
0.199839
0.198031
0.200004
0.19721
0.19836
0.195895
0.199182
0.194251
0.196881
0.200004
0.199511
0.199675
0.200661
0.201319
0.198689
0.201976
0.199346
0.201812
0.198853
0.201812
0.199839
0.20099
0.201812
0.202305
0.199182
0.201812
0.201812
0.200332
0.205099
0.198524
0.203455
0.199346
0.202469
0.202305
0.201647
0.202469
0.202633
0.201976
0.20099
0.200497
0.199182
0.200497
0.200661
0.203291
0.200332
0.202305
0.200004
0.203126
0.198524
0.202633
0.199839
0.19836
0.199511
0.199346
0.200661
0.201319
0.200497
0.199018
0.202798
0.197867
0.19721
0.196552
0.19721
0.194416
0.200004
0.19836
0.198689
0.199182
0.198196
0.197867
0.198689
0.197045
0.19721
0.198031
0.198031
0.198853
0.197703
0.198524
0.198689
0.197867
0.198689
0.199018
0.197045
0.202305
0.197538
0.199511
0.202469
0.198031
0.196717
0.197703
0.200004
0.195402
0.196388
0.194744
0.196717
0.199675
0.197374
0.196059
0.199511
0.195237
0.199182
0.196223
0.198853
0.19458
0.198689
0.192443
0.19573
0.191786
0.188499
0.194909
0.194744
0.193758
0.194251
0.197045
0.195237
0.19836
0.198031
0.196552
0.197538
0.196223
0.198196
0.195402
0.199675
0.198031
0.196881
0.194416
0.196388
0.195402
0.195895
0.19458
0.194909
0.19573
0.19836
0.197045
0.196388
0.200004
0.193922
0.200661
0.198524
0.197374
0.19721
0.196717
0.192772
0.196881
0.196059
0.19573
0.197045
0.193429
0.196552
0.197703
0.196552
0.195237
0.196881
0.197703
0.19573
0.196059
0.197867
0.200332
0.199182
0.196881
0.197703
0.19458
0.194416
0.193101
0.196717
0.199018
0.196881
0.197538
0.200332
0.199182

Kurve 2

-0.003635
-0.00232
-0.002484
-0.003799
-0.001498
0.00031
-0.002648
-0.000841
0.002282
0.002447
0.002611
0.000639
-0.000841
-0.000183
0.000474
-0.002813
-0.000676
-0.002484
-0.000183
0.000474
-0.002484
0.000146
-0.004621
0.00031
-0.00232
-0.001005
0.00031
-0.000512
-0.001662
0.003268
0.002611
-0.00347
-0.000841
-0.001169
0.001132
-0.005278
-0.003799
0.00031
0.002282
0.004255
0.001296
0.005405
0.005241
0.001625
0.006062
0.006062
0.006884
0.001789
0.003104
0.004748
0.002118
0.00409
-0.000676
-0.000183
0.002282
0.004583
0.001296
0.002447
-0.000183
0.005569
0.003433
0.000803
0.003433
-0.001662
0.002611
-0.000841
0.003268
-0.001498
0.00031
-0.000512
-0.001334
-0.000347
-0.001169
-0.001334
-0.000676
-1.9e-05
0.000803
0.002282
0.000803
-0.001991
0.001954
0.003268
-0.001005
0.001132
-0.002155
-0.00232
-0.001169
-0.004456
-0.004128
-0.003142
-0.004128
-0.007086
-0.00232
-0.002484
-0.001662
-0.001498
-0.002155
-0.00347
0.003268
-0.000841
-0.000183
-0.003306
0.000474
0.000639
-0.001498
-0.003142
0.001296
-0.000183
-0.001169
-0.001827
-0.00347
-0.005278
-0.00232
-0.003963
-0.001991
-0.001991
-0.002648
-0.001169
-0.002813
0.000474
-0.004456
-0.002484
-0.00347
-0.002648
-0.002977
-0.002813
0.00031
-0.005936
-0.001005
-0.006757
-0.002484
-0.001827
-0.00232
-0.002813
-0.003306
-0.000676
-0.002484
-0.000512
-0.003306
-0.00232
-0.004621
-0.001827
-0.004128
-0.004456
-0.004456
-0.000841
-0.00232
0.000639
-0.002484
-0.001498
-0.002813
0.00031
0.000967
0.005405
-1.9e-05
-0.001991
0.002118
0.000474
-0.000841
-0.003799
0.001296
-0.001827
0.002447
-0.000347
-0.001662
-0.002813
-0.002648
-0.001662
0.001954
-0.000347
-0.001005
-0.001991
-0.000512
0.001789
-0.00347
0.000639
0.000146
0.00031
-0.001169
-0.001991
-0.004292
-0.001991
-0.004128
0.000639
-0.000841
-0.000512
-0.000347
0.002118
-0.001827
-0.004785
-0.000841
-0.005443
-0.000347
-0.001498
0.000474
-0.001005
-0.000676
-0.002155
-0.001005
-0.000183
-0.003306
0.001296
-0.000183
0.004419
-0.000512
0.001296
0.00031
-0.001827
-0.001827
0.003433
-0.002155
0.001132
-0.001334
-0.002813
-0.002484
-0.003799
-0.001827
-0.003142
0.002447
-0.001662
0.000639
-0.002484
-1.9e-05
-0.004292
0.001132
-0.001827
-0.002155
0.001789
-0.000676
-0.000512
-0.001169
-0.000841
-0.002155
-0.002155
-0.001498
0.000474
-0.000841
-0.002977
-0.002648
-0.000183
-0.003306
-0.00232
-0.003635
-0.000183
-1.9e-05
-0.001334
0.000967
-0.003306
-0.001991
-0.000183
0.000146
-0.002977
0.001789
0.001625
-0.004128
-0.001334
0.001132
-0.000512
-0.000183
-0.001005
-0.000841
-0.000347
-0.006593
-0.001498
-0.004785
-0.003635
-0.002484
-0.001169
-0.000347
-0.000841
-0.003142
-0.000347
-0.002155
-0.001334
-0.003306
-0.000183
-0.004621
-0.003799
-0.002648
-0.004949
-0.001498
-0.001334
0.000146
-0.000512
0.00031
-0.002977
0.000967
-0.00347
-0.005936
-0.002648
-0.003799
-0.002813
-0.003306
-1.9e-05
0.00031
0.00031
-0.001827
0.002447
-0.002977
-0.000841
0.001296
-1.9e-05
-0.001169
0.00409
0.001625
-0.001991
0.003268
-0.001662
0.001132
-0.004128
-0.000676
-0.002813
-0.001169
-0.003306
0.002611
0.000639
0.001132
-0.000512
0.000474
-0.000676
-1.9e-05
-0.003306
-0.003142
-0.001662
-0.004456
-0.001498
-0.000841
-0.004456
-0.002977
-0.001334
-0.003306
-0.000676
-0.000512
-0.003799
-0.001334
-0.004128
-0.003799
-0.005114
-0.005114
-0.003963
-0.005936
-0.00232
-0.002977
-0.003306
-0.001827
-0.001991
-0.001005
-0.001991
0.002611
-0.000183
-0.000841
0.000474
-0.000347
0.003433
-0.000512
0.00031
-0.001334
-0.003306
-0.00347
0.002118
-0.003306
-0.001169
-0.002977
0.001954
0.002611
0.000474
0.000803
0.000146
-0.001334
-0.000183
0.000967
-0.002484
-0.002813
-0.001169
-0.001169
-0.002484
-0.000676
-0.003963
-0.001169
-0.001991
-1.9e-05
0.000146
0.000474
-1.9e-05
-0.000512
0.000967
-0.003142
-0.005607
-0.003635
-0.003963
-0.009223
0.001625
-0.005607
-0.001827
-0.003799
-0.002484
0.000474
-0.002648
-0.001169
0.000474
-0.000841
-0.001169
0.003433
-0.000512
0.001954
-0.001169
0.000967
0.001954
-0.004292
-0.004128
-0.002155
-0.001662
-0.001991
-0.000347
-0.001991
-0.000512
-0.003142
0.003433
0.003926
-0.000841
-0.003306
-0.00232
-0.003799
-0.001498
-0.002155
-0.001334
-0.000183
-0.000183
-0.002813
0.008199
-0.002977
-0.000676
-0.000676
-0.002155
-0.000676
-0.000512
-0.004292
-0.004456
-0.000512
-0.002813
0.001132
-0.003635
-0.003142
-0.001498
-0.003306
-0.005936
0.002118
-0.002813
-0.002813
0.000967
-0.002813
-0.001005
-0.007086
-0.003306
-0.002155
-1.9e-05
-0.001662
0.000146
0.00031
-0.001498
-0.001169
-0.000676
-0.009058
-0.004292
-0.00232
-0.006922
-0.001991
-0.00232
-0.003142
-0.004621
-0.002648
-0.001498
-1.9e-05
-0.015961
-0.003963
-0.001662
-0.002155
-0.001005
-0.002155
-0.000841
-0.004128
-0.000512
-0.002648
-0.001169
-0.012674
-0.004785
-1.9e-05
-0.002813
-0.003635
-0.000183
-0.002648
-0.003799
-0.000347
-0.001169
0.000639
-0.009223
-0.000841
-0.002155
-0.001169
-0.002648
-0.001827
-0.001169
-0.006593
-0.000841
-0.00347
-0.003306
-0.004128
-0.003142
-0.001169
-0.000512
-0.002155
0.001132
-0.002648
-0.003142
-0.001498
-0.002977
-0.006429
0.00031
-0.005114
-0.00347
-0.002155
-0.002813
-0.001991
-0.004292
-0.002484
-0.001827
-0.000676
-0.002484
-0.003799
-0.002648
0.00031
-0.000676
-0.002813
-0.003799
-0.002813
-0.0061
-1.9e-05
-0.004621
-0.00347
-0.001662
-0.005607
-0.001169
-0.001005
-0.000841
-0.002484
-0.000183
-0.001827
0.000803
-0.001498
-0.002155
-0.001334
-0.00347
-0.003635
0.00031
0.000803
-0.002648
0.002611
-0.005443
-0.003306
0.000146
-0.000676
0.001296
-0.001827
-0.000676
-0.000841
-0.003142
-0.001334
0.002611
-0.001334
-0.001005
-0.001827
0.000639
-0.001827
-0.001991
-0.004128
-0.003799
-0.002977
-0.002484
-0.000841
0.000967
-0.001334
0.001625
0.001296
-0.001498
-0.003142
-0.006593
-0.004785
-0.004456
-0.002813
-0.004292
-0.000347
-0.001005
-0.001334
0.001954
-0.003142
0.002118
-0.001005
-0.000841
-0.001498
0.001132
-0.002484
0.00031
-0.001005
0.00031
-0.001991
0.002118
-0.001169
0.000474
-0.001662
-0.001005
-0.001334
0.000967
-0.000512
-0.001169
0.000803
-0.001005
0.00146
0.000474
0.005898
-1.9e-05
0.003926
0.00294
0.000474
-0.001169
0.002118
-0.00232
-0.001169
-0.000183
-0.000347
-1.9e-05
-0.001169
-1.9e-05
-0.002977
0.002775
-0.004292
0.005076
0.00294
0.000639
0.00146
-0.001334
-0.00347
-0.001169
-0.004621
-0.003635
-0.00232
-0.002648
0.001132
-0.001827
-1.9e-05
-0.001334
0.004255
-0.002813
0.001296
0.00031
-0.000512
-0.003142
-0.002648
-0.001827
-0.001005
0.00031
-0.001991
0.000639
-0.004128
-0.001827
-0.002813
-0.001169
0.000803
-1.9e-05
-0.001169
-0.001005
-0.009058
-0.00232
-0.001169
-0.003142
-0.001991
-0.004456
-0.002155
-0.003306
-0.001991
-0.002813
-0.000512
-0.002155
-0.001169
-0.000347
-0.004128
-0.002813
-0.002155
-0.005114
-0.001169
-0.001334
-0.003635
-0.001498
-0.002484
-0.002648
-0.000183
-0.002484
-0.004128
-0.000347
-0.003799
-0.001991
-0.002648
0.000146
-0.001334
0.004255
-0.001334
0.007213
0.000967
0.000146
-0.000347
-0.002648
-0.00232
-0.002648
-0.002155
-0.003799
0.000146
-0.004128
-0.000676
-0.002648
-0.00347
-0.000841
0.00672
0.002611
-0.002484
0.003268
-0.003306
-0.004621
-0.000347
-0.001005
-0.005278
-0.000512
-0.003306
-0.000183
-0.002155
-0.003635
-0.001005
-0.003963
-0.001005
-0.004785
-0.004292
-0.001498
-0.001662
-0.004621
-0.000841
-0.003635
-0.002648
-0.001991
-0.001005
-0.002813
-0.001991
-1.9e-05
-0.004456
0.000146
0.008857
0.020033
0.024306
0.031373
0.038441
0.046494
0.048795
0.05274
0.061944
0.068518
0.072956
0.078708
0.084625
0.08857
0.093829
0.096459
0.100075
0.102376
0.108621
0.111087
0.114209
0.117496
0.121605
0.124564
0.130645
0.127522
0.137055
0.135247
0.133439
0.137712
0.145602
0.14856
0.144451
0.148231
0.151354
0.154312
0.150532
0.153491
0.159572
0.161873
0.164174
0.164174
0.167461
0.16516
0.168447
0.167625
0.171406
0.170255
0.174364
0.173214
0.175679
0.174528
0.175679
0.170255
0.177651
0.176994
0.178144
0.178802
0.17913
0.186526
0.181267
0.186362
0.184554
0.185212
0.187019
0.184883
0.185047
0.186198
0.183075
0.186362
0.186033
0.186526
0.187677
0.188334
0.190964
0.188006
0.189814
0.194416
0.199182
0.19573
0.194909
0.189978
0.194251
0.191293
0.189978
0.191786
0.189814
0.190142
0.190142
0.192936
0.193429
0.19573
0.19573
0.199018
0.194416
0.196552
0.197703
0.196552
0.193429
0.198853
0.194909
0.19458
0.193758
0.194744
0.196388
0.195073
0.195566
0.195895
0.193101
0.189978
0.195237
0.194416
0.19721
0.196717
0.201647
0.199182
0.196881
0.197703
0.196059
0.196552
0.196881
0.196223
0.195073
0.198524
0.195237
0.200168
0.200661
0.200332
0.195237
0.197045
0.193429
0.199018
0.196717
0.19836
0.200004
0.198196
0.197045
0.19573
0.195073
0.19836
0.196388
0.197045
0.196552
0.197045
0.200004
0.196059
0.199511
0.200825
0.198196
0.200661
0.19721
0.202469
0.196552
0.196388
0.197538
0.200825
0.19836
0.200004
0.201154
0.203126
0.198031
0.197703
0.198853
0.200825
0.19836
0.200332
0.199346
0.198196
0.198031
0.199839
0.197374
0.19836
0.199346
0.197867
0.198524
0.196552
0.199018
0.192443
0.195402
0.201319
0.201319
0.201812
0.198196
0.199018
0.19836
0.197703
0.198196
0.20099
0.197374
0.200332
0.198196
0.201812
0.198524
0.197045
0.199839
0.200332
0.196717
0.197703
0.199182
0.199182
0.198524
0.196223
0.20362
0.198196
0.201976
0.197538
0.199182
0.197703
0.199346
0.198689
0.202305
0.197374
0.197538
0.201154
0.198031
0.199346
0.197538
0.200661
0.196059
0.201647
0.198196
0.198689
0.19836
0.198196
0.199182
0.199839
0.200004
0.203455
0.199675
0.197538
0.196552
0.19458
0.198031
0.194416
0.194744
0.197703
0.19836
0.199839
0.204606
0.199182
0.203126
0.19836
0.199511
0.199675
0.199346
0.197045
0.199511
0.200004
0.197374
0.201154
0.197867
0.197538
0.19836
0.19836
0.199675
0.20099
0.201154
0.20214
0.201976
0.19721
0.197538
0.200661
0.199511
0.196059
0.20099
0.198031
0.199346
0.196388
0.199511
0.201319
0.199182
0.20099
0.202962
0.199511
0.200332
0.202962
0.200332
0.203126
0.200497
0.201976
0.200332
0.203784
0.200497
0.199018
0.19836
0.198524
0.195566
0.199018
0.20214
0.204606
0.202305
0.201812
0.201812
0.199182
0.200497
0.197867
0.199511
0.199675
0.200497
0.19836
0.201976
0.200332
0.200004
0.200497
0.198196
0.197703
0.197703
0.20099
0.199018
0.202962
0.197374
0.205427
0.200497
0.201154
0.199346
0.199839
0.198524
0.19573
0.198689
0.197703
0.200332
0.199182
0.203455
0.201647
0.202798
0.195895
0.200332
0.200004
0.200497
0.198196
0.20099
0.199018
0.196717
0.198689
0.198689
0.197374
0.197045
0.183239
0.183239
0.109772
0.072463
0.0105
0.008199
0.017896
0.028086
0.034168
0.038769
0.045508
0.051261
0.05915
0.061944
0.066875
0.066546
0.058985
0.054876
0.051096
0.03088
-0.000512
-0.000347
-0.000347
0.009021
-0.000512
0.002282
0.000146
0.000639
0.000803
0.004912
0.007706
0.005405
0.001789
0.002775
0.017074
-1.9e-05
0.000146
0.000967
-0.003963
-0.000841
0.013294
0.021841
0.027429
0.034825
0.041235
0.05011
0.049781
0.058657
0.062766
0.068189
0.072791
0.077558
0.08331
0.088077
0.090871
0.097774
0.102211
0.102869
0.110265
0.111908
0.116182
0.118318
0.123906
0.126865
0.12933
0.127522
0.131631
0.138699
0.13459
0.138205
0.142479
0.13952
0.145108
0.150039
0.151683
0.152998
0.155134
0.15612
0.163023
0.158421
0.159736
0.159736
0.163352
0.164174
0.163023
0.163023
0.167954
0.167461
0.165489
0.1742
0.167954
0.174364
0.173542
0.173871
0.173049
0.176665
0.177322
0.176336
0.177487
0.177158
0.176994
0.177487
0.183075
0.178966
0.17913
0.182417
0.18176
0.181596
0.182911
0.185212
0.184883
0.174693
0.185869
0.187513
0.187019
0.187184
0.18439
0.187841
0.185705
0.185869
0.187677
0.188663
0.176336
0.184554
0.191457
0.188992
0.193101
0.189978
0.18932
0.187677
0.19195
0.1908
0.193265
0.184718
0.1908
0.191621
0.191457
0.191786
0.190635
0.195073
0.189485
0.190964
0.196059
0.195895
0.188499
0.190471
0.189485
0.187348
0.189978
0.192608
0.191293
0.190964
0.196388
0.194416
0.195237
0.193758
0.193265
0.19195
0.193758
0.192772
0.198524
0.189156
0.193101
0.194251
0.195895
0.198853
0.19573
0.196223
0.196552
0.197374
0.194087
0.196881
0.193429
0.191786
0.196059
0.196881
0.194416
0.196552
0.194416
0.193758
0.19458
0.193594
0.196552
0.195237
0.193429
0.197703
0.197867
0.195073
0.197045
0.197867
0.199182
0.194909
0.19721
0.195073
0.196717
0.192115
0.191786
0.194744
0.196223
0.196223
0.195566
0.198689
0.195566
0.199182
0.197045
0.200497
0.195402
0.20099
0.198524
0.195895
0.196552
0.197867
0.195402
0.194251
0.195237
0.196552
0.198031
0.199018
0.19836
0.198196
0.199018
0.197538
0.199182
0.194744
0.198524
0.199182
0.198524
0.196388
0.195895
0.196717
0.197867
0.196717
0.195073
0.200332
0.196223
0.19836
0.197538
0.199346
0.194909
0.201154
0.201647
0.198524
0.201483
0.198524
0.198031
0.195566
0.19721
0.194909
0.199511
0.196388
0.199182
0.198524
0.199346
0.196881
0.196881
0.199346
0.201976
0.196717
0.198853
0.200332
0.195895
0.19836
0.199839
0.197045
0.193429
0.19836
0.197045
0.19836
0.19573
0.195237
0.197703
0.197045
0.197867
0.196388
0.200168
0.196717
0.199511
0.200168
0.197703
0.195566
0.197703
0.196881
0.197374
0.194087
0.198031
0.195566
0.197045
0.19836
0.196223
0.19721
0.198524
0.194251
0.194744
0.194251
0.193429
0.197867
0.193265
0.193101
0.194251
0.199675
0.188006
0.190307
0.192772
0.194087
0.195566
0.194744
0.197374
0.195895
0.197374
0.195237
0.199839
0.191786
0.201812
0.196059
0.195895
0.194909
0.193758
0.19573
0.196717
0.193758
0.194744
0.196552
0.194909
0.194744
0.19721
0.197045
0.194909
0.197703
0.195402
0.200497
0.195402
0.19721
0.193758
0.195402
0.195895
0.195895
0.196552
0.194744
0.194744
0.189978
0.195402
0.194416
0.19573
0.19458
0.197867
0.194744
0.196881
0.196059
0.195237
0.192279
0.152998
0.157271
0.160558
0.093007
0.094322
0.098267
0.100568
0.107635
0.10895
0.114538
0.117661
0.123249
0.129659
0.129988
0.131302
0.134425
0.138699
0.13837
0.141328
0.141164
0.146423
0.145437
0.14971
0.151025
0.153655
0.153326
0.15612
0.155792
0.1576
0.160065
0.142643
0.138041
0.112894
0.116017
0.115853
0.12292
0.122756
0.127851
0.130152
0.131467
0.129988
0.138205
0.137384
0.140506
0.144615
0.146423
0.147081
0.150861
0.152998
0.151354
0.15497
0.160722
0.162695
0.160887
0.161873
0.165489
0.163845
0.164667
0.168118
0.165982
0.166968
0.169762
0.172392
0.175843
0.173214
0.176501
0.177487
0.180938
0.177158
0.179459
0.177322
0.182582
0.183239
0.183075
0.182417
0.181596
0.182253
0.184554
0.184718
0.183897
0.186691
0.185212
0.187348
0.185869
0.188663
0.18817
0.188827
0.188827
0.193429
0.192443
0.192443
0.187841
0.193265
0.189485
0.185376
0.190635
0.190964
0.191786
0.188006
0.192936
0.193265
0.196717
0.196388
0.19721
0.195073
0.196388
0.196059
0.194251
0.193101
0.193594
0.192279
0.19195
0.193101
0.192608
0.197374
0.193101
0.194087
0.195073
0.195566
0.196388
0.19721
0.197374
0.196717
0.194251
0.194909
0.194744
0.193101
0.196717
0.195237
0.195402
0.195237
0.195566
0.195566
0.196059
0.195073
0.198031
0.196717
0.197867
0.195402
0.198196
0.202305
0.197867
0.199018
0.197538
0.194744
0.196223
0.195237
0.193429
0.195237
0.196223
0.19721
0.199346
0.199346
0.196223
0.202633
0.197374
0.198524
0.19836
0.198031
0.201154
0.195073
0.199675
0.196881
0.197703
0.196059
0.19836
0.19836
0.196388
0.195073
0.198196
0.197867
0.19573
0.196223
0.19458
0.200332
0.196881
0.200332
0.198031
0.199018
0.196552
0.201154
0.19458
0.197045
0.196388
0.196059
0.198689
0.196059
0.200168
0.197045
0.196552
0.19573
0.200004
0.19721
0.198689
0.198031
0.199346
0.198689
0.197538
0.196059
0.196388
0.196717
0.196388
0.192936
0.191786
0.197703
0.193594
0.199182
0.19836
0.200004
0.201647
0.201812
0.195566
0.201154
0.198524
0.19458
0.201319
0.201154
0.198689
0.196223
0.198196
0.19836
0.203291
0.200332
0.199182
0.197538
0.201319
0.19836
0.200332
0.199839
0.198853
0.198031
0.198031
0.199018
0.199018
0.196059
0.198689
0.198689
0.196717
0.198853
0.196881
0.199839
0.193922
0.199182
0.197045
0.198196
0.197538
0.198031
0.19721
0.196388
0.196223
0.19458
0.196059
0.196059
0.197045
0.193594
0.198031
0.197867
0.195073
0.196552
0.202962
0.199511
0.199182
0.200332
0.200004
0.199346
0.199182
0.199675
0.200825
0.194251
0.199182
0.197538
0.193429
0.202469
0.193594
0.197045
0.199346
0.19721
0.198689
0.199839
0.19836
0.19721
0.201154
0.197703
0.200332
0.196881
0.197703
0.200661
0.198689
0.196717
0.199182
0.20099
0.199346
0.200497
0.196388
0.197867
0.196388
0.196059
0.19836
0.198524
0.197703
0.20099
0.19721
0.200168
0.198031
0.198031
0.20099
0.196881
0.193922
0.199675
0.198689
0.19836
0.199018
0.199346
0.193922
0.199346
0.199511
0.196881
0.200661
0.196388
0.202798
0.199511
0.196059
0.197867
0.200004
0.199346
0.195566
0.196552
0.199182
0.202962
0.19573
0.198196
0.198524
0.199346
0.198689
0.200332
0.198689
0.200332
0.200825
0.197374
0.199346
0.19836
0.194909
0.197703
0.200825
0.192608
0.200004
0.19573
0.195895
0.19573
0.198031
0.198689
0.202305
0.201812
0.200825
0.200825
0.198689
0.200825
0.196717
0.201154
0.198853
0.198524
0.196717
0.200661
0.198031
0.198689
0.197703
0.202633
0.199839
0.196717
0.199182
0.201976
0.013952
0.010171
0.019704
0.024635
0.034989
0.038276
0.045672
0.050439
0.055534
0.060958
0.062273
0.071148
0.078215
0.086104
0.093993
0.095473
0.095637
0.104184
0.107306
0.109936
0.113881
0.117168
0.124564
0.12177
0.132453
0.133932
0.133275
0.13459
0.136562
0.142643
0.142479
0.144287
0.148724
0.148889
0.152176
0.155627
0.15875
0.158586
0.160887
0.163023
0.166475
0.162366
0.16516
0.162366
0.164338
0.164667
0.167461
0.171899
0.169105
0.1742
0.173871
0.181103
0.17535
0.179623
0.180774
0.176501
0.182582
0.181596
0.182089
0.182089
0.180281
0.182746
0.186855
0.181596
0.186691
0.184225
0.184225
0.187841
0.187841
0.190471
0.18932
0.187841
0.194909
0.189485
0.189649
0.193429
0.192443
0.188334
0.192608
0.192443
0.188992
0.193429
0.187513
0.192608
0.184225
0.1908
0.193101
0.194416
0.194744
0.195895
0.195237
0.195073
0.196552
0.198031
0.193922
0.179623
0.189814
0.188827
0.193922
0.192443
0.193922
0.195566
0.196717
0.19721
0.196881
0.197374
0.189485
0.195895
0.194416
0.201154
0.194251
0.19721
0.199182
0.196223
0.196388
0.196223
0.196223
0.192443
0.19573
0.19721
0.199346
0.198196
0.19573
0.194416
0.196552
0.196059
0.197538
0.19573
0.19836
0.19458
0.196717
0.174035
0.176501
0.176501
0.181924
0.174035
0.181431
0.182582
0.168283
0.170748
0.166146
0.169598
0.168447
0.170091
0.169433
0.176172
0.167461
0.165653
0.16516
0.167625
0.165982
0.167625
0.170091
0.168776
0.173871
0.174364
0.178144
0.172556
0.178637
0.177815
0.180774
0.179623
0.179788
0.181596
0.181924
0.17913
0.183897
0.183404
0.182417
0.185212
0.185376
0.187677
0.185047
0.187348
0.186855
0.189978
0.181431
0.188006
0.188006
0.187348
0.190307
0.192115
0.191128
0.190471
0.191457
0.191457
0.190142
0.192936
0.19458
0.196717
0.1908
0.19458
0.196881
0.199346
0.198689
0.19458
0.193429
0.193101
0.192936
0.196223
0.195237
0.194909
0.197374
0.196717
0.195237
0.197867
0.19573
0.196223
0.196223
0.196552
0.197867
0.197867
0.196223
0.198031
0.199675
0.197045
0.198196
0.197374
0.198524
0.198031
0.197703
0.197867
0.196223
0.193265
0.195895
0.195566
0.20099
0.198689
0.196388
0.199346
0.19836
0.196388
0.200004
0.199675
0.19721
0.200004
0.200497
0.200825
0.198689
0.20099
0.197045
0.197703
0.198689
0.193101
0.19721
0.195566
0.195073
0.201976
0.201154
0.199675
0.202798
0.198031
0.200004
0.196881
0.200332
0.196717
0.00031
-0.000512
-0.000347
0.002282
0.008363
0.021019
0.025128
0.013294
0.00031
0.00031
0.003926
0.015102
0.021019
0.02973
0.035482
0.041892
0.049781
0.052082
0.054383
0.058492
0.069011
0.071148
0.081174
0.081995
0.090542
0.093829
0.09498
0.103197
0.106156
0.107635
0.114538
0.113881
0.115853
0.119469
0.122263
0.124399
0.125386
0.129495
0.135411
0.138699
0.137219
0.142972
0.141
0.144122
0.146423
0.152505
0.151847
0.149546
0.158914
0.156613
0.156613
0.15612
0.158421
0.155627
0.160229
0.163023
0.166146
0.164996
0.166968
0.167461
0.173214
0.170913
0.17272
0.173542
0.172063
0.176008
0.1742
0.177815
0.176172
0.176501
0.1742
0.179295
0.17535
0.177158
0.17798
0.182746
0.182089
0.18439
0.183732
0.184554
0.184718
0.185212
0.189978
0.183075
0.185705
0.185047
0.191128
0.188499
0.188827
0.185705
0.189485
0.184718
0.184225
0.191128
0.188827
0.188992
0.189814
0.191621
0.190142
0.1908
0.191457
0.189978
0.191457
0.195895
0.187841
0.194251
0.188992
0.191621
0.192443
0.18932
0.193101
0.19195
0.193594
0.193429
0.191786
0.187348
0.190142
0.188992
0.106978
0.108128
0.112237
0.112237
0.120784
0.123906
0.126372
0.129166
0.132289
0.135247
0.137384
0.141
0.140835
0.14215
0.141986
0.150368
0.147409
0.153491
0.15497
0.159572
0.156285
0.157928
0.158093
0.158586
0.161544
0.165982
0.164996
0.16401
0.166311
0.164174
0.16894
0.168283
0.171241
0.170748
0.17272
0.1742
0.175515
0.175515
0.176008
0.177815
0.175021
0.177487
0.181431
0.180116
0.178966
0.182911
0.18061
0.179788
0.182911
0.182582
0.18439
0.185047
0.184061
0.182253
0.184225
0.186198
0.186691
0.186691
0.188663
0.188006
0.188827
0.187184
0.190307
0.186691
0.188992
0.191128
0.190471
0.19195
0.196717
0.194087
0.190635
0.194251
0.189649
0.192115
0.194251
0.190635
0.187513
0.191621
0.190307
0.190635
0.191457
0.193101
0.192608
0.193758
0.194416
0.194416
0.194909
0.194251
0.194744
0.192772
0.194416
0.192115
0.196881
0.194909
0.191786
0.195402
0.195895
0.196552
0.193758
0.200497
0.19195
0.194087
0.19458
0.19721
0.192115
0.19573
0.194416
0.19836
0.194251
0.196388
0.195895
0.194416
0.193922
0.194744
0.195895
0.195566
0.197867
0.196388
0.200168
0.194744
0.195237
0.19573
0.197703
0.196059
0.198031
0.194744
0.193101
0.199182
0.197045
0.196388
0.197045
0.196223
0.193101
0.197867
0.195402
0.196223
0.196388
0.196388
0.196388
0.197703
0.195402
0.197538
0.195895
0.197374
0.19458
0.195895
0.195895
0.19573
0.192443
0.195073
0.196223
0.195073
0.199018
0.195402
0.193922
0.198196
0.198031
0.19836
0.197374
0.199018
0.199839
0.198524
0.199182
0.198031
0.196388
0.198524
0.196881
0.199346
0.197374
0.196552
0.194087
0.197867
0.196388
0.197703
0.195895
0.198031
0.197867
0.202962
0.201483
0.19573
0.199839
0.198853
0.195895
0.19836
0.196059
0.194087
0.199675
0.193265
0.197045
0.194744
0.195566
0.199839
0.198524
0.19836
0.197045
0.196552
0.195566
0.198196
0.195073
0.197703
0.196552
0.19573
0.196223
0.199839
0.19195
0.193594
0.195073
0.196717
0.198853
0.195895
0.198689
0.196223
0.200168
0.196717
0.201319
0.200332
0.19721
0.199511
0.200332
0.195402
0.196717
0.19573
0.195895
0.196717
0.199182
0.197703
0.196881
0.202305
0.199839
0.197867
0.198196
0.198689
0.195566
0.198689
0.197045
0.197374
0.19721
0.196223
0.196223
0.197867
0.198031
0.194909
0.199839
0.200825
0.196717
0.19721
0.200825
0.198031
0.197867
0.19721
0.19836
0.196552
0.19195
0.193594
0.193758
0.197703
0.195073
0.200004
0.196552
0.199346
0.199839
0.195073
0.19836
0.199346
0.197045
0.199182
0.196881
0.199346
0.201976
0.199346
0.200332
0.197703
0.197867
0.199675
0.197867
0.197374
0.199511
0.199182
0.194416
0.19573
0.199182
0.198031
0.199018
0.199346
0.196388
0.19836
0.197703
0.199182
0.199182
0.197867
0.201319
0.198031
0.198196
0.203784
0.20214
0.199018
0.201154
0.200004
0.198689
0.198524
0.197867
0.200004
0.199511
0.193758
0.198524
0.202305
0.197867
0.200332
0.20099
0.19836
0.20214
0.199346
0.200497
0.199839
0.200825
0.202469

Kurve 3

0.003761
0.002611
0.003104
0.000639
0.00146
0.000474
-0.002484
-0.003963
-0.003799
-0.002155
0.000146
0.003268
0.002447
0.002447
0.002775
0.002447
0.000639
0.005569
0.00146
-0.008565
-0.000183
-0.000183
0.003268
0.002118
0.00031
-0.000512
-0.000183
0.000474
0.00031
-0.001005
-0.009058
-0.001334
0.000803
-0.001005
-0.001662
-0.00232
-0.000512
-0.001498
0.001296
0.00031
-0.001334
-0.01514
0.000474
-0.000183
-0.001334
0.00031
-0.001991
-0.001498
-0.004621
-0.000183
0.002447
-0.001662
-0.003306
-0.001005
-0.002648
-0.001827
-0.00347
-0.003306
-0.000676
-0.003306
0.000639
0.000803
0.002611
-0.000512
-0.000676
-0.001662
-0.001991
-0.001662
0.000803
0.000146
0.000967
-0.000183
0.003926
0.003926
0.001625
-0.000841
0.002775
-0.001005
-0.000347
0.000967
-0.001005
0.000146
-0.00232
-0.006593
-0.002648
0.00146
-0.002155
-1.9e-05
-1.9e-05
-0.001334
0.001789
-0.001169
-0.000512
0.00146
0.001954
0.000146
0.00031
0.003104
-0.006757
-0.001005
-0.001827
-0.001334
-0.000183
-0.001662
0.001954
-0.001827
-0.000347
-0.002648
0.00031
-0.000347
0.001296
0.002775
0.000639
0.002118
-0.00347
0.00031
-0.001662
-0.001991
-0.000841
-0.000183
0.002447
-0.001169
0.001296
0.005405
0.005241
-0.000676
0.003597
0.001132
-0.000347
0.002447
0.002611
-0.002155
-0.001169
0.001954
-0.001334
0.00294
-0.001827
0.001296
0.000803
0.000803
0.002282
0.004255
-0.000512
0.002282
0.000474
0.004748
-0.000347
-0.001169
0.001625
0.00031
0.000967
-0.000183
0.001625
-0.002155
0.002118
-0.002484
-0.00232
-0.003142
0.000967
0.003104
0.001954
0.002447
0.004255
0.002775
-0.001169
-0.000347
-0.002648
0.001132
0.00031
-0.002155
0.000967
0.001954
-1.9e-05
0.004419
0.006884
0.002611
0.000967
0.003104
0.000474
-0.000347
-0.000841
0.001296
-0.000347
0.002447
0.001296
-0.001498
-0.000512
-0.001991
0.00031
-0.000676
-0.000183
-0.002648
0.002611
0.001954
0.00294
-0.003799
-0.000676
0.001296
-0.001169
-0.000676
-0.000676
0.00146
-0.000676
-0.000183
-0.002648
0.00031
-0.001169
0.004255
0.002775
0.002775
0.001625
0.001132
0.000803
-0.00347
0.003104
0.00031
-0.000841
0.000803
0.004583
0.000474
0.001625
-1.9e-05
-0.001005
-0.000676
0.003926
0.000639
0.00146
0.001789
-0.001334
0.001132
0.000474
0.002118
-0.000512
0.001625
-0.001334
-0.003142
0.000639
-1.9e-05
-0.001334
-0.000512
-0.000512
-0.001169
0.001296
-0.001827
0.001789
-0.000676
-0.001662
-0.000183
0.002611
-1.9e-05
0.00294
0.001132
0.001954
0.002282
-0.000183
0.001789
0.003597
0.004748
0.000146
0.001954
0.002447
0.004255
0.002447
0.002611
0.001625
0.005734
0.001954
0.006062
0.005241
0.007706
0.00672
0.004255
0.004419
0.00294
0.003433
0.001132
0.002282
-0.000347
0.00672
0.001296
0.005076
0.004748
0.004748
0.004255
0.00672
0.000967
0.003926
0.006227
0.001625
0.002775
0.002775
-0.000841
0.002282
0.003761
0.00146
0.004419
0.000803
0.001132
0.000639
0.003597
0.005076
0.003104
0.003761
0.003761
0.003597
0.001625
0.002611
0.000146
-0.001169
-0.003142
0.000639
-0.001169
0.001132
-0.001991
-0.000676
0.001132
-0.001169
0.001954
0.00146
-0.000512
-0.001005
0.001132
-0.001498
-0.001827
-0.00873
-0.003306
-0.004456
0.003104
-0.005443
-0.004621
-0.003142
-0.003963
-0.004128
0.00031
-0.003306
-0.004456
0.000803
0.002611
0.001954
-0.004456
-0.002813
-0.004292
-0.003963
-0.003635
-0.000347
-0.004621
-0.002155
-0.00347
-0.002648
-0.003799
-0.003142
-0.00347
-0.003799
-0.003963
-0.003799
-0.004621
-0.00725
-0.006757
-0.005771
-0.002484
-0.003306
-0.002813
-0.003306
-0.002484
-0.004456
-0.002813
-0.003306
-0.002813
0.000146
-0.003142
-0.000676
-0.00347
-0.002813
-0.000841
0.002611
-0.003142
-0.002813
-0.003306
-0.002484
-0.002813
-0.001498
-0.00347
-0.003142
-0.001991
0.002447
-0.004292
-0.000183
0.000803
-0.010538
0.000474
-0.000841
-0.001334
-0.003142
-0.002155
0.000803
-0.002977
-0.001169
-0.002648
-0.001334
-0.002484
-0.001991
-0.003963
-0.001991
-0.010373
-0.001662
-0.003142
-0.007415
-0.005607
-0.000841
-0.004785
-0.003142
-0.001334
-0.002648
-0.001498
-0.003635
-0.002155
-0.002155
-0.00232
-0.003963
-0.000183
-0.001334
-0.000512
-0.001005
0.001132
0.000803
0.001625
0.001954
0.000639
0.001132
-0.000512
-0.001169
-0.001169
-1.9e-05
-0.001169
-0.000347
-0.001169
-1.9e-05
-0.001991
-0.002648
-0.001169
0.000146
-0.001005
0.001625
-0.000347
0.000967
-0.000512
-0.000183
-0.000676
-0.000841
-0.001005
-0.000512
-1.9e-05
-1.9e-05
0.00031
-1.9e-05
-1.9e-05
-0.000183
-0.000347
-0.000676
-0.000512
-0.000676
-1.9e-05
-0.000183
0.000146
-0.000183
0.000146
-1.9e-05
-0.000183
-0.000183
-0.000841
-0.000841
-0.000512
-0.000347
-0.000512
-1.9e-05
0.000474
0.000967
0.000967
0.00031
0.000474
-0.001498
-0.000183
0.000639
0.000474
-0.000347
0.000967
0.000803
-0.000676
-0.00347
-0.004621
-0.001169
-0.002813
-0.002813
-0.002155
-0.000512
-0.001498
0.003268
-0.001334
0.002611
0.002775
-0.001827
0.002118
0.000803
-0.001991
-0.001169
-0.00232
-0.004949
-0.001827
-0.002977
-0.001334
-0.002813
0.002282
0.000474
0.001625
-0.001662
0.00031
-1.9e-05
0.002775
0.00031
-0.001005
-1.9e-05
-0.001498
0.001296
-1.9e-05
0.003104
0.00031
0.00146
-0.00232
-0.000676
-0.001005
0.000967
-0.000676
-0.000183
0.001296
0.000639
0.003104
-0.001005
0.002611
-0.000183
-0.001827
-0.000512
0.000967
-0.001498
0.000967
-0.001334
-0.000512
-0.000183
-0.000347
0.002775
-0.000676
-0.000676
-1.9e-05
0.000639
-0.002648
-0.001991
-0.001334
-0.000676
0.000639
-0.000183
-0.000347
0.001296
-0.001169
0.001296
-0.000512
0.001954
0.002282
0.001296
0.001625
0.002118
0.002282
0.000474
0.00409
-0.001169
0.002447
0.001625
0.000639
-0.002813
-0.001005
-0.001991
-0.000183
0.003926
0.002447
0.001789
0.00294
0.001789
0.00146
0.002282
-0.001662
0.00294
0.000474
0.001789
-1.9e-05
0.002282
-0.002977
0.001132
-0.001662
0.000803
-0.003799
-0.003142
0.00409
0.006391
0.004912
0.002118
0.005241
-0.00347
0.002447
-0.002484
-0.000512
-0.000676
-0.001498
0.001296
0.001296
-0.002648
-0.000512
0.005898
-0.000347
0.000146
-0.000512
0.000146
-0.001498
0.002611
0.001296
0.002447
0.00031
0.00146
0.008692
0.00146
-0.003306
0.00031
0.004748
0.002775
0.003926
0.00031
0.003597
-0.001827
0.001296
0.003268
-0.000512
-0.000347
0.001132
0.000803
0.000803
0.002282
-0.000347
-0.000183
-0.000183
0.00031
-0.003635
-0.000841
-0.001662
0.002282
0.002282
0.003268
0.003104
0.003433
0.003268
0.000474
-0.000512
-0.006429
-0.002155
-0.002155
-0.00232
-0.003799
0.002611
-0.000841
0.002118
0.001132
0.000639
0.000146
-0.010538
-0.002155
0.000474
0.002775
0.00294
-0.000512
0.001625
0.003104
-0.000183
0.001296
-0.00347
-0.00988
-0.001662
-0.001498
-0.001334
-0.000183
0.001296
-0.001334
0.002118
-0.002648
0.00146
0.002282
-0.003963
-0.002484
0.00146
-0.001827
0.002118
-0.001005
0.002775
0.003597
0.002611
0.003268
0.002611
-0.006757
-0.005771
-0.001827
-0.003799
-0.004456
-1.9e-05
-0.002484
0.000803
0.000967
0.000803
0.004255
-0.000183
-0.000183
0.001625
0.000803
-0.002813
0.001789
0.000146
0.001625
0.002282
-0.00232
0.001132
-0.000841
-0.001827
-0.000841
0.00409
0.001954
-0.000183
0.002611
-0.002484
0.00031
0.000146
-0.000676
0.001789
0.00031
-0.000512
-1.9e-05
-0.002813
0.000803
-0.001827
0.001789
-0.001334
0.000967
0.000967
0.002282
0.000474
0.003104
-1.9e-05
-0.002484
0.00031
0.009021
0.021676
0.025785
0.033017
0.037783
0.046166
0.050603
0.060465
0.06408
0.072298
0.075257
0.084296
0.086433
0.093172
0.096952
0.099089
0.104677
0.105663
0.11158
0.113716
0.11651
0.118154
0.127358
0.124564
0.129659
0.131138
0.13837
0.138534
0.144451
0.146259
0.144451
0.149217
0.14856
0.15497
0.150861
0.155627
0.156942
0.157107
0.160394
0.161215
0.162366
0.161215
0.164996
0.166968
0.171241
0.169926
0.168612
0.171734
0.175515
0.17535
0.181596
0.17272
0.174035
0.177322
0.175679
0.175186
0.179459
0.179623
0.180445
0.182089
0.180938
0.185376
0.183568
0.185212
0.183897
0.185047
0.18817
0.185047
0.185376
0.187348
0.186691
0.187184
0.186691
0.187677
0.185376
0.186691
0.186691
0.186691
0.188499
0.191786
0.192443
0.19195
0.192936
0.191621
0.191128
0.188827
0.191128
0.1908
0.188663
0.189814
0.193265
0.191457
0.189814
0.194251
0.192936
0.196059
0.192443
0.194087
0.192936
0.193758
0.189649
0.195073
0.186855
0.194909
0.195566
0.194744
0.194087
0.191786
0.194744
0.195566
0.195566
0.191457
0.196388
0.195566
0.196552
0.194909
0.198031
0.195073
0.198524
0.197703
0.196881
0.196388
0.194909
0.198689
0.195895
0.201319
0.198524
0.199675
0.195402
0.196717
0.199182
0.197374
0.197045
0.197538
0.199182
0.199675
0.199182
0.19836
0.201319
0.197867
0.197538
0.197538
0.198853
0.198524
0.199182
0.196717
0.203455
0.200661
0.201483
0.199346
0.200661
0.201319
0.203455
0.203948
0.200168
0.199182
0.197538
0.201319
0.198853
0.200497
0.199675
0.197374
0.199839
0.199182
0.197703
0.19836
0.198689
0.199675
0.200168
0.200497
0.200004
0.202962
0.201976
0.198196
0.198031
0.197703
0.199511
0.199675
0.199346
0.19573
0.19721
0.196388
0.200332
0.201319
0.19721
0.199346
0.199182
0.200004
0.199018
0.202633
0.200332
0.20099
0.197374
0.202798
0.200332
0.198196
0.199346
0.197045
0.19721
0.19721
0.195402
0.19721
0.195073
0.194251
0.198196
0.196388
0.202798
0.199346
0.20214
0.198524
0.201647
0.199511
0.201647
0.199675
0.198031
0.200497
0.199182
0.19836
0.199511
0.20099
0.197703
0.199675
0.200661
0.204113
0.201812
0.202469
0.201483
0.196881
0.200661
0.19836
0.198031
0.19836
0.196717
0.196552
0.203126
0.197045
0.200332
0.197867
0.199511
0.198689
0.19836
0.201154
0.201812
0.198524
0.202305
0.201319
0.195237
0.197045
0.198689
0.198689
0.197374
0.197703
0.196223
0.202469
0.198689
0.199511
0.201319
0.20099
0.201976
0.201154
0.199511
0.200168
0.201483
0.199346
0.203455
0.197703
0.201154
0.201647
0.200825
0.198853
0.201154
0.198031
0.19721
0.200497
0.20099
0.199511
0.198853
0.202469
0.199182
0.20362
0.204606
0.20214
0.197374
0.201154
0.200332
0.200497
0.19836
0.199675
0.197867
0.195895
0.199182
0.199346
0.198853
0.200332
0.200168
0.197867
0.199675
0.202469
0.203126
0.20214
0.20214
0.201319
0.197867
0.201976
0.197867
0.194909
0.198524
0.198689
0.196881
0.200661
0.200497
0.201647
0.198853
0.202469
0.200004
0.202469
0.200168
0.201483
0.201647
0.20099
0.199839
0.204441
0.12818
0.122427
0.129166
0.129823
0.13459
0.135904
0.139685
0.008692
0.019375
0.023484
0.029894
0.038769
0.044029
0.049453
0.057671
0.0603
0.06556
0.070162
0.073778
0.081174
0.085611
0.0935
0.094322
0.095308
0.10254
0.113223
0.114538
0.118647
0.120291
0.124071
0.125386
0.123413
0.12933
0.132453
0.135083
0.137055
0.144287
0.141657
0.146588
0.148067
0.150368
0.152669
0.154148
0.158093
0.159901
0.161051
0.163516
0.164667
0.163023
0.169269
0.168447
0.172556
0.16779
0.172885
0.170748
0.174693
0.17272
0.176665
0.180281
0.17913
0.178802
0.181431
0.180938
0.18061
0.183075
0.182746
0.185047
0.181267
0.184718
0.183239
0.185047
0.184718
0.187348
0.185869
0.187348
0.189156
0.191293
0.192772
0.189649
0.192443
0.191293
0.188827
0.190964
0.196388
0.190635
0.1908
0.191786
0.195566
0.192443
0.194744
0.192936
0.194416
0.194087
0.193594
0.197045
0.194744
0.196881
0.193922
0.196059
0.197374
0.19836
0.197045
0.199839
0.197045
0.195402
0.195402
0.196881
0.198524
0.199346
0.200661
0.195402
0.199018
0.198524
0.19573
0.198031
0.201154
0.196388
0.200332
0.197374
0.198031
0.201812
0.199511
0.19836
0.200661
0.197703
0.200004
0.203126
0.200332
0.198031
0.19458
0.197045
0.197867
0.198853
0.200004
0.202305
0.196059
0.200332
0.200497
0.197703
0.202305
0.199018
0.197538
0.200004
0.199839
0.198853
0.199018
0.197867
0.19721
0.194087
0.19836
0.198689
0.200497
0.198196
0.201647
0.199839
0.19836
0.201483
0.202633
0.200825
0.199346
0.200168
0.19721
0.200004
0.197703
0.199182
0.198853
0.200004
0.197538
0.201976
0.198689
0.200004
0.198524
0.200661
0.199839
0.193922
0.205592
0.200332
0.200168
0.198524
0.200168
0.19458
0.19721
0.198853
0.196059
0.194909
0.192936
0.201154
0.200004
0.199839
0.199675
0.202962
0.194909
0.200332
0.197538
0.199511
0.197045
0.196881
0.198689
0.195073
0.197538
0.196223
0.199346
0.196881
0.197374
0.197867
0.199182
0.191128
0.186526
0.183897
0.181103
0.179623
0.180774
0.179459
0.179459
0.180116
0.18061
0.182582
0.18176
0.185376
0.186362
0.186855
0.186526
0.187348
0.181596
0.186362
0.183732
0.18932
0.188827
0.18817
0.186691
0.189814
0.18554
0.186526
0.189156
0.184554
0.186362
0.190471
0.191786
0.19195
0.194251
0.189485
0.194416
0.193265
0.194251
0.195237
0.192772
0.193758
0.197538
0.194416
0.192772
0.194744
0.194744
0.196717
0.191786
0.195073
0.19458
0.198196
0.192115
0.192772
0.193922
0.194744
0.194909
0.195237
0.19721
0.19573
0.194909
0.195073
0.197703
0.192772
0.197045
0.194251
0.195402
0.195237
0.196552
0.193922
0.195895
0.196552
0.195402
0.195237
0.193594
0.197374
0.193758
0.195895
0.195566
0.19836
0.203784
0.199839
0.197703
0.19836
0.200004
0.194909
0.197867
0.198031
0.19836
0.19836
0.19836
0.19836
0.20099
0.198853
0.200332
0.198689
0.196881
0.19721
0.194744
0.198689
0.19573
0.200332
0.197045
0.19721
0.198524
0.199839
0.201319
0.199511
0.196388
0.200497
0.197538
0.199018
0.198853
0.200332
0.198853
0.19836
0.197374
0.202305
0.195895
0.199182
0.197374
0.197867
0.198524
0.200168
0.204441
0.198689
0.199511
0.19836
0.204934
0.19458
0.195073
0.201647
0.196059
0.197703
0.199675
0.201812
0.197374
0.199018
0.199182
0.202798
0.190635
0.19836
0.199675
0.198196
0.198524
0.202633
0.201812
0.199675
0.198689
0.19836
0.196388
0.195402
0.201154
0.199346
0.199511
0.199182
0.202305
0.200661
0.199675
0.200004
0.199675
0.1908
0.198524
0.199018
0.198031
0.198524
0.196552
0.201154
0.200497
0.200661
0.203291
0.204441
0.188663
0.196059
0.196717
0.198689
0.19836
0.19836
0.198689
0.201154
0.198196
0.200825
0.200168
0.188663
0.196059
0.19721
0.200825
0.198031
0.19836
0.199346
0.194909
0.196552
0.200497
0.197538
0.19836
0.198196
0.198524
0.201319
0.195073
0.199346
0.199675
0.201319
0.201319
0.198196
0.197374
0.198196
0.195895
0.199018
0.196223
0.199018
0.197703
0.201154
0.199675
0.19836
0.201647
0.196717
0.199182
0.196717
0.198689
0.195566
0.189485
0.193429
0.19195
0.189814
0.193101
0.1908
0.191621
0.193594
0.188992
0.190964
0.190964
0.194251
0.189485
0.191457
0.191128
0.195402
0.193594
0.195237
0.197374
0.194416
0.189814
0.193101
0.193594
0.192936
0.196881
0.18932
0.197374
0.195073
0.19458
0.195237
0.197867
0.192936
0.194087
0.195566
0.196552
0.197538
0.192772
0.197374
0.195402
0.197045
0.193922
0.196717
0.194416
0.198031
0.197703
0.196717
0.196552
0.19458
0.197374
0.202305
0.19721
0.193429
0.196059
0.193429
0.19458
0.195895
0.196881
0.193758
0.196223
0.197867
0.197703
0.19836
0.199018
0.200168
0.200332
0.197045
0.19836
0.20099
0.201812
0.197703
0.199839
0.199182
0.197703
0.198689
0.199675
0.19836
0.196388
0.198196
0.196388
0.201154
0.195237
0.205592
0.203291
0.20099
0.203126
0.20099
0.200661
0.19836
0.197867
0.197538
0.199675
0.194909
0.202305
0.195566
0.198524
0.200168
0.201154
0.200004
0.198853
0.202962
0.199839
0.207235
0.197045
0.201483
0.198196
0.197538
0.199182
0.20099
0.196059
0.198853
0.197867
0.198853
0.200004
0.198196
0.202962
0.205921
0.204934
0.200004
0.203948
0.198689
0.197703
0.199839
0.201483
0.199182
0.199018
0.200497
0.200661
0.197538
0.198524
0.205099
0.197867
0.198853
0.198689
0.199675
0.198196
0.197703
0.201154
0.201319
0.199346
0.201154
0.202962
0.19836
0.198689
0.200004
0.199511
0.197538
0.19836
0.199839
0.201812
0.199675
0.19458
0.199018
0.201319
0.197374
0.203948
0.201812
0.200004
0.199511
0.198031
0.199182
0.198031
0.196059
0.200825
0.200825
0.196388
0.196223
0.193429
0.202962
0.199839
0.202798
0.201647
0.201154
0.200004
0.202305
0.201319
0.198853
0.197374
0.200497
0.199839
0.197703
0.200825
0.197374
0.199346
0.196881
0.199346
0.19836
0.200332
0.198853
0.200004
0.203126
0.198689
0.201154
0.199675
0.201319
0.200004
0.200661
0.197867
0.200004
0.197867
0.200825
0.197703
0.198524
0.200004
0.199346
0.20214
0.195895
0.194909
0.198524
0.194416
0.199018
0.197538
0.200168
0.201319
0.200168
0.199018
0.197867
0.200168
0.200004
0.197703
0.199018
0.200332
0.199675
0.200825
0.200661
0.201483
0.20099
0.197045
0.20099
0.197538
0.199182
0.197867
0.200004
0.198196
0.199511
0.196552
0.199839
0.199018
0.201483
0.19836
0.199018
0.199182
0.198524
0.201647
0.198689
0.200661
0.200497
0.201319
0.200825
0.198853
0.200168
0.199346
0.197538
0.197374
0.197045
0.195895
0.196059
0.194087
0.19721
0.199511
0.20099
0.199511
0.202798
0.200332
0.199511
0.199018
0.198031
0.198196
0.199675
0.199018
0.199182
0.198689
0.197703
0.202305
0.197374
0.200004
0.194909
0.203126
0.199018
0.203126
0.203948
0.202633
0.201812
0.199511
0.198853
0.198689
0.198689
0.198524
0.199346
0.19721
0.198524
0.199018
0.199182
0.199839
0.20099
0.202633
0.198196
0.199182
0.20099
0.203126
0.199511
0.198853
0.199182
0.200004
0.196059
0.200004
0.199182
0.200168
0.19458
0.19573
0.200004
0.199675
0.200004
0.200661
0.200332
0.200497
0.201647
0.199346
0.201154
0.199018
0.199675
0.201647
0.197538
0.192936
0.202962
0.200332
0.200168
0.200332
0.200168
0.193429
0.199675
0.198853
0.197374
0.201976
0.195402
0.202305
0.199675
0.201319
0.199018
0.199675
0.197538
0.199675
0.198689
0.198689
0.197867
0.19836
0.199675
0.200332
0.20099
0.201483
0.201319
0.197538
0.201154
0.200332
0.200497
0.194744
0.198689
0.199018
0.201154
0.199018
0.199346
0.202305
0.200168
0.200825
0.199182
0.200004
0.200168
0.200661
0.20099
0.201976
0.201812
0.200661
0.200168
0.200825
0.198524
0.199839
0.195237
0.19573
0.19458
0.199839
0.205756
0.201483
0.195895
0.202962
0.201483
0.196388
0.200168
0.199182
0.200004
0.198196
0.200661
0.200332
0.195895
0.199675
0.19721
0.199018
0.19721
0.199182
0.198031
0.199182
0.199675
0.200004
0.197374
0.201483
0.199511
0.204606
0.201647
0.196388
0.196059
0.193758
0.200004
0.197538
0.197703
0.196223
0.198524
0.199346
0.200497
0.198689
0.200332
0.200332
0.200004
0.198853
0.200332
0.201976
0.200004
0.197703
0.19836
0.202798
0.19573
0.199346
0.19836
0.196881
0.19721
0.198031
0.197867
0.200004
0.200004
0.199018
0.204113
0.200661
0.199839
0.19573
0.198196
0.193758
0.19195
0.18817
0.182582
0.178473
0.169105
0.153491
0.147245
0.138534
0.130809
0.117003
0.111251
0.105827
0.102376
0.094651
0.090378
0.091199
0.082324
0.085611
0.080187
0.076736
0.065888
0.051096
0.05537
0.064574
0.068682
0.075421
0.081338
0.083475
0.08857
0.093007
0.098595
0.102704
0.109936
0.109114
0.117003
0.117332
0.118976
0.124235
0.128015
0.128508
0.131138
0.137548
0.135576
0.140178
0.138699
0.144451
0.149053
0.150039
0.150204
0.156778
0.152833
0.159572
0.156285
0.158914
0.162859
0.161544
0.165817
0.16516
0.168776
0.164996
0.171241
0.164503
0.171406
0.170913
0.174528
0.178802
0.177322
0.17913
0.179788
0.179459
0.180281
0.183404
0.176665
0.181431
0.182417
0.183568
0.182417
0.18176
0.18439
0.187841
0.187513
0.190142
0.186691
0.187677
0.188006
0.189485
0.192772
0.192443
0.185705
0.19195
0.191457
0.19195
0.191457
0.189649
0.192115
0.190471
0.1908
0.191457
0.192772
0.190471
0.195402
0.195895
0.192936
0.196717
0.196223
0.193429
0.195073
0.193429
0.193922
0.193758
0.194744
0.195895
0.193922
0.195073
0.190307
0.195073
0.197867
0.197374
0.19836
0.197045
0.198689
0.197374
0.201154
0.19721
0.197703
0.195402
0.20099
0.196223
0.196223
0.195073
0.194251
0.19458
0.192279
0.19721
0.196552
0.194909
0.196717
0.202305
0.1908
0.198853
0.195895
0.198031
0.197538
0.197867
0.196717
0.19721
0.19721
0.196388
0.197703
0.195237
0.19836
0.197703
0.198031
0.198196
0.200332
0.198853
0.199839
0.195073
0.19721
0.18932
0.195073
0.193758
0.193594
0.195402
0.193758
0.199182
0.194744
0.200332
0.19836
0.199018
0.18817
0.196552
0.200497
0.199675
0.197538
0.197703
0.199675
0.200332
0.198196
0.198853
0.198196
0.183239
0.194251
0.196717
0.198853
0.196717
0.20099
0.197703
0.202305
0.202633
0.202633
0.201812
0.19573
0.198031
0.19836
0.19836
0.198196
0.199511
0.201154
0.201483
0.198031
0.201483
0.198031
0.199018
0.198031
0.197867
0.200004
0.201976
0.201319
0.20214
0.202305
0.199182
0.198689
0.197703
0.197045
0.194744
0.19573
0.196388
0.199675
0.198853
0.20099
0.20099
0.200497
0.197374
0.201812
0.200661
0.19836
0.20099
0.198853
0.20099
0.19836
0.196717
0.202305
0.200332
0.19721
0.199839
0.199182
0.19836
0.199839
0.201319
0.196388
0.198689
0.198031
0.198853
0.185705
0.165324
0.159736
0.151518
0.152176
0.153984
0.158093
0.158421
0.162037
0.16253
0.164174
0.166475
0.167461
0.169433
0.170419
0.16894
0.170748
0.173871
0.170255
0.174035
0.175021
0.175186
0.176172
0.178637
0.177815
0.180281
0.178966
0.179295
0.182089
0.181103
0.184718
0.185047
0.18554
0.185047
0.188334
0.183075
0.184718
0.181431
0.187841
0.187348
0.186691
0.188334
0.188992
0.187348
0.188499
0.18932
0.183897
0.191786
0.189814
0.188663
0.19195
0.192443
0.189814
0.19458
0.193594
0.193922
0.193922
0.190471
0.192608
0.193922
0.192608
0.190307
0.190307
0.191128
0.195073
0.191621
0.191621
0.196059
0.195402
0.192772
0.19573
0.1908
0.195566
0.19573
0.193922
0.196388
0.195073
0.196881
0.195895
0.196388
0.194087
0.198524
0.196388
0.195073
0.196552
0.197867
0.196881
0.193429
0.196717
0.19836
0.201647
0.193922
0.200168
0.195566
0.200168
0.19573
0.194744
0.199346
0.198031
0.196552
0.197538
0.197374
0.197045
0.20099
0.197703
0.200004
0.195237
0.200825
0.197374
0.19573
0.200168
0.198031
0.195402
0.196717
0.200332
0.19721
0.194744
0.195895
0.197045
0.196717
0.195237
0.193922
0.198196
0.19836
0.199675
0.199675
0.199346
0.197703
0.199182
0.197867
0.198196
0.197045
0.200332
0.197045
0.197867
0.200168
0.19836
0.199839
0.195895
0.197867
0.198853
0.197538
0.196881
0.202305
0.19721
0.202798
0.19836
0.205921
0.199346
0.199346
0.19836
0.199018
0.202305
0.194251
0.200004
0.197045
0.199182
0.200497
0.200168
0.197703
0.201154
0.205263
0.202962
0.199511
0.19721
0.201319
0.19573
0.197538
0.197045
0.19721
0.196059
0.198031
0.200332
0.200004
0.198853
0.199346
0.199018
0.202469
0.199511
0.20099
0.202798
0.198196
0.200497
0.198524
0.198689
0.197374
0.200004
0.200168
0.201647
0.197703
0.199675
0.19721
0.199182
0.199018
0.201812
0.199675
0.200661
0.201319
0.202305
0.199511
0.197867
0.196881
0.200004
0.196059
0.193429
0.199511
0.19721
0.198689
0.196388
0.203126
0.200497
0.201976
0.201812
0.201154
0.200825
0.200825
0.200825
0.195895
0.195895
0.19721
0.200168
0.196881
0.198853
0.197538
0.199511
0.20099
0.199346
0.200497
0.200497
0.200332
0.200004
0.201647
0.200825
0.199346
0.198853
0.199839
0.19721
0.20099
0.201319
0.20099
0.199182
0.200332
0.199511
0.199182
0.202798
0.201647
0.199182
0.200661
0.200332
0.18817
0.200004
0.195895
0.199346
0.200332
0.197867
0.19836
0.19836
0.201483
0.197374
0.194744
0.197374
0.199839
0.198689
0.199675
0.20099
0.198031
0.192608
0.199182
0.198853
0.196552
0.198689
0.199675
0.198689
0.198196
0.201154
0.199018
0.200661
0.199511
0.201319
0.199511
0.200168
0.196552
0.201812
0.199182
0.200497
0.198853
0.20099
0.19721
0.199182
0.20099
0.200825
0.199018
0.199675
0.200661
0.199346
0.201976
0.000639
-1.9e-05
0.00294
0.001789
0.011486
0.018718
0.027429
0.035318
0.040577
0.043865
0.055698
0.058492
0.069997
0.068354
0.07575
0.081831
0.086269
0.088077

Kurve 4

0.000146
0.001296
-1.9e-05
0.000967
0.001132
0.000639
0.000146
0.003433
0.00031
-0.001334
0.002447
0.001789
-0.001498
0.002775
0.001789
0.002775
-0.001827
-0.001662
0.002775
-0.00347
0.00409
0.003597
0.002118
0.000474
0.001954
-0.000512
0.001625
0.000803
-0.003306
0.00031
-1.9e-05
0.000474
0.001296
-0.004785
-0.002648
0.000146
-0.000841
-0.001005
-0.001334
0.001625
0.001625
0.000474
-0.000512
-0.000347
-0.001827
-0.002155
0.001954
0.000803
-1.9e-05
-0.000676
0.001625
0.000803
0.003104
-1.9e-05
0.001625
-0.000676
0.000967
-0.000676
0.001625
-0.002648
-0.005114
-0.002977
-0.002484
0.000474
-0.000841
-0.001334
-0.000183
-0.001662
0.00031
0.000639
0.000967
0.005405
-0.002155
0.000639
0.000803
0.00146
-0.003635
0.00146
-0.003142
-0.001498
-0.001991
-0.00347
0.003268
-0.001169
0.000967
-0.000841
0.002118
-0.000512
0.004912
-0.000347
0.002118
0.001132
-0.002813
-0.001169
0.001625
-0.001169
0.000967
-1.9e-05
0.000803
0.001625
0.00031
0.003761
-0.002155
0.002282
0.00031
0.002775
0.000639
0.002282
0.001625
0.00031
-0.001991
-0.001169
-0.003963
-0.003142
-0.000347
-0.001991
0.000146
0.000474
0.001789
-0.000183
0.001954
0.000639
-0.002648
-0.000676
-0.000512
0.000967
0.00031
-0.000183
0.001789
-0.001662
-0.001169
-0.002977
0.000474
0.001132
-0.002648
-0.001005
-0.000676
0.002447
0.000639
0.005076
0.001789
0.002282
0.003268
0.00031
0.002611
0.000803
0.001132
-0.001169
0.000639
-0.004456
0.003433
0.002611
0.000803
0.001625
0.000803
0.000967
0.000967
0.001625
0.003926
0.004419
-0.001334
-0.000676
-0.001005
0.003597
-0.000347
-0.001334
-0.000347
-0.000347
-0.000512
-0.001169
0.000967
0.00146
-0.00232
0.002118
0.00146
0.001789
0.003433
-0.000841
0.000803
-0.004128
0.000474
-0.001662
-0.001498
0.000146
0.000474
-0.002648
-0.004292
0.002611
-0.00232
-0.000676
0.00031
0.001296
0.001789
0.00294
-0.000183
0.002447
0.001625
0.001789
0.002775
-0.00232
0.002118
0.000639
-0.002155
0.000474
-0.000347
0.000146
0.005076
-1.9e-05
-0.000512
-0.001169
0.004255
0.002775
0.001625
0.002775
0.002118
-1.9e-05
0.00031
0.000639
0.001954
-0.002155
-1.9e-05
-0.000512
-0.003799
0.003597
0.000474
0.00031
-0.000676
0.001625
0.000639
0.000474
-0.002648
0.000474
-0.000841
-0.002155
-0.001334
-0.000512
-0.000183
-0.005936
0.001132
-0.000512
0.00031
-0.000347
0.000967
-0.003306
-0.001169
0.000474
0.001132
-0.000183
-0.000183
0.002611
0.003104
0.002447
-0.002155
0.002611
-0.001991
-0.000676
-0.002484
0.002775
-0.002648
-0.00347
-0.00232
0.002282
0.00294
0.00146
0.003926
0.000146
-0.000512
-0.001991
0.000803
-0.001498
-0.000347
-0.000676
-0.001334
-0.001498
0.00031
0.000967
-0.002155
0.002282
0.001296
-0.000841
-0.001005
-0.000347
0.001132
0.001954
-0.002484
-0.001334
-0.00232
-0.000347
-0.000512
-0.001334
-0.001334
-0.000512
-0.005114
-0.001334
0.000146
0.000639
0.000639
0.002447
0.002447
-0.001498
0.003761
0.000474
0.002118
0.002775
0.002447
0.00031
0.001132
-0.001827
0.001296
-0.003963
-0.001169
-0.003799
-0.002813
0.000803
0.002447
0.000803
0.001132
0.00031
0.001789
0.002775
-0.002813
-0.000512
-0.001334
-0.000347
-0.002155
0.000967
-0.001169
-1.9e-05
0.003926
0.00031
0.002447
0.002282
-0.004292
0.000474
-0.00232
-0.000183
0.003433
0.00031
0.00146
0.000146
0.00031
0.002118
0.001789
0.001625
-0.000183
0.002118
-1.9e-05
0.004748
0.002611
0.000967
0.001296
0.002775
-1.9e-05
0.000146
0.002447
0.00031
0.001954
0.000474
0.005734
0.001954
0.002775
0.004583
0.002775
0.000146
0.001625
-0.001005
-0.000512
-0.001005
0.001625
0.00294
0.00294
-0.001498
0.004419
0.001954
0.000474
0.000639
0.000803
0.000474
0.000803
0.000639
0.002118
0.003268
-0.002155
-0.000347
-0.002977
0.003926
-0.004949
-0.001662
0.00146
0.005405
0.000474
0.003433
0.00409
0.000146
0.002282
-0.000676
0.006062
-0.001169
0.001625
-0.002648
-0.002813
0.00031
0.003597
0.005076
-0.000183
-0.000512
0.000146
0.009185
-0.00347
0.00031
0.00146
0.001625
-0.001498
0.001296
-0.000183
0.001296
-0.005278
-0.003306
0.001296
-0.003963
0.000146
0.000146
0.00031
0.00146
0.003104
-0.000183
0.002775
-0.003142
0.004583
-0.006593
0.000146
-0.000512
-0.001498
-0.001662
-0.002155
-0.002155
-0.002155
-0.001991
0.001132
-0.001498
-0.011524
0.000803
0.000803
0.002282
0.000639
-0.002484
0.003268
-0.000183
-0.001498
-0.001498
-0.001991
-0.011852
0.000146
-0.001662
0.001625
-0.000512
0.001296
0.000803
0.000474
0.000474
0.002611
0.001132
-0.009387
0.000639
-0.002484
-0.003635
-0.006757
-0.004621
-0.001498
-0.002648
-0.001005
0.002118
-0.001005
-0.008401
-0.000183
0.002282
-0.000183
0.001132
0.00146
0.001132
-0.002155
-0.000183
-0.001991
-0.002813
-0.007744
-0.004785
-0.005114
-0.003306
0.003761
-0.000676
0.001296
-0.001662
0.001789
0.001625
0.00146
0.00146
-0.001662
-0.00232
-0.001498
-1.9e-05
0.000639
0.001625
-0.005771
0.00294
0.000803
0.00294
-0.004456
-0.000841
0.00031
-0.000676
0.001296
-1.9e-05
0.000803
-0.000841
0.003761
0.001296
0.001132
-0.001334
-0.00347
-0.001005
-0.001334
-0.002484
0.00146
-0.001169
-0.001827
0.001625
0.00146
0.000803
0.000474
-0.001498
-1.9e-05
-0.001005
-0.002648
0.000967
-0.002484
-0.001005
0.003433
0.005734
0.000474
0.00294
-0.000347
-0.001005
-0.000676
0.000803
-0.000347
-0.001169
0.00031
0.000474
0.002282
0.001132
0.004419
-0.00232
0.002282
-0.001498
0.001789
-0.000347
-0.000512
-0.001005
-0.000347
-0.000347
0.00146
0.007213
-0.001662
0.001625
-0.00347
0.001789
0.000146
0.006556
0.002611
0.002447
0.001789
0.000146
0.00031
0.003433
-0.000512
-0.000512
-0.000347
-0.001827
0.001296
-0.001498
0.001296
0.00031
-0.000841
0.000474
0.00409
0.000146
-0.002648
-0.00347
-0.000841
0.00031
0.001789
-0.00232
0.000639
0.001296
-0.001991
0.001296
-0.000676
0.000639
0.000146
0.003761
0.00146
0.00294
-0.000183
0.002447
0.001296
0.001296
0.000474
-0.000347
-0.001991
-0.005443
0.000803
-0.004456
-0.000512
0.001625
-0.001991
0.001625
0.003104
-0.00232
0.001954
0.001789
0.002282
0.002447
0.00031
0.002447
-1.9e-05
0.000803
-0.000183
0.00031
-0.000512
0.001789
0.000146
-0.001005
-0.001334
-0.000347
0.000146
-0.001991
-0.002813
-0.001662
0.005241
0.004748
0.002282
-0.000347
0.000803
0.000803
0.000639
-0.002155
0.004583
-0.001334
0.000639
0.001625
0.002118
0.001789
0.003104
0.002447
0.000639
0.002775
-1.9e-05
0.00146
0.000639
0.00031
-0.000841
0.001625
-0.002484
0.00146
0.000474
-0.001334
0.00409
-0.002813
-0.001005
-0.001334
0.000146
0.000967
0.00294
-0.002155
0.00146
0.002118
-0.000841
-0.000183
0.001296
0.000146
0.001296
-1.9e-05
-0.000183
-0.000841
-0.00347
-0.002648
0.001625
-0.001498
-0.001498
-0.002813
-0.002155
0.002118
-0.001334
0.001789
0.001789
0.001296
-0.001334
0.000474
0.000967
0.000803
-0.000512
-0.002813
0.001954
0.00031
0.000803
0.000967
0.000803
-0.001991
0.002447
-0.003142
0.003268
0.00409
-0.000183
-0.001334
-0.001498
-0.000676
0.000639
0.000474
-0.005114
0.001625
-0.001991
0.000639
-0.001991
0.002118
0.00146
0.001954
0.001789
0.002611
0.003597
0.000474
-0.000512
-0.000512
-0.000676
0.001296
-0.000183
0.003433
0.00146
-0.000676
0.001954
-0.000512
0.003926
0.004255
0.003104
0.003268
0.002118
0.003104
0.001132
0.003104
0.002282
0.000803
-1.9e-05
0.005898
0.008363
0.019868
0.024142
0.032031
0.042714
0.047152
0.054712
0.058492
0.066546
0.068025
0.074764
0.075585
0.08216
0.084954
0.091035
0.096623
0.105992
0.099582
0.10517
0.110265
0.110265
0.11651
0.120455
0.123578
0.128344
0.12933
0.132946
0.135247
0.13311
0.13837
0.137877
0.140013
0.144451
0.145273
0.144944
0.149382
0.14971
0.15234
0.160722
0.15497
0.158257
0.162202
0.158421
0.163023
0.167297
0.163352
0.167132
0.166146
0.168283
0.16779
0.169105
0.168447
0.169926
0.170091
0.172227
0.174035
0.173871
0.178637
0.181596
0.175843
0.180281
0.182746
0.180281
0.183568
0.181431
0.184883
0.185212
0.183404
0.184554
0.182746
0.186691
0.186855
0.188334
0.185869
0.188006
0.188827
0.189485
0.189156
0.19195
0.190307
0.187841
0.186526
0.193758
0.192772
0.187019
0.190307
0.191457
0.190964
0.190142
0.191621
0.193101
0.194416
0.19458
0.19573
0.192279
0.193758
0.197374
0.194416
0.19573
0.194416
0.196881
0.194909
0.195895
0.196388
0.197374
0.194909
0.197538
0.198031
0.199346
0.191621
0.196059
0.195566
0.195895
0.195566
0.19836
0.197703
0.200497
0.201812
0.196059
0.200825
0.197045
0.19836
0.198031
0.199511
0.19573
0.198853
0.19836
0.197867
0.196881
0.197374
0.197374
0.19573
0.19721
0.195402
0.200168
0.198689
0.200332
0.196552
0.201976
0.200661
0.206578
0.199346
0.200825
0.199182
0.198689
0.199511
0.198031
0.200497
0.200497
0.203784
0.200332
0.202633
0.19836
0.201812
0.200004
0.200168
0.20099
0.201812
0.205756
0.201154
0.199018
0.199675
0.199018
0.199346
0.200661
0.196223
0.201812
0.201483
0.201483
0.199675
0.201483
0.201647
0.200332
0.200661
0.199182
0.19836
0.199346
0.198031
0.198689
0.198524
0.198524
0.20099
0.194416
0.195566
0.195895
0.197703
0.198689
0.200004
0.200332
0.20362
0.20099
0.197703
0.198196
0.199675
0.199182
0.197538
0.201154
0.195566
0.201154
0.198524
0.199675
0.198524
0.200661
0.20099
0.202633
0.197538
0.203126
0.200004
0.199675
0.200004
0.198196
0.20099
0.197374
0.200497
0.199346
0.199839
0.199346
0.202962
0.200004
0.203126
0.200004
0.203455
0.199839
0.200497
0.20099
0.198524
0.20214
0.199018
0.201154
0.199182
0.198524
0.197867
0.195895
0.194087
0.197045
0.200004
0.202962
0.20099
0.20214
0.201647
0.196881
0.199018
0.197538
0.201812
0.198524
0.199675
0.201647
0.20099
0.198524
0.201319
0.199346
0.198031
0.199182
0.198853
0.204277
0.199675
0.196881
0.196717
0.201647
0.200825
0.199182
0.203126
0.200004
0.199346
0.200825
0.197538
0.200497
0.19721
0.20362
0.200497
0.202633
0.20214
0.201812
0.198524
0.201976
0.200168
0.199346
0.202962
0.19836
0.203126
0.19836
0.197374
0.195566
0.20214
0.196223
0.195895
0.200332
0.199839
0.20099
0.19836
0.200497
0.20214
0.207071
0.20099
0.210523
0.199346
0.201812
0.201154
0.199839
0.199018
0.198853
0.201812
0.200168
0.198689
0.199346
0.205099
0.199511
0.200332
0.198524
0.202962
0.201976
0.20477
0.201319
0.202469
0.201319
0.196223
0.197538
0.201319
0.200004
0.200332
0.200004
0.197867
0.200825
0.199018
0.198031
0.199675
0.202633
0.189814
0.197045
0.198524
0.197538
0.201976
0.194416
0.19836
0.200004
0.200332
0.199346
0.198524
0.188992
0.198853
0.197867
0.200332
0.201319
0.198031
0.202469
0.202305
0.200332
0.200168
0.199018
0.195073
0.199675
0.200825
0.200168
0.200332
0.199675
0.197867
0.205592
0.200332
0.197538
0.200825
0.198853
0.199182
0.20099
0.199346
0.200004
0.200332
0.204113
0.205921
0.200168
0.20214
0.20099
0.19721
0.197703
0.200497
0.200004
0.200168
0.199018
0.200825
0.201154
0.198689
0.200168
0.198853
0.198524
0.196388
0.198853
0.198524
0.200825
0.198524
0.203784
0.20099
0.199839
0.200497
0.197703
0.196881
0.196223
0.200497
0.197538
0.200004
0.199839
0.205592
0.199675
0.202633
0.199511
0.199839
0.196881
0.197374
0.19836
0.199675
0.199675
0.200004
0.203948
0.19836
0.201976
0.199018
0.200168
0.200497
0.201154
0.198689
0.201319
0.200661
0.20099
0.202305
0.199675
0.198689
0.200332
0.197867
0.197538
0.201647
0.195895
0.200661
0.197703
0.200825
0.199018
0.19721
0.197374
0.199839
0.19836
0.198689
0.20214
0.197867
0.201812
0.199182
0.197867
0.199018
0.19836
0.199346
0.202305
0.198196
0.198853
0.198853
0.199018
0.200497
0.199675
0.198853
0.199018
0.19836
0.199018
0.200332
0.198853
0.201319
0.201647
0.198853
0.198031
0.199018
0.197867
0.19836
0.198524
0.197374
0.198524
0.200004
0.199675
0.202305
0.200661
0.19836
0.201976
0.199182
0.200825
0.198853
0.200332
0.197867
0.200332
0.197045
0.201319
0.198524
0.197045
0.199346
0.200825
0.200661
0.199346
0.202305
0.199018
0.203126
0.200332
0.201319
0.20099
0.203948
0.198031
0.198689
0.20099
0.198853
0.197867
0.199675
0.203126
0.202305
0.203455
0.200332
0.20362
0.199018
0.202469
0.198853
0.200497
0.201976
0.199511
0.198031
0.19836
0.19836
0.196552
0.197538
0.198031
0.201154
0.197045
0.199839
0.20099
0.200332
0.199346
0.201647
0.200661
0.20099
0.19836
0.197374
0.197703
0.196717
0.196059
0.198524
0.201812
0.198524
0.198524
0.202633
0.198031
0.198689
0.20099
0.199346
0.202305
0.198689
0.201647
0.203455
0.196388
0.19836
0.199839
0.19836
0.197867
0.199346
0.200004
0.204113
0.19721
0.203784
0.200168
0.200168
0.200332
0.203455
0.199182
0.198689
0.201647
0.197703
0.199346
0.195895
0.202962
0.200168
0.200661
0.199182
0.201976
0.197538
0.201154
0.197703
0.201483
0.199182
0.199346
0.200332
0.197703
0.199675
0.198689
0.199675
0.192772
0.195895
0.199675
0.198196
0.198031
0.200497
0.198853
0.199839
0.198689
0.202633
0.201154
0.198853
0.200661
0.201154
0.198689
0.195402
0.199511
0.198853
0.199675
0.199346
0.201647
0.199182
0.199346
0.200004
0.199018
0.198853
0.197867
0.197374
0.20214
0.201319
0.199675
0.199346
0.202469
0.201154
0.199018
0.200004
0.199675
0.199675
0.197703
0.200332
0.197867
0.199839
0.200661
0.197703
0.200497
0.199182
0.20099
0.19836
0.197045
0.200004
0.201154
0.199675
0.197045
0.199182
0.201319
0.199839
0.199839
0.198853
0.197374
0.200004
0.198524
0.201319
0.199018
0.199675
0.199346
0.195895
0.199346
0.203126
0.197045
0.197538
0.201319
0.199018
0.200332
0.199675
0.199675
0.197867
0.200004
0.198853
0.201154
0.19836
0.200004
0.198853
0.199675
0.196388
0.201154
0.196717
0.197045
0.208222
0.196223
0.200332
0.197374
0.199182
0.196881
0.200004
0.199018
0.200661
0.199675
0.200004
0.200497
0.199511
0.199511
0.199346
0.204277
0.201976
0.199839
0.200332
0.201483
0.199675
0.201154
0.201812
0.199511
0.198524
0.20099
0.198689
0.200332
0.199839
0.198524
0.207235
0.203126
0.204277
0.20362
0.201319
0.199675
0.200332
0.199346
0.201154
0.198524
0.200661
0.19836
0.201154
0.198196
0.200004
0.200168
0.200168
0.201976
0.200825
0.200332
0.200168
0.201976
0.198524
0.203126
0.199018
0.200168
0.197703
0.201647
0.196881
0.196552
0.200497
0.196717
0.198689
0.19721
0.199839
0.198853
0.196552
0.197538
0.200661
0.197703
0.202633
0.195566
0.200497
0.201483
0.199675
0.201483
0.199018
0.199346
0.199018
0.200497
0.193101
0.194744
0.196552
0.198689
0.19836
0.204606
0.199675
0.199675
0.200497
0.200661
0.199018
0.196059
0.197703
0.198031
0.196717
0.199182
0.200004
0.198689
0.200332
0.200661
0.199511
0.197538
0.203126
0.198853
0.200661
0.199675
0.203126
0.200661
0.199346
0.19836
0.199675
0.199346
0.198524
0.198031
0.199839
0.199675
0.196717
0.199839
0.20099
0.203784
0.202798
0.201647
0.200168
0.200168
0.200497
0.199675
0.201319
0.199839
0.200168
0.200497
0.200004
0.19721
0.201154
0.199839
0.197867
0.199018
0.200332
0.200004
0.199182
0.201812
0.201812
0.201319
0.200825
0.199182
0.197045
0.198689
0.197703
0.199511
0.198031
0.198031
0.198196
0.199182
0.199182
0.199675
0.200004
0.199511
0.197045
0.200661
0.200825
0.197538
0.19721
0.199182
0.200497
0.195237
0.197703
0.198689
0.19836
0.198524
0.200004
0.198031
0.200332
0.200825
0.200004
0.201154
0.196059
0.200825
0.201483
0.201483
0.199182
0.20099
0.199511
0.19836
0.197374
0.199675
0.199346
0.199018
0.199839
0.200332
0.200168
0.198689
0.199182
0.194416
0.198196
0.197045
0.20214
0.197867
0.201154
0.199182
0.201812
0.198031
0.198853
0.197374
0.197703
0.200168
0.197045
0.200825
0.197045
0.199346
0.199182
0.20099
0.197867
0.199018
0.199675
0.199839
0.19573
0.196388
0.20099
0.199675
0.198689
0.199018
0.204113
0.201647
0.201647
0.197867
0.199018
0.200332
0.200497
0.198524
0.202305
0.20099
0.201812
0.201812
0.195895
0.201483
0.198031
0.199675
0.198524
0.199018
0.201976
0.197538
0.201647
0.204934
0.202633
0.200168
0.199839
0.200661
0.199839
0.199839
0.199018
0.19721
0.201812
0.198853
0.200332
0.200168
0.199346
0.198853
0.199511
0.198524
0.198524
0.197867
0.201319
0.198853
0.199675
0.198853
0.200661
0.198853
0.197538
0.20214
0.198853
0.199511
0.19721
0.196388
0.198689
0.201812
0.195402
0.199839
0.196717
0.198196
0.201154
0.199346
0.200168
0.200497
0.202305
0.197867
0.204441
0.198689
0.202633
0.199346
0.202633
0.199675
0.201647
0.198031
0.196881
0.198524
0.197374
0.203291
0.196059
0.200168
0.199511
0.199675
0.197538
0.202798
0.198524
0.201976
0.201483
0.200004
0.199346
0.199346
0.199018
0.195237
0.198689
0.195566
0.198524
0.196223
0.200332
0.201154
0.202633
0.200661
0.203455
0.202633
0.202633
0.200825
0.198853
0.196388
0.199018
0.197538
0.199346
0.201319
0.197374
0.200497
0.200825
0.198196
0.199839
0.197867
0.20099
0.201319
0.200004
0.203948
0.20099
0.196552
0.198853
0.202962
0.19573
0.200168
0.199018
0.197538
0.197703
0.198031
0.199346
0.200004
0.200332
0.200004
0.207564
0.199346
0.200168
0.199018
0.197867
0.201647
0.19836
0.200004
0.197703
0.197045
0.196059
0.204934
0.195237
0.196717
0.199346
0.199511
0.197374
0.200004
0.200332
0.186691
0.189814
0.183075
0.187019
0.183732
0.18554
0.184883
0.186033
0.18439
0.186198
0.187677
0.185705
0.188663
0.188499
0.185376
0.18817
0.190635
0.18817
0.187513
0.191457
0.193922
0.192772
0.191786
0.185869
0.191621
0.180938
0.191621
0.191786
0.189485
0.195073
0.192443
0.196388
0.19458
0.191786
0.196881
0.194087
0.185705
0.196388
0.195566
0.196388
0.189485
0.194909
0.196552
0.196717
0.194251
0.195402
0.199839
0.189814
0.195073
0.19836
0.197538
0.19573
0.200825
0.199182
0.202305
0.19836
0.201319
0.198689
0.19573
0.195402
0.196388
0.197703
0.197703
0.19836
0.196552
0.199511
0.197045
0.198853
0.201319
0.202633
0.195237
0.200825
0.197867
0.201483
0.202962
0.204113
0.199182
0.199018
0.196388
0.199182
0.198853
0.19573
0.194744
0.197867
0.19836
0.197374
0.20099
0.198031
0.199511
0.196059
0.196059
0.200168
0.194251
0.199346
0.199675
0.193594
0.199839
0.196717
0.196717
0.201319
0.196388
0.197045
0.198853
0.197703
0.19836
0.200004
0.199839
0.198689
0.20214
0.198524
0.200004
0.063587
0.012308
0.007377
0.014773
0.021019
0.034989
0.040249
0.045837
0.041235
0.046494
0.054383
0.058657
0.066875
0.070983
0.072791
0.078708
0.084296
0.087419
0.094158
0.098431
0.102704
0.107306
0.109279
0.113223
0.115853
0.118318
0.119469
0.12818
0.130481
0.130152
0.133275
0.136891
0.138534
0.144615
0.141821
0.148067
0.144944
0.151354
0.15234
0.155792
0.155627
0.152176
0.157107
0.160394
0.163188
0.164831
0.16401
0.166475
0.166475
0.166968
0.166311
0.163681
0.1576
0.149875
0.13952
0.130316
0.127194
0.118483
0.112894
0.095801
0.066875
0.030387
0.009678
0.008692
0.005405
0.016253
0.014938
0.01691
0.012308
0.003926
0.00935
0.016417
0.02069
0.026936
0.03351
0.038605
0.04748
0.051754
0.055205
0.058821
0.069011
0.070162
0.079037
0.083639
0.089885
0.094158
0.096952
0.104512
0.106156
0.109114
0.115689
0.116346
0.11651
0.121112
0.124564
0.129988
0.130152
0.131467
0.13837
0.13837
0.141164
0.146752
0.148889
0.149382
0.151518
0.152176
0.1576
0.153819
0.157107
0.158093
0.162366
0.161544
0.164667
0.166639
0.169105
0.168118
0.170091
0.172392
0.173542
0.171899
0.178637
0.177322
0.175679
0.180281
0.178144
0.180281
0.179295
0.178966
0.178966
0.179788
0.177487
0.18176
0.178637
0.181924
0.184554
0.187677
0.182089
0.189814
0.190307
0.186362
0.192936
0.187513
0.1908
0.190307
0.191128
0.18817
0.192608
0.189156
0.189485
0.19195
0.192772
0.193265
0.194087
0.196552
0.192772
0.19721
0.193101
0.194909
0.194909
0.193758
0.194251
0.193758
0.192608
0.195237
0.193265
0.196059
0.192279
0.194087
0.19836
0.195237
0.196059
0.196717
0.19836
0.195895
0.19836
0.20099
0.196059
0.196388
0.196059
0.196717
0.195402
0.195566
0.199511
0.198689
0.196717
0.199346
0.199675
0.198689
0.199182
0.201154
0.202962
0.200168
0.199182
0.200497
0.199182
0.197703
0.198196
0.19836
0.199675
0.198031
0.199675
0.198524
0.200497
0.197867
0.199182
0.199018
0.201647
0.196059
0.198524
0.199675
0.198689
0.197045
0.19836
0.197045
0.196059
0.19573
0.191293
0.197538
0.195895
0.197703
0.19721
0.197045
0.195895
0.198031
0.195402
0.196552
0.194744
0.194744
0.19573
0.19458
0.194416
0.199018
0.199839
0.197703
0.198196
0.19573
0.196881
0.194744
0.197867
0.195402
0.199346
0.19721
0.197374
0.197703
0.196059
0.197045
0.197045
0.193594
0.196881
0.197045
0.196388
0.196388
0.193101
0.195402
0.194087
0.198689
0.197703
0.194251
0.196717
0.19458
0.197703
0.195402
0.198031
0.196881
0.198031
0.200332
0.194909
0.199182
0.201319
0.195566
0.19836
0.19573
0.197703
0.196388
0.198196
0.199018
0.197703
0.198196
0.200497
0.19836
0.194416
0.200332
0.19836
0.197045
0.196223
0.197538
0.199018
0.199839
0.198196
0.199182
0.198524
0.194744
0.196059
0.198853
0.19836
0.198524
0.20099
0.198524
0.202962
0.199675
0.200825
0.195895
0.200825
0.200661
0.198853
0.199675
0.201483
0.203455
0.198689
0.203126
0.201483
0.199675
0.197867
0.20099
0.199346
0.200004
0.202633
0.203126
0.201976
0.199182
0.200168
0.199182
0.190471
0.200825
0.201319
0.194744
0.20099
0.198689
0.197045
0.196717
0.197538
0.197374
0.199182
0.198853
0.199182
0.200332
0.199182
0.201154
0.198524
0.19836
0.198196
0.196388
0.195895
0.201154
0.19836
0.19836
0.198031
0.199839
0.202633
0.202305
0.199675
0.201976
0.201154
0.19836
0.199839
0.198524
0.199675
0.202305
0.203291
0.197374
0.202962
0.199182
0.199018
0.199675
0.199182
0.199839
0.201976
0.200332
0.200168
0.196717
0.197703
0.199675
0.19573
0.201812
0.198031
0.201319
0.197045
0.197538
0.204441
0.193101
0.194744
0.202633
0.196059
0.200661
0.200497
0.200168
0.202305
0.199511
0.20099
0.196552
0.199346
0.200497
0.200825
0.200332
0.197374
0.19836
0.200168
0.199675
0.19721
0.200332
0.197374
0.198689
0.197703
0.201483
0.200168
0.198196
0.198689
0.196059
0.199511
0.19836
0.19836
0.197045
0.201812
0.197045
0.197867
0.196223
0.199839
0.199018
0.199839
0.193265
0.198689
0.200168
0.199511
0.199675
0.199346
0.198196
0.19836
0.197045
0.203126
0.201154
0.195237
0.200332
0.198853
0.200004
0.19721
0.20099
0.197374
0.201154
0.198196
0.202633
0.204934
0.203126
0.201319
0.202305
0.199018
0.197867
0.197538
0.198689
0.201154
0.196881
0.20099
0.197703
0.200332
0.197045
0.200332
0.200004
0.199511
0.197867
0.198853
0.200004
0.197703
0.201154
0.199675
0.200004
0.196223
0.202962
0.195073
0.19721
0.197703
0.194251
0.199839
0.199346
0.200168
0.201812
0.200332
0.200332
0.200332
0.19458
0.199511
0.197374
0.199018
0.195895
0.196388
0.197703
0.199511
0.196223
0.200825
0.200497
0.19836
0.201154
0.201154
0.202633
0.196223
0.199675
0.198031
0.20362
0.197867
0.198196
0.201976
0.197374
0.19721
0.198524
0.197045
0.198689
0.196717
0.199675
0.202633
0.204113
0.203455
0.201483
0.199839
0.199346
0.199839
0.199675
0.199346
0.194744
0.199346
0.19836
0.200168
0.199346
0.200004
0.202305
0.197867
0.202469
0.199839
0.199018
0.193922
0.198689
0.199018
0.198689
0.197703
0.198031
0.194744
0.197045
0.19721
0.196059
0.195073
0.199511
0.20214
0.194416
0.198853
0.197538
0.199018
0.195237
0.198853
0.197703
0.199018
0.198689
0.197867
0.200004
0.201319
0.19836
0.198196
0.203291
0.195073
0.198689
0.199675
0.197538
0.199182
0.200168
0.200004
0.199675
0.198031
0.200332
0.201812
0.197703
0.199511
0.198031
0.200168
0.197374
0.202962
0.202305
0.200661
0.198196
0.199839
0.204441
0.190307
0.194416
0.197045
0.196223
0.196059
0.199018
0.200497
0.202305
0.199182
0.200332
0.205263
0.19836
0.199511
0.199018
0.200168
0.199346
0.195566
0.201812
0.196881
0.197867
0.201812

Kurve 5

-0.004621
0.001625
0.001132
0.000803
-0.000676
0.003433
0.00031
0.002118
0.004583
0.002611
0.001789
0.002118
0.003761
0.003104
0.002447
-0.000183
-0.001169
-0.002155
0.000967
0.000474
0.00294
0.000146
0.000967
0.000474
0.00409
0.002447
0.001789
-1.9e-05
0.004583
0.003268
-0.001662
0.003104
-0.000512
0.001132
-0.001169
-0.000676
-0.001662
-0.001169
-0.002484
0.00031
0.001625
-0.000676
0.001954
0.000146
0.002611
0.00031
0.005734
0.000474
-0.002813
0.000474
0.003597
-1.9e-05
0.001789
0.000639
-0.000183
-0.003635
-1.9e-05
-0.000841
-0.001169
0.00146
-0.000183
-1.9e-05
-0.000183
0.001132
-0.000841
0.001789
-1.9e-05
0.00146
0.001954
0.001132
-0.000512
-0.001498
-0.000347
-0.0061
-0.000676
-0.000183
0.00031
0.00031
0.001132
0.000474
-0.002484
-0.001005
-0.000183
0.000803
-0.001334
-0.000512
-0.000347
0.002447
0.001132
-0.000183
0.00031
0.00031
-0.000841
0.004583
-0.001827
-0.002813
-0.001169
-1.9e-05
0.000146
0.001132
-1.9e-05
0.003268
0.000803
-0.002155
0.00294
-0.001662
-0.002813
0.000146
0.003761
-0.002484
0.002118
-0.001498
-0.001005
-0.00232
0.00031
0.001132
0.000639
0.00031
-0.000676
-0.000347
-1.9e-05
0.000967
-0.001498
-0.003306
-0.003142
0.001296
-0.001169
-1.9e-05
-0.003306
-0.001005
-0.000512
-0.000183
0.001296
-0.001991
-0.001498
-0.000512
-1.9e-05
-0.002484
0.000967
-0.000841
0.001296
0.001789
0.000474
-0.001169
-0.001827
0.001625
0.002447
0.00146
-0.001005
0.002282
-0.000347
0.002611
0.003268
0.002118
0.001132
0.000639
-0.00347
0.00409
0.001789
-0.001498
-0.003635
-0.004292
-0.00232
0.000474
-0.001662
-0.000347
-0.000183
0.001625
0.000146
-0.000347
0.001625
-0.001334
0.002775
0.000967
0.000803
0.002282
-0.001334
-0.000183
-0.000676
-0.001827
-0.00232
-0.000512
-0.001498
-0.000512
-0.00232
-0.000676
0.000474
0.00146
0.00031
0.001132
-0.001827
-0.004292
0.004419
-0.000347
0.000474
0.00031
-0.001662
-0.000347
0.002118
-0.00347
0.002118
0.00031
0.00031
-0.000512
0.000967
0.002118
0.003597
-0.000183
-1.9e-05
0.003597
-0.001169
0.000803
-0.002155
-0.001169
0.000146
0.00031
-0.002484
0.000146
-0.000512
-0.002155
0.002447
0.000639
0.002611
-0.001334
-0.000512
-0.000347
0.001132
-0.000676
0.000474
-0.000512
-0.000676
-1.9e-05
0.001625
-0.000841
-0.003306
-0.000512
-0.001169
-0.000347
-0.002155
-1.9e-05
-0.000183
0.000639
0.001132
0.001132
0.000639
0.004583
-0.00232
0.00146
0.00031
0.001132
-1.9e-05
0.001132
-0.000183
0.000474
0.000967
-0.000676
-0.000512
-0.000347
-0.000347
-0.000512
0.002611
-0.001991
0.00672
0.000474
0.00294
-0.000183
-0.000676
-0.001169
0.000474
-0.001005
-0.000676
-0.001005
-0.002155
-1.9e-05
-0.001498
-0.001498
-0.001334
0.003433
-0.002648
0.002118
0.000639
0.004255
0.000639
0.002282
0.001132
-0.001005
-0.001005
-0.000841
-1.9e-05
-0.004621
-0.001498
-0.001169
0.000146
0.000474
0.001132
-0.001991
0.001296
0.000474
0.001625
0.00294
-0.000676
0.00146
-0.001169
-1.9e-05
-0.001498
-0.001991
-0.002155
0.002611
-0.001334
-0.00232
-0.001334
-0.001334
-0.004456
-0.001169
-0.000183
0.000803
-0.001005
0.000639
0.000967
-0.000841
-0.000676
-0.001334
-0.00232
-0.001498
-0.000841
-0.001498
-0.000676
-0.001827
0.000639
0.002775
0.002611
-0.001005
0.003761
-0.003799
-0.005278
-0.000183
-0.004292
-0.001827
-0.003142
0.00031
-0.000347
0.001132
-0.001169
-0.000183
-0.001662
0.000967
0.00146
0.001789
0.002118
-0.000347
0.003104
-0.000347
0.002282
-0.002155
0.000474
0.003926
-1.9e-05
-0.001169
0.00031
-0.000183
0.000474
0.004583
0.00294
0.003926
0.00031
0.003104
-0.000512
0.002775
-0.00232
0.002447
-0.000183
0.000967
0.001625
-1.9e-05
0.000474
0.000639
0.000146
-0.000512
-0.000183
0.001132
-0.002813
-0.002484
0.004583
0.000803
0.00031
-0.000676
0.000474
-0.000347
-0.000347
0.000803
-1.9e-05
0.000146
0.000803
0.002118
0.00031
0.000967
0.000639
0.003597
-0.000183
-0.001334
-0.000841
0.00146
-0.001827
0.002447
0.000967
0.002447
0.000967
0.001132
-0.001498
-0.002648
-0.001005
-0.002648
-0.000183
-0.000183
0.003104
-0.00232
-0.001169
0.000474
-0.000841
0.00031
0.003268
-0.001827
0.001296
0.001625
-0.000841
0.002282
-0.000676
0.000146
-0.001005
0.002447
0.003433
0.004748
-0.000676
0.000474
-0.004292
-0.002813
-0.001169
0.000639
0.001789
0.003597
-0.00725
-1.9e-05
0.005734
-0.001005
0.001625
0.000803
-1.9e-05
-0.003142
0.002775
-0.002813
0.001132
-0.000512
0.00031
0.008199
0.000146
-0.001005
0.002611
0.003926
0.001132
0.003433
0.000967
0.001132
-1.9e-05
-0.004128
-0.001005
-0.001827
-0.00347
-0.001662
-0.000676
-0.001334
0.00031
0.001954
0.000967
0.00031
0.002775
-0.004128
0.000803
0.000474
0.000639
0.004255
-0.000183
0.000639
0.000803
-0.004292
-0.004128
-0.002648
-0.010373
-0.000512
-0.000841
-0.000512
-0.001334
0.001954
-1.9e-05
0.002611
0.002611
0.002447
-0.003799
-0.008072
-0.001169
-0.001662
0.000146
-0.000183
0.00031
0.001625
0.000967
0.00146
0.001296
-0.000347
-0.003635
-0.000841
0.002775
0.001954
0.000474
-0.00232
-0.001005
0.001296
-0.002484
-0.000183
0.000146
-0.002648
-0.002977
-0.000183
-0.001498
0.000474
0.001132
0.003268
0.001296
0.002611
0.001954
0.000803
-0.001662
-0.00347
-0.000183
-0.004456
-1.9e-05
0.006227
-0.000512
-0.000676
0.002611
0.000146
-1.9e-05
0.001132
-0.000183
0.000146
0.000967
-0.000183
-0.000841
0.002447
0.001296
0.002282
0.000146
0.000474
-0.00232
-0.002484
-0.001991
0.004419
-0.000512
0.001296
-0.001498
0.001789
-0.000512
0.000474
0.002447
0.002611
-0.001169
-0.000841
-0.000183
-0.001005
0.00031
0.002282
0.000146
-0.001827
0.000639
0.000474
-0.000183
-0.001498
-0.001005
-0.000183
-0.000841
-0.001662
-0.000676
0.000639
-0.001169
0.000803
-0.001827
-0.001005
-0.004621
-0.001991
-0.00232
-1.9e-05
-0.001005
0.001789
-0.001005
0.000639
0.002282
-0.000841
0.001296
0.000803
0.003268
0.000803
0.003268
0.000146
0.002775
0.000474
0.000146
0.00146
0.002611
0.001296
0.000474
-0.000512
-0.000676
0.00146
0.002775
0.003597
0.000474
-0.000347
0.001296
0.006556
0.00146
0.002118
0.000474
0.000146
-0.001005
-0.00232
0.000146
-0.002155
0.000639
-0.001169
-0.001334
-0.001498
0.001132
0.000474
-0.000676
0.00031
0.001132
0.001789
-0.001169
0.002447
-0.001498
-0.000512
0.000803
0.001625
-0.000512
0.000803
-0.001991
0.001789
-0.000676
0.002447
-0.000676
0.003268
0.002118
0.001132
0.002611
0.001132
0.000146
-0.002648
-0.000512
0.000146
-0.001662
-0.000183
0.001625
-0.000841
0.002611
0.002775
-1.9e-05
0.000803
0.004912
-0.001498
-0.001991
0.003268
-0.002484
0.001132
-0.001662
-1.9e-05
0.000967
0.000474
-0.001334
0.000639
-0.002484
-0.001169
-0.000676
-0.000183
0.000146
0.000639
0.00031
0.000474
0.003268
0.003104
-0.001662
-0.000841
0.001296
-0.00347
0.000803
0.00031
0.001296
0.000146
0.001789
-0.002155
-0.000183
-0.000676
0.000146
0.002118
-0.001169
0.00031
0.001789
0.002447
-1.9e-05
0.00409
-0.001662
0.001132
0.001625
0.000639
0.002118
0.002118
0.001789
0.00031
0.002118
0.000474
0.002447
-0.00232
-0.001991
-0.001334
0.003433
-0.000347
0.001132
0.000474
0.000803
0.002447
-0.000676
-0.000676
0.000639
0.00146
-0.001169
-0.001005
-0.005443
-0.001005
0.000146
-0.00232
-0.00347
-0.000183
0.000803
0.000803
0.001296
0.001789
0.00146
0.000639
-1.9e-05
0.001954
0.000803
0.000639
0.000967
0.002775
0.012637
0.019868
0.028744
0.032524
0.03992
0.047316
0.056191
0.057671
0.069011
0.072298
0.080023
0.084461
0.086597
0.091528
0.094487
0.099089
0.099582
0.107799
0.107306
0.114867
0.117661
0.12292
0.125386
0.12933
0.130645
0.133275
0.137548
0.13837
0.143794
0.146588
0.144451
0.144615
0.149546
0.148889
0.151847
0.150368
0.152505
0.159243
0.163188
0.16253
0.167132
0.165982
0.168447
0.172392
0.16779
0.172392
0.16894
0.1742
0.173707
0.174035
0.175021
0.17535
0.178966
0.182417
0.18061
0.180116
0.182417
0.182582
0.184883
0.184225
0.189156
0.188006
0.188006
0.186362
0.18817
0.186855
0.186033
0.186362
0.187513
0.187513
0.191786
0.190471
0.190142
0.192443
0.190635
0.193101
0.188499
0.19195
0.192115
0.193758
0.191786
0.193101
0.190142
0.1908
0.193758
0.193429
0.191786
0.199839
0.193758
0.195566
0.19721
0.192279
0.196059
0.19573
0.199018
0.19836
0.197867
0.196223
0.198031
0.19721
0.195895
0.193758
0.193594
0.198689
0.19458
0.198196
0.196388
0.199182
0.19721
0.199018
0.200168
0.198853
0.196717
0.199511
0.19721
0.19836
0.199182
0.198031
0.196223
0.198196
0.201319
0.19573
0.200332
0.196388
0.197374
0.198196
0.197045
0.194744
0.196552
0.199839
0.20099
0.200004
0.197703
0.198689
0.197703
0.200825
0.194744
0.201812
0.19721
0.199675
0.200168
0.199346
0.199018
0.196881
0.199511
0.196388
0.200825
0.199346
0.19836
0.201812
0.199675
0.198196
0.202962
0.198853
0.199839
0.200497
0.199839
0.198689
0.200661
0.198031
0.199018
0.199182
0.196881
0.200004
0.198524
0.198689
0.198031
0.199346
0.199839
0.200825
0.199182
0.201647
0.200332
0.200168
0.198689
0.198524
0.197703
0.19573
0.196223
0.197703
0.198031
0.194251
0.199675
0.199839
0.200332
0.199018
0.201483
0.197538
0.198196
0.197538
0.198689
0.19836
0.199182
0.197703
0.199511
0.199018
0.199018
0.201647
0.198689
0.203291
0.199675
0.20362
0.19836
0.201154
0.202469
0.20099
0.204441
0.198031
0.201647
0.19836
0.198853
0.196552
0.199182
0.197374
0.199018
0.199018
0.200168
0.20099
0.199182
0.201647
0.200661
0.200661
0.199839
0.200332
0.199511
0.200661
0.201647
0.198524
0.197045
0.199018
0.199839
0.198196
0.196881
0.199182
0.197867
0.200168
0.199346
0.202305
0.199511
0.197374
0.203455
0.199675
0.201154
0.199675
0.200661
0.198524
0.203455
0.196059
0.200168
0.200168
0.201483
0.200168
0.200332
0.199346
0.200004
0.199839
0.200004
0.201647
0.198031
0.198689
0.200168
0.199018
0.20099
0.201976
0.196717
0.199839
0.199511
0.20214
0.201483
0.19721
0.202469
0.199182
0.201976
0.200004
0.201976
0.199182
0.200004
0.202798
0.202633
0.197867
0.20099
0.200497
0.197538
0.197867
0.198689
0.200497
0.195073
0.202305
0.196881
0.202305
0.205427
0.20214
0.201483
0.204113
0.201812
0.201647
0.203784
0.19836
0.19573
0.19836
0.19836
0.200661
0.198031
0.199346
0.20099
0.198524
0.20099
0.201154
0.20214
0.197703
0.201483
0.202798
0.204277
0.198853
0.200497
0.198689
0.202469
0.196552
0.197045
0.198853
0.195566
0.197867
0.198524
0.200661
0.196881
0.201319
0.200332
0.202305
0.20362
0.203291
0.20099
0.200661
0.198031
0.196881
0.198031
0.195073
0.198524
0.197374
0.201647
0.196388
0.202305
0.197538
0.198524
0.200497
0.20099
0.200168
0.198853
0.202305
0.198524
0.200661
0.198524
0.200168
0.197867
0.199182
0.197045
0.198853
0.199511
0.200004
0.201976
0.200168
0.203291
0.202633
0.203126
0.201483
0.200004
0.198689
0.200332
0.197538
0.203455
0.201812
0.198689
0.198853
0.200825
0.200661
0.193594
0.201319
0.198689
0.199675
0.198196
0.202469
0.200661
0.202305
0.197703
0.200497
0.199182
0.197703
0.199511
0.199346
0.199675
0.200168
0.199511
0.197703
0.196388
0.198031
0.201483
0.20214
0.201647
0.198689
0.200825
0.199346
0.201319
0.200004
0.202469
0.200168
0.200004
0.199346
0.202962
0.196388
0.198689
0.197045
0.199018
0.198196
0.200661
0.202469
0.197867
0.199346
0.199675
0.201812
0.197538
0.199182
0.200825
0.19836
0.198689
0.20099
0.200661
0.199839
0.199182
0.198031
0.199511
0.196388
0.196223
0.197045
0.196717
0.198689
0.201483
0.201483
0.200168
0.201319
0.198031
0.200332
0.198031
0.19573
0.196223
0.20099
0.195073
0.203948
0.20362
0.200825
0.19836
0.200168
0.203291
0.199182
0.199346
0.198524
0.202469
0.198853
0.202962
0.201812
0.200168
0.194416
0.204113
0.203455
0.199346
0.199018
0.198524
0.19836
0.197374
0.20214
0.202798
0.200168
0.198853
0.202305
0.205427
0.199839
0.198853
0.200497
0.199839
0.20099
0.203291
0.20362
0.199839
0.197703
0.199182
0.201483
0.198853
0.200825
0.199839
0.200168
0.199182
0.203126
0.206085
0.200004
0.201154
0.202305
0.199346
0.197867
0.199839
0.198031
0.198689
0.199675
0.200004
0.201483
0.198031
0.203784
0.203291
0.192772
0.198689
0.201483
0.199018
0.201976
0.200497
0.20099
0.199346
0.199346
0.199511
0.195073
0.18932
0.195895
0.200004
0.198196
0.199839
0.198853
0.200825
0.199182
0.203784
0.200168
0.198524
0.188992
0.198031
0.19836
0.199182
0.198031
0.195566
0.198031
0.199346
0.201976
0.199839
0.200497
0.197045
0.200004
0.200004
0.20362
0.200661
0.200004
0.201319
0.196223
0.20099
0.197538
0.204277
0.199839
0.19721
0.19836
0.200497
0.199511
0.203291
0.204277
0.203126
0.201483
0.199018
0.201154
0.199839
0.200004
0.197867
0.199839
0.197703
0.200661
0.19836
0.198689
0.197538
0.200661
0.197703
0.20214
0.19721
0.200168
0.199346
0.199839
0.200497
0.199018
0.198689
0.201154
0.199346
0.196881
0.199182
0.19721
0.197374
0.18932
0.195073
0.191293
0.193265
0.183404
0.170255
0.157271
0.143794
0.129166
0.119469
0.107471
0.091692
0.090706
0.087912
0.090049
0.086433
0.095473
0.091035
0.089556
0.090213
0.089391
0.083639
0.082982
0.079037
0.072627
0.066546
0.053726
0.057999
0.055205
0.056684
0.053069
0.048795
0.046659
0.046001
0.040577
0.031867
0.031867
0.029566
0.031045
0.027265
0.029894
0.026114
0.022169
0.014609
0.008363
0.008035
0.011979
0.0105
0.010007
0.013294
0.014445
0.011815
0.010829
0.017239
0.014938
0.015595
0.014938
0.018225
0.01313
0.016746
0.020033
0.017567
0.011651
0.013294
0.017567
0.024306
0.027593
0.021512
0.019211
0.020855
0.026771
0.028415
0.021512
0.021183
0.02973
0.034825
0.036304
0.040742
0.046659
0.043371
0.056191
0.047152
0.052575
0.056849
0.057177
0.066217
0.070326
0.073613
0.078544
0.079694
0.081338
0.088077
0.087584
0.093665
0.095966
0.101225
0.102704
0.108786
0.111744
0.115524
0.121441
0.119633
0.121112
0.119797
0.125057
0.127358
0.132289
0.130152
0.138534
0.134918
0.138041
0.139027
0.138534
0.111251
0.041728
0.014773
0.00672
0.007377
0.005241
0.00787
0.002282
0.003761
-0.003635
0.002611
-0.001498
0.002118
0.000146
-0.001005
-0.000183
0.000639
0.000967
0.001296
0.000803
0.000803
-0.000512
-1.9e-05
0.001789
-0.001334
-0.000512
-0.001169
0.000639
-0.000512
0.00031
-1.9e-05
0.000146
0.000146
0.000474
0.000146
0.000146
-0.000512
-0.000676
-0.000676
-0.000183
-1.9e-05
-1.9e-05
0.00031
0.000146
0.000474
-1.9e-05
-1.9e-05
-0.000512
-0.000512
-0.000347
0.000146
-1.9e-05
-1.9e-05
0.00031
0.00031
0.000146
0.000146
0.000146
0.000474
0.00031
-0.000347
0.001296
-0.000676
0.000474
-0.000512
0.00031
0.001625
0.000967
0.005076
0.004255
0.013294
0.018389
0.027593
0.034496
0.043207
0.04748
0.054712
0.062108
0.063587
0.071148
0.078051
0.082653
0.083475
0.090706
0.095966
0.098267
0.10139
0.10517
0.107635
0.112894
0.117168
0.122263
0.124564
0.129988
0.132124
0.133275
0.137055
0.13311
0.14215
0.144451
0.146259
0.145273
0.150697
0.149546
0.150204
0.15497
0.158421
0.159901
0.163516
0.165489
0.161215
0.165324
0.167625
0.168776
0.168612
0.172392
0.170419
0.172556
0.171077
0.175515
0.173542
0.1742
0.177158
0.177815
0.180116
0.181267
0.18176
0.181924
0.183404
0.181267
0.186691
0.183404
0.182746
0.182089
0.184061
0.183568
0.184225
0.191457
0.188334
0.186691
0.189485
0.18932
0.189485
0.191457
0.192279
0.19458
0.191293
0.19573
0.191128
0.193429
0.194087
0.191293
0.19195
0.193758
0.190964
0.197045
0.195402
0.194251
0.19721
0.192443
0.192115
0.193594
0.196223
0.19458
0.197538
0.195402
0.194416
0.198689
0.19573
0.196059
0.196717
0.19721
0.193922
0.19721
0.195073
0.199511
0.194909
0.196059
0.198853
0.199182
0.197703
0.199018
0.198853
0.194251
0.19573
0.196223
0.195237
0.196223
0.201483
0.198689
0.197045
0.198031
0.201483
0.19573
0.202305
0.197867
0.197374
0.199346
0.199346
0.198031
0.202633
0.199346
0.198031
0.199675
0.199511
0.201647
0.198524
0.200825
0.197045
0.197703
0.197374
0.203126
0.20099
0.199346
0.200004
0.200825
0.198524
0.199182
0.200497
0.197867
0.200332
0.196552
0.201319
0.200825
0.198689
0.198524
0.200825
0.197867
0.197374
0.19836
0.202798
0.199018
0.201976
0.200497
0.198524
0.199018
0.197703
0.202633
0.196059
0.200661
0.198524
0.197538
0.197703
0.199182
0.197867
0.199511
0.200332
0.195566
0.20099
0.198031
0.199346
0.201812
0.201154
0.201483
0.205756
0.199182
0.204934
0.199018
0.200004
0.19836
0.198689
0.199675
0.195566
0.19836
0.194744
0.200168
0.196223
0.201483
0.199346
0.201319
0.199511
0.199839
0.199346
0.201483
0.201319
0.199839
0.197867
0.199675
0.200332
0.200168
0.199346
0.195402
0.197374
0.198031
0.199018
0.196552
0.199182
0.196223
0.200497
0.199839
0.201812
0.200661
0.203455
0.199018
0.198196
0.199182
0.199018
0.199182
0.197374
0.20214
0.198689
0.19836
0.199182
0.202305
0.198524
0.200004
0.199018
0.200004
0.200825
0.20099
0.200168
0.197374
0.202469
0.198689
0.201483
0.197867
0.199182
0.197374
0.19836
0.199346
0.196717
0.200332
0.19836
0.202962
0.200168
0.200332
0.197703
0.199675
0.199182
0.199839
0.202633
0.199675
0.195073
0.197374
0.198853
0.19458
0.197374
0.19836
0.196881
0.196717
0.200168
0.198853
0.199511
0.200168
0.201154
0.199182
0.200661
0.199675
0.200825
0.197867
0.200004
0.196388
0.197538
0.197538
0.195402
0.19836
0.201154
0.196717
0.199346
0.200825
0.198524
0.20214
0.20362
0.203455
0.198853
0.203291
0.202305
0.199675
0.199182
0.199511
0.199346
0.197538
0.199182
0.199018
0.201483
0.197867
0.201483
0.199182
0.201647
0.202962
0.202633
0.202305
0.199346
0.198031
0.199018
0.198689
0.194251
0.201976
0.195237
0.197867
0.19721
0.197867
0.198524
0.199511
0.198031
0.202633
0.200661
0.200661
0.201812
0.200004
0.200168
0.199839
0.200004
0.197703
0.194251
0.197045
0.19721
0.19573
0.197703
0.198031
0.202305
0.200661
0.200661
0.201483
0.196552
0.200168
0.197374
0.198853
0.198689
0.199018
0.199018
0.199182
0.19721
0.206907
0.199182
0.196552
0.198853
0.199182
0.199511
0.196223
0.199675
0.201647
0.200168
0.199018
0.198031
0.203948
0.199346
0.195566
0.197867
0.194087
0.197867
0.198196
0.200168
0.199182
0.198689
0.199675
0.203455
0.196717
0.200497
0.200168
0.198524
0.200497
0.199675
0.200332
0.195073
0.19836
0.197703
0.198689
0.194909
0.199511
0.199839
0.200332
0.199675
0.198031
0.199018
0.19721
0.201647
0.19836
0.194744
0.196717
0.199018
0.198031
0.199346
0.197867
0.200497
0.199675
0.198853
0.198196
0.201154
0.188006
0.197703
0.200168
0.194744
0.199675
0.19836
0.199675
0.19721
0.201812
0.197374
0.197045
0.188006
0.19721
0.197703
0.199018
0.199346
0.198524
0.200497
0.202469
0.200661
0.200332
0.201483
0.193101
0.200004
0.199511
0.195566
0.195237
0.198689
0.198853
0.201812
0.199511
0.200004
0.200332
0.197867
0.197045
0.200825
0.202798
0.200168
0.200004
0.200332
0.203784
0.198689
0.199511
0.20099
0.198853
0.19721
0.19836
0.198031
0.200168
0.203291
0.200004
0.203455
0.198031
0.196552
0.197045
0.198689
0.19458
0.199018
0.197703
0.200168
0.198524
0.199182
0.201154
0.200168
0.200004
0.19836
0.200004
0.196059
0.199346
0.195237
0.201647
0.196717
0.200825
0.200168
0.200004
0.201483
0.19836
0.199346
0.196552
0.200332
0.200168
0.201319
0.20099
0.20099
0.199018
0.202305
0.200004
0.19836
0.197867
0.197538
0.198689
0.197374
0.198689
0.199675
0.202633
0.195566
0.201812
0.196059
0.199346
0.20099
0.199182
0.197538
0.198524
0.195895
0.197045
0.197703
0.196881
0.197045
0.197045
0.196059
0.197703
0.201319
0.200332
0.200168
0.199182
0.200825
0.206414
0.198196
0.199839
0.200168
0.197703
0.198689
0.198524
0.199675
0.202962
0.201154
0.20099
0.196223
0.200004
0.199511
0.202633
0.203291
0.203291
0.200661
0.198853
0.197045
0.19836
0.198031
0.195073
0.19721
0.195566
0.200004
0.199182
0.199182
0.200332
0.199346
0.199675
0.198031
0.198031
0.198524
0.198196
0.198853
0.199675
0.198524
0.19836
0.197374
0.198853
0.196059
0.196223
0.195073
0.198524
0.200825
0.201812
0.201483
0.201976
0.200332
0.201976
0.201483
0.197045
0.200332
0.197045
0.199839
0.197374
0.197374
0.199675
0.202305
0.200332
0.199675
0.20214
0.199182
0.201154
0.199675
0.20099
0.199018
0.201483
0.198031
0.200825
0.198031
0.19458
0.197538
0.197374
0.195402
0.199675
0.199182
0.196552
0.200661
0.200004
0.197867
0.198853
0.200825
0.198031
0.19836
0.196717
0.197703
0.199182
0.197374
0.197374
0.198853
0.198853
0.205592
0.202633
0.200661
0.200004
0.200004
0.200168
0.199839
0.198689
0.199839
0.200661
0.198031
0.199675
0.200332
0.198853
0.201483
0.199675
0.194909
0.199511
0.19721
0.199346
0.201647
0.194251
0.199511
0.201647
0.200332
0.201154
0.200661
0.200332
0.199346
0.193758
0.202305
0.200661
0.199346
0.200332
0.198031
0.200168
0.199182
0.200661
0.198524
0.201483
0.195895
0.200168
0.198853
0.199018
0.197045
0.201319
0.199675
0.197045
0.199018
0.199018
0.199511
0.197538
0.200168
0.198524
0.197867
0.197538
0.202305
0.197703
0.199182
0.19836
0.199346
0.198853
0.200825
0.199675
0.200661
0.200332
0.199018
0.201319
0.194909
0.198853
0.196717
0.198524
0.197045
0.199182
0.198031
0.200497
0.19836
0.200661
0.200661
0.199675
0.204113
0.204441
0.199182
0.200332
0.201319
0.198524
0.202633
0.201154
0.202798
0.19573
0.199675
0.19721
0.198031
0.198689
0.196717
0.200332
0.199839
0.200825
0.197867
0.196059
0.196223
0.200168
0.198524
0.199839
0.19721
0.198524
0.196388
0.201483
0.198196
0.199675
0.197703
0.199346
0.200004
0.199182
0.200004
0.199018
0.20099
0.202305
0.20362
0.200825
0.202305
0.199346
0.199675
0.197867
0.200004
0.197045
0.196059
0.199675
0.194416
0.200825
0.202469
0.201812
0.198853
0.200661
0.197045
0.197703
0.199182
0.198689
0.201319
0.200825
0.197538
0.200004
0.19836
0.197538
0.20099
0.198031
0.197045
0.197867
0.197703
0.20099
0.200661
0.198524
0.203455
0.199675
0.200497
0.202305
0.19836
0.198689
0.200497
0.19836
0.197703
0.198196
0.198853
0.200661
0.198031
0.199511
0.19836
0.19573
0.193594
0.199182
0.200168
0.199182
0.199182
0.199018
0.200497
0.201154
0.199018
0.19721
0.199839
0.194909
0.19836
0.197045
0.195402
0.193101
0.196717
0.196223
0.199675
0.199511
0.198853
0.200332
0.198031
0.200661
0.198689
0.197045
0.19721
0.197867
0.195073
0.198524
0.19573
0.194416
0.19836
0.198031
0.199839
0.199511
0.199346
0.200004
0.20362
0.20362
0.202962
0.197703
0.200497
0.198196
0.199511
0.19836
0.198853
0.196881
0.198853
0.199182
0.19721
0.200661
0.200661
0.200168
0.196059
0.19573
0.195237
0.201483
0.196881
0.197703
0.198853
0.199182
0.199675
0.197045
0.199346
0.19573
0.198031
0.197374
0.198196
0.199018
0.195895
0.201319
0.201976
0.197703
0.199182
0.196388
0.195073
0.198031
0.196388
0.195895
0.196552
0.196881
0.199182
0.198196
0.19458
0.202798
0.197374
0.200004
0.198689
0.20099
0.199675
0.202305
0.197703
0.201647
0.198853
0.199182
0.198689
0.199018
0.196717
0.199018
0.199839
0.197867
0.202798
0.198031
0.200497
0.204277
0.198524
0.199839
0.201483
0.198524
0.19836
0.198689
0.198031
0.199839
0.19836
0.198853
0.198031
0.198853
0.197374
0.200661
0.197867
0.199018
0.198031
0.199018
0.198196
0.201319
0.199675
0.19836
0.200004
0.197374
0.196881
0.195402
0.197538
0.197867
0.200661
0.197374
0.199511
0.198689
0.198689
0.201154
0.199675
0.198524
0.195402
0.20099
0.198689
0.199346
0.197374
0.199839
0.198524
0.197867
0.198853
0.200332
0.199346
0.199182
0.19721
0.199346
0.20099
0.20099
0.195566
0.202633
0.199018
0.199018
0.199839
0.200825
0.197374
0.197538
0.20099
0.198524
0.199018
0.196717
0.201154
0.200497
0.198853
0.199182
0.199182
0.199511
0.196552
0.199839
0.197538
0.201154
0.194251
0.20099
0.199839
0.199839
0.200497
0.199182
0.197538
0.200004
0.19836
0.198689
0.196717
0.196881
0.200661
0.198689

Kurve 6

0.001132
0.000639
-0.005114
-0.001991
0.003268
-0.002155
0.004912
0.001789
0.003761
0.001296
0.002775
0.003433
0.000803
-0.000512
0.001132
0.00031
-0.001169
-1.9e-05
0.001789
0.001132
-0.000347
0.001789
0.001789
0.001789
0.000803
-1.9e-05
0.002118
0.003761
0.000803
0.005241
-0.002813
-0.001498
-0.001005
0.002447
0.003268
-0.003306
0.001132
-0.000512
0.001296
0.000146
0.002447
0.00031
0.002775
-0.000347
0.003926
0.000639
0.001132
-0.000183
0.000146
0.000967
-0.001005
0.000967
0.001789
0.000967
-0.001827
0.001132
-0.000183
0.001789
-0.002484
0.002611
0.000803
0.00146
-0.001334
-0.001498
0.001789
0.000803
0.001132
-0.003799
0.001625
0.000639
0.000967
0.00031
0.000474
-0.000183
-0.000512
0.000967
0.00294
0.000474
-0.000183
0.000967
0.002611
0.005898
0.002775
0.002775
0.002118
0.001789
0.00294
0.001132
0.001296
0.000146
-0.004456
0.00294
-0.002155
0.000639
-0.000512
-1.9e-05
0.001296
-0.000841
0.003761
0.00031
0.002775
0.001954
0.003268
0.001132
0.003268
-0.001005
0.002447
0.00294
-0.000183
0.000639
-0.001498
0.000474
-0.002155
-0.001827
-0.002977
-0.001334
-0.002155
-0.000841
0.000146
0.000639
0.000967
0.003597
-0.000347
0.002611
0.00031
-0.000841
-0.000512
-0.000841
0.002282
0.000803
-0.001498
-0.000347
-0.001498
-0.000841
0.001625
0.001132
0.000967
-1.9e-05
0.000639
-0.000183
-0.000512
-0.000676
-0.000183
-0.001662
-1.9e-05
-0.000183
0.00031
0.000146
0.000474
0.000474
-0.000347
0.000146
-0.001005
-0.000183
-0.001169
0.00031
-0.000676
0.000146
0.00031
-1.9e-05
0.000146
-0.000183
-0.000347
-0.000841
-0.000512
-0.000676
-1.9e-05
-1.9e-05
0.000146
0.000146
0.00031
0.000146
-0.000183
-0.000512
-0.000347
-0.000841
-0.000183
-1.9e-05
-1.9e-05
0.00031
0.000146
0.000146
0.000146
-1.9e-05
-0.000183
-0.000347
-0.000183
-1.9e-05
-0.000183
0.000146
-1.9e-05
0.000146
0.000146
0.000146
-0.000183
-0.000347
-0.000676
-0.000512
-0.000347
-1.9e-05
-1.9e-05
0.000146
0.00031
-1.9e-05
0.00031
-0.000183
-0.000512
-0.000512
-0.000512
-0.000512
-0.000183
0.000146
-0.000183
0.00031
0.000146
0.00031
-0.000347
-0.000512
-0.000347
-0.000512
-0.000841
0.000146
-1.9e-05
0.000146
0.00031
0.000474
-1.9e-05
-0.000347
-0.000676
-0.000512
-0.000676
-0.000512
0.000474
-0.002484
0.001132
0.000146
0.000803
0.001132
0.000803
0.000967
0.000967
0.002611
0.002118
0.001954
0.000474
0.000967
-0.001662
0.000803
-0.001005
-0.000841
-0.002648
-1.9e-05
0.00031
0.00146
0.002775
-0.001827
0.000967
-0.000183
0.001625
0.00031
0.003104
-0.002155
0.003761
-0.001662
0.001954
-0.001991
-0.002813
-0.001005
0.001296
0.000146
-0.001827
0.001625
-0.000183
0.000803
0.00146
0.00031
0.001789
0.001789
0.002282
0.004419
-0.000841
0.00031
0.001954
-0.000841
0.004583
0.000146
0.002118
-0.001498
-0.001169
0.000803
0.00031
-1.9e-05
0.001132
0.00146
0.003761
-0.000676
0.001625
0.003433
-0.001498
-0.001827
-0.002155
0.001296
-0.00232
-0.001005
-0.002155
0.000803
-0.000841
0.002118
0.002611
0.000146
-0.000183
0.000803
0.000474
-0.000512
0.000639
0.000474
0.000803
-0.001827
0.002282
0.000639
-0.001334
-0.002813
0.002447
-0.001169
-0.002155
-0.000841
0.00294
0.000146
-0.000512
-0.000512
-1.9e-05
0.000967
0.000474
-0.001005
-0.00232
0.000474
-0.001991
0.002611
0.00146
0.000967
-1.9e-05
-0.000676
0.000803
-0.000183
0.002282
-0.001498
0.002447
-0.000841
0.003268
-0.000347
0.00409
0.002118
0.002118
0.001296
0.003104
0.000967
0.003268
0.001132
-0.003142
0.001132
-0.00232
0.002447
0.001625
0.001296
-0.001662
-1.9e-05
-0.000676
0.003104
-0.000347
-0.000183
0.001789
0.004255
-0.000512
0.001954
0.002611
-0.000676
0.000967
0.002447
0.001132
0.001789
-0.002648
0.002118
0.003268
-0.000183
0.000474
-0.001498
0.00146
0.001625
0.00031
0.000967
0.000474
-1.9e-05
0.002447
0.002282
-0.001169
0.002118
0.001625
-0.001334
-0.000183
0.003104
0.002447
0.002611
0.003761
0.003926
0.002775
0.000474
-0.000183
0.000803
-0.001005
0.000146
-0.000183
-0.001334
0.002775
-0.000183
-0.000347
0.001296
0.003268
0.001132
0.004748
0.002118
0.00146
0.002282
0.000146
0.004748
0.00146
0.007377
0.00294
0.00294
0.002447
0.00294
0.000639
0.000474
-0.000841
0.002447
0.003597
-1.9e-05
0.004419
0.005076
0.002118
0.002447
0.004912
0.001132
0.002611
0.00146
0.002447
-0.001498
0.003268
0.001132
0.004255
0.002282
0.003268
0.008199
0.002447
0.002447
0.002118
0.004748
0.000474
0.006227
0.007213
0.003433
0.004583
0.004748
0.006062
-0.000676
-0.001827
-0.001498
0.000474
0.00031
0.004912
0.002775
0.005076
0.000146
0.001954
-0.002977
0.000146
0.00031
-0.001334
-0.002648
0.00031
0.000639
0.002118
-0.000347
0.000474
0.00146
-0.007415
0.000474
-0.001334
0.002775
-0.000841
0.003433
0.003268
0.007213
0.001954
0.002775
0.000803
-0.011852
-1.9e-05
-0.000347
0.002775
0.002447
0.00031
0.002118
0.004748
0.000474
0.002282
0.001625
-0.002813
0.003761
0.005898
0.003104
0.001132
0.003104
0.000146
0.001625
0.001132
-0.002155
0.001625
0.00031
-0.001005
0.005241
-0.001005
0.003104
0.001789
0.005405
0.00409
0.007377
0.003926
0.002118
0.002775
0.000474
0.002447
0.000967
0.001296
0.003926
0.005734
0.000474
0.005241
0.002118
0.002118
0.002282
0.001625
0.002447
0.001625
0.002118
0.002118
0.003597
-1.9e-05
0.003761
0.00409
0.00787
-0.000841
0.004748
-0.001334
0.003104
0.001789
0.002775
0.00409
-0.000676
0.002611
0.00031
-0.000347
0.000146
0.001789
-0.000841
0.003268
0.002118
0.001132
0.003597
0.002611
0.001954
0.002447
0.002118
0.00294
0.000146
-0.001005
0.003104
0.004419
0.002447
0.003761
0.00409
-0.000183
0.005241
0.003597
0.00409
0.007049
0.003597
0.000803
0.003926
-0.000347
0.002447
0.000803
0.001789
0.003597
0.000639
0.001954
-1.9e-05
0.003761
0.000474
0.006227
0.00409
0.003433
0.000967
0.003761
0.001625
0.001296
0.001296
0.002118
-0.001991
-0.002977
-0.002813
-0.003142
-0.000183
-0.002155
0.000639
-0.001169
0.002447
0.001954
0.003926
0.000639
0.00031
0.000474
-0.001827
0.000146
-0.007086
-0.001827
-0.001991
0.000146
-0.00232
0.001789
-1.9e-05
0.000639
-0.001662
0.002118
0.001296
-0.000512
0.001954
0.000803
0.00031
-0.00347
0.000967
-0.002813
-0.000512
-0.003799
0.001296
-0.005936
-0.004456
-0.001827
0.000146
-0.000676
0.001789
0.003433
-1.9e-05
0.001132
-0.00232
-0.001005
-0.00347
-0.004128
-0.00232
-0.002977
-0.002484
-0.000347
-0.002155
-0.001991
-0.001827
-0.00232
-0.005114
0.000803
-0.002648
0.000967
0.000639
-0.003306
0.000146
0.000639
-0.001662
-0.001991
-0.003799
-0.002484
-0.001334
-0.002648
0.000967
-0.001169
-0.001498
0.00031
0.003433
-0.001005
-0.002813
0.001132
-0.002813
0.001789
-0.000841
0.001132
0.000639
-0.003142
-0.003306
0.002282
-0.003963
-0.002813
-0.001005
-0.003963
-0.000183
0.003104
0.002611
-0.002484
0.001625
-0.00232
0.00294
-0.000183
0.00031
-0.001005
0.00146
0.001954
0.001296
-0.000841
-0.001169
-0.001827
-0.001498
0.004912
-0.003306
-0.003306
-0.001334
-1.9e-05
0.001789
0.004419
-0.000347
0.001954
0.001296
0.000803
-0.001169
-0.000841
-0.000512
-0.001662
0.001625
-0.001005
-0.001005
-0.002977
-0.002155
-0.001005
-1.9e-05
-0.001827
-0.000676
-0.000676
0.003104
0.00031
-0.000841
0.000146
-0.000183
0.00031
-0.000183
0.003433
-0.0061
-0.000512
0.002282
0.010993
0.019375
0.028744
0.03351
0.042714
0.046987
0.054712
0.060136
0.06293
0.069504
0.071312
0.078873
0.084132
0.088734
0.093172
0.101225
0.101554
0.106813
0.110429
0.117003
0.118811
0.125057
0.122756
0.128344
0.132617
0.132289
0.141
0.140013
0.141
0.143465
0.144287
0.14215
0.147574
0.151683
0.151354
0.154148
0.160394
0.160229
0.160065
0.163516
0.165489
0.167461
0.16401
0.169598
0.171077
0.169762
0.170584
0.172063
0.168283
0.174528
0.174857
0.176172
0.181924
0.178144
0.178966
0.181267
0.181267
0.180445
0.182582
0.181431
0.18439
0.181431
0.187184
0.185869
0.186033
0.186033
0.186855
0.188334
0.185376
0.188334
0.190142
0.192115
0.190471
0.193922
0.1908
0.193265
0.19195
0.193758
0.190964
0.194416
0.19195
0.192115
0.194251
0.192115
0.195237
0.195566
0.194416
0.192936
0.195237
0.200332
0.193101
0.194251
0.199018
0.193758
0.197374
0.196223
0.196552
0.199182
0.19573
0.196223
0.194744
0.196717
0.195895
0.198689
0.196388
0.200332
0.197045
0.19721
0.193101
0.197703
0.195237
0.199346
0.199839
0.197867
0.20214
0.200004
0.197703
0.202798
0.196552
0.196059
0.200168
0.196059
0.199675
0.199018
0.199511
0.198689
0.198853
0.199346
0.199675
0.201319
0.199839
0.203455
0.201154
0.200661
0.199346
0.201154
0.200497
0.201647
0.198853
0.204277
0.198524
0.200168
0.197867
0.197538
0.203455
0.197867
0.198524
0.202633
0.20362
0.202305
0.203455
0.20214
0.200168
0.200168
0.200825
0.198524
0.201976
0.198689
0.197538
0.198196
0.199018
0.202469
0.200825
0.201976
0.20214
0.202305
0.199675
0.204277
0.197374
0.200825
0.20099
0.201154
0.19836
0.203455
0.199675
0.197867
0.200168
0.198853
0.201483
0.199182
0.203126
0.199675
0.202469
0.199346
0.204277
0.199182
0.202962
0.199182
0.201976
0.197703
0.19836
0.198689
0.19836
0.199182
0.197703
0.203455
0.196717
0.202962
0.197374
0.203784
0.200661
0.203291
0.200332
0.201154
0.201647
0.200004
0.201483
0.196059
0.198196
0.195895
0.198853
0.201154
0.201319
0.197374
0.199675
0.199839
0.203291
0.20362
0.200661
0.201319
0.203126
0.200004
0.199675
0.199182
0.200661
0.20099
0.197703
0.201976
0.196059
0.200004
0.198524
0.197045
0.200004
0.199675
0.200004
0.203126
0.201647
0.204113
0.20362
0.200168
0.200004
0.199346
0.201154
0.198031
0.201483
0.196552
0.200825
0.200332
0.199018
0.196059
0.202305
0.200004
0.199675
0.203784
0.202469
0.200332
0.198196
0.200825
0.196388
0.199346
0.200004
0.200004
0.201154
0.196552
0.197045
0.199018
0.199675
0.201812
0.203126
0.202305
0.201976
0.200825
0.203455
0.197538
0.202962
0.198524
0.201812
0.201647
0.198031
0.200332
0.20214
0.19836
0.20214
0.202798
0.199346
0.201976
0.200825
0.200497
0.198853
0.200004
0.200497
0.201319
0.200332
0.201483
0.201647
0.199182
0.198524
0.20099
0.198196
0.193429
0.199346
0.199346
0.201154
0.199346
0.201319
0.200825
0.200168
0.19836
0.201319
0.199018
0.200168
0.197703
0.201154
0.203948
0.203291
0.204934
0.199675
0.195402
0.198031
0.200825
0.19721
0.199839
0.196881
0.201647
0.200004
0.204441
0.199675
0.206742
0.19836
0.199839
0.199675
0.199511
0.200332
0.197045
0.201154
0.200004
0.201976
0.196881
0.202633
0.200332
0.20362
0.201319
0.199182
0.20214
0.200332
0.202305
0.199675
0.201154
0.201647
0.201812
0.199018
0.197045
0.196717
0.196881
0.197374
0.201154
0.201154
0.20099
0.197538
0.201319
0.192115
0.199018
0.200332
0.198196
0.201319
0.199839
0.200332
0.200825
0.20099
0.198196
0.200661
0.188992
0.198031
0.202798
0.198853
0.201319
0.201319
0.201812
0.200661
0.202962
0.20099
0.201647
0.190964
0.199182
0.199018
0.202798
0.19836
0.202469
0.19721
0.200004
0.199511
0.19721
0.200825
0.197538
0.197538
0.199675
0.201319
0.198524
0.200004
0.199182
0.201647
0.199182
0.200825
0.195566
0.194416
0.190635
0.19573
0.198196
0.195402
0.19836
0.199675
0.201483
0.201976
0.201812
0.199346
0.201319
0.198853
0.201319
0.200661
0.200168
0.199839
0.199675
0.200497
0.199182
0.200168
0.201976
0.201154
0.200825
0.202305
0.199511
0.202305
0.199675
0.201154
0.200332
0.201976
0.202798
0.200168
0.200825
0.197538
0.200332
0.19836
0.199346
0.198196
0.202798
0.198853
0.200497
0.197538
0.202469
0.199839
0.201154
0.200497
0.200332
0.201154
0.198689
0.206414
0.202962
0.203455
0.199182
0.198196
0.195895
0.199182
0.19721
0.197374
0.197045
0.200497
0.200168
0.200825
0.201976
0.200332
0.201483
0.198524
0.200332
0.19836
0.201976
0.205263
0.199839
0.196388
0.199182
0.197703
0.196881
0.202305
0.201647
0.198689
0.199839
0.20099
0.201483
0.20099
0.201812
0.20362
0.197045
0.200825
0.199018
0.201319
0.197045
0.199346
0.196223
0.199839
0.199839
0.199839
0.199839
0.200661
0.201976
0.199839
0.198853
0.197538
0.201154
0.201647
0.202633
0.199675
0.201319
0.198853
0.199346
0.201483
0.199018
0.199675
0.201154
0.200168
0.200332
0.202305
0.199839
0.202633
0.200004
0.203784
0.198524
0.198853
0.200332
0.200497
0.199018
0.200661
0.199675
0.199839
0.200332
0.199182
0.201647
0.200661
0.198524
0.200332
0.203126
0.19836
0.200825
0.202305
0.200168
0.201319
0.199675
0.198524
0.20099
0.198853
0.197867
0.200004
0.197703
0.198689
0.198689
0.204113
0.201976
0.203126
0.198031
0.19721
0.196881
0.199182
0.200825
0.198853
0.196223
0.198853
0.199018
0.199182
0.201483
0.19836
0.201812
0.198853
0.200661
0.200661
0.200497
0.197374
0.197045
0.201647
0.20362
0.200661
0.197867
0.198524
0.198689
0.199346
0.199018
0.200168
0.196388
0.202633
0.200168
0.201483
0.198853
0.201647
0.199018
0.200168
0.201154
0.200332
0.200825
0.199018
0.198524
0.199018
0.199182
0.198196
0.200497
0.197538
0.199018
0.198853
0.19721
0.196552
0.19836
0.197374
0.195402
0.196881
0.197867
0.200825
0.200497
0.204113
0.198031
0.200825
0.200661
0.199675
0.199182
0.199511
0.199182
0.19721
0.199346
0.200168
0.205099
0.201976
0.201812
0.199511
0.200004
0.201154
0.202633
0.198196
0.202633
0.200332
0.200168
0.200004
0.200497
0.200497
0.198689
0.198853
0.196059
0.199675
0.201976
0.199346
0.199182
0.201812
0.199675
0.200004
0.199511
0.201812
0.199182
0.202633
0.200004
0.199511
0.197045
0.196552
0.200497
0.199182
0.20214
0.194416
0.200168
0.198689
0.198031
0.201647
0.20099
0.199182
0.20214
0.181596
0.183897
0.183404
0.180938
0.183404
0.182582
0.188006
0.185047
0.187513
0.185212
0.184883
0.190471
0.192608
0.189485
0.191293
0.189649
0.190142
0.190635
0.193429
0.189649
0.19195
0.192608
0.189978
0.191786
0.189814
0.192936
0.191293
0.192279
0.192608
0.195073
0.193101
0.1908
0.19721
0.194744
0.198031
0.197538
0.19721
0.191128
0.198689
0.195073
0.198031
0.196223
0.196059
0.195895
0.192936
0.194744
0.194744
0.19573
0.197374
0.198031
0.199018
0.199839
0.19573
0.197538
0.197703
0.199675
0.199346
0.195895
0.196552
0.197538
0.195566
0.198689
0.196223
0.194909
0.19836
0.198853
0.200497
0.19721
0.200825
0.199346
0.200004
0.197867
0.198031
0.196717
0.199511
0.196059
0.200332
0.196881
0.197703
0.19721
0.199839
0.198853
0.19836
0.19836
0.194744
0.198689
0.197703
0.198524
0.199675
0.19836
0.198524
0.20099
0.199018
0.197867
0.198524
0.198031
0.199511
0.199018
0.200825
0.200168
0.199346
0.201154
0.200661
0.198524
0.201319
0.198853
0.199346
0.195566
0.201483
0.197374
0.199018
0.200004
0.198689
0.203291
0.200168
0.200661
0.200004
0.200004
0.199675
0.201319
0.200497
0.200825
0.199675
0.20214
0.200825
0.198689
0.200497
0.197867
0.199839
0.200168
0.199675
0.200825
0.201647
0.200168
0.200168
0.196552
0.200825
0.199182
0.199511
0.198524
0.197045
0.200497
0.198196
0.201154
0.200332
0.19836
0.201647
0.199675
0.197045
0.201976
0.198031
0.199346
0.198524
0.200497
0.200661
0.199839
0.198196
0.198689
0.199839
0.198196
0.199675
0.199018
0.201647
0.202305
0.200168
0.195895
0.203784
0.197374
0.199018
0.200332
0.198524
0.20099
0.200168
0.20099
0.201154
0.201483
0.199675
0.202305
0.199675
0.202633
0.198853
0.200004
0.200332
0.206085
0.200004
0.199511
0.201976
0.199675
0.199346
0.200661
0.200825
0.197703
0.20099
0.199675
0.20362
0.200825
0.199839
0.199839
0.201154
0.202798
0.199675
0.200168
0.198031
0.199839
0.199675
0.19836
0.198689
0.199346
0.200332
0.202962
0.200168
0.203126
0.20362
0.201154
0.197374
0.197703
0.197703
0.200332
0.197045
0.200168
0.200661
0.199346
0.201976
0.197538
0.199182
0.199839
0.200661
0.198031
0.201976
0.199018
0.200004
0.200497
0.196059
0.199018
0.199018
0.19836
0.197703
0.200004
0.199346
0.199511
0.192936
0.200332
0.19836
0.199018
0.199511
0.20362
0.20099
0.200168
0.200332
0.199675
0.200332
0.198689
0.200004
0.199675
0.20099
0.194744
0.199018
0.198853
0.200332
0.199346
0.200825
0.201483
0.200332
0.200168
0.201154
0.198524
0.201812
0.203126
0.201812
0.200004
0.197867
0.200332
0.197703
0.200825
0.199675
0.199182
0.200004
0.199182
0.200004
0.199346
0.198524
0.202469
0.199018
0.20099
0.196552
0.201319
0.199511
0.199018
0.200168
0.199018
0.198524
0.19721
0.195237
0.196717
0.20099
0.194744
0.198689
0.199346
0.202633
0.203291
0.200332
0.20362
0.197538
0.199182
0.199675
0.197867
0.19458
0.198853
0.19836
0.196881
0.199182
0.202305
0.197703
0.199182
0.199346
0.200661
0.206907
0.19836
0.203455
0.202305
0.200332
0.199511
0.200661
0.196059
0.197045
0.196717
0.19836
0.197703
0.198031
0.199346
0.199018
0.188499
0.170584
0.167625
0.167132
0.170255
0.166311
0.173049
0.173049
0.168776
0.172885
0.175843
0.17535
0.168447
0.164503
0.16401
0.168283
0.168612
0.167461
0.151518
0.147738
0.141657
0.143301
0.142643
0.146752
0.142643
0.142643
0.148396
0.148231
0.14856
0.145273
0.142643
0.14215
0.147574
0.146423
0.150861
0.150368
0.144944
0.137548
0.140342
0.132946
0.129659
0.133275
0.13574
0.138534
0.138863
0.14215
0.144287
0.146259
0.143958
0.148396
0.150697
0.151847
0.152505
0.158586
0.157928
0.160229
0.15612
0.156613
0.155627
0.153655
0.155299
0.146259
0.135411
0.117825
0.100075
0.076079
0.0603
0.043536
0.036797
0.026114
0.002447
-0.000183
0.00031
0.000803
-1.9e-05
-0.000347
-0.000183
-0.000347
-0.000512
-0.000676
-1.9e-05
0.000146
0.00031
0.000146
0.00031
0.000146
-1.9e-05
-0.000183
-0.000676
-0.000347
-0.000841
-1.9e-05
-0.000183
-1.9e-05
-1.9e-05
0.00031
0.00031
-1.9e-05
-0.000347
-0.000512
-0.000512
-0.000676
-0.000183
-1.9e-05
0.00031
0.000146
0.00031
0.000146
-1.9e-05
-0.000347
-0.000676
-0.000676
-0.000347
0.000146
-1.9e-05
0.000146
0.00031
0.00031
0.000146
-1.9e-05
-0.000347
-0.000347
0.011486
0.01576
0.021676
0.026771
0.035154
0.04255
0.050274
0.058164
0.065231
0.067532
0.07312
0.07838
0.082488
0.086762
0.091857
0.100075
0.099089
0.10632
0.109607
0.113223
0.115524
0.120619
0.121112
0.12818
0.12555
0.135083
0.133439
0.136891
0.135576
0.14215
0.143136
0.146259
0.148396
0.149053
0.155134
0.14971
0.155463
0.158914
0.160558
0.1576
0.164174
0.165324
0.166804
0.167461
0.169269
0.179459
0.16894
0.171734
0.172556
0.173378
0.173214
0.177322
0.176008
0.179788
0.177158
0.178802
0.187841
0.177815
0.182582
0.186198
0.182417
0.183075
0.185376
0.187019
0.185869
0.189814
0.191293
0.190635
0.186526
0.187184
0.187841
0.184225
0.188663
0.191786
0.193758
0.194087
0.191293
0.194744
0.18932
0.1908
0.191786
0.192772
0.192936
0.191786
0.191786
0.193594
0.189814
0.190964
0.191786
0.181596
0.191293
0.191457
0.195566
0.196388
0.196059
0.191293
0.196552
0.194087
0.197703
0.195895
0.185047
0.194087
0.195402
0.195895
0.198524
0.198031
0.19573
0.19721
0.197703
0.198524
0.196552
0.188992
0.195073
0.197703
0.200004
0.198196
0.202305
0.193429
0.193429
0.198524
0.19573
0.197538
0.190635
0.194087
0.202633
0.199182
0.198524
0.198524
0.200004
0.194416
0.201647
0.199182
0.19721
0.196388
0.196552
0.196552
0.196059
0.194087
0.196223
0.197867
0.193101
0.20099
0.198689
0.197867
0.198031
0.198853
0.198689
0.199839
0.199675
0.199839
0.200497
0.196059
0.199018
0.199839
0.200004
0.200497
0.199675
0.195237
0.199346
0.197374
0.198031
0.199182
0.198689
0.20099
0.200497
0.20099
0.198853
0.195237
0.199182
0.199018
0.196881
0.200661
0.195237
0.196059
0.198524
0.199839
0.19836
0.198524
0.19836
0.199018
0.199675
0.200661
0.200004
0.198689
0.198524
0.197538
0.202469
0.201483
0.197538
0.198196
0.199182
0.198853
0.198853
0.198524
0.200004
0.198853
0.200497
0.201483
0.201812
0.199018
0.199675
0.200661
0.196223
0.197045
0.194909
0.198031
0.198524
0.199675
0.194087
0.198853
0.198524
0.199182
0.198524
0.198689
0.200332
0.199675
0.200004
0.19721
0.199182
0.201319
0.201976
0.200168
0.199182
0.19721
0.197538
0.19721
0.199511
0.198031
0.200168
0.197703
0.198853
0.202962
0.197374
0.201812
0.199018
0.199675
0.198689
0.200004
0.196059
0.199346
0.198031
0.200168
0.20099
0.199018
0.202305
0.198689
0.198031
0.198196
0.201483
0.199018
0.199346
0.200332
0.199018
0.202633
0.206578
0.202798
0.201647
0.201483
0.199018
0.196059
0.198689
0.199511
0.200168
0.202305
0.200004
0.200497
0.202798
0.196388
0.20099
0.202798
0.203291
0.203948
0.199018
0.203948
0.200825
0.200825
0.200825
0.199839
0.199346
0.199182
0.200168
0.19836
0.199675
0.196881
0.197374
0.19721
0.195402
0.195073
0.203948
0.198689
0.200332
0.201319
0.19836
0.20214
0.197703
0.201154
0.201812
0.199182
0.19836
0.202633
0.198031
0.199675
0.198689
0.200825
0.200825
0.199346
0.203948
0.199675
0.202469
0.199839
0.20214
0.198031
0.200497
0.199018
0.198524
0.201647
0.199346
0.196881
0.200497
0.197867
0.193758
0.19721
0.195566
0.198524
0.198196
0.200497
0.200004
0.198689
0.202633
0.200661
0.198524
0.203455
0.199511
0.198524
0.197538
0.196552
0.196881
0.199018
0.197867
0.197374
0.200661
0.199346
0.200661
0.199018
0.200004
0.199018
0.201483
0.200168
0.199346
0.199018
0.202962
0.198196
0.201647
0.199346
0.19721
0.20099
0.198689
0.199346
0.198853
0.200332
0.200825
0.204441
0.199346
0.200825
0.20099
0.199182
0.199511
0.196552
0.199675
0.197703
0.200661
0.19458
0.199018
0.199346
0.197045
0.20099
0.200004
0.198853
0.199675
0.200168
0.198524
0.199511
0.194251
0.199839
0.19195
0.19573
0.198853
0.199839
0.196223
0.196388
0.198031
0.199018
0.197703
0.200004
0.199839
0.201812
0.201483
0.200497
0.201647
0.199346
0.199839
0.195566
0.202469
0.198031
0.199182
0.200497
0.203455
0.197374
0.199675
0.201319
0.201976
0.205099
0.201812
0.201319
0.200661
0.199346
0.197867
0.20099
0.199675
0.199346
0.200004
0.197374
0.196717
0.200661
0.197538
0.19836
0.201483
0.197703
0.20214
0.197867
0.194251
0.200004
0.202798
0.198853
0.200661
0.198196
0.199018
0.196552
0.198689
0.198853
0.19721
0.199839
0.198524
0.200168
0.197703
0.202798
0.200004
0.19836
0.199182
0.201483
0.199839
0.20214
0.201319
0.199182
0.199839
0.199182
0.199182
0.198689
0.19573
0.195402
0.198031
0.199018
0.205099
0.200168
0.204277
0.199018
0.199675
0.199511
0.201976
0.198196
0.199346
0.200168
0.199511
0.200332
0.199346
0.203948
0.196223
0.200661
0.196223
0.201154
0.201483
0.197703
0.202633
0.198524
0.199182
0.197703
0.199675
0.200168
0.200497
0.198689
0.200168
0.198689
0.197867
0.200825
0.201976
0.197538
0.196881
0.199018
0.198031
0.199018
0.199675
0.19836
0.199839
0.200332
0.202305
0.201976
0.199839
0.200332
0.199675
0.202962
0.19721
0.196552
0.195237
0.199346
0.196059
0.200168
0.200168
0.198853
0.202633
0.199839
0.198689
0.199182
0.199839
0.199018
0.201154
0.199511
0.20099
0.199511
0.201812
0.201483
0.201812
0.194909
0.195402
0.196388
0.198031
0.198524
0.200825
0.199018
0.199511
0.203126
0.198196
0.204277
0.198853
0.199346
0.199018
0.198853
0.19836
0.198196
0.198689
0.199839
0.199675
0.197045
0.200332
0.197045
0.199018
0.199018
0.201812
0.198031
0.19836
0.199675
0.201976
0.203455
0.197867
0.19836
0.199839
0.196881
0.198031
0.198853
0.19721
0.198031
0.197867
0.200168
0.197374
0.203784
0.200661
0.200661
0.198524
0.199675
0.198524
0.19721
0.195237
0.199018
0.199675
0.200332
0.20099
0.197045
0.199018
0.195402
0.200004
0.196552
0.197538
0.20099
0.199675
0.200168
0.199839
0.201319
0.202469
0.197703
0.199346
0.199675
0.197374
0.199675
0.195895
0.201647
0.19721
0.200004
0.199018
0.201647
0.192115
0.199346
0.199018
0.200825
0.205592
0.19573
0.200661
0.199346
0.200332
0.199182
0.200332
0.19573
0.199182
0.197867
0.198031
0.199018
0.196881
0.200332
0.199839
0.199675
0.198853

Kurve 7

-0.000841
0.001132
0.003926
0.000639
0.003104
0.001625
0.003268
0.000474
0.000146
0.004255
0.002118
0.001296
0.000803
-0.002813
0.000803
0.001789
0.001132
-0.000347
0.00294
0.003268
0.003104
-0.000512
-0.001498
0.002282
-0.004785
-0.001662
-0.003306
-0.000841
-0.000183
-1.9e-05
-0.001827
0.003433
-0.000183
0.000803
-1.9e-05
0.00146
0.001625
0.00294
0.004912
-0.000676
0.003597
-0.000183
0.00294
0.001132
-0.000676
-0.001827
0.000146
-0.001662
0.004419
0.001789
0.000803
0.001132
0.003433
0.006062
0.004748
0.000474
0.001296
0.001789
-0.00232
0.000803
-0.001662
-0.000676
0.00031
0.001132
-0.000512
-0.001498
-1.9e-05
-0.000347
0.002118
0.000146
-0.001169
-0.001827
0.000639
0.000803
-0.001991
-0.003963
0.00146
-0.001334
-0.005278
0.00146
0.000639
-0.000841
0.000474
-0.000183
0.000474
0.004419
0.002447
-0.000183
0.001789
-0.001498
0.000803
0.002611
-0.001169
0.001954
-1.9e-05
0.001954
0.001296
-0.004456
-0.002977
0.001625
-0.001827
0.000474
0.000474
-0.000183
0.004912
0.002611
0.002447
0.002447
-1.9e-05
-0.000841
0.000803
0.00031
0.001132
0.006556
-0.001498
0.002611
0.001789
0.002447
0.001954
0.000146
0.001132
0.005898
-0.001005
0.003104
-0.000841
0.002611
0.00294
-0.000512
-1.9e-05
0.001789
0.003433
0.002282
0.001625
0.004255
0.002282
0.001132
0.003597
0.000146
0.002282
0.000146
0.000967
0.001296
0.00146
0.005734
0.000146
0.002775
0.004583
0.003926
0.002118
0.003268
0.002611
0.001296
0.000967
0.000474
0.000474
0.002118
-0.001498
-0.001662
0.000146
0.000803
-0.000183
0.001954
0.000474
0.003761
0.00146
0.000967
0.002775
0.00031
-0.00232
0.001132
0.006062
0.00294
-0.000183
0.000803
-0.001169
-0.001827
-0.005443
-0.002155
-0.00232
-0.001498
0.001132
0.004419
-0.001991
0.003761
0.000967
0.001296
0.00146
-0.000347
-0.000512
-0.000676
-0.004128
0.000146
0.001789
-0.000841
0.001296
0.000803
-0.000512
0.001625
0.007213
-0.001169
0.005569
0.000803
0.000967
0.000803
-0.006593
-0.001005
-0.001169
-0.001169
-0.000676
0.002282
-0.001827
0.001625
-0.001498
0.001789
0.000803
0.001132
-0.000347
0.00294
0.000639
0.005076
0.003597
-0.001498
-0.005114
-0.001005
-0.000676
-0.002484
0.000803
0.001789
0.003597
0.002118
0.001296
0.00294
-0.001169
0.001132
0.002118
0.000803
0.002282
-0.000347
-0.000676
0.002611
0.000146
0.001296
-0.002813
0.001296
-0.000676
0.001296
-0.00232
0.000474
0.000474
0.002282
-0.000347
0.003926
-0.001334
-0.001662
0.00031
-0.001827
-0.000676
-0.00232
0.002118
-0.001334
0.001132
0.000474
0.002775
-0.000183
0.00031
-0.000347
0.00031
0.000967
0.001132
0.001954
-0.003142
0.001132
-0.000512
-0.000512
-0.002813
0.001132
-0.001827
-0.002484
-0.002155
-0.000676
-0.000347
0.000474
-0.000841
0.002118
0.001296
-0.000347
0.002447
-0.000347
0.001132
-0.000676
0.002611
0.000474
0.000146
0.001625
0.002118
0.000639
0.000146
0.002775
-0.000347
0.000474
-0.005278
0.000146
-0.000347
0.00031
0.005076
-0.000183
-0.000183
0.001625
-0.000183
0.000146
0.000803
-0.000183
-0.000183
0.00146
-0.001662
0.004583
-0.001169
0.000474
0.002447
-0.001827
-0.000841
-0.003142
0.001296
-0.002484
-0.000183
-0.002155
0.001132
-0.001991
-0.003963
-0.001334
0.000146
0.001789
-0.0061
0.001789
-0.000841
0.000803
-0.001334
0.001296
-0.000512
0.003268
-1.9e-05
0.005241
-0.000841
0.000146
0.000967
0.00294
0.00294
-0.000841
0.001625
-0.001498
-0.000347
-0.003142
0.002282
0.000803
0.000967
-0.002484
-0.000347
-0.000512
0.00031
0.000967
0.00146
0.003104
-0.001169
0.008363
-0.003142
-0.000347
-0.001498
0.000146
-0.000347
0.000146
-0.003142
-0.002155
-0.001334
0.000474
0.001789
-0.003142
-0.001169
0.000803
0.003926
0.002775
0.004912
0.00146
0.002447
0.003761
0.000803
-0.00232
0.001296
-0.003142
-0.001498
0.000803
0.000474
0.003104
0.002447
0.000967
-0.003142
0.002118
-0.009058
-0.000512
0.000639
-0.002155
-0.000512
0.000803
-0.003306
0.001625
-0.001005
-0.002484
-0.000512
-0.013332
-0.002648
0.001132
-0.000841
0.000967
0.001625
0.000639
0.002775
0.000639
0.000639
0.003268
-0.00873
-0.002484
-0.003142
-0.00232
-0.001827
-0.000347
-0.004621
0.000146
0.003104
0.000803
-0.002648
-0.003142
-0.001169
0.002447
-1.9e-05
0.001625
0.000639
0.002118
0.002118
0.001296
-0.000347
-0.001005
-0.001169
-0.004128
0.001789
0.003268
-0.002813
-0.002484
0.001954
0.000639
0.002118
-0.000183
0.000639
0.002775
0.000639
-0.002155
-0.005771
-0.001498
-0.001991
0.003104
-1.9e-05
0.001296
-0.001334
0.00031
-0.001662
0.001789
-0.001169
0.002282
0.000639
0.003926
0.001296
0.002611
0.002118
-0.000676
-0.000347
-0.001827
-0.002484
-0.002648
-0.002648
-0.002155
0.001789
0.00409
-0.002648
-0.001005
0.002611
0.001296
0.001296
0.000967
0.003433
0.000639
-0.000512
0.001954
0.002282
0.001296
-0.001169
0.002282
-0.003306
-0.000676
-0.001827
-0.001334
0.000639
0.001296
0.001789
0.000146
0.003268
-0.002484
-0.000183
-0.000512
0.000639
-0.001005
-0.000347
-0.00347
-0.000512
-0.00232
0.000474
-1.9e-05
0.000967
0.00146
0.001132
0.00031
0.001296
0.001789
0.005569
0.003433
-0.000512
0.002447
-0.004128
0.000146
-0.000676
-0.002813
-0.000347
-0.000841
-0.00347
-0.003635
0.001296
0.001954
0.001132
-0.001005
0.005241
0.00031
0.001625
0.001954
0.000474
0.000803
0.001954
0.003597
-0.002813
-0.000183
0.004583
0.001954
-0.004128
0.002775
0.00146
0.002447
-0.000347
0.003433
0.001954
0.002118
-0.001005
0.000639
0.00031
-0.001498
-1.9e-05
0.00031
-0.001498
-1.9e-05
-0.001334
-1.9e-05
0.002775
-0.001991
0.000803
-1.9e-05
0.001625
0.000474
0.000967
0.000146
-0.000841
-0.000676
0.000967
0.000967
0.000146
-0.001662
-0.000347
0.002118
0.00146
0.003597
0.002118
0.001789
0.000967
0.003597
0.00031
0.002118
-0.004456
0.002447
0.001789
0.000146
0.00294
0.000146
0.001132
-0.001498
0.000803
-0.003306
0.002611
0.00031
0.003761
0.00146
-0.001498
0.003104
0.002775
-0.000512
0.00146
0.000967
0.000474
0.000803
-0.001827
0.002775
-1.9e-05
0.00146
-0.000512
0.003268
-0.00232
-0.00347
-0.005443
-0.002977
-0.001827
-0.001991
-0.001498
-0.000676
0.001954
0.000639
0.004583
-0.001169
0.002611
0.00031
0.001954
0.004748
0.001625
0.001296
0.000474
-0.002155
-0.000347
0.003761
-0.005278
-0.001334
-0.000841
0.000803
0.002118
0.001954
-0.001005
0.002118
0.000639
-0.000183
0.000967
0.00031
-0.00347
-0.002813
-0.002977
-0.002977
-0.004621
-0.000512
0.003597
-0.001662
0.003268
0.003761
-0.000676
0.001954
0.00146
0.00146
-1.9e-05
-0.001334
-0.000183
-0.000841
0.00031
-0.002484
-0.004292
-0.000347
-0.003306
-0.003306
-0.000512
0.00031
-0.001991
0.001625
0.001132
0.001954
0.002282
0.002611
-0.003635
-0.00232
-0.001005
-0.003306
0.001625
-0.000512
0.002118
-0.001334
-1.9e-05
-0.000183
0.004583
0.00031
0.003433
0.000639
0.001789
0.002611
-0.002813
0.002118
-0.001991
0.001296
0.000639
0.002611
-0.001662
0.001954
-0.002484
-0.001005
0.000639
0.000803
0.001789
0.003104
0.000967
0.000639
0.001954
-0.002155
0.003761
0.000967
-1.9e-05
0.005405
-0.000676
-0.002155
0.001954
-0.001991
-0.001991
-0.000676
0.000639
-0.000841
0.001789
0.001625
0.000967
0.001789
-0.003635
-0.002155
-0.000676
0.001954
0.004748
0.002611
-0.000183
0.000639
-0.000347
-0.000512
-0.000512
-0.000347
0.001296
0.001789
0.000803
0.00146
0.002282
0.00409
0.018225
0.018718
0.027593
0.032031
0.043207
0.044686
0.021348
0.005569
0.011815
0.019375
0.029566
0.037619
0.041892
0.050439
0.055534
0.063094
0.067203
0.074928
0.072134
0.08331
0.085776
0.091528
0.0935
0.09991
0.109607
0.106813
0.113223
0.115031
0.120291
0.122098
0.126207
0.128673
0.130645
0.135576
0.140178
0.138699
0.139849
0.144944
0.147245
0.148231
0.151025
0.153491
0.155956
0.157271
0.156285
0.159901
0.160229
0.162366
0.164996
0.170419
0.169433
0.172227
0.170091
0.172227
0.173049
0.173214
0.176336
0.17272
0.176336
0.18061
0.177158
0.176994
0.181431
0.178309
0.181596
0.181431
0.183404
0.184718
0.179459
0.179952
0.184883
0.186198
0.183732
0.187677
0.190471
0.186855
0.185869
0.189649
0.187513
0.191457
0.188006
0.187677
0.192443
0.193429
0.192443
0.195237
0.192443
0.193265
0.19195
0.191128
0.196059
0.192443
0.195566
0.192936
0.192279
0.190964
0.199018
0.192443
0.19458
0.194909
0.19573
0.197045
0.195566
0.197045
0.197374
0.199182
0.196388
0.198689
0.194251
0.196717
0.196881
0.197703
0.199018
0.19573
0.196552
0.197374
0.197867
0.196388
0.197703
0.104841
0.1101
0.11536
0.118154
0.122592
0.126865
0.1267
0.131467
0.135904
0.136069
0.137877
0.141821
0.146095
0.144451
0.150861
0.15119
0.153491
0.155299
0.157271
0.156449
0.164996
0.159736
0.005898
0.011651
0.020526
0.024964
0.038112
0.0437
0.051425
0.055863
0.062601
0.066053
0.072463
0.077229
0.079859
0.087584
0.091528
0.09613
0.099089
0.105827
0.10895
0.113223
0.116675
0.12177
0.12177
0.123906
0.127522
0.131631
0.131467
0.136233
0.141493
0.13952
0.145602
0.141328
0.148724
0.151518
0.159243
0.152998
0.156942
0.160229
0.157764
0.163516
0.162859
0.164503
0.163352
0.16779
0.165817
0.170419
0.170255
0.170091
0.170913
0.172392
0.177158
0.177158
0.180281
0.181267
0.176172
0.175679
0.181924
0.177322
0.181267
0.181267
0.182582
0.181924
0.185376
0.182582
0.184061
0.187019
0.184225
0.186526
0.188006
0.188992
0.189814
0.190142
0.190964
0.19195
0.188992
0.191621
0.18932
0.188499
0.189156
0.188827
0.18932
0.188663
0.192279
0.190964
0.190307
0.192115
0.19458
0.194087
0.196388
0.194909
0.196388
0.19458
0.192936
0.195073
0.196388
0.193922
0.196388
0.195237
0.198031
0.195073
0.19573
0.199018
0.193101
0.193101
0.194087
0.202798
0.200168
0.199675
0.200497
0.201483
0.198031
0.195402
0.193758
0.200004
0.195402
0.196388
0.200661
0.19573
0.199182
0.197045
0.200825
0.196881
0.198524
0.197538
0.200497
0.199018
0.196223
0.196717
0.195566
0.195566
0.196223
0.195402
0.194909
0.198196
0.199346
0.197703
0.197538
0.198031
0.198853
0.19836
0.123249
0.130316
0.128508
0.132289
0.135411
0.135247
0.140506
0.142479
0.118647
0.116675
0.123413
0.121112
0.127029
0.129823
0.133439
0.133439
0.094322
0.099746
0.105005
0.106485
0.115031
0.116182
0.118976
0.122592
0.123249
0.127851
0.129495
0.131138
0.133932
0.138041
0.141328
0.145766
0.14478
0.148396
0.149875
0.153819
0.153162
0.152505
0.1576
0.156449
0.160065
0.159736
0.159736
0.16138
0.16401
0.167297
0.169926
0.166639
0.16894
0.16894
0.170748
0.170913
0.171241
0.176008
0.173378
0.176336
0.172885
0.179295
0.175021
0.178802
0.176008
0.180116
0.172063
0.171406
0.173378
0.169762
0.176829
0.1742
0.176336
0.173049
0.176336
0.173707
0.175843
0.177651
0.178802
0.180938
0.182417
0.180938
0.182746
0.178473
0.180938
0.180774
0.180774
0.181103
0.179788
0.186526
0.181103
0.183732
0.182746
0.18439
0.18439
0.186855
0.187184
0.188663
0.186855
0.186198
0.190142
0.192608
0.188663
0.188334
0.190471
0.189978
0.190142
0.189978
0.190307
0.192936
0.192443
0.192608
0.197538
0.193101
0.194909
0.192772
0.192772
0.19195
0.190471
0.193922
0.190471
0.192443
0.19195
0.195237
0.193922
0.193922
0.194744
0.202962
0.193101
0.19836
0.195237
0.198031
0.195073
0.197374
0.200168
0.195566
0.195073
0.196881
0.203126
0.194909
0.195895
0.196717
0.195237
0.197045
0.197703
0.193758
0.19573
0.19836
0.198196
0.203455
0.194087
0.196388
0.197045
0.198031
0.19836
0.198689
0.196223
0.199675
0.196388
0.197867
0.193265
0.197045
0.198853
0.198853
0.200661
0.19721
0.196223
0.196717
0.200004
0.198853
0.199018
0.189978
0.199018
0.197703
0.199675
0.200004
0.198524
0.19836
0.19721
0.199018
0.199511
0.200497
0.190471
0.197867
0.197538
0.20214
0.19836
0.199511
0.199018
0.198689
0.196881
0.196388
0.198196
0.191293
0.199675
0.200332
0.200825
0.201154
0.199018
0.200497
0.203291
0.200497
0.202962
0.199839
0.19836
0.19573
0.200332
0.200004
0.198853
0.198853
0.197538
0.19836
0.198853
0.201154
0.19836
0.197374
0.200004
0.201647
0.196717
0.204277
0.199182
0.203948
0.20214
0.198853
0.199346
0.198196
0.198031
0.196388
0.198689
0.19836
0.199675
0.195566
0.199018
0.197374
0.200825
0.19721
0.20214
0.20099
0.198524
0.198853
0.19721
0.198853
0.197045
0.195895
0.19458
0.197867
0.197045
0.200168
0.198524
0.19836
0.205099
0.198853
0.201812
0.200168
0.201647
0.198031
0.201976
0.200004
0.201154
0.199839
0.198689
0.198524
0.202469
0.195895
0.197045
0.199511
0.198524
0.202305
0.200332
0.20099
0.201483
0.201319
0.198196
0.197045
0.197374
0.199839
0.196388
0.198196
0.199839
0.199675
0.19836
0.200004
0.199839
0.196059
0.199182
0.198196
0.197703
0.201647
0.198853
0.20099
0.203784
0.195895
0.201647
0.196388
0.199018
0.199018
0.197045
0.197703
0.199839
0.199182
0.201647
0.201647
0.200332
0.202305
0.201976
0.200332
0.201319
0.200661
0.198689
0.203455
0.198524
0.200661
0.201154
0.199675
0.198524
0.203784
0.200661
0.202469
0.200168
0.199346
0.198689
0.198689
0.201812
0.19836
0.205921
0.199839
0.203291
0.199839
0.200168
0.199346
0.199346
0.199675
0.199839
0.199182
0.19721
0.201812
0.197867
0.202633
0.197045
0.19836
0.196059
0.200497
0.201976
0.198853
0.200825
0.202305
0.201319
0.200661
0.200825
0.199018
0.199182
0.201647
0.201319
0.199182
0.201812
0.198524
0.201976
0.199839
0.200332
0.201319
0.201319
0.200332
0.200497
0.201319
0.199839
0.203126
0.205921
0.200661
0.203291
0.200497
0.199675
0.201483
0.199018
0.20099
0.20214
0.199018
0.198689
0.199346
0.203455
0.199018
0.200004
0.204113
0.201812
0.200332
0.199839
0.199839
0.200661
0.198689
0.200004
0.200332
0.195566
0.195073
0.199675
0.197374
0.199675
0.198524
0.198524
0.199182
0.199346
0.203784
0.20099
0.202962
0.201319
0.201812
0.197703
0.200332
0.197374
0.198689
0.199675
0.198689
0.200168
0.200004
0.201154
0.198031
0.200004
0.201812
0.204113
0.20099
0.204113
0.201154
0.20099
0.199839
0.198524
0.199511
0.197703
0.196223
0.196388
0.198853
0.197374
0.199675
0.200168
0.201976
0.198689
0.201319
0.200825
0.199839
0.202305
0.200825
0.197867
0.200661
0.194087
0.193594
0.200825
0.195566
0.199511
0.198853
0.200825
0.20099
0.198853
0.202305
0.204934
0.203948
0.201647
0.20099
0.201976
0.202469
0.198853
0.199839
0.199182
0.199675
0.199675
0.199675
0.199018
0.199018
0.197867
0.201319
0.201976
0.202962
0.200332
0.202305
0.200661
0.199675
0.199839
0.19836
0.199675
0.194744
0.199182
0.194909
0.200332
0.201483
0.200825
0.197374
0.198853
0.199675
0.201647
0.199346
0.200332
0.201812
0.199182
0.203455
0.197538
0.200661
0.200661
0.197867
0.195237
0.20099
0.19836
0.199839
0.199346
0.203455
0.204606
0.201812
0.205921
0.200004
0.20099
0.200497
0.201647
0.199511
0.200497
0.20099
0.199675
0.200497
0.20099
0.199182
0.200332
0.196223
0.199346
0.202633
0.198524
0.200497
0.199675
0.201319
0.199346
0.201483
0.200497
0.197703
0.201154
0.202469
0.199511
0.200661
0.199182
0.200168
0.200004
0.200004
0.200168
0.198689
0.20099
0.19721
0.200004
0.201812
0.204113
0.197045
0.201319
0.201154
0.200332
0.199018
0.198853
0.202469
0.199511
0.200825
0.202305
0.202469
0.197045
0.202305
0.200661
0.200497
0.199346
0.202469
0.200004
0.200168
0.201976
0.198853
0.200168
0.198524
0.198689
0.199018
0.194744
0.195895
0.20214
0.196881
0.199675
0.199346
0.201154
0.198524
0.20099
0.199346
0.203126
0.20477
0.201647
0.202633
0.200004
0.200168
0.198524
0.200825
0.198853
0.200004
0.198689
0.197045
0.192772
0.197045
0.193429
0.192279
0.190635
0.18554
0.185212
0.178966
0.177651
0.174857
0.1742
0.170913
0.16894
0.166475
0.165489
0.152176
0.146752
0.141164
0.137219
0.13574
0.117825
0.094487
0.071312
0.066875
0.048467
0.044522
0.038605
0.040577
0.044029
0.043043
0.043043
0.049453
0.043371
0.047973
0.048138
0.043371
0.029894
0.034168
0.017896
0.003268
0.011322
0.014773
0.02595
0.025621
0.030223
0.027265
0.031867
0.032524
0.03729
0.027429
0.021841
0.019868
0.01428
0.020526
0.0271
0.028744
0.036797
0.036304
0.011815
0.013294
0.009514
0.014445
0.020855
0.026771
0.034989
0.040249
0.042878
0.023649
0.031702
0.032031
0.03992
0.042057
0.051589
0.051754
0.058657
0.061286
0.068025
0.072791
0.07312
0.078051
0.066875
0.070162
0.072791
0.052247
0.024799
0.032195
0.037619
0.043207
0.048302
0.054712
0.057177
0.059314
0.064245
0.070326
0.075257
0.047973
0.033181
0.040084
0.048795
0.048467
0.05537
0.061286
0.060136
0.057013
0.065724
0.066217
0.029237
0.033346
0.040249
0.045179
0.048467
0.050274
0.05011
0.045179
0.039263
0.014116
0.009514
0.010336
0.000146
0.000639
0.000146
0.001132
0.00031
0.001296
0.000146
0.001296
0.00031
0.001296
0.000146
0.003433
0.00031
0.000639
0.000639
-0.000841
0.004748
0.000146
-0.000676
0.00031
-0.001334
-0.000183
-0.000676
0.00031
0.00146
0.000146
0.00031
-0.000183
-0.000183
0.000474
0.00031
0.000146
0.000474
-0.000347
-0.000676
-0.000347
-0.000347
-0.000183
-0.001169
-0.000183
-1.9e-05
0.00031
-1.9e-05
0.000474
-1.9e-05
-0.000347
-0.000183
-0.000512
-0.000676
-0.001005
-0.000347
-0.000183
0.000146
0.000474
0.00031
-0.000512
-1.9e-05
-0.000676
-0.001169
0.001132
0.001296
0.002282
0.001132
0.001296
0.001132
0.003597
-0.001334
0.000639
0.001954
0.002447
0.004912
0.014938
0.012472
0.020526
0.030223
0.034003
0.043207
0.049617
0.056027
0.061122
0.066217
0.071148
0.081667
0.079366
0.085776
0.088405
0.09613
0.098267
0.104019
0.10895
0.109279
0.114867
0.119304
0.126536
0.121441
0.127522
0.130316
0.13459
0.136069
0.14215
0.142807
0.142643
0.147903
0.14593
0.148396
0.149382
0.153984
0.153984
0.15875
0.158421
0.161544
0.16253
0.162037
0.166311
0.167132
0.160229
0.168612
0.16894
0.171734
0.171406
0.172556
0.177651
0.173378
0.176501
0.181431
0.182417
0.169762
0.176008
0.178637
0.181267
0.182911
0.184718
0.184061
0.185047
0.183897
0.186033
0.186855
0.177158
0.186033
0.187019
0.188827
0.189156
0.18554
0.188334
0.190471
0.187513
0.1908
0.190471
0.189814
0.190635
0.191621
0.193922
0.192279
0.194251
0.194744
0.196717
0.191786
0.193758
0.195237
0.191128
0.192608
0.200661
0.19458
0.194087
0.194744
0.194416
0.198689
0.192772
0.196223
0.195402
0.196552
0.194251
0.198689
0.196223
0.198689
0.195895
0.199018
0.198853
0.196388
0.196388
0.197538
0.19573
0.19458
0.199018
0.196388
0.19721
0.195073
0.198524
0.201647
0.195237
0.197538
0.196388
0.198853
0.199182
0.198524
0.197867
0.197703
0.196223
0.200168
0.196059
0.198196
0.19458
0.196552
0.199511
0.198196
0.198031
0.199511
0.198031
0.199675
0.202305
0.198031
0.198853
0.196881
0.197703
0.19721
0.196881
0.197703
0.195895
0.195566
0.197374
0.195895
0.200661
0.198689
0.200497
0.199018
0.199018
0.199182
0.196717
0.200004
0.198524
0.19721
0.194744
0.197045
0.19721
0.198524
0.196881
0.199018
0.195895
0.197045
0.199182
0.197703
0.199018
0.199182
0.200004
0.200004
0.200004
0.193594
0.165817
0.134261
0.136069
0.13837
0.141986
0.141
0.147245
0.149053
0.150039
0.154477
0.155299
0.156778
0.159243
0.160722
0.159736
0.162859
0.162037
0.165982
0.165817
0.173378
0.172556
0.170584
0.172063
0.173707
0.173542
0.175021
0.178144
0.177158
0.178144
0.180445
0.18061
0.180774
0.181924
0.181596
0.182417
0.180116
0.182911
0.181267
0.182417
0.18061
0.182089
0.190635
0.187677
0.189156
0.187841
0.192115
0.186691
0.190471
0.187841
0.192443
0.189485
0.189156
0.189978
0.1908
0.188334
0.187184
0.18932
0.187513
0.189156
0.187513
0.189649
0.189485
0.188992
0.187841
0.192279
0.188334
0.1908
0.191786
0.189814
0.187513
0.188334
0.19195
0.191457
0.18554
0.189978
0.191621
0.187841
0.190471
0.189814
0.188992
0.187348
0.1908
0.1908
0.1908
0.188827
0.189156
0.192443
0.190635
0.190964
0.196059
0.194416
0.191457
0.192115
0.192936
0.193922
0.188006
0.194087
0.194416
0.195237
0.196223
0.197045
0.196717
0.196717
0.194251
0.195402
0.196223
0.194087
0.195566
0.19573
0.195402
0.191621
0.197703
0.19458
0.196223
0.194744
0.19721
0.197538
0.19573
0.198524
0.19836
0.196223
0.190635
0.198196
0.195895
0.200004
0.196717
0.196881
0.193758
0.197538
0.197045
0.197045
0.197703
0.196552
0.199018
0.198031
0.196717
0.195895
0.19836
0.19836
0.195073
0.193429
0.194416
0.196881
0.200332
0.197538
0.198196
0.196552
0.197867
0.201812
0.197538
0.199346
0.199675
0.199839
0.198689
0.200661
0.198853
0.200661
0.200004
0.197703
0.198031
0.199675
0.197538
0.198853
0.199839
0.198031
0.199018
0.196388
0.200661
0.198524
0.199839
0.201976
0.202633
0.195566
0.202798
0.19836
0.200332
0.200168
0.19836
0.199018
0.200497
0.19836
0.197703
0.200661
0.198031
0.200497
0.19836
0.19836
0.197045
0.196388
0.194416
0.197374
0.199182
0.204277
0.201154
0.199346
0.200825
0.200497
0.200661
0.200168
0.203455
0.19573
0.20099
0.197538
0.199182
0.200168
0.199511
0.199182
0.200168
0.198524
0.203126
0.199675
0.196717
0.20099
0.19836
0.199839
0.199346
0.199346
0.199675
0.198196
0.196717
0.19836
0.20362
0.200332
0.199182
0.201812
0.200332
0.199839
0.197538
0.201812
0.202633
0.196223
0.198196
0.201483
0.199675
0.193758
0.198524
0.197703
0.199511
0.194416
0.201483
0.20099
0.198524
0.197867
0.20099
0.199839
0.197703
0.201976
0.200004
0.200497
0.199018
0.199511
0.198031
0.201319
0.20099
0.196881
0.198853
0.196881
0.200332
0.199675
0.199675
0.198853
0.201647
0.200168
0.200825
0.200661
0.200497
0.199018
0.202305
0.198524
0.200661
0.196388
0.19721
0.20099
0.199839
0.201154
0.20099
0.199675
0.199839
0.20099
0.199182
0.202469
0.199346
0.199511
0.200004
0.200168
0.197867
0.194744
0.201319
0.201976
0.198853
0.197374
0.201647
0.199018
0.203126
0.202469
0.201154
0.198689
0.201812
0.200168
0.200004
0.199511
0.198524
0.199675
0.197538
0.19721
0.198689
0.20099
0.199182
0.19836
0.201483
0.197703
0.198031
0.201154
0.19836
0.200004
0.197703
0.200168
0.200661
0.196388
0.200004
0.198689
0.196223
0.197538
0.199182
0.197045
0.199511
0.197374
0.199511
0.200168
0.199346
0.203126
0.20099
0.19836
0.20099
0.197867
0.196881
0.19836
0.200332
0.201647
0.198031
0.199675
0.195237
0.200004
0.199839
0.194744
0.200661
0.197703
0.199182
0.199018
0.200825
0.198524
0.200332
0.197703
0.201483
0.196552
0.197867
0.199018
0.199018
0.197045
0.199346
0.198853
0.198524
0.200332
0.197703
0.198853
0.199018
0.196552
0.19721
0.198689
0.197045
0.198524
0.197045
0.19721
0.199839
0.199346
0.19721
0.198853
0.197045
0.198031
0.19721
0.196881
0.199182
0.196552
0.196552
0.196717
0.195895
0.197374
0.201976
0.196552
0.199511
0.199511
0.198524
0.197374
0.197538
0.195073
0.195895
0.198524
0.197703
0.198031
0.197867
0.197703
0.199675
0.197867
0.200661
0.201976
0.200004
0.200168
0.200497
0.201319
0.197374
0.198853
0.198524
0.199182
0.198853
0.199839
0.202305
0.197867
0.199511
0.196881
0.201812
0.19573
0.200332
0.194087
0.198689
0.201154
0.195566
0.202633
0.200332
0.199346
0.199511
0.199346
0.195402
0.199182
0.198196
0.198853
0.196223
0.198689
0.200004
0.197374
0.197045
0.199018
0.201976
0.19573
0.200825
0.198524
0.201976
0.200168
0.19721
0.199346
0.201647
0.200168
0.199346
0.197374
0.199511
0.201812
0.198196
0.200661
0.198689
0.197703
0.196717
0.201976
0.199346
0.199018
0.194744
0.19721
0.199018
0.199182
0.19721
0.197703
0.197045
0.198689
0.199839
0.195073
0.196059
0.199675
0.197045
0.196717
0.200661
0.196717
0.199675
0.196881
0.201647
0.198524
0.196223
0.19721
0.198853
0.199346
0.196388
0.195237
0.196223
0.199839
0.199182
0.202305
0.197867
0.200332
0.202962
0.198031
0.198853
0.198196
0.197538
0.197867
0.198524
0.198689
0.200497
0.197703
0.198031
0.197374
0.200332
0.194251
0.196388
0.193594
0.194909
0.195566
0.1908
0.192443
0.187677
0.189814
0.188006
