Ladekurvenmessung

Zeit: 2018_05_04 09.08.29

Info: FVA3, v = 1.05, T = 23, F = 20, h = 518.2

Ladewiderstand[Ohm]: 1012700

Störkapazität[pF]: 0.000000

Entladezeit[ms]: 200

Abtastrate[Hz]: 250000

Anzahl der Messwerte: 2500.000000

Verzögerung[ms]: 3

Ladespannung[V]: 0.200000


Kurve 1

0.001625
0.001132
0.003268
0.00031
0.001132
0.003926
0.005241
0.001296
-0.000347
0.000146
-0.001005
-0.001991
-0.001827
-1.9e-05
0.000803
0.000474
0.000639
0.002611
0.000474
0.004255
0.003597
0.000639
0.002282
0.001132
-0.001498
0.001625
-0.000841
-0.001334
-0.001005
0.00031
0.000967
0.001625
0.000474
-0.000512
-0.001498
-0.003635
-0.001169
0.00146
0.001789
0.000146
0.003597
-0.002484
-0.000676
-0.000841
-0.002813
-0.001498
-0.003306
-0.002484
-0.001827
0.00146
0.000803
0.002118
0.000803
0.003597
-0.000347
0.005076
0.002118
-0.001334
-0.001662
-0.001498
-0.001827
-0.003635
-0.002648
-0.00232
0.003926
-0.001334
0.000639
0.000146
0.004419
0.000967
0.001789
0.001954
0.001296
0.00146
0.000803
0.003926
-0.001005
0.00146
-0.001827
0.000146
-0.000512
-0.000183
-0.000183
0.001132
0.000803
0.002118
-0.001662
0.001296
-0.001169
-0.000347
0.002118
-0.002155
-0.002813
0.002118
-0.003963
-0.000676
-0.001498
-0.001498
0.002282
0.000474
0.001954
-1.9e-05
-1.9e-05
-0.003799
-0.000841
-0.000183
0.000146
0.00146
0.000474
-0.002155
-0.003306
-0.002813
-0.003142
-0.002155
-0.005114
0.000803
-0.000512
-0.000347
-0.002648
0.001789
0.00031
-0.001498
-0.000841
-0.000183
-0.000512
-0.002155
0.000803
-1.9e-05
0.000803
-0.001334
0.002611
-0.001169
-0.001662
-0.000841
-0.001498
0.002447
0.000967
0.003433
0.001625
0.003926
-0.000347
0.002282
0.000639
-0.001169
-0.001005
0.00294
-0.002813
0.000639
0.001789
0.005569
-0.002484
-0.001827
0.003104
-0.003963
-0.001498
-0.000183
-0.000347
-0.000676
-0.001169
-0.000347
0.00146
0.000639
0.000639
-0.000512
-0.001498
-0.00232
-0.002977
-0.00232
-0.001005
-0.000841
-1.9e-05
0.002118
-0.000183
-0.001005
0.001132
0.00146
-0.001169
0.001132
-0.000347
0.00146
0.002775
0.00294
-0.000512
-0.000676
-1.9e-05
0.000146
-0.004621
-0.001169
0.000639
-0.002484
-0.000841
-0.001662
0.000474
-0.001005
0.003104
-0.000512
0.000146
0.001296
-0.000183
-0.001498
0.002447
-0.003306
-1.9e-05
-0.001827
-0.006593
0.000803
-0.000841
0.00031
-0.004621
-0.001827
-0.001005
-0.001169
-0.001827
-1.9e-05
0.002611
-0.001334
0.001789
0.003761
0.001625
-0.000183
0.000474
-0.003799
0.00031
-0.00232
-0.001169
0.002282
0.002775
0.003433
0.001789
0.003433
0.001132
-0.002155
-0.000676
0.000803
-0.001169
-0.000347
-0.001169
0.000639
-0.004128
-0.000841
0.001789
-0.00347
-0.000512
-0.001498
-0.001498
-1.9e-05
-0.00347
-0.000676
-1.9e-05
-0.000183
0.000967
0.000967
-0.002484
-0.000512
-0.000841
-0.001005
-0.000347
0.00031
-0.003799
-0.005771
-0.003306
-0.001662
0.000639
-0.000347
-0.001662
0.00031
0.000474
0.001954
-0.001005
0.000474
-0.000183
-0.000183
-0.000183
0.002118
-0.002155
-0.000841
-0.000512
-0.001005
0.001789
-0.000841
0.000803
0.002775
0.00146
0.000967
0.002118
-0.001662
0.00031
0.00031
-0.000183
-0.001169
0.000146
-0.001991
0.001625
-0.001498
-0.002648
0.000474
-0.002813
-0.000512
0.001132
0.001954
-0.002813
0.000474
0.000474
-0.000841
0.000639
0.001296
-0.000512
-0.001169
-0.001498
-0.00347
-0.003963
-0.000676
-0.001169
-0.001498
-0.001662
-0.001662
0.00031
0.000474
0.000967
-0.000841
0.001789
0.00031
-1.9e-05
-0.000183
0.000474
0.00031
-0.000183
-0.000183
-0.000347
0.000967
-0.000347
0.00031
-0.001334
-0.000676
-0.001334
0.00294
-0.000841
0.003433
0.00146
-0.000676
0.003104
-0.002155
0.001625
0.000967
-0.000183
-0.001498
0.001954
-0.001169
-0.001334
-0.001169
-0.001334
-1.9e-05
0.000803
0.000474
0.000474
0.000474
0.00031
0.000967
-1.9e-05
0.001132
-0.001498
-0.003799
-0.001662
0.001132
-0.003635
-0.00347
-0.001005
0.000146
0.000146
0.001625
-0.000512
0.001296
0.005241
-0.001005
0.001625
-0.000183
0.001789
0.000639
0.000803
-0.000512
0.000474
-0.001005
-0.001005
0.00031
0.00031
-0.000183
0.000639
0.000803
-0.000183
0.001625
-0.002813
0.000639
-0.004292
-0.003142
-0.000512
0.001132
-0.003963
-1.9e-05
-0.001498
-0.001827
-0.000676
-0.000347
0.001954
-0.000347
0.002447
0.00031
-0.001662
0.001954
0.002282
-0.000183
0.00409
-0.000347
0.00031
-0.001005
-0.002484
-0.003799
-0.001334
0.000146
-0.001498
0.000803
0.000146
0.000474
0.000474
0.000146
0.001954
0.001954
0.000474
0.002775
-0.000183
0.001954
0.00146
-0.002484
-0.000347
-0.00232
0.001296
-0.000512
0.000639
-0.000512
0.001132
0.00294
0.002775
0.00294
0.003926
0.002118
-0.001662
0.001296
-0.00232
0.000146
-0.001169
-0.000183
-0.002155
0.00031
-0.001334
-0.000183
-0.002484
0.000803
0.001789
0.001789
0.000803
-0.001991
-0.004128
-0.00232
-0.003306
-0.004949
0.000639
0.001296
0.000803
0.001954
0.001954
-0.000841
0.002611
-1.9e-05
0.000474
0.000474
0.001296
0.001625
0.000639
0.004419
0.00031
0.00146
0.001296
0.000639
0.001132
0.000146
0.000803
0.00146
-0.001169
0.003761
-0.001005
-0.001334
0.000967
0.00146
0.00031
0.001789
0.002282
0.00031
0.002282
0.000803
0.000474
-0.002155
0.002775
0.000639
0.000967
-0.000841
0.001625
-0.001005
-0.000347
-0.001991
-0.000512
0.001296
-0.003306
-0.000347
-0.000183
0.002611
-0.001991
0.002611
-0.000512
0.002447
0.003104
0.000639
-0.000512
-0.000183
0.00146
0.00146
-0.000183
-1.9e-05
0.002118
0.000146
0.001132
0.000967
0.001625
-0.000512
0.001132
0.001296
0.001296
0.002118
0.000474
0.002447
0.002118
0.001132
-0.000183
-0.000183
-0.001991
-0.003799
0.000146
0.000803
-0.003142
0.000803
0.001296
0.00031
0.00146
0.000474
0.000146
0.00146
-0.00347
0.002447
0.00031
-0.001334
0.000146
0.003433
0.001296
-0.002977
-0.001005
-0.005114
-0.003799
-0.001334
0.00031
0.00031
0.001789
0.00146
0.002282
-1.9e-05
-0.000183
-0.000676
0.000967
-0.000841
-0.001005
0.001789
-0.000347
0.001296
-0.000183
0.002282
-0.000183
0.00146
0.00031
0.00031
0.002118
-0.001662
-0.001827
-1.9e-05
0.000474
-0.000841
0.001789
-0.000183
-0.002155
-0.002813
0.001789
0.000474
-0.001498
-1.9e-05
0.001296
-0.001498
0.001789
0.004583
-0.001827
0.000639
-0.00232
-0.000183
-1.9e-05
-0.004456
-0.005114
-0.003799
-0.002977
-0.003635
0.000967
0.005405
0.000967
0.000967
0.000803
-1.9e-05
-0.001827
0.00031
0.001789
-0.001169
0.00031
0.001296
-0.000183
-0.001334
-1.9e-05
-0.001334
0.002282
-0.000347
-0.001334
0.001625
0.000967
0.000146
0.002282
0.001132
-0.001169
-0.000841
-0.000347
0.000146
-0.000676
0.002118
0.00031
-0.000841
-0.001662
0.003597
-0.002484
-0.001827
0.000474
0.000146
0.000474
-0.002813
0.003268
-0.001498
-1.9e-05
-0.000676
0.002282
-0.001334
-0.00232
-0.001827
-0.0061
-0.003799
0.001296
-0.004785
-0.005936
-0.000183
-0.002484
0.000474
-0.001334
0.002282
-0.001169
0.000967
0.000146
-0.000347
0.000803
0.000967
-0.000183
-0.000183
0.002447
0.000474
-0.000676
-0.000512
0.000639
-0.001991
0.000474
0.001296
0.002447
0.000474
0.00146
0.002775
-0.000512
0.001132
0.002775
0.002118
-0.001169
-0.001498
-0.000841
0.00031
-0.001169
0.002118
-0.001498
0.000146
-0.003306
0.000639
-0.000512
0.001296
-1.9e-05
0.001132
0.003433
-0.002484
-0.000347
0.00031
-0.002155
-0.00232
-0.000183
-0.000183
0.001789
-0.001169
0.004912
-1.9e-05
0.000474
0.00146
0.001789
0.000967
0.001132
0.004255
-0.001498
0.000639
0.000146
0.001132
-0.000347
0.001954
-0.001827
-0.000512
-0.0061
0.001132
-0.000676
-0.000512
0.001132
0.000146
0.001954
-0.001005
0.00294
0.000803
0.002447
-0.001498
-1.9e-05
0.000474
-0.001005
0.003761
0.012472
0.018718
0.026278
0.034989
0.041564
0.051425
0.055041
0.065067
0.068354
0.072298
0.076243
0.083475
0.084296
0.090871
0.098431
0.101061
0.103197
0.108457
0.11158
0.115195
0.11651
0.122098
0.124235
0.128673
0.133932
0.137548
0.137877
0.141328
0.143629
0.144451
0.148067
0.14971
0.149382
0.152176
0.156285
0.156778
0.157928
0.161051
0.160229
0.164174
0.166475
0.164667
0.167625
0.170748
0.168612
0.174035
0.169269
0.175021
0.176994
0.176008
0.17798
0.177158
0.175186
0.180116
0.182746
0.178473
0.184718
0.186033
0.185705
0.183239
0.18554
0.183568
0.186362
0.186855
0.187348
0.186691
0.185047
0.188992
0.190307
0.18932
0.191128
0.191128
0.189485
0.192772
0.191293
0.192608
0.193101
0.195402
0.193758
0.19458
0.195402
0.192115
0.197867
0.196388
0.195073
0.195402
0.195895
0.194251
0.195895
0.194416
0.197374
0.193265
0.195237
0.195402
0.195073
0.195895
0.197538
0.196223
0.197703
0.197538
0.198689
0.199018
0.19573
0.197045
0.197538
0.197867
0.195237
0.20099
0.194416
0.198689
0.19721
0.196552
0.196223
0.198689
0.199182
0.200661
0.198853
0.199182
0.201319
0.198524
0.200168
0.197045
0.200825
0.200004
0.199675
0.197538
0.200004
0.198524
0.19836
0.200497
0.200004
0.197867
0.199346
0.203126
0.20099
0.201647
0.200168
0.201319
0.200332
0.198196
0.197867
0.198853
0.198853
0.199839
0.197703
0.200168
0.199511
0.199018
0.201154
0.200004
0.202962
0.199511
0.20362
0.199675
0.200168
0.201319
0.200497
0.200168
0.202469
0.200004
0.199511
0.199182
0.196059
0.200168
0.198031
0.200004
0.198689
0.205099
0.198853
0.201647
0.200661
0.199675
0.199018
0.197374
0.195566
0.196059
0.195073
0.195402
0.196717
0.192772
0.19573
0.191128
0.190964
0.192279
0.192608
0.190635
0.192443
0.189978
0.190964
0.186526
0.187513
0.188006
0.187019
0.183568
0.181431
0.182911
0.182417
0.179623
0.177487
0.179459
0.176829
0.176501
0.177651
0.178473
0.174857
0.171899
0.170255
0.168447
0.171077
0.166311
0.165817
0.164174
0.16516
0.159079
0.161873
0.160887
0.161215
0.160558
0.158586
0.157764
0.158586
0.158914
0.15875
0.156613
0.154148
0.157107
0.152176
0.152833
0.15119
0.152669
0.152176
0.151354
0.150368
0.153162
0.153162
0.154148
0.156449
0.154641
0.155627
0.156942
0.161709
0.15875
0.160065
0.158421
0.16138
0.159572
0.162695
0.163352
0.163352
0.162859
0.165653
0.166804
0.167297
0.16894
0.170091
0.16894
0.168118
0.170255
0.171077
0.173214
0.173707
0.173871
0.174035
0.177651
0.176501
0.181431
0.178966
0.177487
0.178637
0.183239
0.18439
0.181924
0.184883
0.185705
0.187019
0.185869
0.190471
0.18932
0.191128
0.189978
0.194909
0.189485
0.190142
0.190307
0.189485
0.1908
0.189156
0.193101
0.191786
0.193101
0.194087
0.19721
0.189978
0.194087
0.191786
0.194416
0.193594
0.193758
0.19458
0.19573
0.195237
0.19195
0.198524
0.196223
0.197538
0.195402
0.198524
0.194909
0.193429
0.193922
0.19836
0.196717
0.196223
0.201319
0.198853
0.196059
0.199675
0.196223
0.196717
0.196881
0.198031
0.200332
0.19836
0.199675
0.199675
0.200825
0.198031
0.200825
0.197703
0.201812
0.201483
0.199675
0.201483
0.199675
0.197374
0.199675
0.199018
0.197374
0.20099
0.198031
0.198524
0.194909
0.201319
0.201483
0.199839
0.200332
0.202305
0.200332
0.199182
0.199511
0.199675
0.199675
0.198689
0.201483
0.197703
0.201647
0.197374
0.201976
0.199511
0.197374
0.198524
0.199346
0.198196
0.198853
0.199839
0.199839
0.200497
0.198689
0.205921
0.197045
0.204441
0.203948
0.199511
0.199346
0.199182
0.200168
0.201319
0.19836
0.197538
0.202469
0.20099
0.200661
0.200004
0.201976
0.199182
0.201319
0.200497
0.201154
0.200004
0.200004
0.201319
0.202305
0.199675
0.200332
0.202469
0.200661
0.200497
0.20099
0.201483
0.200332
0.203784
0.202469
0.20099
0.201812
0.201812
0.200168
0.200004
0.199675
0.202469
0.203784
0.199511
0.202798
0.201976
0.196388
0.200825
0.202305
0.197045
0.200168
0.200004
0.202798
0.205099
0.205099
0.202798
0.201976
0.197867
0.202633
0.201647
0.197538
0.201319
0.199018
0.201647
0.200168
0.203784
0.202633
0.203126
0.201154
0.201483
0.201483
0.201483
0.202962
0.201483
0.200332
0.199675
0.200661
0.199346
0.202305
0.199018
0.200332
0.200497
0.201647
0.200497
0.202305
0.202305
0.20214
0.202962
0.201647
0.200825
0.197045
0.196717
0.197374
0.200004
0.195402
0.197374
0.201483
0.201154
0.19836
0.20099
0.201319
0.202633
0.198853
0.204606
0.200497
0.198196
0.200332
0.201154
0.203455
0.201812
0.201976
0.199346
0.200497
0.199346
0.199018
0.199182
0.204113
0.200332
0.201976
0.201812
0.202962
0.203126
0.200825
0.199182
0.199675
0.199675
0.199182
0.201154
0.198524
0.201154
0.200004
0.201647
0.199346
0.202305
0.201483
0.202305
0.202633
0.199182
0.201319
0.199675
0.203948
0.201812
0.197867
0.199511
0.199511
0.19721
0.200661
0.199182
0.20099
0.202798
0.202305
0.202469
0.201647
0.203784
0.20099
0.201154
0.199346
0.20099
0.200004
0.204606
0.203126
0.200332
0.200661
0.202469
0.202469
0.200497
0.203126
0.198853
0.20214
0.199346
0.20214
0.201647
0.199346
0.203784
0.205756
0.199182
0.20362
0.200497
0.200168
0.199839
0.199511
0.199018
0.199511
0.201812
0.200004
0.202633
0.202962
0.201319
0.200661
0.202798
0.199839
0.203126
0.202798
0.203126
0.198853
0.201483
0.199675
0.196717
0.200497
0.201976
0.200004
0.198853
0.202633
0.200168
0.20099
0.198689
0.198689
0.202305
0.204277
0.201319
0.201976
0.203291
0.201483
0.201483
0.198853
0.19836
0.20099
0.201647
0.202633
0.20214
0.201647
0.202633
0.200168
0.201319
0.200825
0.201483
0.201483
0.201319
0.202798
0.199839
0.198853
0.201319
0.20214
0.200825
0.200332
0.200168
0.201483
0.19836
0.200825
0.200825
0.201647
0.202633
0.200661
0.202633
0.199018
0.202305
0.200332
0.203291
0.201154
0.202798
0.203291
0.202469
0.200497
0.201483
0.20099
0.200168
0.200661
0.200825
0.20214
0.201976
0.200497
0.202305
0.202305
0.201812
0.203455
0.198031
0.20214
0.200497
0.20362
0.200661
0.201812
0.201812
0.200497
0.201154
0.200004
0.204113
0.201647
0.200004
0.20099
0.202305
0.199839
0.202305
0.200497
0.201976
0.202798
0.201976
0.199182
0.199675
0.198524
0.201976
0.200168
0.200825
0.201154
0.201483
0.200825
0.200661
0.201483
0.196059
0.200332
0.199839
0.202305
0.199839
0.201319
0.201154
0.199839
0.200497
0.201976
0.201154
0.200332
0.204934
0.200497
0.202962
0.200332
0.202798
0.20214
0.203126
0.199839
0.198524
0.204441
0.19836
0.202962
0.202469
0.198031
0.200497
0.200004
0.200168
0.20099
0.200661
0.200661
0.200661
0.199675
0.201812
0.202305
0.200332
0.20099
0.200004
0.200497
0.199675
0.200332
0.201154
0.200332
0.199346
0.197374
0.199346
0.201812
0.196717
0.197538
0.201647
0.200497
0.201154
0.20099
0.202633
0.201976
0.201647
0.202633
0.199346
0.20099
0.200497
0.202962
0.196881
0.202633
0.200497
0.202469
0.199018
0.20362
0.199346
0.205099
0.200497
0.20477
0.208222
0.201483
0.20477
0.201976
0.203455
0.200332
0.204277
0.199346
0.201319
0.199346
0.199839
0.199839
0.201154
0.200825
0.202962
0.201483
0.201154
0.204934
0.201319
0.201319
0.200004
0.200004
0.200497
0.200004
0.197867
0.201319
0.200332
0.201812
0.201319
0.198196
0.204113
0.202305
0.201812
0.199346
0.204113
0.199839
0.203784
0.202469
0.200168
0.203291
0.200332
0.197867
0.200825
0.20099
0.200332
0.198853
0.199018
0.20477
0.199511
0.203126
0.200825
0.199675
0.199346
0.20099
0.202305
0.201976
0.199675
0.201319
0.199346
0.20099
0.199182
0.201154
0.199839
0.199675
0.200661
0.200497
0.20099
0.198689
0.20362
0.200661
0.202798
0.200497
0.203291
0.200332
0.199675
0.198196
0.196223
0.197374
0.195073
0.198196
0.197867
0.200168
0.200004
0.20099
0.200825
0.20099
0.200332
0.203455
0.200168
0.199346
0.206742
0.201319
0.202469
0.201483
0.19836
0.201647
0.19836
0.195073
0.201319
0.199675
0.19836
0.202798
0.204934
0.201319
0.203455
0.202305
0.201319
0.20099
0.199346
0.198031
0.199511
0.199346
0.19836
0.201812
0.199346
0.20099
0.200332
0.201319
0.199018
0.201483
0.200332
0.201647
0.196881
0.201483
0.202305
0.19836
0.201647
0.200168
0.200168
0.203455
0.200332
0.200004
0.20099
0.198524
0.200661
0.200825
0.202305
0.201483
0.202633
0.201812
0.202633
0.201154
0.200661
0.201647
0.199182
0.200661
0.198196
0.205099
0.20099
0.205263
0.198689
0.202469
0.200661
0.200168
0.202633
0.200497
0.20099
0.201976
0.199511
0.200497
0.203291
0.197867
0.201647
0.199839
0.202798
0.197045
0.200497
0.201812
0.199182
0.201647
0.200004
0.201647
0.200168
0.200825
0.197045
0.19721
0.198031
0.200497
0.200168
0.200332
0.205592
0.202469
0.200332
0.201976
0.199018
0.199182
0.201319
0.200661
0.200497
0.201812
0.201976
0.200497
0.204441
0.200661
0.201647
0.199675
0.203948
0.204441
0.202305
0.200825
0.202305
0.196881
0.197045
0.200497
0.200004
0.200497
0.197374
0.20099
0.199018
0.201812
0.199675
0.202305
0.200004
0.202305
0.201976
0.198689
0.200332
0.201647
0.199346
0.198524
0.202798
0.197045
0.201154
0.196717
0.200332
0.199346
0.198031
0.197703
0.200825
0.199839
0.199018
0.203126
0.200825
0.200497
0.202798
0.200825
0.199839
0.201154
0.19836
0.200168
0.199839
0.20099
0.200661
0.200661
0.201483
0.204277
0.202962
0.203126
0.202305
0.199839
0.199839
0.200332
0.202633
0.201319
0.200168
0.200004
0.199675
0.199182
0.200497
0.200004
0.200497
0.199675
0.201647
0.202469
0.199182
0.200825
0.201319
0.201976
0.199182
0.200332
0.199839
0.199018
0.199675
0.200497
0.196552
0.202305
0.196552
0.200497
0.198524
0.19836
0.200825
0.201319
0.201483
0.197867
0.200825
0.201319
0.198853
0.199182
0.20099
0.199018
0.201319
0.200004
0.201812
0.19836
0.199675
0.201154
0.20362
0.199839
0.199018
0.201812
0.198524
0.202305
0.198853
0.202633
0.194909
0.199018
0.196717
0.199182
0.197867
0.198031
0.200332
0.199018
0.201483
0.202305
0.201483
0.20099
0.201483
0.199346
0.200497
0.201154
0.200661
0.201154
0.197703
0.196388
0.19721
0.197538
0.197867
0.20099
0.19836
0.199182
0.202469
0.197867
0.200825
0.201483
0.200004
0.202305
0.20214
0.202469
0.200168
0.201976
0.200497
0.198196
0.200004
0.200497
0.20099
0.200004
0.202962
0.199018
0.19836
0.200661
0.200004
0.199675
0.202633
0.197867
0.199675
0.201812
0.200168
0.198853
0.20099
0.199839
0.19836
0.20099
0.199511
0.202469
0.19836
0.201154
0.200661
0.202633
0.201976
0.202469
0.200497
0.199839
0.20099
0.198689
0.197538
0.19721
0.198853
0.199182
0.203948
0.201319
0.198853
0.197374
0.19836
0.199018
0.201812
0.198031
0.200661
0.200332
0.20214
0.202798
0.200825
0.201976
0.198853
0.200825
0.199511
0.202962
0.196717
0.199346
0.198689
0.198524
0.200004
0.200497
0.201154
0.200004
0.203784
0.20214
0.202469
0.20099
0.201812
0.200661
0.20099
0.199839
0.200332
0.199839
0.200661
0.198689
0.20099
0.199018
0.199675
0.199839
0.201319
0.201812
0.204277
0.203126
0.198524
0.200004
0.199511
0.200332
0.197538
0.199839
0.194744
0.19836
0.197703
0.199839
0.199346
0.201483
0.201976
0.199839
0.201154
0.199346
0.202305
0.198853
0.203126
0.200004
0.201154
0.200332
0.201483
0.196388
0.197703
0.198031
0.200497
0.199346
0.199346
0.201319
0.20214
0.202962
0.200168
0.202798
0.197867
0.202962
0.197374
0.20099
0.199346
0.198853
0.200168
0.199839
0.199182
0.199839
0.20214
0.199018
0.200497
0.198196
0.201154
0.196881
0.198853
0.200004
0.20099
0.198031
0.200661
0.203291
0.199346
0.197867
0.199018
0.199839
0.198689
0.199675
0.200332
0.202633
0.199511
0.200825
0.202798
0.201154
0.201976
0.19721
0.20214
0.201976
0.202469
0.198853
0.198853
0.199346
0.200004
0.201647
0.200332
0.199182
0.200825
0.200004
0.194251
0.197867
0.200497
0.198196
0.200004
0.200168
0.202633
0.199018
0.201319
0.200497
0.198524
0.201483
0.198196
0.202305
0.198689
0.197045
0.196552
0.199839
0.196059
0.199182
0.200004
0.20099
0.200661
0.200661
0.201319
0.198524
0.201812
0.199346
0.202962
0.200332
0.199018
0.199018
0.201154
0.199182
0.199346
0.200168
0.200168
0.199675
0.201976
0.204441
0.202633
0.201976
0.19836
0.204606
0.198196
0.198689
0.201319
0.20099
0.200332
0.200168
0.197538
0.200497
0.199346
0.199839
0.202962
0.200004
0.200825
0.202469
0.202469
0.200332
0.20214
0.199839
0.199839
0.205592
0.203126
0.195895
0.201812
0.197045
0.196059
0.19836
0.198524
0.20214
0.201976
0.198853
0.200332
0.200661
0.201483
0.201483
0.200825
0.202633
0.200661
0.201483
0.198853
0.202469
0.19836
0.197867
0.201976
0.198853
0.201483
0.202798
0.201812
0.202469
0.201812
0.201647
0.205921
0.19836
0.201976
0.198689
0.199182
0.201647
0.198689
0.200168
0.199346
0.201812
0.199675
0.20214
0.200332
0.200168
0.199346
0.201154
0.201976
0.200825
0.202305
0.20214
0.201647
0.199511
0.199675
0.197867
0.198031
0.196223
0.197867
0.198196
0.199182
0.200168
0.200332
0.200332
0.202469
0.201976
0.202469
0.200825
0.199839
0.200497
0.199018
0.199018
0.200332
0.199839
0.199511
0.199675
0.200497
0.199675
0.200497
0.203291
0.198524
0.201812
0.201483
0.20099
0.201319
0.200332
0.200004
0.201319
0.199675
0.199182
0.203126
0.197374
0.198524
0.197045
0.201647
0.19836
0.201647
0.196388
0.203126
0.199018
0.200332
0.200004
0.199346
0.199839
0.199346
0.20099
0.200497
0.199675
0.197867
0.202798
0.195895
0.201154
0.199182
0.201319
0.200497
0.200004
0.202305
0.200825
0.202633
0.200497
0.204277
0.199018
0.202469
0.200004
0.202305
0.200332
0.200825
0.198853
0.199018
0.201319
0.200661
0.202305
0.200497
0.200825
0.200825
0.198196
0.200497
0.20099
0.200004
0.203126
0.200004
0.198689
0.200497
0.199675
0.196388
0.200004
0.200332
0.198031
0.200332
0.196552
0.199346
0.197703
0.196717
0.201319
0.201647
0.194744
0.201154
0.200004
0.202305
0.201812
0.199182
0.202633
0.20362
0.200004
0.201976
0.200497
0.197374
0.200825
0.199182
0.201319
0.199346
0.202305
0.200825
0.201976
0.200332
0.204277
0.200661
0.199839
0.197538
0.196552
0.199182
0.199018
0.199839
0.198853
0.201976
0.200332
0.20099
0.198524
0.200168
0.199346
0.201154
0.195566
0.197703
0.202469
0.200825
0.200168
0.200004
0.201154
0.201647
0.20362
0.197538
0.201647
0.19458
0.196388
0.201154
0.199675
0.198524
0.200661
0.201483
0.201154
0.199839
0.203455
0.197045
0.198031
0.20099
0.199839
0.199511
0.198524
0.20214
0.201812
0.199182
0.200825
0.200004
0.201483
0.201812
0.199182
0.201812
0.201154
0.198689
0.201647
0.196717
0.199839
0.198689
0.19836
0.200168
0.200497
0.196717
0.200661
0.199346
0.200497
0.20099
0.200004
0.202633
0.201319
0.203455
0.198689
0.20099
0.199675
0.205592
0.197867
0.200661
0.199182
0.202305
0.196388
0.198689
0.199182
0.197538
0.200004
0.198524
0.199182
0.199839
0.200332
0.198031
0.20214
0.19836
0.200168
0.199182
0.200661
0.200825
0.199511
0.19836
0.20099
0.200332
0.199018
0.202962
0.199675
0.200004
0.198689
0.205099
0.198853
0.203126
0.198031
0.203784
0.200497
0.201647
0.200332
0.199346
0.198689
0.198031
0.198524
0.19721
0.196552
0.202305
0.203126
0.200825
0.201319
0.200661
0.198689
0.201812
0.201483
0.200168
0.199346
0.198689
0.196717
0.20099
0.197374
0.198524
0.197374
0.197374
0.197867
0.199675
0.198031
0.202798
0.19836
0.203126
0.201154
0.200661
0.20214
0.199182
0.200168
0.198853
0.199182
0.198853
0.199675
0.19836
0.197374
0.199511
0.200332
0.19836
0.198196
0.202305
0.200825
0.197867
0.201976
0.202305
0.199346
0.200661
0.199182
0.200004
0.197374
0.199182
0.196552
0.199675
0.198196
0.201812
0.195402
0.19836
0.196223
0.201976
0.20099
0.20099
0.199839
0.198524
0.200497
0.198524
0.19836
0.195237
0.199346
0.197045
0.19721
0.202305
0.200332
0.199346
0.199511
0.200332
0.200004
0.200004
0.200661
0.201976
0.202469
0.202633
0.200497
0.200661
0.199346
0.199675
0.196881
0.199018
0.199182
0.199018
0.200332
0.200168
0.20214
0.199675
0.201976
0.201319
0.20362
0.201319
0.198689
0.197045
0.199675
0.197538
0.201483
0.199346
0.200004
0.200661
0.194416
0.200825
0.199839
0.200168
0.200497
0.200497
0.197538
0.19836
0.200332
0.199675
0.192443
0.200004
0.200332
0.199839
0.199018
0.200661
0.197374
0.198689
0.200497
0.200004
0.198524
0.198031
0.201154
0.19836
0.201319
0.19836
0.201319
0.199839
0.198689
0.200497
0.199675
0.199182
0.199346
0.197538
0.199839
0.200004
0.200661
0.200332
0.199675
0.197703
0.198524
0.201976
0.199511
0.199839
0.200661
0.199511
0.200332
0.198689
0.198689

Kurve 2

0.001296
0.003597
0.00294
0.004748
0.003268
0.002775
0.00409
0.004419
0.002118
0.003761
0.000474
-0.000676
-0.000347
-0.00347
0.000146
0.000639
0.000474
0.001132
0.001954
-1.9e-05
0.000967
0.000474
-0.002155
-0.001827
-0.000841
-0.001662
-0.001498
0.00031
-0.001169
0.00146
0.000474
0.001625
0.000639
0.002447
-0.00232
-0.003635
-0.001498
-0.001991
-0.001498
-0.002977
0.000803
-0.001169
-0.002813
-0.003799
-0.001169
-0.004292
-0.000347
-0.005278
-0.001334
-0.001169
-0.001991
-0.000347
-0.003306
-0.004456
-0.003963
-0.001005
-0.005114
-0.003142
-0.004621
-0.004456
-0.001662
-0.002155
0.001789
-0.002484
-0.003306
-0.004621
-0.003306
-0.004621
-0.004949
-0.004128
-0.005936
-0.00725
-0.001169
-0.009387
-0.005114
-0.006264
-0.004456
-0.004456
-0.00347
-0.002155
0.000803
-0.001005
-0.002484
-0.004621
-0.004785
-0.004292
-0.003963
-0.003635
-0.002977
-0.001991
-0.005114
0.000967
-0.004128
-0.002648
-0.004456
-0.001827
-0.002977
-0.001662
-0.000183
0.00031
0.00031
-0.001991
0.00031
-0.001005
-0.002155
-0.001827
0.00146
-0.004128
-0.002813
-0.010045
-0.001334
-0.002484
-0.002484
0.003597
0.002611
-0.000841
0.00031
0.002118
-0.003142
-0.001827
-0.004292
-0.00347
-0.003799
-0.004621
-0.005278
-0.002648
-0.002155
-0.003963
-0.001005
0.001132
-0.003306
-0.004621
-0.000512
-0.002484
0.00146
0.002118
0.001296
-0.000841
0.001132
-0.001334
-0.003306
-0.00232
-0.000676
-0.002484
-0.001991
-0.00232
-0.002484
-0.003142
0.000803
0.000639
0.00146
0.00031
-0.000183
0.000639
-0.000183
-1.9e-05
-1.9e-05
-0.000183
-0.000183
0.00146
0.00031
0.001296
-0.000841
-0.002155
0.00409
-0.00347
0.00294
-0.000183
0.003104
0.001296
0.001625
0.00031
-0.000183
-0.001334
-0.001498
-0.003306
-0.000183
-0.002813
-0.001991
0.000146
-0.004128
0.001789
0.001132
-0.001334
-0.000183
0.004748
-0.001005
-0.001169
-0.001498
0.003268
0.001296
0.001625
0.000803
0.001296
0.00146
0.00031
0.001625
0.000639
0.000146
0.002282
0.00146
0.000639
0.003761
0.000803
0.000639
0.000967
0.00294
0.003104
-0.000512
0.003926
0.002118
0.002118
-0.000347
0.000967
0.000639
0.00294
-0.002155
0.003597
0.004419
-0.000676
0.00031
0.004255
0.000146
0.003268
0.003926
0.000803
0.00294
0.001789
0.004255
0.002118
0.002282
0.002447
0.005734
0.002118
0.005898
0.000146
0.004255
0.00294
0.005241
0.005076
0.004912
0.00409
0.003926
0.00409
0.002118
0.007049
0.003926
0.005898
0.004912
0.001954
0.002775
0.003926
0.003104
0.003268
0.005241
0.004255
0.005076
0.001132
0.002775
0.004748
0.003597
0.003104
0.006391
0.00031
0.002775
0.002775
0.004583
0.00409
0.00409
0.003926
0.001132
0.002447
0.006062
0.004583
0.000803
0.005405
0.005898
0.004583
0.005405
0.004583
0.006391
0.007706
0.003433
0.004255
0.003268
0.006062
0.005734
0.005898
0.004255
0.006391
0.00409
0.003761
0.006391
0.001296
0.005241
0.002775
0.006391
0.002611
0.004419
0.001954
0.002611
0.000967
0.005076
0.003597
0.000803
0.004748
0.003268
0.005405
0.002775
0.004255
0.00146
0.006062
0.005241
0.00409
0.001132
0.000146
0.001132
0.000639
0.000967
-0.000841
0.000803
-0.00232
0.004419
0.001132
0.002447
0.002118
0.004255
0.002447
0.004912
0.006227
0.004748
0.006391
0.00146
0.001789
0.00294
0.003104
0.002775
0.000474
-0.000841
0.002775
0.000967
0.004255
0.002775
0.003268
0.003926
0.004583
0.003926
0.003761
0.003433
-0.000512
0.003761
0.003104
0.002447
0.005241
0.001625
0.000146
0.002447
0.00294
0.002447
0.002611
0.004419
0.001789
0.003433
0.004419
0.002282
0.001625
0.003268
0.003433
0.002118
0.005076
0.000474
0.000803
0.00031
0.002282
-0.001334
0.00146
0.002118
0.002611
0.002775
0.006062
0.004912
0.003268
0.005076
0.000803
0.006227
0.000639
0.003761
-0.001005
0.002775
0.003268
0.00294
0.000803
0.001296
0.000967
0.002118
0.001789
0.001954
0.002447
0.000967
0.002447
0.001954
0.002611
0.002447
0.003597
0.00146
-0.000183
-0.001662
0.000146
0.000146
0.001296
0.003433
-0.001334
0.00294
0.003268
0.000803
0.001296
0.001132
0.000803
0.003926
0.00294
0.002282
0.00146
0.000639
-0.000183
0.00031
-0.001498
-0.001498
0.000146
-0.000347
0.004255
0.00409
0.003104
0.001132
0.004419
0.002447
0.003433
0.000967
0.003268
0.005569
0.003268
0.003268
0.003597
0.001789
0.000146
0.002118
-0.000347
0.002447
0.00031
0.001296
0.001132
0.002118
0.002282
0.003926
0.001789
0.005076
0.000803
0.00146
0.00146
-1.9e-05
0.00146
-0.00232
0.001789
-0.000676
0.003761
0.000474
0.002282
0.002611
-1.9e-05
0.002118
0.003268
-0.001169
0.002447
0.003104
0.000639
0.000474
-0.000183
0.003926
0.001789
0.001954
0.00409
0.004583
0.003104
0.00294
0.003433
0.003597
0.003597
0.002447
0.003104
0.004912
0.007542
0.00031
0.004255
-0.000347
0.001625
0.001789
0.002447
0.002118
0.00294
0.000967
0.00294
0.00031
0.004419
0.003104
0.003597
0.005076
0.003433
0.005076
0.003761
0.001625
0.002611
0.003268
0.00294
0.002447
0.004912
0.003268
-0.000347
0.003268
0.002611
0.001625
0.002118
0.001954
0.002447
0.003268
0.000803
-0.000183
0.003761
0.001789
0.004912
0.000146
0.005734
0.001954
0.008692
0.002282
0.002775
0.003433
0.003104
0.003761
0.002447
0.003104
-0.000676
-0.000676
0.001296
0.003433
0.001296
0.002775
0.003104
-0.000512
0.000803
-1.9e-05
-1.9e-05
-0.000183
0.002282
-0.002648
0.001954
-1.9e-05
0.001132
0.000474
0.003433
-1.9e-05
0.001789
0.00031
0.003268
0.002611
0.002775
0.000474
0.001132
0.00146
-0.000183
0.002775
0.000639
0.002447
-0.00232
-1.9e-05
0.000639
-0.003306
0.000474
0.003761
0.001789
0.00146
0.003433
0.003433
0.004255
0.002118
0.002611
0.003597
0.00031
-0.000183
0.002775
0.00146
-0.001498
0.003104
0.002611
0.000803
0.003268
0.003761
0.003104
0.001954
0.000146
0.002447
0.002118
0.001625
0.003268
0.001625
-0.00347
0.000639
-0.001169
-0.000183
0.000967
0.000474
0.001954
0.00146
0.002447
0.003104
0.000639
0.000967
0.000967
0.00031
-1.9e-05
0.00031
0.003597
-0.000676
0.001296
-0.002155
0.001296
-0.000347
-0.002648
-0.002977
0.00146
0.001625
-0.001169
0.003761
0.003597
0.002282
0.002118
0.004419
-0.001827
-0.000347
-0.000183
0.002447
-0.002484
0.003433
0.001954
0.001296
0.001132
0.002447
0.000474
0.002775
0.001132
0.00031
0.004419
0.000803
0.001132
0.005241
0.000474
-0.001005
0.000474
0.000474
-0.000676
0.000146
-0.001334
-0.000183
0.002611
-0.000183
-0.001827
-0.000183
-0.00232
0.001625
0.000474
0.001132
-0.000183
-0.002813
-0.002484
-0.000841
-0.003963
-0.002648
0.002447
-0.000183
0.001132
0.003433
0.000803
-0.004128
0.002282
0.000146
-1.9e-05
-0.000512
0.001625
0.001296
0.000967
-0.001498
0.002611
-0.001005
-0.000841
0.003268
-0.00232
0.001296
-0.004949
0.000146
-0.000183
0.002447
0.001954
0.002118
0.003104
0.000639
0.004748
-0.001169
-0.00232
0.00146
0.001296
0.00031
0.000639
-0.000676
0.003268
-0.003306
-0.000512
0.00031
0.002447
-0.001169
0.000967
0.001789
0.000967
-0.001169
-0.001169
0.000474
-0.001991
-0.001991
-0.001662
0.001625
-1.9e-05
0.002447
-0.000841
0.003433
-0.001169
0.000967
0.00146
0.00031
0.000639
0.001296
0.002118
0.000146
0.001296
0.000803
0.002118
0.000474
-0.002813
-0.001827
-0.000512
-0.000183
-0.000676
-0.000347
0.001132
-0.003142
0.00672
0.014938
0.021019
0.033181
0.035647
0.043371
0.048138
0.057835
0.058657
0.068847
0.070819
0.079037
0.084789
0.089063
0.091692
0.100568
0.102376
0.105334
0.110922
0.113716
0.117332
0.118647
0.124728
0.126207
0.129988
0.132782
0.138041
0.136726
0.143629
0.143958
0.147574
0.148067
0.149053
0.154312
0.15497
0.158421
0.158586
0.161873
0.161051
0.164831
0.16516
0.167625
0.16516
0.169433
0.169433
0.170091
0.17157
0.174035
0.172063
0.170091
0.175021
0.177815
0.177815
0.178802
0.183404
0.178802
0.181924
0.182089
0.186033
0.186526
0.184554
0.187841
0.186198
0.186033
0.185212
0.186362
0.187348
0.1908
0.189978
0.186362
0.187513
0.1908
0.188827
0.192443
0.188827
0.192443
0.191457
0.193429
0.194416
0.190964
0.196223
0.192772
0.194416
0.193101
0.195895
0.194909
0.195237
0.194744
0.197703
0.196388
0.199511
0.196881
0.195073
0.199675
0.197867
0.199675
0.196223
0.199839
0.194744
0.19721
0.196552
0.197867
0.19573
0.197703
0.196717
0.19836
0.200168
0.196552
0.199511
0.19836
0.200004
0.19721
0.198853
0.19721
0.196388
0.200168
0.201154
0.195895
0.197374
0.195566
0.196717
0.199346
0.196717
0.197374
0.200004
0.197867
0.202633
0.199018
0.198853
0.200004
0.198524
0.196881
0.199346
0.198689
0.198031
0.200497
0.199346
0.198031
0.198524
0.200661
0.199675
0.201319
0.199675
0.203126
0.202798
0.201647
0.201319
0.204441
0.203126
0.199346
0.200661
0.198196
0.200661
0.198524
0.199511
0.199675
0.198689
0.200004
0.200168
0.199675
0.201319
0.201647
0.200825
0.202305
0.200332
0.200825
0.201647
0.201154
0.198689
0.197703
0.196388
0.196717
0.198031
0.197374
0.201976
0.198031
0.200332
0.200497
0.202962
0.199839
0.205099
0.202633
0.201319
0.204277
0.203291
0.199346
0.199018
0.200168
0.199839
0.200332
0.198689
0.201976
0.198689
0.200661
0.199346
0.201483
0.200661
0.201976
0.20214
0.200825
0.202305
0.200004
0.201647
0.200004
0.199839
0.199839
0.200825
0.19836
0.201154
0.198853
0.201483
0.19836
0.199839
0.201154
0.200661
0.199675
0.201154
0.202469
0.200497
0.19836
0.196881
0.200497
0.201976
0.198689
0.197538
0.200332
0.200661
0.201812
0.200004
0.200497
0.200332
0.202469
0.201647
0.200497
0.202305
0.203455
0.198031
0.198031
0.201483
0.198689
0.200497
0.200661
0.200004
0.200332
0.199839
0.199018
0.201154
0.20099
0.201812
0.200497
0.200497
0.201319
0.199511
0.202962
0.199346
0.201483
0.2074
0.201647
0.200332
0.202633
0.200004
0.200661
0.200497
0.198689
0.202633
0.201154
0.201483
0.200004
0.201319
0.200004
0.201647
0.197867
0.20099
0.201154
0.197045
0.199182
0.200661
0.199182
0.201154
0.201319
0.19836
0.201154
0.197045
0.204277
0.199346
0.201976
0.195895
0.201154
0.198031
0.196881
0.199182
0.197867
0.196881
0.198853
0.199018
0.196388
0.199182
0.197703
0.204606
0.196717
0.198853
0.199018
0.19836
0.199182
0.198196
0.195402
0.005405
0.012965
0.023813
0.029894
0.039263
0.045015
0.051261
0.058657
0.061944
0.07197
0.073613
0.079859
0.084296
0.088734
0.092021
0.100403
0.101883
0.107471
0.111251
0.115195
0.119797
0.121277
0.125386
0.125221
0.132617
0.133603
0.137548
0.140835
0.083475
0.011322
0.021512
-0.000347
0.011651
0.005734
0.009514
0.001954
-0.000512
0.000474
-0.001169
-0.000676
-0.000183
0.000803
0.008363
0.003268
0.009514
0.015924
0.022169
0.002282
0.003104
0.009843
0.013294
0.007049
0.01428
0.001296
0.004583
0.001789
0.007213
0.013787
0.021183
0.026607
0.032688
0.037619
0.0437
0.047809
0.053562
0.060629
0.06556
0.067368
0.075421
0.082653
0.085283
0.090049
0.0935
0.097116
0.099582
0.103691
0.104019
0.110593
0.109114
0.093336
0.08857
0.061451
0.068682
0.071312
0.0769
0.080516
0.086104
0.08972
0.093993
0.098267
0.102869
0.105663
0.061615
0.005898
0.017074
0.022005
0.029894
0.038769
0.044851
0.051096
0.054712
0.063094
0.066381
0.074928
0.077722
0.087255
0.08857
0.096623
0.097938
0.102869
0.105827
0.108457
0.114538
0.117661
0.121112
0.123249
0.127522
0.12818
0.131796
0.137219
0.139027
0.138205
0.143958
0.146423
0.150039
0.151025
0.151354
0.154641
0.153984
0.155792
0.155134
0.160394
0.161544
0.164667
0.165489
0.168776
0.16779
0.169598
0.172227
0.17272
0.172556
0.174693
0.177651
0.176172
0.174035
0.179459
0.179295
0.177651
0.177487
0.17913
0.180938
0.178473
0.183568
0.185376
0.186033
0.185047
0.188663
0.188663
0.187513
0.188006
0.187677
0.188006
0.188827
0.18817
0.189814
0.189156
0.187019
0.194087
0.187019
0.189485
0.192279
0.192772
0.192936
0.193429
0.191621
0.19458
0.198689
0.195402
0.197374
0.194251
0.196059
0.191128
0.194744
0.190964
0.193101
0.192936
0.196059
0.194744
0.193922
0.197538
0.196223
0.196552
0.198524
0.200497
0.194416
0.19721
0.195402
0.196223
0.192936
0.197703
0.198853
0.198031
0.196059
0.193265
0.194744
0.196388
0.196552
0.196881
0.198524
0.19721
0.198524
0.198853
0.199346
0.195237
0.198524
0.19721
0.197045
0.194087
0.19836
0.197867
0.197538
0.195895
0.200825
0.200497
0.199182
0.199675
0.196552
0.200004
0.197867
0.199018
0.026114
0.022663
0.028908
0.03729
0.041564
0.04896
0.054055
0.06408
0.067203
0.072463
0.080023
0.083146
0.092186
0.092679
0.101225
0.103197
0.109279
0.111908
0.121605
0.119469
0.12292
0.126043
0.12818
0.127687
0.135247
0.141821
0.138699
0.14478
0.144944
0.14971
0.150204
0.153491
0.153491
0.155463
0.157271
0.16138
0.16138
0.162037
0.166146
0.166804
0.170748
0.169433
0.171077
0.170584
0.177815
0.176008
0.176336
0.177487
0.179459
0.177651
0.184061
0.184718
0.18439
0.183568
0.183732
0.187513
0.184554
0.18439
0.187348
0.187841
0.184554
0.189485
0.190307
0.187677
0.18932
0.19195
0.188663
0.193101
0.191128
0.192772
0.194744
0.191621
0.192279
0.196223
0.19458
0.194087
0.194744
0.193594
0.19458
0.194087
0.195895
0.19458
0.19573
0.196223
0.195402
0.193922
0.195073
0.196059
0.192936
0.198853
0.196552
0.198689
0.198689
0.198031
0.195237
0.200661
0.196552
0.198689
0.197538
0.198689
0.19836
0.196881
0.203291
0.200497
0.200332
0.200004
0.202633
0.198853
0.201647
0.196881
0.200497
0.199018
0.198853
0.199839
0.199182
0.198524
0.200661
0.200497
0.195073
0.198524
0.199182
0.200004
0.199182
0.197538
0.198689
0.201647
0.199346
0.202962
0.199839
0.200004
0.199675
0.199675
0.200497
0.197867
0.199018
0.200825
0.200497
0.200004
0.200825
0.200497
0.199018
0.197867
0.201154
0.200497
0.200332
0.197703
0.201319
0.200661
0.200168
0.200497
0.198524
0.198689
0.199346
0.200825
0.199675
0.201647
0.199346
0.205592
0.20477
0.203455
0.199018
0.200661
0.200332
0.203948
0.203291
0.198524
0.199839
0.197538
0.200825
0.199346
0.197538
0.203455
0.199511
0.198853
0.202305
0.20362
0.203291
0.202798
0.200004
0.203291
0.197538
0.203126
0.198689
0.196717
0.196717
0.19836
0.196552
0.19836
0.199018
0.200004
0.201319
0.201647
0.201976
0.203455
0.203455
0.200332
0.201319
0.200004
0.200168
0.199839
0.201319
0.198031
0.198524
0.198853
0.198853
0.200661
0.199346
0.20099
0.200497
0.199839
0.201154
0.201319
0.201319
0.200168
0.203126
0.202633
0.199675
0.19836
0.199018
0.203291
0.200661
0.19836
0.199839
0.201976
0.201319
0.206742
0.199839
0.20362
0.199346
0.200497
0.202633
0.200168
0.198853
0.197374
0.200332
0.200004
0.200168
0.198689
0.199675
0.199675
0.200004
0.201647
0.199675
0.201319
0.200332
0.203126
0.199675
0.203455
0.20099
0.203455
0.200168
0.198853
0.195402
0.197703
0.199018
0.199182
0.20099
0.199182
0.201647
0.200497
0.20099
0.200497
0.202633
0.200332
0.202633
0.201483
0.198853
0.199839
0.201483
0.199675
0.199182
0.200497
0.199346
0.200497
0.200168
0.200825
0.196881
0.196059
0.201647
0.199182
0.198524
0.203948
0.201483
0.197374
0.199675
0.200332
0.199675
0.199511
0.197045
0.201154
0.200497
0.198031
0.198524
0.199182
0.20099
0.199675
0.200497
0.200661
0.201483
0.201812
0.202305
0.200004
0.197867
0.201647
0.201647
0.20099
0.199018
0.201483
0.197867
0.201483
0.198031
0.200004
0.201319
0.201154
0.202469
0.201647
0.19836
0.199839
0.200825
0.19836
0.203126
0.197867
0.201976
0.200825
0.199675
0.199511
0.200825
0.196388
0.201647
0.200825
0.200332
0.201647
0.202469
0.201154
0.199018
0.200332
0.200332
0.20362
0.19573
0.201976
0.200004
0.201976
0.200497
0.200168
0.200497
0.200332
0.200332
0.201154
0.203126
0.201483
0.201976
0.197867
0.202469
0.199182
0.201154
0.200497
0.201647
0.201154
0.200661
0.199839
0.200497
0.199675
0.201154
0.199839
0.200004
0.200661
0.197538
0.200497
0.196552
0.201647
0.199675
0.201483
0.200661
0.201154
0.201154
0.200168
0.19836
0.203948
0.202962
0.20099
0.196717
0.201647
0.200661
0.20099
0.199839
0.198853
0.199839
0.201812
0.199839
0.197538
0.204934
0.202962
0.203126
0.200004
0.200004
0.202798
0.198689
0.20214
0.198196
0.203291
0.199675
0.200168
0.202962
0.204113
0.201154
0.203126
0.199182
0.201812
0.201154
0.199018
0.201483
0.200661
0.199675
0.199018
0.202305
0.198689
0.201812
0.196388
0.197045
0.196223
0.198031
0.199839
0.201647
0.200825
0.200825
0.202305
0.199018
0.202633
0.199346
0.198196
0.197538
0.198689
0.198031
0.196881
0.197703
0.200825
0.197538
0.195895
0.199839
0.197703
0.201812
0.200168
0.19836
0.201319
0.201647
0.199675
0.200825
0.20099
0.199675
0.198853
0.203948
0.197045
0.200004
0.199839
0.200825
0.20099
0.200168
0.202469
0.202305
0.201647
0.199675
0.199675
0.200168
0.200497
0.200497
0.202469
0.199511
0.202469
0.195895
0.199839
0.195073
0.19836
0.201154
0.199511
0.200825
0.199511
0.20214
0.201154
0.201319
0.198031
0.200332
0.199346
0.199839
0.197867
0.198196
0.19721
0.19721
0.198031
0.194416
0.197538
0.20362
0.200168
0.197867
0.201154
0.20099
0.201976
0.20099
0.202305
0.201319
0.201647
0.201154
0.201154
0.200497
0.199018
0.199839
0.198196
0.200825
0.201154
0.20099
0.202305
0.201154
0.201812
0.205099
0.201647
0.201319
0.202633
0.200332
0.201154
0.203455
0.199839
0.200661
0.200332
0.199182
0.201483
0.199839
0.199511
0.19721
0.202469
0.200168
0.200332
0.197703
0.202633
0.201319
0.200004
0.200497
0.198853
0.19836
0.199839
0.199182
0.194744
0.200332
0.197867
0.200497
0.200497
0.20099
0.203291
0.205756
0.199675
0.199675
0.20214
0.199018
0.197374
0.199511
0.201319
0.199839
0.199675
0.199018
0.201647
0.198853
0.200332
0.200497
0.201812
0.203948
0.203126
0.201483
0.203784
0.202962
0.199018
0.200004
0.201319
0.201483
0.200825
0.200661
0.199018
0.200332
0.200004
0.20099
0.20099
0.20099
0.201812
0.201319
0.204606
0.200168
0.201154
0.200168
0.200004
0.200168
0.202633
0.202962
0.201483
0.201154
0.20099
0.199182
0.200332
0.201812
0.201812
0.200497
0.202469
0.202305
0.200497
0.203948
0.201319
0.204934
0.199839
0.20099
0.201976
0.200004
0.199675
0.202305
0.200004
0.201647
0.203784
0.202305
0.201483
0.202305
0.202469
0.200332
0.20214
0.195073
0.20214
0.19836
0.201483
0.20362
0.203948
0.198031
0.201812
0.200497
0.200004
0.201319
0.19836
0.203126
0.202962
0.202798
0.201154
0.20362
0.19721
0.20099
0.201976
0.203784
0.201812
0.19836
0.202305
0.201812
0.202633
0.200332
0.202633
0.199182
0.201812
0.20099
0.201812
0.201319
0.200168
0.202469
0.203126
0.202305
0.199182
0.202305
0.202962
0.201647
0.200168
0.199675
0.201976
0.200332
0.201647
0.203126
0.201976
0.199839
0.201154
0.202798
0.202469
0.20214
0.200168
0.201647
0.199511
0.201483
0.203291
0.201812
0.201319
0.199839
0.200332
0.199346
0.20099
0.197703
0.197703
0.193594
0.197374
0.199839
0.201154
0.198689
0.201812
0.201647
0.200004
0.200332
0.199346
0.201976
0.197374
0.20214
0.199182
0.20099
0.198196
0.197374
0.199182
0.200497
0.20099
0.199018
0.199511
0.198031
0.203291
0.199839
0.20099
0.198031
0.202469
0.200168
0.200004
0.200661
0.200825
0.197867
0.197867
0.199839
0.198196
0.20362
0.198524
0.203291
0.20099
0.200497
0.199839
0.20362
0.201319
0.199675
0.201483
0.201154
0.200004
0.198689
0.200661
0.193922
0.195566
0.196717
0.200497
0.196388
0.19721
0.20099
0.201647
0.200332
0.199018
0.202469
0.20214
0.202469
0.20099
0.201483
0.202798
0.197538
0.201319
0.202633
0.199018
0.200332
0.202469
0.200497
0.200168
0.202305
0.200497
0.203291
0.198031
0.202798
0.202305
0.201154
0.200004
0.203126
0.200004
0.199018
0.200168
0.200168
0.201483
0.197045
0.201976
0.196223
0.202962
0.200332
0.204606
0.200332
0.202469
0.202798
0.201319
0.200332
0.195566
0.202798
0.198853
0.198853
0.199511
0.202798
0.198853
0.203455
0.200332
0.202962
0.198853
0.198524
0.201319
0.200332
0.201976
0.202305
0.20362
0.201319
0.200497
0.202962
0.203291
0.20099
0.200825
0.200825
0.203126
0.20214
0.203455
0.204606
0.203455
0.204277
0.20362
0.205263
0.201976
0.201812
0.203455
0.200825
0.202633
0.204113
0.201812
0.201647
0.20099
0.201483
0.202633
0.202469
0.202962
0.202305
0.202962
0.201976
0.204277
0.201154
0.199018
0.200661
0.201812
0.198689
0.199346
0.200004
0.20214
0.20099
0.20099
0.202469
0.202305
0.199182
0.202469
0.204606
0.203455
0.203126
0.201483
0.205427
0.200497
0.206085
0.201647
0.200661
0.199675
0.202633
0.200825
0.198853
0.200661
0.199675
0.202962
0.200497
0.200661
0.202469
0.203291
0.198689
0.202469
0.19836
0.200168
0.200661
0.198196
0.199675
0.19836
0.193758
0.199839
0.20099
0.196881
0.201483
0.200004
0.198524
0.200497
0.200332
0.199346
0.199675
0.201154
0.199675
0.200497
0.196388
0.197538
0.196552
0.197045
0.198524
0.196059
0.195895
0.19721
0.196881
0.198853
0.199675
0.199675
0.198689
0.200332
0.197538
0.200497
0.20099
0.200825
0.200004
0.199839
0.198853
0.199839
0.201483
0.19721
0.200661
0.198689
0.200004
0.196552
0.197538
0.199675
0.200497
0.200332
0.199839
0.200661
0.197867
0.199346
0.197703
0.199182
0.196881
0.200004
0.198853
0.199018
0.19836
0.200497
0.198689
0.199675
0.19721
0.19721
0.199346
0.198853
0.199839
0.199182
0.20362
0.200004
0.200661
0.202962
0.202798
0.202305
0.203455
0.200661
0.197867
0.203126
0.199182
0.200004
0.201976
0.202305
0.200332
0.20214
0.199511
0.202305
0.199675
0.200497
0.202633
0.200168
0.199839
0.200661
0.200497
0.199182
0.197867
0.199182
0.202469
0.199182
0.199346
0.200661
0.205592
0.199182
0.201319
0.20362
0.199839
0.198196
0.201154
0.198689
0.200004
0.196388
0.199675
0.197538
0.199018
0.198853
0.197703
0.200004
0.200825
0.201976
0.200825
0.202305
0.19836
0.202633
0.200168
0.20099
0.197374
0.196388
0.200332
0.200497
0.198853
0.199839
0.20099
0.199018
0.202469
0.201976
0.202469
0.20099
0.200825
0.200168
0.202962
0.20362
0.199018
0.201154
0.200332
0.20099
0.200497
0.201976
0.199346
0.200497
0.197703
0.201812
0.198689
0.204606
0.199018
0.202469
0.206578
0.201154
0.199346
0.199675
0.204606
0.199018
0.19721
0.198196
0.200332
0.198689
0.200332
0.200004
0.199675
0.200004
0.204441
0.201319
0.198853
0.199182
0.20214
0.201976
0.199511
0.203291
0.204441
0.201483
0.202633
0.201976
0.197867
0.201812
0.199675
0.200825
0.200168
0.200661
0.199839
0.202469
0.201483
0.201154
0.202305
0.199346
0.201319
0.199511
0.201154
0.198689
0.198031
0.198853
0.20099
0.197374
0.198031
0.199346
0.200661
0.199675
0.193758
0.202469
0.200168
0.200825
0.198853
0.204113
0.200168
0.198524
0.201812
0.196552
0.197703
0.199675
0.194744
0.19721
0.201154
0.196223
0.202798
0.203126
0.202633
0.200661
0.202305
0.200332
0.200497
0.197538
0.199675
0.199018
0.199511
0.199511
0.200825
0.200497
0.199839
0.200497
0.193922
0.200332
0.199839
0.198524
0.199346
0.199346
0.199675
0.201154
0.198853
0.199675
0.199018
0.197867
0.198031
0.200004
0.198031
0.19836
0.196059
0.199018
0.194416
0.193922
0.197703
0.196552
0.197374
0.195895
0.201154
0.194251
0.199511
0.197045
0.196552
0.195895
0.197374
0.195402
0.194744
0.19573
0.198689
0.20099
0.194744
0.199675
0.196223
0.197867
0.198853
0.201154
0.199346
0.199346
0.200825
0.19836
0.198031
0.198031
0.196552
0.19721
0.198524
0.197045
0.199511
0.196388
0.199182
0.197867
0.20099
0.198031
0.199346
0.19836
0.197045
0.198853
0.196223
0.197867
0.196881
0.198031
0.196717
0.199018
0.19836
0.195237
0.197867
0.19836
0.19721
0.198196
0.199018
0.198689
0.197867
0.19836
0.194744
0.19721
0.200332
0.198196
0.198031
0.200661
0.201647
0.200168
0.20099
0.198524
0.19836
0.199675
0.202962
0.200497
0.198853
0.199182
0.20099
0.200497
0.197045
0.200004
0.197703
0.199675
0.199346
0.199839
0.197045
0.198524
0.19721

Kurve 3

0.00146
0.002775
-0.003306
-0.000512
-0.00232
0.000474
0.000639
0.000967
-0.001005
0.003104
-0.000676
0.001625
-1.9e-05
0.001296
0.000967
0.001132
0.002447
-0.001662
-0.000183
-0.001334
-1.9e-05
-0.001827
-0.00347
-0.000841
0.002118
0.001296
0.003597
0.002775
0.003268
0.001132
-1.9e-05
0.00409
-0.000183
-0.000512
0.000146
0.00146
-1.9e-05
0.002282
0.000146
0.001625
-0.000183
0.000639
-0.000183
-0.001334
-0.001169
0.000639
-0.000676
0.001296
0.001789
-0.002813
0.00031
0.000146
0.000967
0.002282
-0.000347
-0.002813
0.001789
-0.001498
0.000146
-0.001662
0.000474
-0.000676
-0.000676
0.001296
-0.001005
-0.001169
-0.002977
-0.001334
-0.002155
-0.001498
-0.001498
-0.003635
-0.000347
0.001789
0.000639
0.004419
-0.000841
-0.002648
-1.9e-05
-1.9e-05
0.000146
0.000474
0.000146
-0.00232
0.001625
-0.000347
0.00409
-0.001169
0.001789
-0.000512
0.001132
0.000967
-0.000183
-0.002648
-0.001169
0.000967
0.000803
-0.001498
-0.001662
-0.000841
-0.004785
-0.002484
-0.002484
0.001296
-0.000183
0.001789
0.00409
0.00031
0.000146
-0.000841
-1.9e-05
-1.9e-05
-0.001334
-0.002155
0.00031
-0.004128
-0.001662
-0.003142
-0.001498
-0.004621
-0.0061
0.000639
0.001789
0.00031
0.001954
-0.002484
-0.003799
0.001789
0.000967
-0.000183
-0.001827
-0.002648
-0.001662
-0.001005
-0.000676
-1.9e-05
-1.9e-05
-0.002484
0.001625
0.002611
0.000639
0.000967
0.00146
-0.001005
-0.001169
-0.000676
-0.000512
-0.001498
-0.000512
0.002282
0.000474
0.000146
-0.00232
-0.001169
-0.000676
0.001789
0.000803
0.000803
0.001296
0.000146
-0.001498
0.00146
-0.000676
-0.000347
0.000474
-0.001498
0.000474
-0.001005
-0.001827
-0.004128
-0.004292
0.000967
0.000967
-0.001662
-0.000347
-0.00232
0.005241
0.000639
0.001789
0.000474
0.001296
-0.001662
-0.000676
-0.001334
0.000474
-0.001662
-0.000183
-0.001334
-0.001005
0.000967
-0.002813
0.000474
-0.002813
0.001132
0.000146
-0.000183
-0.000183
-0.001991
-0.001005
-0.000347
-0.001334
-0.000183
-0.001991
-0.003306
-0.001991
-0.000347
0.00146
0.002611
0.000146
-0.001498
0.000146
-1.9e-05
0.000474
-0.002155
0.000474
0.001132
0.000639
-0.000512
-0.002155
-0.001498
0.000639
-0.000841
-0.001827
-0.000347
-0.001334
-0.002977
0.00146
-0.001005
-0.002977
0.003926
-0.001827
0.002447
0.001132
-0.000347
0.000639
-0.000347
-0.001662
-0.000676
0.000639
-0.004292
0.00294
-0.001827
-0.001991
-0.001662
0.000146
-0.000347
-0.000183
-0.000347
0.001132
-0.000183
-0.002155
0.000967
-0.001827
-0.002484
-0.002977
-0.001498
-0.000841
-0.003799
-0.003306
-0.000183
-0.001662
0.000474
-0.000347
-0.000841
-0.000841
-0.001005
-0.001498
-0.003963
0.001296
-0.002484
-0.000676
0.002447
0.00031
-0.002155
0.000146
-0.002484
-0.001005
-0.001991
-0.005936
0.000639
-0.002155
-0.000183
0.003761
0.000803
-0.000676
0.001296
-0.000347
0.00031
-0.002977
-0.000676
-0.000512
-0.000183
-0.002813
-0.000841
-0.000183
-0.000676
0.001789
0.001625
0.000639
0.000474
-1.9e-05
0.000967
-0.000841
-0.001334
-0.001334
-0.003142
-0.001169
-0.002813
-0.000347
-0.001005
-0.000841
0.000803
-0.000676
-0.000512
0.000803
0.001132
0.000146
-0.000512
-0.001005
0.002118
0.00146
-1.9e-05
0.000474
0.001789
0.000474
0.003761
0.003104
0.001789
0.003761
0.003926
0.003433
0.002775
0.002118
0.003926
0.005076
0.00294
0.002611
0.000639
0.003926
0.005241
0.002447
0.001132
0.001954
0.000803
0.002282
0.00146
-0.004456
0.000639
0.001296
-0.002484
0.00031
0.000803
0.000474
0.001132
-0.002648
-0.001498
-0.000512
-0.000512
0.000146
0.000803
0.001625
0.000803
0.000474
-0.000512
0.002611
0.000639
0.001789
-0.000676
0.000639
0.002447
0.003268
0.000967
0.001789
0.002118
0.001132
0.001954
0.001625
0.002447
0.002775
0.005734
-0.001827
-0.002484
-0.000183
-0.000347
-0.001005
-0.00232
-0.002155
-0.001005
-0.000347
-0.000676
0.001296
-0.002155
0.002611
0.000803
0.002118
-0.001005
-0.00232
-0.003635
0.000803
-0.004292
-0.000183
-0.00232
0.000967
-0.001169
-0.002155
-0.001662
-0.002155
-0.000183
-0.000676
0.00146
-0.000183
0.000967
0.000146
0.000639
-0.001169
-0.000183
0.000146
-0.003142
-0.002155
0.002118
0.002775
-0.001991
-0.000347
0.000146
-0.001005
-0.00232
0.001132
0.001132
-0.001005
-0.001334
-0.006264
-0.002813
-0.001662
-0.00232
-0.001498
-0.002977
-0.002648
-0.001169
-0.002648
-0.001498
-0.002155
-0.000841
-0.003799
-0.001005
0.003268
0.004748
-0.000676
-0.003142
-0.001005
0.000474
-0.002648
-0.000347
-0.002484
-0.008072
-0.001334
-0.002977
-0.000512
-0.002155
0.002447
-0.001169
0.001132
-0.000183
-0.001169
0.000146
0.00031
-0.001662
-0.001991
-0.000841
-0.001005
-0.000347
-0.001498
0.003597
-0.001334
0.000967
0.00031
0.000803
0.002775
0.00409
0.002447
-1.9e-05
0.003433
0.001789
0.002447
-0.000512
0.001132
-0.001169
-0.000183
-0.001334
0.00294
0.001789
0.001625
-0.000676
-0.000183
0.000474
-0.001005
0.002447
0.002775
-0.001169
0.004583
0.000803
0.000146
0.002118
0.000967
-0.001991
-0.003142
-0.000676
-0.001169
-0.001005
-0.000512
0.001789
0.002775
0.001132
0.002118
0.00031
0.002118
-0.001662
-0.002484
-0.00347
-0.001169
-0.005443
0.000803
0.002611
0.003104
0.000474
0.001132
0.00031
0.000967
0.000967
0.000474
-0.000183
0.002611
0.00409
0.005734
0.002447
0.000967
0.000803
0.00031
0.001625
0.000803
0.000146
-0.001498
-0.000512
-0.000512
0.000639
0.001625
-0.001169
0.00031
-0.001169
0.003268
-0.001169
0.002282
0.002118
-0.002484
-0.001991
0.00409
0.002118
-0.001005
0.000474
0.001132
0.00146
-0.001991
0.00146
-0.001005
-1.9e-05
-0.000512
0.00294
0.00031
0.000967
-0.001334
-0.002648
0.00409
-0.000841
-0.00232
-0.001498
0.001625
0.000474
0.003104
-1.9e-05
0.001132
-0.000183
0.001132
0.001625
-1.9e-05
-0.002648
0.000639
-0.001169
0.000803
0.000803
0.002775
0.00146
0.00146
0.000967
0.003268
-0.001498
-0.00232
-1.9e-05
-0.000347
-0.000183
0.002611
0.002118
-0.000183
0.002118
0.000146
0.002775
-0.002155
0.000639
0.000474
-1.9e-05
-0.000347
0.003761
0.000639
-0.001498
0.001132
-0.002155
0.00031
-0.000841
0.000967
-0.000512
-0.001005
-0.000183
-0.001169
0.00294
-0.001827
-0.001334
-0.000512
0.005734
-0.000512
-0.00232
0.000474
-1.9e-05
-0.001498
0.001789
-0.001662
-0.002484
0.00031
0.000639
0.003433
0.000474
0.00146
-0.000183
-0.000676
-0.000512
0.003268
0.000639
0.002282
-0.001334
0.001296
0.00031
-0.000841
-1.9e-05
-0.000512
0.000639
-1.9e-05
0.000967
0.005405
0.002611
0.00031
0.000967
0.001789
-0.000347
-0.001991
0.000803
-0.001169
-1.9e-05
0.005734
0.000803
-0.001991
-0.00347
-1.9e-05
0.001789
-0.000512
-0.005936
-0.001991
-0.003799
0.000639
0.001132
0.003104
0.00031
0.000803
0.000474
0.003268
-0.000183
-0.001991
0.00409
0.001296
0.001954
0.00146
0.00409
0.002611
0.002611
0.002118
0.005734
0.000967
0.00294
0.002447
0.00146
0.001625
0.002611
0.000639
0.002118
0.001789
-1.9e-05
0.004583
0.002775
0.002118
0.000474
0.003104
0.00031
0.002282
0.002447
0.001789
0.001296
0.001625
0.003104
-0.003799
-0.003635
-0.00347
-0.00347
-0.005114
0.001132
-0.001498
0.000474
-0.011524
-0.001498
-0.000183
0.002447
0.003433
0.004912
0.003433
0.003926
0.004583
0.005241
0.004583
0.005405
0.006062
0.00672
0.004583
0.003104
0.004583
-0.001991
0.004255
0.000474
0.003926
0.002775
0.002447
0.003268
0.004419
0.002282
0.001789
0.002447
0.00146
0.007213
0.015102
0.022663
0.026114
0.036469
0.04107
0.050768
0.054712
0.063587
0.068518
0.072791
0.078708
0.082324
0.090213
0.090706
0.058985
0.063916
0.06934
0.070162
0.050439
0.008528
0.017074
0.010007
0.021019
0.028086
0.034168
0.038934
0.045508
0.056356
0.057342
0.066546
0.069504
0.074764
0.07953
0.086597
0.086597
0.092021
0.095308
0.096623
0.10139
0.105663
0.109936
0.113552
0.117496
0.118811
0.1267
0.128673
0.130645
0.129001
0.133439
0.135411
0.136233
0.136069
0.142972
0.142807
0.145437
0.148724
0.150204
0.153326
0.155627
0.15612
0.157435
0.159408
0.159572
0.164174
0.164667
0.164174
0.167625
0.167461
0.167132
0.168447
0.164996
0.169433
0.173378
0.172885
0.178802
0.176665
0.180774
0.18061
0.184225
0.182417
0.18439
0.180116
0.184883
0.184225
0.180281
0.183732
0.186855
0.185869
0.187677
0.18932
0.187348
0.189978
0.189485
0.191128
0.189814
0.192608
0.1908
0.194251
0.11158
0.119633
0.124071
0.126207
0.126865
0.130809
0.133275
0.133932
0.139027
0.136562
0.141493
0.141164
0.14593
0.129823
0.118976
0.121605
0.008528
0.016088
0.022827
0.03351
0.037783
0.044851
0.055205
0.058657
0.064245
0.07049
0.075092
0.082488
0.088734
0.091857
0.095801
0.101225
0.104841
0.107799
0.115195
0.116839
0.121605
0.12177
0.129659
0.129166
0.134425
0.134261
0.13952
0.139192
0.143958
0.144944
0.147574
0.14971
0.152669
0.156778
0.157435
0.158914
0.156942
0.162202
0.16401
0.165324
0.166146
0.167625
0.170584
0.171077
0.170419
0.176336
0.17535
0.176172
0.176665
0.176994
0.178309
0.177487
0.178802
0.180938
0.182089
0.182582
0.187841
0.179952
0.185212
0.185376
0.182253
0.184718
0.188992
0.186691
0.186855
0.189978
0.189649
0.191621
0.191128
0.191786
0.191786
0.194909
0.19195
0.19573
0.192772
0.195237
0.196223
0.195073
0.194251
0.194087
0.194909
0.198031
0.19573
0.194251
0.198524
0.195402
0.195237
0.196552
0.19836
0.194087
0.19721
0.197045
0.198524
0.199182
0.196388
0.197538
0.196223
0.197045
0.196717
0.196552
0.196388
0.197867
0.194087
0.195566
0.198524
0.198196
0.196552
0.196388
0.199018
0.197867
0.201976
0.197045
0.200661
0.199675
0.197703
0.198031
0.19836
0.197374
0.198689
0.196881
0.198196
0.197538
0.197538
0.198853
0.198853
0.199675
0.191786
0.192608
0.193594
0.192115
0.19458
0.195895
0.190964
0.199018
0.193265
0.19836
0.18932
0.194251
0.196059
0.195566
0.193758
0.195402
0.196388
0.196388
0.196717
0.195566
0.197045
0.196552
0.198031
0.196717
0.198524
0.19458
0.197867
0.194416
0.195402
0.197045
0.194909
0.196552
0.196552
0.19721
0.197867
0.196552
0.192608
0.199182
0.19721
0.199675
0.198689
0.201154
0.196717
0.199346
0.196717
0.198524
0.199839
0.198031
0.20099
0.199839
0.199675
0.199182
0.201647
0.198031
0.203126
0.201154
0.200168
0.198689
0.196881
0.197045
0.199511
0.197703
0.19573
0.198689
0.199182
0.202798
0.200497
0.200497
0.201319
0.200332
0.200004
0.205427
0.200825
0.200168
0.199675
0.198031
0.197703
0.198689
0.197703
0.197703
0.198031
0.200332
0.202469
0.201812
0.202962
0.201812
0.205921
0.199675
0.20099
0.200661
0.202798
0.199346
0.201647
0.201154
0.200661
0.199018
0.199018
0.202305
0.196223
0.202469
0.199839
0.200497
0.201154
0.202305
0.200497
0.19721
0.199018
0.199675
0.202305
0.200497
0.201647
0.199675
0.200825
0.198196
0.200497
0.196717
0.200332
0.198853
0.198196
0.199018
0.199018
0.200168
0.199018
0.201319
0.202305
0.200661
0.197703
0.199346
0.197703
0.198031
0.197374
0.198853
0.197374
0.197538
0.200004
0.201483
0.203948
0.200825
0.20099
0.20362
0.20099
0.200497
0.201976
0.199675
0.201647
0.200661
0.202305
0.202798
0.197045
0.200825
0.200332
0.199018
0.201812
0.198853
0.199182
0.202798
0.202962
0.206249
0.201319
0.203455
0.197703
0.202798
0.200168
0.200497
0.198689
0.200004
0.199346
0.202305
0.20099
0.199182
0.201812
0.20099
0.202305
0.200497
0.201976
0.200825
0.200168
0.199346
0.201319
0.201647
0.202305
0.201647
0.201483
0.199018
0.198196
0.198853
0.197045
0.202305
0.201483
0.203126
0.203291
0.203126
0.200825
0.200825
0.200497
0.203291
0.199675
0.203126
0.200825
0.200661
0.201154
0.203291
0.201812
0.199018
0.20477
0.200332
0.202633
0.200004
0.196388
0.197538
0.204277
0.19836
0.205099
0.200332
0.202469
0.199675
0.202962
0.197374
0.199675
0.200497
0.199346
0.20099
0.204113
0.204441
0.199346
0.200168
0.20099
0.201483
0.197867
0.201154
0.200661
0.199018
0.201154
0.20099
0.20477
0.202962
0.200497
0.196881
0.201154
0.199182
0.201154
0.199182
0.200661
0.199839
0.203784
0.204277
0.202633
0.202633
0.201483
0.203291
0.200497
0.20099
0.201647
0.203784
0.202305
0.20362
0.202633
0.203291
0.198524
0.20362
0.203784
0.199018
0.203948
0.199182
0.201647
0.200825
0.206907
0.20214
0.203455
0.201812
0.202633
0.204606
0.204441
0.199511
0.200168
0.200168
0.198853
0.202633
0.202798
0.200332
0.200168
0.203126
0.203784
0.203126
0.201154
0.204606
0.20099
0.20362
0.202798
0.204277
0.201647
0.201812
0.201483
0.202962
0.201647
0.20214
0.203126
0.202305
0.20099
0.206085
0.205263
0.202305
0.207235
0.201319
0.20362
0.198524
0.202469
0.197867
0.202633
0.19836
0.200004
0.201319
0.199511
0.202962
0.202798
0.006556
0.013623
0.006062
0.011486
0.022334
0.02973
0.038112
0.046659
0.048138
0.056684
0.06293
0.066053
0.069669
0.07953
0.080187
0.088734
0.092679
0.101718
0.105663
0.109279
0.109607
0.116346
0.119304
0.118811
0.123413
0.126207
0.130974
0.130645
0.136398
0.13837
0.140835
0.139685
0.145766
0.145108
0.149875
0.14971
0.153491
0.153655
0.153984
0.156613
0.159572
0.159736
0.161544
0.165489
0.164831
0.163352
0.168447
0.169433
0.168118
0.171734
0.171077
0.175515
0.173378
0.174528
0.176665
0.180445
0.177158
0.182911
0.180938
0.179623
0.184061
0.182582
0.181596
0.180774
0.185869
0.181596
0.182417
0.183239
0.186526
0.188499
0.190635
0.191128
0.192608
0.194909
0.191786
0.194087
0.191128
0.194087
0.19195
0.194416
0.192772
0.192936
0.193101
0.195237
0.194909
0.195237
0.195566
0.192279
0.195402
0.19573
0.19721
0.196388
0.199675
0.197374
0.199839
0.200661
0.200168
0.199018
0.197703
0.198196
0.196388
0.197703
0.197538
0.197867
0.198524
0.201154
0.202962
0.200661
0.201647
0.199839
0.201976
0.201812
0.199839
0.198853
0.199182
0.199346
0.198524
0.202798
0.198853
0.197374
0.198689
0.197867
0.20477
0.204441
0.203291
0.202798
0.205263
0.200497
0.206085
0.203948
0.203455
0.202962
0.205592
0.200825
0.200661
0.202633
0.202305
0.202305
0.199182
0.207071
0.202633
0.202962
0.202962
0.206907
0.201483
0.204277
0.199018
0.20099
0.201154
0.202469
0.202633
0.201647
0.202469
0.201154
0.204277
0.200168
0.200497
0.199182
0.202305
0.201647
0.202633
0.201647
0.202305
0.20099
0.202469
0.202798
0.19836
0.201647
0.200004
0.201647
0.200825
0.196881
0.201976
0.204113
0.199346
0.199018
0.200661
0.199346
0.20099
0.199018
0.200332
0.200825
0.197374
0.19836
0.200332
0.19836
0.198031
0.198031
0.196388
0.198689
0.199346
0.197703
0.198689
0.198031
0.199018
0.198689
0.199511
0.199675
0.200168
0.197703
0.196388
0.199675
0.19721
0.197703
0.197374
0.199018
0.197867
0.19836
0.195402
0.196717
0.196881
0.194087
0.194251
0.193922
0.197045
0.196717
0.198524
0.198196
0.199839
0.199511
0.19836
0.196552
0.202469
0.199839
0.200004
0.196223
0.19721
0.201483
0.198524
0.200661
0.199018
0.199018
0.198031
0.199511
0.199182
0.202798
0.198031
0.200332
0.202305
0.199675
0.20099
0.201812
0.199018
0.199018
0.199839
0.198853
0.199675
0.202305
0.200661
0.200332
0.201319
0.199839
0.202469
0.199675
0.201647
0.200497
0.200332
0.200168
0.202469
0.200825
0.201319
0.200004
0.198031
0.196717
0.196881
0.199182
0.197538
0.200332
0.199511
0.202798
0.202469
0.202798
0.205263
0.202962
0.201812
0.203455
0.199839
0.201319
0.200661
0.199018
0.20099
0.201647
0.201647
0.200661
0.202469
0.201154
0.201154
0.199675
0.199839
0.20362
0.201154
0.202798
0.200004
0.203784
0.201154
0.20099
0.198031
0.204113
0.195566
0.197703
0.197374
0.199182
0.199018
0.200168
0.20214
0.200497
0.20099
0.198524
0.201976
0.198196
0.201154
0.19836
0.200168
0.19573
0.197703
0.198196
0.197538
0.196388
0.196552
0.200661
0.199018
0.200661
0.20099
0.201976
0.198524
0.201319
0.200332
0.199675
0.198524
0.201154
0.197538
0.20099
0.197867
0.197538
0.200332
0.198031
0.202469
0.200497
0.19836
0.201154
0.201812
0.200004
0.198196
0.199511
0.200168
0.198524
0.201319
0.201319
0.199346
0.19573
0.201647
0.196059
0.200332
0.200661
0.200497
0.200661
0.200825
0.201154
0.200661
0.201976
0.200661
0.202962
0.199675
0.19836
0.199675
0.199839
0.198853
0.199675
0.19836
0.197867
0.202962
0.202305
0.203291
0.199675
0.20214
0.199346
0.200825
0.201812
0.201647
0.199511
0.201812
0.201483
0.200661
0.201976
0.197867
0.199346
0.198853
0.201154
0.197703
0.196881
0.198031
0.198524
0.199675
0.201812
0.200661
0.200825
0.201647
0.198853
0.201154
0.198524
0.199182
0.202305
0.199839
0.19836
0.201976
0.19721
0.198853
0.201483
0.196059
0.197538
0.199018
0.19836
0.198689
0.199675
0.199182
0.19836
0.197045
0.200168
0.200168
0.197867
0.199018
0.200332
0.196059
0.19836
0.200168
0.200004
0.200004
0.201812
0.199675
0.201812
0.201154
0.199675
0.201812
0.198524
0.200825
0.201812
0.200332
0.198031
0.202469
0.198031
0.199182
0.197045
0.199511
0.201647
0.200332
0.122427
0.128508
0.130809
0.130152
0.136398
0.140013
0.143301
0.142972
0.144451
0.146423
0.148889
0.151025
0.155299
0.154641
0.155627
0.159243
0.161051
0.163516
0.162859
0.164831
0.16516
0.16779
0.170091
0.171734
0.173049
0.1742
0.172063
0.178802
0.176172
0.177651
0.178144
0.179459
0.181596
0.180281
0.183732
0.182417
0.185376
0.18554
0.187184
0.18554
0.186691
0.186033
0.185869
0.186362
0.194087
0.189814
0.188499
0.193101
0.187841
0.192608
0.191128
0.1908
0.188663
0.192608
0.1908
0.195402
0.194087
0.190635
0.192936
0.194087
0.192608
0.193758
0.195237
0.19573
0.193265
0.193429
0.195237
0.196717
0.194087
0.19458
0.195237
0.195237
0.197045
0.194416
0.197867
0.19836
0.197538
0.201812
0.195073
0.198524
0.198689
0.198689
0.196552
0.199346
0.197867
0.197703
0.195895
0.199839
0.198689
0.199675
0.197867
0.198689
0.199182
0.196388
0.198524
0.19836
0.199018
0.198689
0.199839
0.198853
0.200825
0.197703
0.197374
0.199018
0.198689
0.199346
0.197538
0.195895
0.19458
0.201976
0.196059
0.201319
0.201154
0.202633
0.199182
0.201154
0.199675
0.198689
0.19573
0.197867
0.196717
0.19573
0.200332
0.198689
0.202305
0.199346
0.200661
0.199182
0.199675
0.198853
0.20099
0.199511
0.197867
0.200004
0.200004
0.200661
0.19836
0.201319
0.200004
0.199675
0.199018
0.198031
0.199839
0.202633
0.197538
0.197045
0.199182
0.202305
0.199346
0.203291
0.19836
0.199511
0.199182
0.197867
0.198524
0.199839
0.198689
0.199839
0.197867
0.20099
0.20214
0.201319
0.203784
0.201319
0.198689
0.201812
0.201154
0.199018
0.196388
0.197374
0.198689
0.200661
0.196223
0.200661
0.199675
0.197045
0.20099
0.202962
0.199018
0.203455
0.201154
0.201812
0.20362
0.19721
0.200004
0.200497
0.200661
0.198524
0.201319
0.198524
0.201483
0.199018
0.203948
0.197867
0.200825
0.206414
0.202469
0.20099
0.202469
0.204277
0.198689
0.200004
0.199675
0.199675
0.200661
0.198524
0.199675
0.199839
0.198853
0.203784
0.205263
0.201647
0.20099
0.202633
0.20099
0.202633
0.201319
0.197703
0.201154
0.196059
0.197703
0.200661
0.198524
0.197045
0.20362
0.201154
0.201647
0.199346
0.200661
0.20099
0.20099
0.201647
0.201483
0.201154
0.200497
0.202962
0.200332
0.201976
0.199839
0.199346
0.200497
0.202305
0.199018
0.20099
0.197374
0.198689
0.201154
0.20362
0.200004
0.203948
0.20362
0.197538
0.201812
0.20362
0.199346
0.203455
0.200661
0.200168
0.20099
0.196552
0.197703
0.201319
0.199018
0.200661
0.202633
0.202798
0.203948
0.202633
0.200825
0.201976
0.196717
0.201319
0.202469
0.197538
0.199839
0.201154
0.201154
0.203948
0.201647
0.202633
0.202305
0.201154
0.201976
0.20099
0.203455
0.201483
0.204277
0.20362
0.204441
0.203291
0.202798
0.202305
0.202469
0.200661
0.201154
0.201319
0.200332
0.207235
0.201483
0.209043
0.203126
0.202633
0.202305
0.203455
0.205099
0.200332
0.202633
0.203784
0.204606
0.206907
0.20214
0.202633
0.204934
0.200332
0.203948
0.201812
0.202305
0.200661
0.202305
0.201812
0.203455
0.203948
0.20099
0.204277
0.201483
0.20362
0.201483
0.203784
0.201154
0.20362
0.200168
0.204606
0.201647
0.204441
0.20214
0.203455
0.20214
0.204113
0.202469
0.203291
0.204441
0.201483
0.206085
0.202633
0.203291
0.20099
0.201647
0.200004
0.20099
0.199675
0.199018
0.199839
0.198853
0.204441
0.204277
0.201483
0.201483
0.202962
0.201976
0.203784
0.202469
0.200332
0.202962
0.199839
0.201154
0.204441
0.201647
0.197867
0.199018
0.198031
0.200332
0.197703
0.201154
0.20214
0.201154
0.203126
0.204606
0.200825
0.202305
0.200825
0.201647
0.198196
0.199839
0.19836
0.198853
0.199839
0.199018
0.200661
0.195895
0.199675
0.197538
0.201976
0.197045
0.197703
0.196717
0.19836
0.19721
0.199675
0.196388
0.199346
0.19836
0.19836
0.199675
0.193594
0.196223
0.194416
0.195566
0.195237
0.198853
0.196881
0.200168
0.196223
0.197867
0.198031
0.193429
0.199182
0.195895
0.19721
0.195895
0.19836
0.198031
0.198031
0.198853
0.195402
0.199018
0.193758
0.194087
0.198196
0.19836
0.200332
0.200825
0.198196
0.199839
0.197703
0.19721
0.198196
0.197374
0.196717
0.198689
0.197374
0.19836
0.19836
0.200332
0.198689
0.197538
0.200004
0.200497
0.199018
0.195402
0.198196
0.196717
0.196388
0.201319
0.200497
0.198524
0.200004
0.196552
0.198853
0.198689
0.19836
0.198853
0.200168
0.200497
0.201154
0.202469
0.199675
0.199182
0.200661
0.199182
0.199346
0.19195
0.196059
0.197374
0.196388
0.198689
0.200497
0.20214
0.200497
0.202305
0.201483
0.200004
0.198689
0.201976
0.201483
0.199346
0.200332
0.201319
0.201319
0.199182
0.200825
0.198196
0.199182
0.199018
0.199839
0.200825
0.200661
0.201319
0.20362
0.204606
0.201976
0.203126
0.200004
0.199182
0.197703
0.200004
0.196717
0.199346
0.200004
0.199675
0.201154
0.199182
0.20099
0.20099
0.200168
0.200168
0.201319
0.199346
0.201483
0.193594
0.199346
0.199839
0.198689
0.196717
0.198524
0.195237
0.200004
0.200825
0.198689
0.199839
0.200004
0.200661
0.200168
0.201976
0.199346
0.20362
0.200332
0.200332
0.199839
0.197374
0.198031
0.200825
0.198689
0.20099
0.200004
0.200661
0.202962
0.197867
0.198031
0.197045
0.201154
0.20099
0.20477
0.204934
0.200661
0.200004
0.201483
0.201812
0.198524
0.199839
0.200497
0.199346
0.199182
0.200004
0.199182
0.200168
0.199839
0.200661
0.200661
0.199675
0.198196
0.201319
0.200168
0.198689
0.193265
0.200497
0.201483
0.199839
0.200332
0.200825
0.200332
0.201483
0.196388
0.201812
0.198524
0.200661
0.200825
0.20099
0.199675
0.202633
0.200661
0.200497
0.199018
0.199675
0.199018
0.200332
0.198524
0.200168
0.202469
0.199346
0.198524
0.203948
0.198524
0.200497
0.201483
0.200661
0.200661
0.198853
0.201483
0.199511
0.200497
0.200332
0.202305
0.198853
0.197867
0.200661
0.199182
0.198689
0.201812
0.202633
0.200332
0.194087
0.195073
0.195895
0.195073
0.196059
0.197045
0.197374
0.197538
0.196223
0.196717
0.197867
0.19573
0.197703
0.196881
0.195402
0.197374
0.199018
0.196388
0.198524
0.199018
0.198689
0.199018
0.19836
0.198524
0.19836
0.198031
0.196388
0.200004
0.197703
0.197374
0.199511
0.197867
0.199182
0.193101
0.19836
0.19836
0.198196
0.198524
0.199511
0.197703
0.199675
0.199511
0.201154
0.198689
0.198689
0.198196
0.19721
0.19721
0.200661
0.198524
0.195237
0.195895
0.197374
0.200168
0.198031
0.19721
0.196223
0.197867
0.19721
0.199018
0.20099
0.199346
0.198853
0.199182
0.200825
0.199182
0.200661
0.199182
0.199511
0.200004
0.198689
0.199346
0.203455
0.200661
0.202633
0.200332
0.198196
0.198689
0.199182
0.201812
0.199346
0.198689
0.19836
0.198031
0.199018
0.199018
0.200332
0.201319
0.19836
0.20099
0.199839
0.198031
0.20099
0.198524
0.200332
0.197867
0.199675
0.200825
0.19721
0.195237
0.199346
0.195566
0.196388
0.198196
0.199511
0.199182
0.201812
0.201976
0.201812
0.201812
0.200332
0.20099
0.200168
0.200168
0.199675
0.200168
0.199018
0.201812
0.199839
0.201812
0.200332
0.200004
0.20214
0.201154
0.200497
0.201976
0.202633
0.19836

Kurve 4

-0.000183
0.002447
-0.000347
-0.001005
-0.001991
0.000967
-0.001005
-0.000841
0.001954
0.002282
0.002282
0.003104
0.000146
0.003761
0.000146
0.002118
0.000803
-1.9e-05
-1.9e-05
-0.001334
-0.001827
-0.002155
-0.000676
0.000803
0.002282
0.000639
0.00294
-0.000183
0.002447
0.000474
-0.000512
0.00146
0.001132
0.00294
0.000146
-0.003799
0.000967
0.000639
0.000146
0.000639
-0.00347
-0.00232
0.000967
0.001789
0.000639
0.002282
0.002447
0.003761
0.001789
0.000474
0.000639
-0.000676
-0.001005
-0.001169
0.000803
-0.001005
-0.000841
-0.001005
0.000474
0.000967
0.001625
0.001954
0.001296
0.000474
0.001954
0.004419
-0.001005
-0.000183
0.000474
0.00294
-0.001662
0.002282
-0.002155
-0.001662
-0.002484
-0.000347
0.002447
-0.000841
0.001132
0.002282
0.000474
0.001625
0.002611
0.000967
0.00031
-0.001991
0.001132
0.000639
0.000803
-0.003306
0.002447
-0.001498
-0.001991
-0.001334
0.003268
0.003926
-0.001991
0.000803
0.00294
-0.000841
-0.001005
0.006227
-0.001334
-0.000841
-0.005114
0.000639
-0.002977
-0.004128
-0.00347
-0.000512
-0.000347
0.000803
0.002447
0.001296
0.002775
0.00031
0.001132
-0.001334
0.002775
0.000146
0.00146
0.000146
0.000803
0.005076
0.001296
-0.001498
0.00146
0.00031
-0.000841
0.001296
0.000967
0.00294
-0.001005
0.001132
0.000803
0.000639
0.001296
0.003926
0.002611
0.002447
-0.000347
-0.000347
-0.001662
-0.000512
0.002447
-0.001827
0.000803
-0.000512
-0.001005
-0.002155
-0.001498
0.002282
-0.003142
-0.001498
0.002611
-0.001169
0.000146
0.003597
0.000967
-0.000512
0.000146
0.000474
-0.000512
0.000474
0.000146
-0.001169
0.000639
0.002775
0.000639
0.002447
0.000146
0.001296
-0.001827
-0.001498
-0.000676
-0.001169
-0.000676
-0.000347
0.00146
-0.002484
0.000803
-0.001005
-0.002977
0.000474
-0.000512
-0.001334
-0.001005
0.000639
-0.004128
-0.004456
-0.001991
-0.002155
-0.002484
0.000474
-0.000347
-0.001991
-0.00232
-0.000841
-0.005936
0.004255
0.002447
-1.9e-05
-0.001827
-0.000183
-0.000841
-0.002813
0.000474
-0.001334
-0.000347
-0.000347
0.00146
-0.000676
-0.000676
-0.001334
0.002447
-0.002813
-0.000676
-0.001827
0.00031
-0.001169
0.000146
0.002447
0.00146
0.001625
0.000146
0.001296
-0.002484
-0.003635
-0.003963
-0.000183
-0.004128
0.002118
-0.000512
0.001789
-0.000347
-0.000512
-0.000183
-0.00232
0.002447
-0.001169
0.000474
-0.000512
0.003104
-0.000676
0.001789
-0.000183
-0.001169
0.000474
0.001954
0.003104
-0.002977
0.000474
-0.002813
-0.004785
-0.001662
0.002118
-0.001991
0.001132
-0.001169
0.000146
-0.000841
0.001789
-0.000676
0.00031
-0.001991
0.000146
-1.9e-05
0.000474
0.000146
-0.00232
0.002282
0.00031
-0.000841
0.000639
0.000967
-0.001005
0.00146
0.00294
-0.002484
-0.001662
-0.001169
0.000474
-0.002155
0.000639
-0.001498
0.000474
-0.000676
0.000474
-0.000512
0.000639
-0.001334
-0.000183
-0.00232
0.000967
-0.000512
-0.001005
0.001625
-0.000676
0.00031
-0.004292
0.000967
-0.000183
-0.001169
-0.002813
0.000803
-0.002484
-0.001334
-0.00347
-0.003306
0.000639
0.00146
-1.9e-05
-1.9e-05
-1.9e-05
0.001625
-1.9e-05
-0.000676
-0.000183
0.00031
0.000474
-0.001169
0.002611
-0.000347
0.000146
-0.001334
-0.000347
-1.9e-05
-0.003963
0.005898
0.000639
0.000474
0.000474
0.001625
-1.9e-05
0.000639
-0.000676
-0.000841
-0.002813
0.000967
-0.001334
-0.002813
-0.001005
-0.000347
0.001954
-0.000183
0.000146
-0.000183
-0.001498
-0.004456
0.00146
0.001789
-0.004292
-0.001005
-0.001005
-0.002484
-0.00347
-0.001498
-0.002155
-0.001498
-0.001005
0.001296
0.000967
0.001296
-0.001005
0.003104
0.000967
0.001789
0.001296
0.002118
-1.9e-05
-0.000841
0.000474
-0.000841
-0.000183
-1.9e-05
0.000967
0.001954
-1.9e-05
0.00031
0.006556
0.003433
0.005405
0.003104
0.003926
0.000474
0.003761
0.003761
0.001625
0.001132
0.000146
0.00031
0.001625
0.001132
0.00146
0.002775
0.001296
0.000967
0.004255
0.007213
0.004255
-0.000347
0.002447
0.00146
-0.000183
0.000639
-0.001991
-0.000676
-0.001334
0.001132
0.003597
0.001132
0.001954
-0.000347
0.001625
-0.000347
0.001625
0.001789
0.003268
0.000803
0.000967
0.002118
0.001296
0.000967
0.00031
0.000474
-0.001662
0.000639
0.001132
-0.002484
-0.000841
-0.001334
0.003104
-0.000676
0.001954
0.001954
-0.001169
0.00031
0.000474
-0.000841
-0.000512
0.001296
-0.000512
-0.000347
0.003433
-0.001498
0.000639
0.002447
0.002118
0.00031
-0.000512
0.002775
0.002118
-0.003799
0.000146
0.00146
-0.000512
0.001296
0.000474
-0.002484
-0.002484
0.000639
-0.002813
0.001789
-0.001827
0.001296
0.00031
0.003104
0.001296
0.00031
0.000639
-0.000183
0.002775
0.001132
0.002447
-0.000347
0.000803
0.000146
0.00031
0.001789
-1.9e-05
-0.001662
-0.000841
0.00031
0.00031
-0.000183
-0.001169
0.001625
0.00031
0.002447
-0.000512
0.003926
-0.000347
0.001625
0.002611
0.001789
-0.000512
-0.000183
-0.001662
0.000474
-0.00347
-0.000512
-0.001334
-0.007579
-0.002648
-0.000183
0.000474
-0.001334
-0.001827
0.000639
0.003268
0.002447
0.002611
0.001625
0.000639
0.000639
-0.000841
0.005076
-0.002648
-0.001662
0.000639
0.00294
-0.000183
0.001954
0.002447
0.002611
0.002447
0.002118
0.002282
0.001296
0.001954
0.002447
-1.9e-05
-0.000183
0.001296
0.000639
-0.000512
-0.000512
-0.001498
-1.9e-05
-0.000347
-0.002813
0.003268
-1.9e-05
0.002611
0.001625
0.001296
-0.001662
-0.00347
-0.001005
0.000146
-0.001991
-0.004292
0.001296
0.003268
-0.000841
-0.001827
0.001625
-0.002484
0.002282
0.001132
-0.000183
0.000967
-0.002155
0.002118
0.001789
-1.9e-05
0.00146
0.000639
-0.002484
0.001132
-0.001498
-0.000183
-0.001662
-0.001005
-0.001334
0.001132
0.00031
-0.000841
0.00294
-0.001498
0.002447
0.000967
-0.000183
-1.9e-05
-0.000512
-0.000676
-1.9e-05
-0.001662
-0.001169
-0.000841
0.001625
0.000639
-0.000347
0.001296
-1.9e-05
-0.003963
0.002611
0.003433
0.00146
-0.000512
0.000639
-0.001662
-0.005443
-0.001827
-0.006429
-0.003963
-0.003799
0.000803
0.002282
0.000474
0.000639
-0.000347
0.000967
0.000803
-0.002648
-0.000183
0.000967
-0.000676
0.001296
-1.9e-05
-0.000183
-0.000183
0.001132
0.001296
-0.000676
0.00146
-0.001334
-0.000183
-0.000512
0.00031
-0.001827
0.000967
0.00146
0.001789
0.000474
-0.000676
-0.000841
-0.000512
-0.001991
-0.001498
0.000474
0.000146
0.000803
-0.000347
0.000146
-0.000183
0.001954
0.003104
0.00031
0.000639
-1.9e-05
0.001296
-0.004456
-0.000676
0.004912
-0.001005
-0.003799
0.001625
-0.000512
-1.9e-05
-0.001991
-0.002813
-0.000347
0.002611
0.001954
0.002282
0.001954
-0.000347
0.000146
0.000803
0.001789
-0.001662
-0.002813
0.000639
0.001132
-1.9e-05
0.001625
0.00031
-0.000676
-0.001498
-0.000676
-0.00347
0.001296
-0.001827
0.00031
0.000146
-0.000841
-0.001498
0.000967
-0.000841
-0.001005
-0.001169
-0.002484
-1.9e-05
-0.003306
0.002118
0.000146
0.000639
-0.001498
0.000967
0.001132
-0.000512
-0.00347
-0.001662
0.000803
-0.001991
0.000803
-0.00232
-0.001334
-0.003799
-0.000676
-0.001827
0.000146
0.001296
-0.000347
0.000803
-0.000347
0.000474
-0.000183
0.001954
0.000474
0.005076
-0.002484
-0.001498
-0.001169
-0.000183
-0.001005
-0.001169
0.003433
0.000639
-0.002155
-0.000676
0.001296
-0.001005
-0.000347
0.001296
0.001625
-0.002484
0.001789
0.000967
0.001132
0.000967
-0.000512
0.002775
-0.000183
0.00031
0.002447
-0.001498
-0.002155
-0.000512
-0.000676
0.004748
0.011322
0.020197
0.027922
0.028744
0.041235
0.049453
0.05389
0.058657
0.065888
0.073942
0.077229
0.081502
0.090049
0.094487
0.097116
0.099417
0.106978
0.111251
0.113552
0.117496
0.124893
0.124564
0.127851
0.131302
0.13459
0.13574
0.138041
0.141493
0.142643
0.143958
0.143794
0.15234
0.150368
0.152505
0.158257
0.158257
0.158257
0.162859
0.16138
0.166311
0.167132
0.164174
0.170419
0.172885
0.173214
0.171241
0.175021
0.172392
0.174035
0.172885
0.176994
0.17535
0.175515
0.183404
0.185047
0.182746
0.185212
0.186033
0.184554
0.186526
0.184225
0.187348
0.187184
0.186526
0.188663
0.190142
0.188827
0.189814
0.190471
0.187348
0.193101
0.191457
0.193101
0.193101
0.190635
0.194416
0.196059
0.194909
0.193758
0.191786
0.192115
0.192772
0.193758
0.191621
0.193429
0.193101
0.195073
0.197538
0.194251
0.19836
0.194251
0.197867
0.196717
0.199346
0.200168
0.198853
0.196223
0.196552
0.195402
0.195895
0.19458
0.19721
0.19458
0.193758
0.20214
0.199839
0.199839
0.199839
0.201483
0.196717
0.201483
0.200168
0.201976
0.199182
0.199675
0.198524
0.199018
0.197703
0.196388
0.198031
0.199346
0.200497
0.198031
0.201647
0.199182
0.200661
0.197867
0.204606
0.197538
0.20099
0.200004
0.19721
0.200004
0.19836
0.200168
0.19836
0.200168
0.196881
0.199675
0.199675
0.199182
0.20214
0.201812
0.201483
0.203291
0.202469
0.201647
0.198689
0.202633
0.197703
0.19721
0.201154
0.198031
0.19573
0.197045
0.202798
0.196717
0.199675
0.199346
0.198524
0.20099
0.203126
0.202469
0.201483
0.202798
0.199839
0.201812
0.202469
0.198524
0.198689
0.200661
0.198196
0.200661
0.199346
0.200825
0.200497
0.203126
0.201647
0.198031
0.200332
0.199346
0.200497
0.200168
0.200168
0.200004
0.201483
0.200168
0.201154
0.198196
0.201483
0.199346
0.200168
0.200004
0.19836
0.201483
0.202798
0.203455
0.200004
0.201319
0.19721
0.200497
0.198031
0.199675
0.199839
0.201319
0.197867
0.199182
0.200332
0.197703
0.199675
0.201154
0.202798
0.201483
0.200168
0.20099
0.202962
0.201319
0.206742
0.20214
0.203455
0.201812
0.200825
0.201154
0.200004
0.199346
0.200004
0.200661
0.198689
0.200661
0.205592
0.200825
0.201976
0.203291
0.20099
0.203948
0.19721
0.201154
0.20099
0.199839
0.201319
0.204934
0.199346
0.199346
0.200497
0.19836
0.198031
0.198524
0.199346
0.198031
0.200332
0.199511
0.203126
0.199346
0.201154
0.204934
0.203126
0.197703
0.201812
0.200825
0.199839
0.198853
0.201976
0.20362
0.199346
0.198853
0.203784
0.201483
0.202633
0.204113
0.200825
0.200497
0.201154
0.201812
0.20362
0.199675
0.200004
0.199839
0.201154
0.201319
0.202469
0.199182
0.200004
0.199346
0.203126
0.202798
0.201319
0.201483
0.200168
0.203291
0.200168
0.200168
0.201483
0.201812
0.198689
0.203126
0.196881
0.199839
0.200497
0.196717
0.198853
0.199346
0.199018
0.199346
0.201483
0.201812
0.204441
0.202633
0.205756
0.202962
0.203948
0.202633
0.201154
0.197538
0.203126
0.196717
0.19836
0.202633
0.203948
0.201483
0.202633
0.204277
0.202305
0.201647
0.199511
0.201154
0.201976
0.202469
0.205099
0.202798
0.200497
0.201319
0.200004
0.199675
0.200332
0.200168
0.201319
0.201319
0.20099
0.202962
0.20477
0.200825
0.202469
0.197703
0.176829
0.182089
0.181267
0.180774
0.183075
0.179295
0.18061
0.182089
0.184554
0.184883
0.180281
0.186198
0.185869
0.187513
0.189485
0.191457
0.189814
0.193758
0.194251
0.191786
0.191293
0.189156
0.189649
0.189485
0.189649
0.190635
0.193594
0.192443
0.195895
0.194744
0.194744
0.194087
0.195895
0.191786
0.194744
0.194087
0.19573
0.193922
0.194909
0.197374
0.197045
0.196717
0.194416
0.19721
0.195073
0.195566
0.196881
0.197703
0.196881
0.198524
0.199839
0.201319
0.196059
0.198689
0.197703
0.197045
0.196059
0.194251
0.195237
0.197045
0.199346
0.197867
0.199675
0.199346
0.200661
0.199018
0.200004
0.196223
0.196552
0.199182
0.200661
0.201319
0.200332
0.202633
0.199182
0.198031
0.198853
0.200661
0.197374
0.19836
0.20099
0.199346
0.199018
0.204606
0.203126
0.202633
0.201976
0.199018
0.202962
0.200332
0.198689
0.200661
0.196881
0.199018
0.201976
0.200332
0.200332
0.199839
0.200497
0.20099
0.200168
0.201154
0.20099
0.19836
0.196552
0.201647
0.200661
0.199675
0.199839
0.201319
0.198196
0.200497
0.201812
0.197703
0.20214
0.200825
0.201483
0.200004
0.201976
0.202798
0.206742
0.202305
0.203291
0.202633
0.201647
0.200661
0.201319
0.202633
0.202469
0.201319
0.200004
0.202305
0.200004
0.205263
0.201976
0.200661
0.201976
0.202469
0.202305
0.205263
0.200661
0.202305
0.202469
0.20099
0.199182
0.200332
0.202798
0.199675
0.202469
0.202305
0.203291
0.202633
0.203455
0.204277
0.205099
0.199675
0.203126
0.201812
0.200332
0.200332
0.202305
0.204277
0.202633
0.201976
0.202633
0.202633
0.201319
0.203455
0.202305
0.201647
0.201154
0.206414
0.203126
0.2074
0.204441
0.20362
0.205756
0.201483
0.205592
0.202798
0.203784
0.20362
0.20362
0.203784
0.204113
0.201976
0.203291
0.204441
0.203126
0.202305
0.203455
0.203948
0.207728
0.207893
0.206085
0.205263
0.204934
0.204934
0.203126
0.20362
0.204441
0.203784
0.20214
0.203291
0.203784
0.202962
0.205756
0.204606
0.206249
0.20099
0.199675
0.201483
0.201647
0.200004
0.201812
0.200168
0.202962
0.200168
0.201154
0.20099
0.200825
0.200825
0.199018
0.200661
0.19721
0.20214
0.199675
0.20214
0.19836
0.193265
0.197703
0.199675
0.197374
0.199839
0.19721
0.196388
0.196881
0.19458
0.197867
0.196223
0.197045
0.196881
0.196881
0.194909
0.197538
0.196223
0.199182
0.195566
0.195402
0.197703
0.195237
0.196223
0.194744
0.193265
0.19195
0.193429
0.187019
0.192279
0.194744
0.195895
0.195402
0.19836
0.196059
0.197703
0.193429
0.19573
0.196552
0.194087
0.194909
0.195402
0.192608
0.196059
0.196881
0.194744
0.197045
0.196388
0.19721
0.193429
0.195402
0.19721
0.19573
0.192608
0.199346
0.198196
0.197867
0.199346
0.199182
0.197045
0.195566
0.196881
0.195895
0.199346
0.194087
0.199346
0.199675
0.199675
0.200497
0.200332
0.199675
0.199675
0.199675
0.198689
0.19836
0.194251
0.199346
0.198853
0.198196
0.197538
0.19458
0.195566
0.198031
0.200004
0.20214
0.200332
0.200004
0.202305
0.201483
0.201647
0.200004
0.202469
0.199018
0.20099
0.19721
0.199675
0.200004
0.198524
0.200825
0.200497
0.204934
0.203784
0.200168
0.200497
0.201483
0.199018
0.200661
0.20099
0.203291
0.199018
0.201976
0.200661
0.200004
0.200004
0.201154
0.199018
0.201154
0.20214
0.200497
0.19836
0.202305
0.201812
0.201319
0.20362
0.20099
0.201647
0.198689
0.200825
0.200332
0.201154
0.198689
0.203291
0.197538
0.198689
0.202469
0.201647
0.201647
0.20099
0.201647
0.199675
0.201483
0.202469
0.203291
0.202633
0.202633
0.202633
0.203291
0.200168
0.202798
0.200332
0.199182
0.199018
0.200661
0.205921
0.201154
0.203126
0.201976
0.204606
0.201647
0.203455
0.201154
0.20362
0.201483
0.199018
0.205099
0.202962
0.20099
0.202469
0.202633
0.200004
0.202962
0.20099
0.202305
0.20099
0.202798
0.201976
0.203784
0.200004
0.20214
0.201976
0.196552
0.201812
0.202798
0.203784
0.202633
0.202633
0.201483
0.203126
0.202798
0.203126
0.204934
0.201319
0.202633
0.204277
0.202798
0.205921
0.201976
0.202633
0.202633
0.200168
0.203291
0.206249
0.200825
0.199018
0.201154
0.20099
0.201976
0.201483
0.202305
0.200661
0.203784
0.202469
0.201483
0.20362
0.201483
0.203291
0.200332
0.201319
0.201976
0.201483
0.199839
0.203455
0.200497
0.20099
0.200497
0.197867
0.199182
0.200332
0.200661
0.198031
0.201976
0.198853
0.201647
0.200168
0.200661
0.199675
0.200661
0.198031
0.198689
0.19836
0.198031
0.200497
0.198853
0.201154
0.199675
0.199675
0.198524
0.202633
0.197867
0.202962
0.200332
0.201647
0.201154
0.197374
0.200661
0.199511
0.198853
0.199675
0.199511
0.197045
0.199675
0.19836
0.19836
0.199511
0.201154
0.197703
0.198853
0.198853
0.201154
0.199839
0.199839
0.201154
0.199346
0.199346
0.199511
0.197867
0.197867
0.19721
0.194416
0.198689
0.19721
0.200661
0.19573
0.200332
0.198031
0.200168
0.201812
0.200661
0.200497
0.199675
0.200004
0.199018
0.199675
0.19836
0.203126
0.197374
0.200004
0.199675
0.203948
0.199675
0.201154
0.20099
0.201154
0.20362
0.200332
0.202469
0.199511
0.202305
0.201976
0.200825
0.198524
0.201154
0.197703
0.199511
0.199511
0.198689
0.201483
0.200004
0.201647
0.201812
0.203455
0.201647
0.202469
0.20099
0.200004
0.20214
0.199018
0.20214
0.200497
0.198031
0.19836
0.199511
0.203455
0.200825
0.202469
0.199511
0.201483
0.200825
0.201976
0.201319
0.200825
0.203455
0.201647
0.201812
0.199839
0.201154
0.200168
0.200332
0.198524
0.198031
0.199839
0.20099
0.201319
0.198853
0.201647
0.199182
0.204113
0.199182
0.202633
0.201483
0.204606
0.197374
0.20099
0.200497
0.202305
0.199839
0.201812
0.201319
0.201319
0.202633
0.201647
0.205756
0.201319
0.203948
0.202305
0.20099
0.199511
0.20099
0.198196
0.198853
0.200332
0.200332
0.20099
0.199346
0.202962
0.202798
0.205592
0.201154
0.204277
0.201154
0.202962
0.201976
0.20214
0.202962
0.200825
0.202305
0.201154
0.199346
0.20099
0.20099
0.200004
0.202798
0.200825
0.202962
0.201812
0.207235
0.20362
0.204934
0.204113
0.202798
0.203126
0.200168
0.203291
0.200661
0.20099
0.203455
0.200661
0.202305
0.205427
0.202798
0.207728
0.200332
0.20362
0.20362
0.203784
0.20099
0.199675
0.20099
0.201483
0.201976
0.201483
0.203784
0.205592
0.208222
0.200661
0.204113
0.202305
0.200168
0.203455
0.205263
0.201647
0.201812
0.205427
0.202305
0.204441
0.202305
0.203784
0.201154
0.201319
0.202469
0.205921
0.202633
0.202962
0.203126
0.204277
0.202305
0.199675
0.200825
0.203455
0.201319
0.199839
0.206249
0.201647
0.203948
0.200004
0.204113
0.20214
0.202633
0.203455
0.201154
0.201319
0.198853
0.204113
0.202305
0.203455
0.204113
0.201812
0.20099
0.199839
0.198524
0.202305
0.200661
0.202469
0.204441
0.202962
0.200661
0.202633
0.200332
0.198689
0.198524
0.200004
0.200661
0.199839
0.199182
0.198689
0.202962
0.201976
0.200661
0.196388
0.200825
0.200497
0.198524
0.198031
0.199182
0.195237
0.19573
0.196388
0.19458
0.199018
0.196552
0.196388
0.197867
0.198196
0.19573
0.197538
0.195402
0.200332
0.199018
0.199018
0.198196
0.197703
0.197045
0.196388
0.197867
0.198689
0.200004
0.194251
0.197867
0.197703
0.197867
0.197045
0.198524
0.201154
0.201812
0.201483
0.198031
0.199675
0.196717
0.199675
0.197867
0.199018
0.197538
0.199675
0.197867
0.198689
0.197374
0.198689
0.196717
0.195237
0.202469
0.197045
0.199675
0.199511
0.200004
0.198524
0.198031
0.199839
0.199346
0.199839
0.198689
0.024635
0.033346
0.03992
0.046659
0.054876
0.05915
0.066875
0.072134
0.077722
0.081174
0.087255
0.092843
0.096459
0.099089
0.104348
0.108457
0.11158
0.111744
0.118154
0.12292
0.123742
0.128015
0.134425
0.138041
0.139685
0.142314
0.147903
0.146423
0.144451
0.150697
0.15234
0.154641
0.154806
0.159572
0.158093
0.161051
0.163516
0.163516
0.163845
0.16779
0.168447
0.172063
0.172556
0.171734
0.177158
0.175186
0.179952
0.180281
0.177815
0.175843
0.179623
0.17913
0.17798
0.181924
0.183075
0.184718
0.18554
0.186033
0.185212
0.188006
0.18554
0.190471
0.188006
0.18932
0.186526
0.18817
0.188663
0.188006
0.187019
0.189156
0.192443
0.193101
0.193429
0.191786
0.193101
0.193594
0.194909
0.197703
0.195237
0.192936
0.196223
0.196223
0.19195
0.195237
0.192279
0.196223
0.194744
0.19458
0.193265
0.195073
0.195402
0.195895
0.19573
0.197703
0.197374
0.199018
0.19836
0.199675
0.195237
0.195073
0.197703
0.19573
0.197045
0.197045
0.197538
0.196059
0.198689
0.196552
0.19836
0.198524
0.19721
0.202633
0.201812
0.201154
0.199346
0.198853
0.196388
0.198524
0.196881
0.199675
0.197374
0.201319
0.199182
0.199182
0.198031
0.199346
0.199511
0.19836
0.200332
0.200004
0.200332
0.200332
0.203126
0.202962
0.201319
0.200497
0.200497
0.199018
0.199511
0.19458
0.201812
0.19836
0.196552
0.201812
0.20214
0.201483
0.201483
0.200497
0.199182
0.198689
0.200004
0.202305
0.19836
0.200497
0.201319
0.19836
0.200661
0.199346
0.199018
0.197867
0.197045
0.201319
0.201483
0.199511
0.199675
0.200332
0.200332
0.19836
0.200168
0.199018
0.197867
0.200497
0.198853
0.198196
0.199675
0.198524
0.200332
0.200497
0.199675
0.202798
0.201319
0.200332
0.196552
0.20362
0.199018
0.20099
0.199511
0.202633
0.20362
0.198031
0.197045
0.202469
0.195566
0.199839
0.202798
0.199346
0.20214
0.198853
0.202305
0.19836
0.206414
0.201812
0.202469
0.198031
0.202305
0.20214
0.201154
0.200497
0.199018
0.201647
0.198524
0.199182
0.199675
0.20099
0.198524
0.200332
0.196388
0.19836
0.200332
0.199346
0.199346
0.19721
0.199182
0.201812
0.202469
0.197703
0.202305
0.199511
0.200661
0.198196
0.200497
0.200332
0.199511
0.200332
0.201319
0.200004
0.201319
0.201154
0.202305
0.20477
0.200497
0.200825
0.200332
0.200661
0.202962
0.200661
0.195895
0.202798
0.198524
0.19836
0.201976
0.200497
0.198031
0.201812
0.200661
0.200168
0.201647
0.200332
0.201483
0.201319
0.200661
0.199675
0.200497
0.196717
0.199511
0.193922
0.201154
0.19836
0.197703
0.199675
0.200825
0.200825
0.200332
0.202633
0.198524
0.203291
0.200661
0.200661
0.200168
0.201647
0.199182
0.201976
0.197045
0.198524
0.200497
0.19721
0.203126
0.200661
0.201812
0.202305
0.203291
0.200332
0.20362
0.202305
0.204934
0.198853
0.199182
0.200332
0.200825
0.19836
0.200168
0.199018
0.194416
0.199839
0.197374
0.200497
0.201154
0.200332
0.20214
0.205427
0.201319
0.203126
0.201483
0.200168
0.198689
0.197538
0.198196
0.199182
0.196388
0.198524
0.201976
0.202633
0.203948
0.20099
0.201976
0.203455
0.201319
0.200661
0.199839
0.199018
0.20099
0.202305
0.20099
0.198853
0.199182
0.200497
0.199839
0.201319
0.197867
0.19836
0.196388
0.20362
0.200168
0.203455
0.200825
0.201483
0.202798
0.199839
0.20099
0.19836
0.201319
0.194416
0.198853
0.198853
0.201812
0.199182
0.200168
0.200661
0.20099
0.203948
0.202962
0.200825
0.199511
0.201647
0.201319
0.200825
0.196881
0.200332
0.19836
0.198524
0.195237
0.201812
0.197703
0.198031
0.200825
0.199675
0.201812
0.199839
0.203291
0.199511
0.201483
0.201483
0.201154
0.199346
0.19836
0.202469
0.201647
0.199511
0.202798
0.19836
0.198196
0.198689
0.198689
0.20099
0.201812
0.198689
0.202305
0.200661
0.201647
0.201154
0.201154
0.200825
0.198689
0.201319
0.201812
0.200825
0.194909
0.197538
0.201647
0.19836
0.197867
0.205921
0.200497
0.199839
0.201483
0.201154
0.202305
0.196881
0.201647
0.198853
0.197703
0.192936
0.201483
0.199346
0.198853
0.199675
0.198689
0.200825
0.199018
0.201319
0.199346
0.203291
0.198689
0.204934
0.201154
0.201319
0.202798
0.200168
0.200661
0.201483
0.201483
0.200825
0.199675
0.199182
0.202962
0.197867
0.200497
0.199511
0.201483
0.199018
0.200168
0.200661
0.200332
0.202962
0.205592
0.202962
0.200332
0.199675
0.200332
0.199675
0.197867
0.200332
0.197538
0.200332
0.199675
0.198524
0.201976
0.198031
0.200661
0.198853
0.202798
0.203784
0.198853
0.201154
0.201319
0.19836
0.200497
0.199346
0.200497
0.199346
0.200332
0.200332
0.199511
0.200497
0.202633
0.200168
0.20099
0.201154
0.199511
0.198689
0.197538
0.202962
0.196059
0.201154
0.199839
0.199018
0.199182
0.199182
0.200332
0.199018
0.197538
0.199675
0.199182
0.200168
0.194416
0.193922
0.200661
0.199182
0.199018
0.199675
0.201154
0.19721
0.197703
0.199511
0.195237
0.19836
0.196881
0.199018
0.196388
0.199511
0.19573
0.200332
0.197538
0.20099
0.198689
0.199839
0.199182
0.199675
0.198853
0.200004
0.197045
0.200004
0.200004
0.198524
0.201647
0.201154
0.200004
0.198524
0.199839
0.200332
0.203455
0.199346
0.200168
0.199675
0.202305
0.198031
0.201976
0.199675
0.199511
0.195566
0.199182
0.201319
0.198524
0.199346
0.200168
0.199839
0.199182
0.200661
0.199839
0.201647
0.199182
0.200661
0.199839
0.200332
0.199675
0.19458
0.190471
0.194744
0.199675
0.194087
0.19836
0.199018
0.199675
0.199839
0.201976
0.199018
0.20099
0.20099
0.199511
0.200332
0.200004
0.20099
0.197703
0.200168
0.200004
0.20214
0.199675
0.199182
0.199346
0.201483
0.198853
0.201812
0.200332
0.199346
0.203948
0.201812
0.201647
0.19721
0.200332
0.196552
0.199182
0.198031
0.199511
0.197703
0.197703
0.196717
0.204277
0.200332
0.20099
0.200661
0.199839
0.20099
0.198853
0.201319
0.196881
0.201154
0.200661
