Ladekurvenmessung

Zeit: 2018_05_04 09.04.44

Info: FVA3, v = 1.05, T = 23, F = 20, h = 518.2

Ladewiderstand[Ohm]: 1012700

Störkapazität[pF]: 0.000000

Entladezeit[ms]: 200

Abtastrate[Hz]: 250000

Anzahl der Messwerte: 2500.000000

Verzögerung[ms]: 3

Ladespannung[V]: 0.200000


Kurve 1

-0.001662
0.000803
0.000146
0.005076
0.003268
0.001954
0.001625
0.00294
-0.000676
-0.000183
0.001625
0.001132
0.001789
-0.000676
-0.002155
0.002611
0.002118
0.001132
0.005569
-1.9e-05
0.002611
-0.001334
0.002447
0.00146
0.001132
0.000803
-0.001005
-1.9e-05
0.000146
0.001132
0.000967
0.001296
-0.000841
0.004912
-0.00347
-0.001827
-0.000183
0.001132
-0.000183
0.002447
0.000146
-0.000347
0.000803
-0.001169
0.000639
0.00146
0.000146
-0.002648
-0.001334
-0.000183
0.000146
-0.001005
0.002447
0.002775
0.001789
0.00294
0.001954
0.000967
0.001296
0.000146
-0.000183
0.001789
0.005241
0.006556
-0.005114
-0.001498
0.001132
0.002282
-1.9e-05
0.003104
0.001132
0.002282
0.002447
0.001132
0.002447
-0.000347
-0.000183
0.003268
0.003433
-0.002813
0.002611
0.000803
-0.001169
-0.005278
0.00146
0.003268
0.003761
0.000146
0.004255
0.002118
0.001296
0.002775
-1.9e-05
0.00146
0.000639
0.004748
-0.000841
0.001625
-0.002813
0.000639
0.00031
0.001132
0.000639
0.001132
0.001789
0.00146
0.00294
0.00031
0.002447
-0.000347
0.002447
-0.000841
0.001132
0.00031
0.004255
-0.000347
0.000803
0.00031
0.002118
-0.003142
0.002118
0.002282
0.001132
0.002447
-0.000347
0.001132
0.00031
0.000639
0.000639
0.000639
-0.001662
-0.001662
-0.004128
0.001132
-0.000512
-0.003306
-0.003635
-0.003142
-0.001334
-0.003142
-0.000841
-0.001498
-0.000676
-0.001498
-0.000841
-0.000347
-0.001169
-0.002977
-0.001005
-0.003799
-0.001005
-0.004128
-0.004949
-0.001991
-0.002813
-0.004785
-0.005114
-0.001169
-0.001827
-0.000183
-0.002155
-0.000183
-0.003142
-0.001169
-0.00347
0.001789
-0.000841
-0.001827
-0.001827
-0.005443
-0.000841
-0.003306
-0.003306
-0.001662
-0.001498
-0.002155
-0.000183
-0.002155
-0.001827
-0.001498
-0.001827
-0.003635
-0.002648
-0.000841
-0.003799
-0.003142
-0.004128
-0.000676
-0.00347
-0.002977
-0.003142
-0.003306
-0.001827
-0.002155
-0.004456
-0.002484
-0.003799
-0.006593
-0.005936
-0.005607
-0.006593
-0.006429
-0.002484
-0.006429
-0.003142
-0.005278
-0.004785
-0.006429
-0.002813
-0.004128
-0.002648
-0.00232
-0.000676
-0.001662
-0.005114
-0.004949
-0.003963
-0.004292
-0.005936
-0.005278
-0.005114
-0.002813
-0.005278
-0.004128
-0.005114
-0.00347
-0.001991
-0.002813
-0.004456
-0.003142
-0.00232
-0.001662
-0.000347
-0.005278
-0.004456
-0.005278
-0.004949
-0.005443
-0.005114
-0.005771
-0.004621
-0.005114
-0.002648
-0.001662
-0.003142
-0.001991
-0.001827
-0.004456
-0.007579
-0.001827
-0.004785
-0.005443
-0.003635
-0.001169
-0.003306
-0.001827
-0.00347
-0.002648
-0.001169
-0.002484
-0.003142
-0.001991
-0.000676
-0.002484
-0.001334
-0.003799
-0.002484
-0.003306
0.003268
-0.00232
-0.001498
-0.001991
-0.000512
-0.001827
-0.002484
0.000967
0.001625
0.000967
-1.9e-05
0.001625
-0.000676
-0.000183
-0.002648
-0.000512
-0.001498
-0.001334
0.00146
-0.000512
-0.001005
0.002118
0.001625
0.000146
0.000639
-0.000183
0.002611
0.000803
0.000967
-0.000512
-1.9e-05
-0.002155
0.002118
0.000146
-0.000676
-0.000512
0.003104
0.001625
-0.001169
0.00031
0.002611
0.001954
0.002447
0.002282
-0.000183
-1.9e-05
0.000803
0.000474
-0.00232
0.001625
0.001296
0.001132
0.00146
0.000146
-1.9e-05
0.000639
-0.001498
-0.001662
0.001296
-0.002813
-0.000183
-0.004785
-0.001005
-0.003799
-0.007086
-0.003142
-1.9e-05
-0.003306
-0.002648
-0.001169
-0.000676
0.002282
-0.004785
0.000803
-0.004621
-0.001498
-0.003142
0.000146
-0.004456
-0.004785
-0.004785
-0.005936
-0.003635
-0.003799
-0.005278
-0.004621
-0.002648
-0.003142
-1.9e-05
-0.003306
-0.004292
-0.005771
-0.001334
-0.00725
-0.00347
-0.003799
-0.004621
-0.001991
-0.003142
-0.002813
-0.003799
-0.005278
-0.004949
-0.000841
-0.0061
-0.002813
-0.006264
-0.003142
-0.002977
-0.004128
-0.004292
-0.005771
-0.0061
-0.008565
-0.006757
-0.005607
-0.004785
-0.003799
-0.003799
-0.004292
-0.001827
-0.002977
-0.005443
-0.004292
-0.003635
-0.00347
-0.004785
-0.008237
-0.001169
-0.0061
-0.004949
-0.003635
-0.005936
-0.004292
-0.004949
-0.004785
-0.004621
-0.001005
-0.003635
0.000803
-0.003306
-0.003799
-0.003142
-0.001498
-0.005771
-0.003142
-0.003799
-0.003799
0.001296
-0.003306
-0.000183
-0.001498
-0.00232
-0.006264
-0.000841
-0.003635
-0.002648
-0.005936
-0.000183
-0.004785
-0.004949
-0.003799
-0.002977
-0.007744
-0.004128
-0.000512
-0.007086
-0.002648
-0.004456
-0.004128
-0.005443
-0.005443
-0.001827
-0.001169
-0.004128
-0.001827
-0.000841
-0.004128
-0.004785
-0.006593
-0.003142
-0.005278
-0.005278
-0.004292
-0.001991
-0.004128
-0.00347
-0.001498
-0.001169
-0.001334
0.002775
-0.000512
-0.000347
0.000474
-0.001005
-0.000183
-0.001827
-0.001662
0.003104
-0.000512
-0.000183
0.000146
-0.002813
0.00031
-0.002813
-1.9e-05
-0.002648
0.001625
-1.9e-05
-0.000676
0.000639
-0.002155
-0.000676
0.000146
0.000639
0.001296
-0.001827
0.000803
-0.000183
-0.004456
0.001132
-0.000183
-1.9e-05
0.003433
-0.000183
0.001789
-0.000841
0.001789
0.00031
0.000803
-0.001827
-0.000183
-0.000347
-0.001498
-0.004621
0.003268
-0.000676
-0.001827
-0.000512
-0.001169
0.00294
0.002282
-0.000512
0.000146
0.003433
-0.000183
0.003268
0.000474
0.003433
0.004912
0.002775
0.001132
0.001789
-0.002155
-0.000183
0.000146
0.000967
0.003268
0.001625
0.001132
0.002118
0.003761
0.001625
0.003268
0.003268
0.003597
0.001789
0.005241
0.00146
-0.000512
0.000967
-0.000347
0.000639
-0.001169
0.000146
-0.000841
-0.000183
-1.9e-05
0.003433
0.000967
0.001789
-0.001991
0.001954
0.002775
-0.000183
-0.000676
-0.001005
0.002447
-0.000512
-0.001991
0.000474
0.001296
-0.000841
0.002118
0.001789
0.002447
0.001954
0.003104
0.004912
0.005241
0.003761
0.001296
0.002447
-0.000183
0.002118
0.001954
0.001789
-0.000676
0.001789
-1.9e-05
0.00146
-0.000183
0.001954
0.000639
0.003433
0.003268
0.000967
0.002282
0.000639
0.000474
-1.9e-05
0.001625
-0.000183
-0.001169
-0.00347
0.00146
0.000146
0.000146
-0.000841
0.002447
-0.001334
0.000146
-0.000841
-0.001827
0.001954
0.000639
0.001625
0.003433
0.003433
0.00031
-0.000183
-0.002155
0.000474
-0.000183
-0.000512
0.000146
0.000967
-1.9e-05
0.006227
0.002611
0.00146
-0.000512
-0.002648
0.000474
-0.001169
0.002611
-0.000183
0.000474
-0.000183
0.001789
0.000146
0.000146
-0.003306
-0.003963
0.001954
0.002447
-0.000347
-0.001334
0.001296
-0.000512
0.002611
-0.000676
0.001789
-0.007908
0.002611
0.001625
-0.000183
-0.001991
0.002775
0.001625
0.000474
0.001132
-0.00232
-0.001498
-0.009058
-0.003635
-0.001991
0.003104
0.002118
0.001296
0.001625
-0.000676
0.000967
0.000639
0.00031
-0.009387
-0.001334
-0.001662
0.003268
0.001296
0.000803
0.000474
0.00031
0.000639
0.00146
0.000146
-0.008072
-1.9e-05
0.000967
-0.000183
0.000146
-0.000512
-0.000183
-0.003635
-0.002648
0.001789
-0.001169
-0.008072
-0.000676
-0.000676
-0.000512
0.002282
0.000967
0.001789
0.002447
0.003104
0.002118
-0.000347
-0.008565
-0.00232
-0.002977
-0.003799
-0.000512
-0.002977
-0.002484
-0.001334
-0.002648
0.001296
0.00294
-0.009223
-0.001005
0.001954
0.001132
-0.000347
0.000146
0.000967
-0.000512
0.003104
0.002118
0.001132
-0.009551
-0.001662
-1.9e-05
0.001132
0.000803
0.002118
0.001296
0.001954
0.00409
-0.000183
0.003433
-0.009387
-0.000676
0.000474
-0.004456
-0.004292
-0.002813
-0.001334
-0.002977
-0.000347
0.000474
0.000803
-0.007579
-0.001498
0.000803
0.002282
-0.001169
0.000803
-0.00232
-1.9e-05
-0.001662
-0.000512
-0.002484
-0.006757
0.008199
0.01576
0.026114
0.033839
0.042878
0.048631
0.055041
0.064245
0.066217
0.070983
0.070983
0.08216
0.086597
0.093829
0.094815
0.098431
0.104348
0.104677
0.112566
0.116017
0.119962
0.116346
0.124893
0.129823
0.133768
0.134918
0.13837
0.141821
0.141493
0.144615
0.149217
0.148396
0.141821
0.151354
0.153655
0.15612
0.159736
0.157271
0.16516
0.16401
0.166146
0.166968
0.167297
0.156778
0.167132
0.171077
0.173707
0.173378
0.173707
0.175021
0.179952
0.180116
0.179952
0.181267
0.175021
0.179459
0.183897
0.184225
0.182911
0.186526
0.184554
0.187184
0.186362
0.184883
0.187348
0.181596
0.189156
0.188334
0.18932
0.192115
0.191457
0.190471
0.192115
0.189814
0.191293
0.193101
0.186033
0.192608
0.193265
0.192115
0.195402
0.198031
0.193922
0.195237
0.196388
0.197045
0.193922
0.187513
0.194087
0.196223
0.194416
0.193101
0.195073
0.194909
0.19458
0.195402
0.196717
0.198196
0.18817
0.192115
0.200497
0.198853
0.198031
0.197867
0.198689
0.194744
0.19836
0.19721
0.197045
0.18932
0.195402
0.198853
0.19836
0.198853
0.200168
0.200825
0.196552
0.200332
0.199675
0.197867
0.190635
0.197045
0.19458
0.197045
0.198524
0.199346
0.199675
0.196881
0.198853
0.198689
0.196059
0.187019
0.198853
0.197867
0.20099
0.197867
0.20099
0.198689
0.199182
0.198196
0.199018
0.198031
0.188334
0.197867
0.201483
0.20214
0.200168
0.200497
0.199018
0.197703
0.200661
0.201154
0.197703
0.189156
0.197867
0.198031
0.199839
0.199182
0.19836
0.199182
0.197703
0.199346
0.203126
0.201812
0.191457
0.197374
0.200825
0.199018
0.200661
0.196881
0.201319
0.197867
0.199346
0.197538
0.200661
0.191621
0.197045
0.197045
0.197374
0.200168
0.196059
0.20362
0.19458
0.200332
0.197703
0.199018
0.189814
0.199182
0.196059
0.198524
0.199675
0.198524
0.198853
0.196881
0.201319
0.200825
0.198031
0.186033
0.19573
0.195402
0.197867
0.19721
0.198196
0.199018
0.197867
0.200332
0.199511
0.200332
0.190635
0.19721
0.198031
0.19836
0.196717
0.199018
0.197538
0.196881
0.200004
0.199675
0.199182
0.191457
0.197867
0.198689
0.200332
0.19836
0.202305
0.197867
0.198853
0.198524
0.197538
0.197703
0.190142
0.197374
0.199675
0.200661
0.196881
0.200661
0.200168
0.199675
0.199182
0.200661
0.197703
0.193594
0.197703
0.199018
0.197867
0.196552
0.195237
0.198196
0.194416
0.198031
0.198689
0.199018
0.191786
0.198689
0.198853
0.199675
0.200825
0.198689
0.200661
0.197867
0.200661
0.201319
0.203455
0.191457
0.199511
0.198524
0.197703
0.198689
0.19836
0.200168
0.197538
0.197374
0.197045
0.200332
0.191621
0.199182
0.200825
0.199839
0.199346
0.200004
0.199182
0.196717
0.200332
0.200497
0.196223
0.188827
0.19573
0.198853
0.198196
0.19836
0.200825
0.200497
0.199346
0.200004
0.199675
0.198524
0.188663
0.196059
0.197045
0.197867
0.197045
0.201154
0.198524
0.197703
0.200332
0.200825
0.199511
0.197703
0.198031
0.200661
0.200168
0.200332
0.199839
0.199675
0.199346
0.198196
0.200004
0.199675
0.192608
0.197538
0.199346
0.198031
0.199018
0.199182
0.20362
0.199839
0.203126
0.200661
0.200661
0.193101
0.196717
0.199182
0.197867
0.198196
0.198031
0.199346
0.196059
0.194087
0.192936
0.20099
0.192279
0.197867
0.198853
0.200661
0.201483
0.194744
0.199675
0.196059
0.199182
0.194744
0.196059
0.195237
0.197867
0.197538
0.199182
0.199511
0.20099
0.197374
0.195566
0.199018
0.200168
0.197045
0.198524
0.19836
0.197538
0.198853
0.199346
0.199346
0.200004
0.200168
0.198196
0.200497
0.199675
0.200332
0.199182
0.199018
0.201483
0.198524
0.199346
0.200168
0.199675
0.199018
0.200004
0.198689
0.20362
0.200661
0.203291
0.202305
0.200332
0.199511
0.200661
0.200661
0.199018
0.199018
0.199346
0.205756
0.198524
0.200497
0.197703
0.19721
0.196223
0.201976
0.196881
0.197867
0.199346
0.195895
0.202798
0.195566
0.201483
0.199839
0.201154
0.200332
0.201319
0.197703
0.202469
0.198853
0.201647
0.203784
0.201319
0.199511
0.200168
0.200825
0.19836
0.201647
0.199018
0.199511
0.199018
0.198031
0.203784
0.198196
0.197374
0.199182
0.19836
0.200497
0.200661
0.198524
0.197045
0.200825
0.201812
0.204934
0.199018
0.198689
0.200004
0.198031
0.197703
0.197374
0.198031
0.19836
0.196881
0.199346
0.202469
0.199346
0.201154
0.199675
0.201154
0.202305
0.200661
0.203784
0.197045
0.197867
0.197045
0.201319
0.196552
0.198031
0.199675
0.199511
0.200168
0.201976
0.199018
0.201483
0.200004
0.198689
0.202305
0.19721
0.19721
0.198031
0.201154
0.196881
0.204277
0.196223
0.19721
0.198524
0.19836
0.201154
0.200661
0.201154
0.200661
0.199018
0.195237
0.200004
0.197867
0.200004
0.197703
0.198524
0.196223
0.196388
0.196552
0.196552
0.196388
0.197867
0.201319
0.200332
0.203291
0.198689
0.201647
0.20214
0.200497
0.196881
0.200825
0.199346
0.200004
0.202305
0.199675
0.199018
0.199018
0.199839
0.201154
0.201647
0.197538
0.200497
0.199675
0.200168
0.201319
0.199839
0.200332
0.199839
0.202633
0.202305
0.197374
0.199346
0.199675
0.197045
0.199018
0.198689
0.19573
0.20214
0.201647
0.197045
0.202469
0.197538
0.200004
0.199018
0.199675
0.200004
0.201812
0.197045
0.199675
0.199182
0.19836
0.200004
0.196717
0.201483
0.199346
0.199346
0.199346
0.200168
0.196388
0.204113
0.199346
0.198689
0.200661
0.199346
0.200661
0.198031
0.200661
0.199839
0.202633
0.19836
0.203126
0.198689
0.200004
0.200004
0.199839
0.198853
0.200332
0.201154
0.20099
0.20099
0.200168
0.20214
0.198853
0.200661
0.201483
0.201319
0.200497
0.199182
0.199346
0.202798
0.203291
0.201154
0.201319
0.20214
0.201812
0.201154
0.198689
0.199839
0.198689
0.198031
0.200168
0.198853
0.197703
0.198524
0.200661
0.198689
0.200004
0.196717
0.200497
0.201647
0.200332
0.200825
0.199511
0.200497
0.203455
0.201812
0.201319
0.202798
0.202469
0.197703
0.198853
0.200332
0.198196
0.198689
0.199675
0.199675
0.200497
0.199511
0.203784
0.199675
0.200332
0.198853
0.200168
0.198196
0.200168
0.198196
0.199346
0.198853
0.199675
0.198196
0.20099
0.20362
0.199182
0.201319
0.200332
0.20214
0.19836
0.203126
0.200168
0.198689
0.200497
0.199839
0.194087
0.197867
0.19836
0.198689
0.200825
0.202305
0.202305
0.199675
0.202798
0.200497
0.201483
0.202633
0.202305
0.199675
0.201976
0.200168
0.198196
0.200332
0.20099
0.199018
0.198853
0.198031
0.199018
0.198689
0.19721
0.199182
0.201154
0.198689
0.19721
0.199675
0.198524
0.198524
0.197374
0.197045
0.198853
0.196717
0.195566
0.198689
0.197703
0.196223
0.198524
0.199182
0.198853
0.196388
0.196881
0.195073
0.200661
0.194251
0.197703
0.197867
0.199018
0.200661
0.198031
0.199018
0.200004
0.201976
0.200497
0.200168
0.199346
0.200825
0.197867
0.199182
0.196552
0.197867
0.199018
0.197867
0.198524
0.198524
0.199346
0.19836
0.203126
0.201647
0.199675
0.201319
0.20099
0.200004
0.200332
0.198031
0.195895
0.197703
0.19836
0.202469
0.201976
0.200497
0.199675
0.200332
0.199839
0.199839
0.197867
0.195895
0.197538
0.200497
0.197374
0.201976
0.198524
0.195073
0.19836
0.197867
0.197045
0.196223
0.19721
0.199346
0.201483
0.199675
0.202633
0.199182
0.200168
0.200004
0.198524
0.199346
0.199675
0.197538
0.197867
0.200661
0.201319
0.200168
0.200004
0.199346
0.200004
0.20214
0.197867
0.201483
0.200004
0.200497
0.200004
0.200825
0.201154
0.198031
0.197703
0.197867
0.196388
0.195566
0.199018
0.195402
0.198524
0.197867
0.200332
0.201812
0.200825
0.197867
0.198689
0.200168
0.198689
0.197538
0.199182
0.197045
0.195895
0.198853
0.200004
0.200004
0.196881
0.199839
0.199511
0.200661
0.199511
0.200332
0.200004
0.200825
0.143629
0.145602
0.146259
0.147903
0.154641
0.151518
0.152998
0.153326
0.159901
0.156285
0.16138
0.165817
0.168612
0.165489
0.169598
0.170255
0.172227
0.170913
0.169762
0.174857
0.173378
0.173542
0.176008
0.176665
0.176172
0.177815
0.177487
0.179623
0.182746
0.181924
0.183239
0.183239
0.181596
0.184883
0.187019
0.183568
0.185376
0.183075
0.187348
0.184718
0.186198
0.186855
0.189649
0.189156
0.190635
0.19195
0.188663
0.188334
0.189814
0.18817
0.188663
0.188499
0.190471
0.190964
0.188334
0.190964
0.190471
0.192279
0.1908
0.194087
0.193429
0.195402
0.192279
0.193265
0.193265
0.195895
0.197703
0.195895
0.197867
0.198853
0.198689
0.19836
0.199182
0.197703
0.199675
0.197374
0.197374
0.197538
0.200332
0.199839
0.198524
0.198031
0.196388
0.198853
0.198524
0.195895
0.194251
0.196223
0.194087
0.194909
0.19458
0.198031
0.193758
0.195895
0.193594
0.196717
0.196059
0.191457
0.196717
0.194744
0.196388
0.198196
0.198524
0.19721
0.200004
0.197867
0.197538
0.200497
0.199018
0.197538
0.197045
0.199018
0.197045
0.197867
0.196388
0.201647
0.19721
0.19573
0.197867
0.197703
0.197045
0.201483
0.199675
0.199675
0.20099
0.197867
0.20214
0.198853
0.197045
0.198196
0.194744
0.193429
0.196388
0.197867
0.19836
0.19836
0.199182
0.197867
0.199675
0.197867
0.197703
0.198031
0.198031
0.005076
0.013294
0.023977
0.030716
0.035482
0.043536
0.050932
0.054383
0.063094
0.069833
0.076736
0.07838
0.086762
0.092679
0.100403
0.101718
0.105663
0.109772
0.1101
0.115195
0.118811
0.121441
0.123742
0.129988
0.129988
0.133275
0.134425
0.137055
0.143465
0.144122
0.14478
0.150204
0.152669
0.150368
0.156449
0.158421
0.15875
0.157271
0.163188
0.161544
0.164174
0.167132
0.166804
0.167297
0.168283
0.171899
0.172556
0.174364
0.173871
0.177487
0.173378
0.178802
0.177815
0.184554
0.180116
0.181103
0.182582
0.182582
0.183075
0.183239
0.187677
0.184554
0.186362
0.187184
0.189978
0.186362
0.188006
0.187348
0.1908
0.188663
0.1908
0.192115
0.190471
0.190471
0.191457
0.189156
0.190635
0.188827
0.190964
0.19458
0.190635
0.19195
0.193594
0.193265
0.193101
0.196552
0.191786
0.196881
0.195566
0.198031
0.196059
0.19573
0.194909
0.193922
0.193429
0.193265
0.195566
0.192115
0.19836
0.192772
0.198853
0.197374
0.198689
0.198689
0.204441
0.199346
0.196717
0.199675
0.197538
0.197045
0.196059
0.199675
0.197045
0.202962
0.192772
0.198031
0.196881
0.197867
0.196881
0.199182
0.199018
0.198524
0.202798
0.198031
0.201976
0.20214
0.202962
0.197703
0.200332
0.19721
0.198196
0.19573
0.197045
0.198853
0.199511
0.200168
0.200497
0.202305
0.199511
0.203455
0.20099
0.199839
0.198524
0.197867
0.197045
0.199018
0.195402
0.197374
0.199511
0.198196
0.199839
0.199182
0.200497
0.200332
0.196717
0.205099
0.202305
0.199018
0.20214
0.200168
0.200825
0.199346
0.198853
0.197374
0.198524
0.199018
0.196059
0.199839
0.197374
0.201647
0.201647
0.199839
0.201319
0.200332
0.20099
0.203291
0.201647
0.203784
0.20099
0.19836
0.198196
0.200168
0.19721
0.19836
0.200332
0.19836
0.199346
0.198196
0.198689
0.199839
0.201154
0.198853
0.205592
0.199018
0.198853
0.201483
0.198196
0.196717
0.19721
0.197867
0.199346
0.197867
0.197867
0.202962
0.196223
0.197538
0.199511
0.200168
0.199839
0.199839
0.199346
0.201483
0.196552
0.200004
0.200497
0.199346
0.198853
0.201647
0.200661
0.198196
0.199839
0.199182
0.201483
0.197703
0.201319
0.200332
0.199839
0.199018
0.201319
0.199018
0.19836
0.199511
0.199511
0.199018
0.199675
0.198031
0.195402
0.199346
0.19836
0.199346
0.199346
0.199675
0.196059
0.199675
0.196388
0.197045
0.19721
0.19458
0.192608
0.189978
0.193758
0.194416
0.192772
0.189485
0.194416
0.186855
0.190142
0.190142
0.188663
0.189485
0.190142
0.189649
0.191128
0.193101
0.189649
0.194251
0.193265
0.196552
0.190964
0.193429
0.191457
0.195895
0.191786
0.189649
0.192279
0.192608
0.193265
0.191621
0.190307
0.188334
0.188006
0.185869
0.186526
0.183568
0.182746
0.180938
0.116017
-0.001005
0.009678
0.015266
0.023484
0.03236
0.036304
0.043043
0.049617
0.057835
0.0603
0.066217
0.07312
0.079859
0.082324
0.088241
0.092843
0.093336
0.09991
0.101225
0.10254
0.105663
0.109607
0.112894
0.115853
0.116017
0.11914
0.123578
0.124235
0.12555
0.130316
0.13311
0.130645
0.12933
0.133439
0.134754
0.138041
0.135411
0.13837
0.140013
0.143301
0.145108
0.141986
0.145602
0.145437
0.151847
0.150861
0.153162
0.152505
0.155956
0.152833
0.152176
0.15497
0.153491
0.156285
0.15612
0.157764
0.154806
0.157271
0.158257
0.159079
0.157435
0.161215
0.161051
0.16401
0.162202
0.163023
0.164338
0.160065
0.160394
0.159243
0.16401
0.160394
0.162202
0.158586
0.163681
0.160722
0.161215
0.16138
0.162859
0.161215
0.162037
0.158914
0.159572
0.157928
0.158586
0.159901
0.1576
0.1576
0.157928
0.156285
0.154148
0.154312
0.152669
0.151518
0.151025
0.148396
0.150861
0.146259
0.143794
0.146095
0.143136
0.137548
0.134918
0.131631
0.127358
0.121934
0.116675
0.10632
0.105498
0.097281
0.092186
0.086597
0.082982
0.080516
0.076243
0.069176
0.066053
0.0603
0.058985
0.05537
0.047152
0.043371
0.038276
0.035975
0.029237
0.026114
0.02447
0.020033
0.021348
0.019704
0.019047
0.021183
0.020362
0.024142
0.018882
0.019868
0.02447
0.01954
0.018225
0.018554
0.016746
0.018882
0.020033
0.022827
0.025785
0.026114
0.020033
0.019704
0.015102
0.013787
0.011979
0.014445
0.01576
0.016088
0.012308
0.017732
0.015595
0.016417
0.021183
0.01428
0.017074
0.018718
0.021676
0.019704
0.021019
0.022498
0.025128
0.023977
0.025128
0.024142
0.026114
0.02595
0.026443
0.031702
0.029072
0.02595
0.0271
0.026114
0.023977
0.024799
0.02447
0.028086
0.022498
0.027265
0.026607
0.028908
0.028579
0.034825
0.032195
0.034003
0.032853
0.035318
0.034496
0.041892
0.041564
0.0437
0.044686
0.048631
0.05274
0.054876
0.0603
0.067532
0.071312
0.0769
0.084132
0.084954
0.092186
0.095801
0.094651
0.105005
0.108293
0.111744
0.114209
0.12177
0.119304
0.129988
0.126043
0.130152
0.136069
0.137219
0.141821
0.142479
0.14478
0.149053
0.155956
0.152833
0.155299
0.155299
0.15875
0.158914
0.160887
0.162202
0.165324
0.164667
0.166311
0.166475
0.171241
0.172556
0.1742
0.174693
0.173707
0.176336
0.175843
0.180774
0.175021
0.173214
0.177651
0.178802
0.178473
0.18554
0.182253
0.183568
0.185047
0.184883
0.186855
0.185705
0.179623
0.18554
0.189649
0.186033
0.188827
0.189814
0.191128
0.1908
0.192936
0.189156
0.192772
0.185869
0.19195
0.193265
0.1908
0.19721
0.192936
0.189156
0.191786
0.192443
0.194087
0.195402
0.185212
0.194909
0.195073
0.195895
0.195237
0.194416
0.19573
0.194251
0.197538
0.196223
0.198689
0.188827
0.194744
0.196059
0.194416
0.192608
0.19721
0.198196
0.199839
0.199675
0.19836
0.199511
0.194251
0.199018
0.197045
0.199182
0.196717
0.199675
0.198031
0.196223
0.197045
0.197374
0.196717
0.201483
0.196717
0.19836
0.199839
0.19836
0.200332
0.198853
0.199346
0.199018
0.202633
0.198524
0.206249
0.194744
0.200332
0.198689
0.195895
0.199675
0.200004
0.193922
0.201812
0.201319
0.198853
0.206578
0.197703
0.200497
0.199839
0.20099
0.197867
0.199511
0.195895
0.197703
0.20099
0.200497
0.205592
0.19836
0.196881
0.199675
0.200332
0.199182
0.201812
0.198689
0.201154
0.199839
0.201976
0.203126
0.197374
0.193594
0.197045
0.197538
0.198196
0.198853
0.19836
0.201154
0.202305
0.202469
0.205756
0.201812
0.199182
0.201812
0.200661
0.197867
0.196717
0.198031
0.199182
0.202962
0.201647
0.204277
0.199346
0.201812
0.199839
0.199675
0.202305
0.199018
0.200497
0.201647
0.204113
0.197538
0.20362
0.197538
0.198524
0.199182
0.200168
0.198689
0.198853
0.199511
0.202962
0.203455
0.202305
0.20362
0.199182
0.202469
0.200332
0.20099
0.199839
0.198196
0.19836
0.196552
0.196552
0.19836
0.201483
0.195895
0.197374
0.198031
0.200168
0.200497
0.204113
0.201319
0.202633
0.199511
0.201319
0.207071
0.199182
0.200168
0.198196
0.196717
0.200497
0.198031
0.199839
0.201812
0.199346
0.199346
0.201319
0.199839
0.200004
0.200004
0.199839
0.19836
0.198524
0.199182
0.199675
0.198853
0.196717
0.201647
0.195402
0.193265
0.199839
0.199675
0.195237
0.198196
0.197374
0.200332
0.200004
0.200168
0.200004
0.196059
0.196059
0.198853
0.198689
0.19836
0.198031
0.19836
0.199018
0.201154
0.199346
0.200168
0.198689
0.19721
0.200332
0.197374
0.198196
0.198689
0.200497
0.200168
0.199675
0.197867
0.197703
0.19721
0.199346
0.197374
0.20099
0.197703
0.198196
0.198031
0.200497
0.19836
0.199675
0.200004
0.198196
0.198853
0.198853
0.198196
0.192936
0.202305
0.199346
0.199182
0.201976
0.198031
0.199018
0.197045
0.197867
0.202633
0.200497
0.198689
0.201154
0.198853
0.198196
0.19836
0.201483
0.201154

Kurve 2

-0.00347
-0.001334
-0.002484
-0.003799
0.002775
-0.003306
-0.000512
-0.002813
-0.001662
-0.005771
0.001132
-0.003142
-0.001827
-0.000347
0.000474
0.001954
0.000967
0.000474
-1.9e-05
0.000639
-0.003306
-0.000183
-0.002648
-0.000347
-0.002484
-0.002155
-0.002484
-0.001827
-0.00347
-0.004949
-0.003306
-0.002977
-0.002648
-0.002813
-0.001334
-0.002155
-0.002155
-0.002813
0.001296
-0.004456
-0.004128
-0.000841
-0.002648
-0.004949
-0.00232
-0.005278
-0.003799
-0.003142
-0.001991
-0.006429
-0.003799
-0.002813
-0.001991
-0.0061
-0.005278
-0.004128
-0.002155
-0.002648
-0.003306
-0.000183
-0.002977
-0.00232
-0.004621
-0.004785
-0.001827
-0.004292
-0.000841
-0.001991
-0.002813
-0.003306
-0.000841
-0.002484
-0.001334
-0.002813
-0.002484
-0.00347
-0.002648
-0.002484
-0.003306
-0.0061
-0.006429
-0.002813
-0.003306
-0.001662
-0.003799
-0.002484
-0.004128
-0.002648
-0.002977
-0.001827
-0.003306
-0.001005
-0.000841
-0.002484
-0.000512
-0.004456
-0.001498
-0.005936
-0.001662
0.000146
0.001132
-0.002977
-0.001991
-0.001498
-0.002155
-0.002484
0.000639
-0.001498
-0.001334
-0.001334
-0.003142
0.000146
-0.001334
-0.004292
-0.001005
0.000146
-0.001827
-0.003142
0.000474
-0.003963
-0.002648
-0.000676
-0.00232
-0.000512
-0.001005
0.000146
-1.9e-05
0.00031
0.002282
-0.001662
0.000967
-0.003635
-0.001498
-0.004785
-0.001498
-0.003963
-0.001991
-0.002813
-0.002648
-0.000676
0.001132
-0.000183
-0.001334
-0.000347
-0.000841
0.001132
-0.002155
0.000803
-0.000512
-0.001662
-0.009387
-0.0061
-0.005114
-0.004949
-0.002813
-0.00232
0.000803
-0.000347
0.001954
0.002447
0.003597
0.000474
0.006391
0.00146
0.004419
-0.000347
0.001132
-1.9e-05
0.001789
-0.000183
-0.000347
0.00146
-0.003142
0.003433
0.00294
-0.001005
0.001954
0.000967
0.001625
0.003433
0.002447
0.004419
0.001132
-0.000183
0.000146
-0.003142
-0.00347
-0.004128
-0.001991
-0.003306
-0.001169
-0.001662
-0.001005
-0.003142
-0.001169
-0.002484
-0.000841
-0.005114
-0.00347
-0.005771
-0.005607
-0.003963
-0.003963
-0.003799
-0.003799
-0.007086
-0.003799
-0.002648
-0.003306
-0.004785
-0.004949
-0.001662
-0.002648
-0.001005
-0.00347
-0.002155
-0.00232
-0.001991
-0.004456
-0.003963
-0.005278
-0.001498
-0.00232
-0.006922
-0.000512
-0.003142
-0.001827
-0.005607
0.001296
-0.00232
-0.00347
-0.004128
-0.000841
-0.002813
-0.003635
-0.001991
-0.003799
-0.00347
-0.004456
-0.000512
-0.004621
-0.001662
-0.005443
-0.002813
-0.002813
-0.002648
-0.002155
-0.001169
-0.001498
-0.000183
0.000967
-0.00347
-0.0061
-0.007579
-0.002484
-0.004621
-0.002484
-0.004621
-0.001498
-0.000676
-0.002484
-0.000347
-0.005607
-0.004292
-0.002648
-0.005771
-0.002813
-0.002484
-0.003142
-0.001662
-0.00347
-0.002155
-0.002155
-0.00347
-0.004785
-0.002813
-0.004621
-0.001169
-0.001334
-0.003799
-0.001498
-0.006593
-0.004456
-0.00347
-0.001991
-0.004621
-0.003142
-0.001169
-0.002155
-0.004128
-0.001498
-0.003306
-0.00232
-0.004128
-0.001827
-0.003963
-0.004456
-1.9e-05
-0.000676
-0.003142
-0.007415
-0.000841
-0.003799
-0.000183
-0.004128
-0.000347
-0.000841
-0.001662
-0.004621
-0.002813
-0.004128
-0.004128
-0.002813
-0.003799
-0.006593
-0.000347
-0.004128
-0.001169
-0.001498
-0.003142
0.000146
-0.004456
-0.001498
-0.001334
-0.000676
-0.004128
-0.003799
-0.004621
-0.003142
-0.003963
-0.003635
0.00146
-0.004621
-0.002813
-0.001827
-0.002977
-0.00232
-0.000841
-0.002977
-0.001169
-0.002155
-0.001334
-0.001827
-0.003799
-0.004949
-0.001169
-0.001334
-0.005607
-0.003799
-0.006593
-0.004785
-0.006593
-0.000512
-0.004128
-0.003963
-0.005443
0.000967
-0.001169
-0.002484
-0.000676
-0.002813
-0.002813
-0.003635
-0.001005
-0.002813
-0.003306
-0.002813
-0.001991
-0.003635
0.001625
-0.000183
-0.002484
-0.00232
-0.002484
0.001296
-0.001498
-0.001498
-0.003799
0.001296
-0.003799
0.000639
-0.002155
-0.001827
-0.005114
-0.001827
-0.003963
-0.003635
-0.000347
-0.001991
-0.000841
-0.005443
-0.001169
-0.002813
-0.002155
-0.004292
-0.003306
-0.003142
-0.005771
-0.008237
-0.004785
-0.005443
-0.006264
-0.005443
-0.006264
-0.005443
-0.002813
-0.001991
-0.001827
-0.001662
-0.002977
-0.002155
-0.00232
-0.001334
-0.002484
-0.004456
-0.003306
-0.002813
-0.002813
-0.001169
-0.001498
-0.003799
-0.002484
-0.002484
-0.00347
-0.002155
-0.005771
-0.004292
-0.003142
-0.001005
-0.001334
-0.002648
0.000474
-0.000841
0.000474
-0.002648
-0.004128
-0.010373
-0.0061
-0.002155
-0.00347
-0.002648
-0.003635
-1.9e-05
-0.004621
-0.001334
-0.002977
-0.00232
-0.01366
-0.005936
-0.001827
-0.003142
-0.005607
-0.004128
-0.002977
-0.003635
0.000639
-0.002155
-0.000841
-0.00988
-0.005936
-0.002484
-1.9e-05
-0.002155
-0.000676
-0.000512
-0.002484
0.00031
-0.002155
-0.000512
-0.009551
-0.002977
-0.002977
-0.001169
-0.004785
-0.004785
-0.00347
-0.001827
-0.00232
-0.001827
-0.000183
-0.00725
0.000474
-0.000347
0.000967
-0.002648
-0.001169
-0.002977
-0.002648
-0.003799
0.00031
-0.005936
-0.007086
-0.005278
-0.002813
-0.001169
-0.001498
-0.003635
-0.003799
0.000146
-0.002813
-0.003142
-0.003142
-0.007744
-0.004785
-0.000347
-0.004621
-0.001662
-0.002977
-0.00347
-0.004785
-0.001991
-0.001334
-0.002484
-0.002977
-0.000676
-1.9e-05
-0.004456
0.00031
-0.001827
-1.9e-05
-0.002484
-0.000841
-0.001827
0.000967
-1.9e-05
-0.0061
-0.00232
-0.004949
-0.003306
-0.003306
-0.002648
-0.001827
0.003761
-0.004785
-0.001498
-0.001827
-0.004785
-0.004949
-0.006429
-0.003963
-0.004456
-0.005936
-0.005771
-0.003306
-0.003963
-0.003142
-0.000676
-0.007415
-0.002813
-0.001498
-0.006593
-0.004621
-0.006429
-0.005114
-0.007579
-0.0061
-0.006757
0.001625
-0.0061
-0.003799
-0.001827
-0.005607
-0.002648
-0.002155
-0.004292
-0.004128
-0.002813
-0.002813
0.002775
-0.005607
-0.002813
-0.002648
-0.005278
-0.003306
-0.003963
-0.004456
-0.003963
-0.002648
-0.004785
0.003433
-0.006922
-0.002648
-0.002977
-0.002484
-0.005278
-0.001991
-0.004949
-0.003799
-0.004621
-0.004456
0.000639
-0.005114
-0.003142
-0.004621
-0.004949
-0.00725
-0.003142
-0.007579
-0.00347
-0.005443
-0.004292
-0.001005
-0.006757
-0.005607
-0.00347
-0.002155
-0.005443
-1.9e-05
-0.003142
-0.003306
-0.003306
-0.003635
-0.001334
-0.004621
-0.005936
-0.005114
-0.002648
-0.00232
-0.00347
-0.002648
-0.003142
-0.002155
-0.005114
0.000146
-0.003635
-0.003799
-0.001498
-0.002977
-0.001498
-0.001827
-0.003142
-0.003142
-0.000347
-0.001334
0.000639
-0.001827
-0.001662
-0.002813
-0.002813
-0.000676
-0.001662
0.002118
-0.001334
-0.002813
-0.006429
-0.000841
-0.008072
-0.0061
-0.001169
-0.000183
0.000967
-0.000841
0.00031
0.001296
-0.000347
-0.000347
-0.000347
-0.001662
-1.9e-05
-1.9e-05
-1.9e-05
-0.001498
0.000639
-1.9e-05
-0.000183
-0.000512
-0.000676
-0.000676
0.000146
-0.000183
-0.001662
0.00031
0.00031
-0.000676
-0.00232
-1.9e-05
-0.001169
0.002118
-0.001169
-0.000512
-0.001991
0.000803
-0.001662
0.001789
0.00031
-0.005443
-0.000676
-0.00232
-0.00347
0.002447
-0.023851
-0.0227
-0.001498
-1.9e-05
0.000967
0.000146
0.00146
-0.001169
0.000474
-0.002155
-1.9e-05
-0.001169
-0.000183
0.002611
-0.000841
0.001625
0.000639
-0.003142
-0.003799
0.00146
-0.000676
-0.004292
-0.001827
0.002611
-0.001991
-0.000841
-0.001169
-0.001005
-0.004621
-0.001005
0.000146
-0.001005
-0.001498
-0.001005
-0.002648
0.00031
0.00031
-0.000512
0.000803
-0.000841
0.000639
0.001132
-0.000676
-0.001827
0.000146
0.00031
-0.003142
-0.000183
-0.002155
-0.000676
-0.001827
-0.000347
-0.001169
-1.9e-05
0.000146
-0.001662
-0.002155
-0.00232
0.000474
-0.000512
-0.000676
0.000474
0.007706
0.005898
0.008363
0.006391
0.012472
0.010664
0.012965
0.015595
0.019375
0.021348
0.022498
0.028744
0.029072
0.031373
0.031702
0.032688
0.032031
0.033017
0.034661
0.037948
0.03614
0.039263
0.042057
0.041399
0.045672
0.050439
0.053562
0.056684
0.065067
0.06556
0.069504
0.072134
0.077558
0.081502
0.08594
0.089556
0.096788
0.096294
0.103197
0.109279
0.110429
0.115031
0.11914
0.12177
0.124564
0.128344
0.125879
0.135247
0.13459
0.138863
0.143794
0.140835
0.147574
0.149382
0.150532
0.152998
0.155299
0.158257
0.161873
0.160229
0.164174
0.159901
0.16779
0.165653
0.170584
0.167461
0.171077
0.169433
0.172556
0.174364
0.17272
0.174528
0.175186
0.179788
0.178144
0.181267
0.178637
0.181103
0.182582
0.18439
0.180774
0.183239
0.183239
0.183897
0.186198
0.186033
0.186198
0.187019
0.187841
0.187841
0.18932
0.187184
0.188499
0.190964
0.191786
0.188006
0.187019
0.189649
0.190964
0.189814
0.190964
0.193922
0.192608
0.191128
0.192443
0.193429
0.193594
0.197374
0.200332
0.192772
0.194416
0.195237
0.194909
0.195237
0.196059
0.195895
0.197538
0.192772
0.196552
0.199839
0.195073
0.19573
0.197045
0.194909
0.195237
0.195895
0.196552
0.196388
0.196881
0.193101
0.19836
0.197538
0.198524
0.197374
0.198031
0.198196
0.19573
0.199182
0.196223
0.197045
0.196552
0.198853
0.195237
0.197538
0.197538
0.201976
0.195895
0.194416
0.200497
0.19836
0.198031
0.19573
0.197867
0.198031
0.200168
0.198031
0.199182
0.199018
0.197045
0.195237
0.197045
0.197374
0.19721
0.200004
0.199182
0.203455
0.200004
0.197374
0.199018
0.199018
0.198689
0.200004
0.197538
0.200332
0.201319
0.19573
0.198689
0.198031
0.196223
0.201647
0.200497
0.197867
0.198853
0.196881
0.198524
0.198031
0.199346
0.199018
0.200497
0.199346
0.200825
0.19836
0.198853
0.19836
0.199346
0.197045
0.200661
0.201647
0.201154
0.198853
0.196388
0.198853
0.197374
0.197538
0.197867
0.198853
0.199346
0.200661
0.200004
0.199839
0.196388
0.19836
0.201483
0.198031
0.201812
0.199346
0.200332
0.200332
0.198196
0.198524
0.201483
0.199018
0.198524
0.203126
0.200332
0.19836
0.200661
0.201812
0.200332
0.203948
0.198853
0.199346
0.197538
0.199675
0.199511
0.198196
0.197538
0.200168
0.200168
0.199839
0.200825
0.200497
0.202962
0.19836
0.200497
0.196223
0.195895
0.196059
0.199839
0.195566
0.196881
0.197703
0.198853
0.199346
0.199511
0.199346
0.201154
0.199182
0.201154
0.198031
0.19458
0.201976
0.199675
0.198689
0.201154
0.200332
0.197374
0.201647
0.197538
0.197045
0.199182
0.199018
0.200332
0.201154
0.198196
0.200661
0.200661
0.200497
0.196552
0.194744
0.197867
0.19458
0.20099
0.195237
0.20099
0.196059
0.197045
0.199018
0.197703
0.202305
0.19721
0.199018
0.135411
0.043536
0.049288
0.057671
0.062601
0.066053
0.074435
0.07838
0.082653
0.087255
0.0935
0.098431
0.103691
0.105663
0.113552
0.114702
0.118154
0.122427
0.127194
0.131467
0.134918
0.136069
0.138863
0.140506
0.140835
0.143629
0.14593
0.147081
0.149053
0.151025
0.153326
0.155627
0.156449
0.158586
0.158421
0.163845
0.166146
0.167132
0.167625
0.166968
0.169433
0.166804
0.16779
0.173707
0.168776
0.174857
0.174364
0.17535
0.175679
0.175843
0.178144
0.177322
0.177487
0.178473
0.180281
0.177815
0.182746
0.182253
0.181267
0.181596
0.181924
0.184718
0.184225
0.186198
0.183239
0.187184
0.184883
0.186033
0.186855
0.184554
0.184718
0.18554
0.189649
0.188663
0.191293
0.189978
0.18932
0.189814
0.191457
0.187348
0.192443
0.189978
0.193429
0.193101
0.191786
0.194087
0.19195
0.193429
0.193101
0.192443
0.193922
0.197374
0.193265
0.196881
0.195895
0.196059
0.195566
0.196388
0.193429
0.194909
0.193922
0.192279
0.196552
0.199839
0.194416
0.194744
0.195566
0.19573
0.196223
0.193922
0.201483
0.199346
0.200332
0.200497
0.19836
0.19721
0.196059
0.196717
0.197045
0.19721
0.195237
0.19721
0.197867
0.198524
0.198524
0.19836
0.197867
0.199346
0.198031
0.19836
0.193429
0.194251
0.190142
0.195402
0.196552
0.197867
0.196223
0.198524
0.198524
0.195895
0.197703
0.197703
0.197374
0.196223
0.198689
0.198524
0.199182
0.198853
0.198524
0.196223
0.198689
0.197867
0.19573
0.19836
0.196552
0.199346
0.196388
0.197867
0.198524
0.19836
0.199675
0.201154
0.20099
0.198196
0.199018
0.19721
0.198853
0.198196
0.200004
0.19836
0.199346
0.197045
0.199675
0.199675
0.198031
0.198196
0.199018
0.198689
0.199675
0.198031
0.20099
0.202305
0.202469
0.202633
0.199675
0.198031
0.200004
0.199675
0.196881
0.199182
0.197374
0.200332
0.198689
0.198853
0.198196
0.201154
0.197703
0.198524
0.199511
0.197703
0.199675
0.199182
0.200332
0.197867
0.197867
0.198196
0.198853
0.192936
0.198689
0.199182
0.201647
0.200332
0.203784
0.202305
0.198853
0.202305
0.19721
0.20099
0.200168
0.198196
0.199346
0.19836
0.19836
0.201812
0.199839
0.198524
0.19836
0.19836
0.201319
0.200661
0.201319
0.195895
0.200825
0.199346
0.201812
0.200661
0.200004
0.200332
0.200004
0.197045
0.19573
0.200004
0.199346
0.197045
0.199182
0.200661
0.198196
0.199675
0.199511
0.199018
0.198689
0.199018
0.199346
0.200332
0.197703
0.196717
0.19836
0.200497
0.194087
0.193101
0.196223
0.195566
0.196552
0.199346
0.197374
0.198853
0.200661
0.200004
0.203126
0.199839
0.200004
0.198689
0.201812
0.198524
0.19836
0.199346
0.197538
0.197867
0.198689
0.201812
0.196223
0.197703
0.193922
0.201647
0.198689
0.200825
0.199839
0.201812
0.199511
0.201154
0.201483
0.199018
0.198689
0.197703
0.200825
0.19458
0.199675
0.198689
0.198524
0.197867
0.202469
0.198196
0.200004
0.200004
0.200661
0.200497
0.19573
0.198853
0.199839
0.197374
0.198031
0.199675
0.197374
0.19836
0.197867
0.197374
0.199675
0.200497
0.199511
0.200825
0.203291
0.199675
0.201319
0.200332
0.199675
0.200168
0.199511
0.197374
0.199018
0.192772
0.199182
0.198524
0.200004
0.204277
0.198524
0.202305
0.199511
0.199511
0.199839
0.200497
0.199018
0.199675
0.197538
0.199346
0.199675
0.200825
0.199182
0.200661
0.197867
0.199018
0.200004
0.197867
0.200825
0.199346
0.197867
0.19836
0.200332
0.194909
0.197538
0.196717
0.200004
0.201812
0.200825
0.199511
0.198524
0.199018
0.200497
0.201483
0.199839
0.200661
0.199839
0.198196
0.198853
0.199511
0.19836
0.20099
0.198196
0.203455
0.19836
0.201154
0.199839
0.199511
0.199839
0.19836
0.195073
0.197538
0.199839
0.197703
0.200168
0.200168
0.204606
0.198031
0.199511
0.197374
0.197538
0.199839
0.199182
0.199346
0.197703
0.199675
0.200168
0.199675
0.198689
0.20099
0.196552
0.197703
0.199018
0.197703
0.197045
0.199182
0.197538
0.199018
0.203948
0.199839
0.202305
0.200168
0.199346
0.199675
0.200168
0.197867
0.200004
0.19721
0.199839
0.199182
0.199018
0.200168
0.199511
0.200497
0.202305
0.203291
0.201319
0.201483
0.199346
0.202633
0.204277
0.202962
0.199018
0.202305
0.199346
0.200168
0.200661
0.199018
0.198853
0.19836
0.201483
0.201976
0.20214
0.201319
0.203455
0.197538
0.201647
0.199675
0.200332
0.198689
0.196059
0.199018
0.198031
0.20099
0.196717
0.202305
0.200168
0.199675
0.199675
0.203291
0.201319
0.200332
0.202305
0.200004
0.199182
0.201154
0.200497
0.200168
0.19721
0.200332
0.200497
0.200168
0.199839
0.20362
0.204277
0.201483
0.20214
0.200661
0.20362
0.200004
0.200332
0.202305
0.19721
0.197703
0.200661
0.200661
0.20099
0.199018
0.199182
0.201483
0.199675
0.20099
0.20099
0.201976
0.199511
0.202633
0.200825
0.202305
0.200332
0.201483
0.199675
0.197867
0.194416
0.198196
0.199182
0.197703
0.199675
0.197703
0.200661
0.199182
0.202469
0.198853
0.201319
0.200004
0.201647
0.19836
0.199018
0.201976
0.200497
0.200004
0.200332
0.202305
0.199018
0.201812
0.20099
0.198853
0.19836
0.198689
0.200661
0.201812
0.199346
0.197867
0.199675
0.199839
0.200168
0.196552
0.201976
0.200825
0.198689
0.199839
0.201976
0.199675
0.200004
0.200497
0.200004
0.199018
0.201812
0.200332
0.198689
0.201319
0.200332
0.202305
0.198689
0.199018
0.199675
0.200004
0.198853
0.200825
0.199018
0.198031
0.19458
0.20099
0.200661
0.200004
0.200497
0.202305
0.201483
0.199675
0.200825
0.200168
0.199511
0.200825
0.201319
0.199675
0.19836
0.19721
0.200497
0.198689
0.197045
0.201483
0.199018
0.199018
0.200825
0.20477
0.200497
0.202633
0.19836
0.201319
0.199018
0.199675
0.198689
0.199675
0.197703
0.197867
0.199675
0.200004
0.200004
0.199182
0.201319
0.198524
0.19836
0.198196
0.202798
0.197538
0.198031
0.20099
0.201154
0.199182
0.199839
0.198524
0.196388
0.199182
0.197374
0.200004
0.199675
0.19836
0.199839
0.200497
0.200497
0.202305
0.201647
0.200825
0.199675
0.197703
0.193922
0.197867
0.197538
0.197374
0.198853
0.200332
0.200332
0.200332
0.199182
0.200168
0.200661
0.199018
0.198196
0.197703
0.200004
0.198853
0.198524
0.199675
0.199839
0.198689
0.198524
0.199346
0.198689
0.200332
0.199018
0.199018
0.198196
0.201319
0.198524
0.200497
0.197374
0.197045
0.198853
0.196388
0.20099
0.198196
0.197538
0.199018
0.198524
0.19836
0.203126
0.19836
0.199511
0.199182
0.200825
0.200004
0.199839
0.200168
0.197374
0.200332
0.196552
0.199182
0.197867
0.199346
0.199839
0.200661
0.19721
0.200497
0.199839
0.198196
0.195895
0.197374
0.201319
0.200004
0.199839
0.199346
0.201483
0.200004
0.199182
0.200332
0.200497
0.199839
0.20099
0.200661
0.201647
0.200332
0.199182
0.199182
0.197538
0.198524
0.198853
0.198031
0.198689
0.201154
0.20099
0.198853
0.197045
0.201154
0.199511
0.200497
0.200168
0.200004
0.200004
0.199182
0.199346
0.199839
0.200332
0.199675
0.199182
0.199018
0.200661
0.196223
0.202305
0.200497
0.197703
0.201483
0.199675
0.197374
0.201976
0.19573
0.200004
0.199511
0.19836
0.200332
0.199346
0.199839
0.19836
0.20477
0.198196
0.200661
0.200004
0.201647
0.203126
0.19836
0.201319
0.20214
0.198031
0.197867
0.200332
0.195237
0.198196
0.199346
0.200332
0.200661
0.199346
0.199182
0.201319
0.20099
0.200825
0.202305
0.202305
0.199675
0.200661
0.199346
0.198031
0.202469
0.198524
0.201319
0.199018
0.201483
0.203784
0.199839
0.200825
0.202633
0.200497
0.202633
0.201319
0.20099
0.201154
0.200497
0.202469
0.200497
0.202633
0.192772
0.201812
0.200497
0.198689
0.198524
0.205099
0.199182
0.202962
0.201319
0.203784
0.198853
0.199511
0.200661
0.19721
0.198524
0.19721
0.197538
0.196881
0.199839
0.198853
0.202469
0.197703
0.198853
0.201647
0.200661
0.200661
0.20099
0.203455
0.199511
0.200825
0.199018
0.202633
0.199346
0.197867
0.199018
0.200497
0.20099
0.202633
0.201483
0.200661
0.202305
0.201319
0.204441
0.200661
0.200497
0.199675
0.202633
0.198524
0.198689
0.202469
0.197703
0.19836
0.199346
0.200004
0.199675
0.200004
0.200004
0.200004
0.198689
0.197538
0.201154
0.201483
0.197538
0.202305
0.199511
0.19836
0.199839
0.198196
0.196717
0.199675
0.199346
0.199839
0.201647
0.200497
0.202798
0.202962
0.198853
0.199511
0.20214
0.200332
0.201483
0.199839
0.201812
0.200497
0.20099
0.198689
0.200661
0.199511
0.201647
0.201319
0.200825
0.201483
0.196223
0.201976
0.200168
0.200825
0.199346
0.200661
0.19836
0.198689
0.195402
0.198196
0.196881
0.198031
0.200497
0.19836
0.200168
0.198524
0.20362
0.197045
0.197045
0.199018
0.197538
0.19836
0.199675
0.197538
0.199511
0.199182
0.193758
0.201483
0.199346
0.199675
0.198689
0.200332
0.19836
0.199675
0.197867
0.199182
0.200825
0.200168
0.200661
0.200497
0.200497
0.200004
0.201154
0.198853
0.200168
0.199675
0.196223
0.198853
0.200168
0.198853
0.200825
0.198196
0.198689
0.19836
0.201976
0.199182
0.199839
0.202633
0.197867
0.202633
0.202962
0.20099
0.200661
0.201647
0.199018
0.201154
0.201647
0.20099
0.199018
0.200004
0.199182
0.198031
0.199675
0.195402
0.199182
0.200661
0.202305
0.201483
0.208879
0.199182
0.20099
0.201319
0.201154
0.198689
0.201483
0.197867
0.199346
0.200332
0.199839
0.202469
0.201154
0.20099
0.201154
0.202962
0.200497
0.203784
0.201647
0.199839
0.199839
0.199511
0.201319
0.200168
0.200332
0.199675
0.198689
0.197703
0.199182
0.198524
0.198031
0.200332
0.201976
0.202305
0.202798
0.200004
0.200825
0.198689
0.200004
0.200168
0.199018
0.199346
0.197538
0.19573
0.197374
0.198196
0.196552
0.199018
0.198031
0.199839
0.194251
0.199018
0.200661
0.200497
0.199511
0.200332
0.199839
0.199675
0.199182
0.197538
0.197374
0.199346
0.199018
0.197867
0.199675
0.19721
0.200168
0.196881
0.201976
0.201319
0.199839
0.199346
0.20099
0.198689
0.198524
0.19721
0.198031
0.199839
0.197045
0.200004
0.196388
0.200004
0.198524
0.200332
0.197045
0.198853
0.194744
0.200497
0.201483
0.197703
0.202633
0.195237
0.198853
0.19721
0.197703
0.195402
0.199182
0.196552
0.193922
0.19836
0.200661
0.201319
0.195073
0.198524
0.200661
0.197703
0.198689
0.201647
0.196552
0.199346
0.199346
0.198524
0.199018
0.189485
0.193758
0.196552
0.197703
0.196223
0.196881
0.190964
0.194909
0.198524
0.198853
0.196223
0.192115
0.1908
0.190307
0.124071
0.002282
0.011979
0.021183
0.026114
0.034989
0.044522
0.047973
0.051096
0.05915
0.067861
0.073778
0.081667
0.085118
0.090378
0.09498
0.100239
0.102376
0.107964
0.107964
0.111744
0.114209
0.119633
0.122263
0.124071
0.131302
0.130481
0.135904
0.140013
0.142314
0.147409
0.148889
0.151354
0.153655
0.152176
0.152998
0.155299
0.1576
0.160065
0.159243
0.163681
0.168612
0.166475
0.165653
0.168776
0.169926
0.170584
0.170419
0.17272
0.176336
0.173542
0.175843
0.182417
0.176501
0.177487
0.17798
0.179952
0.182417
0.181103
0.182911
0.184225
0.183897
0.186526
0.190142
0.18554
0.188006
0.184225
0.187841
0.187184
0.185869
0.186855
0.186691
0.188663
0.189485
0.192115
0.188827
0.193429
0.192443
0.192279
0.192443
0.194416
0.194416
0.196552
0.194251
0.193758
0.195895
0.192279
0.196059
0.192608
0.196059
0.195895
0.196223
0.193429
0.197045
0.195073
0.19836
0.196881
0.199675
0.19573
0.195566
0.197045
0.197703
0.196223
0.194909
0.197867
0.196717
0.199346
0.199182
0.19458
0.197703
0.198524
0.195895
0.197703
0.197538
0.197374
0.197374
0.192443
0.198853
0.194744
0.196059
0.196717
0.199346
0.197045
0.201976
0.198689
0.199839
0.199346
0.199839
0.198196
0.199511
0.199346
0.197703
0.198689
0.198689
0.198524
0.198196
0.199018
0.199018
0.200661
0.198524
0.202633
0.198689
0.199346
0.197045
0.201154
0.200661
0.198689
0.199675
0.200661
0.20099
0.198689
0.202305
0.197867
0.200168
0.19836
0.200825
0.201154
0.200497
0.200168
0.201154
0.200168
0.199018
0.200497
0.197374
0.200661
0.196059
0.197538
0.201319
0.196717
0.197538
0.200661
0.199839
0.201976
0.20099
0.200825
0.202469
0.199675
0.200661
0.198524
0.199839
0.197867
0.200004
0.197867
0.20099
0.199511
0.197703
0.20099
0.199675
0.199839
0.200661
0.200497
0.200497
0.202305
0.199839
0.201976
0.198853
0.195237
0.198031
0.194909
0.193594
0.200661
0.196059
0.197538
0.200332
0.200168
0.200332
0.202633
0.200168
0.201976
0.201976
0.199675
0.200168
0.19836
0.199675
0.199511
0.200825
0.198031
0.197045
0.19721
0.19458
0.196059
0.195237
0.199018
0.201812
0.200332
0.202305
0.201154
0.199675
0.20362
0.198853
0.200825
0.198853
0.201483
0.198689
0.199839
0.199018
0.200497
0.201647
0.199018
0.201647
0.199346
0.201319
0.197374
0.201647
0.20099
0.202962
0.199182
0.203948
0.203126
0.200168
0.200168
0.198031
0.199839
0.19836
0.197867
0.201483
0.202633
0.199182
0.201154
0.199839
0.201483
0.201154
0.201647
0.200661
0.20099
0.195073
0.19573
0.197703
0.197703
0.19458
0.201812
0.201812
0.201319
0.201483
0.201154
0.198853
0.198524
0.201319
0.200004
0.19836
0.202798
0.20099
0.201154
0.201976
0.200497
0.200497
0.200825
0.198031
0.201154
0.197703
0.199182
0.199346
0.200497
0.198196
0.200332
0.198031
0.201319
0.194909
0.202633
0.204277
0.200661
0.19836
0.201647
0.199839
0.201647
0.20099
0.198031
0.199346
0.197374
0.199182
0.199839
0.200497
0.198524
0.201647
0.201154
0.199018
0.206249
0.200825
0.198689
0.200168
0.199675
0.195895
0.19836
0.193922
0.199018
0.200332
0.199018
0.200825
0.198524
0.199839
0.200661
0.200332
0.200825
0.200825
0.197374
0.203291
0.197867
0.201319
0.202305
0.196881
0.199346
0.199182
0.198031
0.200168
0.201483
0.197867
0.200497
0.199839
0.199182
0.19836
0.199511
0.197374
0.200168
0.201812
0.199346
0.197867
0.19721
0.199182
0.199511
0.19836
0.200497
0.198524
0.198524
0.200661
0.199839
0.202633
0.196881
0.197867

Kurve 3

-0.001498
0.000146
0.00031
-0.000183
0.000146
-0.001498
0.002118
-0.002648
-1.9e-05
-0.001991
0.004748
-0.001334
-0.001334
-0.001662
0.002447
0.001954
0.003433
0.000474
0.000639
0.001789
-0.001169
0.002775
-0.000676
0.003761
0.001296
0.002775
-0.004949
0.004255
0.001789
0.001132
-0.000841
-0.001334
0.00294
0.004583
0.00031
-0.000347
0.002447
-0.001169
0.003926
0.000639
-0.000841
0.000803
-0.000512
-0.001662
-0.002648
-0.001991
0.000803
-0.001662
-0.002648
0.000967
0.00031
0.000967
-0.000183
0.002282
0.000967
0.000146
-0.001169
-0.000347
-0.001169
-0.000841
-0.002977
-0.001334
-0.001498
-0.001334
-0.003799
-0.004785
-0.000347
-0.003963
-0.002484
-0.002648
-0.001991
-0.003142
0.00031
-0.004949
-0.001334
-0.000347
0.000146
-0.00347
-0.001991
-0.005771
-0.0061
-0.003799
-0.010866
0.001625
-0.003306
-0.003799
-0.002155
-0.000676
-0.003306
-0.002484
-0.004456
-0.002155
-0.004456
-0.007415
-0.005278
-0.007415
-0.005114
-0.008237
-0.004292
-0.00988
-0.004456
-0.004621
-0.004128
-0.00347
-0.005278
-0.002813
-0.000841
-0.004128
-0.002648
-0.000183
-0.005114
-0.004456
-0.004621
-0.004128
-0.005443
-0.007579
-0.006757
-0.003306
-0.00725
-0.004456
0.001132
-0.004128
-0.004128
-0.001662
-0.004128
-0.00347
-0.003635
-0.002813
-0.002484
-0.006429
-0.008401
-0.003799
-0.006264
-0.005771
-0.002977
-0.004292
-0.004292
-0.008237
0.001296
-0.003142
-0.001991
-0.002977
-0.000347
-0.002155
-0.009058
-0.0061
-0.005936
-0.004621
-0.007579
-0.00232
-0.003963
-0.00232
-0.003799
0.00294
-0.005114
-0.000841
-0.00347
-0.003963
-0.002648
-0.003799
-0.000183
-0.002484
-0.001169
-0.00232
0.00146
-0.002813
-0.003142
-0.003963
-0.001662
-0.007908
-0.003963
-1.9e-05
-0.003635
-0.000183
-0.003306
-0.000512
-0.002977
-0.002813
-0.002484
-0.001827
-0.003963
-0.002648
-0.001827
-0.001498
-0.00232
-0.00232
-0.001005
-0.004128
-0.002484
-0.005936
-0.003142
-0.006429
-0.005607
-0.003635
-0.004292
-0.004128
-1.9e-05
-0.00232
-0.002484
-0.000512
-0.003799
-0.001334
-0.002813
-0.00347
-0.002155
-0.00232
-0.002155
-0.000841
-0.001005
-0.002648
-0.000183
-0.001169
-0.004128
0.001132
-0.002155
0.000474
0.00031
-0.001169
-0.00232
0.00146
-0.001991
-0.002813
-0.002155
-0.004128
-0.001169
-0.003635
-0.001005
-0.003142
-0.001498
-0.002484
0.003104
-0.00232
-0.002155
-1.9e-05
-0.002813
-0.001498
-0.003142
-0.001991
-0.00232
-0.004621
-0.002648
0.000803
-0.004621
-0.005114
-0.005278
-0.00347
-0.004621
-0.003799
-0.002813
-0.001334
0.003433
-0.002648
0.00031
-0.004128
-0.00347
-0.004456
-0.002155
-0.004785
-0.002648
-0.003799
-0.003635
-0.001662
-0.003306
-0.000347
-0.002155
-0.00232
-0.00347
-0.002977
-0.002813
-0.003963
-0.002155
-0.000347
-0.002484
-0.00232
-0.001991
-0.004128
-0.003963
-0.004456
-0.004292
-0.003635
-0.003635
-0.002155
-0.002648
-0.002648
-0.001991
-0.000183
-0.000512
-0.002977
-0.001991
-0.003142
0.000474
-0.006757
-0.000676
-0.003635
-0.003799
-0.00347
-0.001334
-0.005114
-0.004785
-0.002648
-0.003799
-0.000183
-0.003963
-0.000676
-0.002977
-0.000183
-0.002484
-0.001334
-0.002813
-0.002813
-0.004128
-0.005114
-0.002484
-0.003635
-0.001169
-0.002484
-0.000676
-0.003635
-0.000183
-0.001662
-0.003142
-0.002648
-0.000183
-0.002813
-0.004456
0.002611
-0.002155
-0.005278
-0.003635
-0.001498
-0.004785
-0.002813
-0.003799
-0.003799
-0.003142
-0.003306
-0.002648
-0.000676
-0.001005
-0.001662
0.000146
-0.005114
-0.004949
-0.006593
-0.004785
-0.006264
-0.00347
-0.004456
-0.002977
-0.0061
-0.002813
-0.000512
-0.002813
-0.003142
-0.001169
-0.001827
-0.00232
-0.001169
-0.000183
-0.002155
-0.001662
-0.001827
-0.001662
0.000639
-0.002648
-0.002813
-0.00347
-0.002484
-0.003306
-0.004456
-0.002813
-0.003306
-0.003306
0.000803
0.000474
-0.002484
-0.001005
-0.003799
-0.001991
-0.003799
-0.003142
-0.00347
-0.002648
-0.001498
-0.001169
-0.001827
-0.002813
-0.003142
-0.004785
-0.00232
-0.004292
-1.9e-05
-0.007086
-0.000347
-0.001991
-0.001498
-0.005443
-0.004128
-0.003306
-0.001991
-0.001991
-0.003799
0.000639
-0.001827
-0.001334
-0.001169
0.001789
-0.001498
-0.000512
-0.002484
-0.000512
-0.001498
-0.002977
-0.000676
-0.000183
-0.004621
-0.002813
-0.000347
-0.000676
-0.00232
0.000639
0.001789
-0.00232
-0.00232
0.000967
-1.9e-05
-0.001334
-0.000676
0.00031
-0.002648
-0.002813
-0.002484
-0.003306
-0.001991
-0.004128
-0.002648
-0.001827
-0.002484
-0.000183
-0.000676
-0.00232
-0.000676
0.00031
-0.001498
-0.002155
-0.004949
-0.001827
-0.00232
-0.002648
-0.005114
-1.9e-05
-0.002977
-0.003635
-0.002813
-0.001498
-0.001827
-0.002977
-0.000841
-0.001169
-0.000183
-0.003142
0.003433
-0.001827
0.00031
-0.00232
-0.00232
-0.002648
-0.006429
-0.002155
-0.001827
-0.002648
-0.001498
0.004419
-0.001662
-0.000841
-0.001662
-0.000183
-0.00347
-0.001169
-0.001827
-0.001991
-1.9e-05
-0.002977
0.00146
-0.003142
-0.002484
-0.002155
-0.000183
-0.001005
0.002118
-0.002155
-0.001005
-0.004456
-0.004785
-0.002155
-0.002155
-0.004292
-0.007086
-0.000676
-0.002155
-0.003799
0.000474
0.00031
-0.002813
-1.9e-05
-0.001334
-0.000183
-0.003799
-0.002155
-0.00232
-0.001991
-0.000676
-0.001662
-0.000183
-0.001991
0.000474
0.002118
0.001954
-0.002484
-0.000512
-0.001662
-0.003306
-0.002813
0.000967
-0.000183
-0.002484
-0.001498
-0.001498
-0.002484
-0.003142
-0.002155
-0.001991
-0.001169
-0.003799
-0.001169
-0.001334
-0.001169
-0.001498
0.003433
-0.004621
-0.00347
-0.003142
-0.003799
-0.002977
-0.001005
-0.001827
-0.002813
-0.003635
-0.004456
0.000803
-0.002484
0.001296
-0.00232
0.001625
-0.003799
-0.000512
-0.001991
-0.004128
-0.001169
-0.003963
0.000474
-0.003306
-0.001991
-0.000347
-0.002155
-0.004456
0.000967
0.000639
-1.9e-05
-0.001334
-0.000676
-0.001334
-0.005114
-0.003142
-0.001662
-0.003963
-0.002648
-0.002977
-0.003142
-0.001498
-0.005278
-0.001991
-0.000676
-0.001991
-0.001827
-0.000841
-0.001005
-0.000676
-0.003142
-0.005771
-0.001827
-0.002648
-0.005771
-0.001169
-0.004292
-0.00873
-0.004785
-0.005114
-0.002155
-0.003799
-0.000347
-0.001827
-1.9e-05
-0.001005
0.001132
-0.001827
-0.001334
-0.001169
-0.00232
-0.004292
-0.001498
-0.001169
-0.000841
-0.004949
-0.003306
-0.000183
-0.004949
-0.001827
-0.002484
-0.002484
-0.001827
-0.002648
-0.002155
-0.003306
-0.001005
-0.003142
-0.001169
-0.003142
-0.002155
-0.004292
-0.00347
-0.002648
-0.004621
-0.001498
-0.001991
-0.000841
-0.000841
-0.001334
-0.003963
-0.00347
-0.001827
-0.00347
-0.005936
-0.005278
-0.002813
-0.007086
-0.00347
-0.001827
-0.001334
-0.002484
-0.000183
-0.001498
-0.002155
-0.001005
-0.002484
-0.001827
0.000803
-0.001827
-0.000347
-0.000841
-0.001498
-0.002648
-0.001827
-0.003635
-0.000676
-0.00232
-0.002648
-0.001498
-0.002484
-0.001991
-0.005936
-0.002155
-0.004292
-0.004621
-0.001991
-0.001498
-0.004949
-0.000512
-0.000676
-0.003306
-0.003142
-0.001991
-0.003635
-0.003142
-0.002648
-0.003799
-0.001005
-0.007086
-0.002648
-0.002813
-0.001334
-0.004128
-0.001991
-0.003799
-0.003142
-0.00232
0.002775
-0.000841
-0.004292
-0.000347
-0.001334
-0.001827
-0.001827
-0.001498
-0.002813
-0.001169
-0.000676
-0.001005
-0.000512
-0.000347
-0.000183
0.000474
-0.000676
-0.002155
-0.000512
-0.001662
-0.001005
-0.001662
-0.001662
-0.002813
-0.001991
-0.00232
-0.004456
-0.003142
-0.002155
-0.002813
-0.000676
-0.000347
-0.000841
-0.001334
-0.002648
-0.001827
-0.002977
-0.002484
-0.00232
-0.002484
-0.003963
-0.004621
-0.005771
-0.002977
-0.001991
-0.002648
-0.00347
-0.001005
-0.003142
-0.001005
-0.000183
-0.007908
-0.005114
-0.003963
-0.001991
0.001954
0.009514
0.016581
0.027758
0.031373
0.040577
0.044358
0.053069
0.060465
0.06408
0.074435
0.074435
0.081174
0.082488
0.091364
0.094487
0.098431
0.099089
0.106485
0.108128
0.11536
0.113552
0.119962
0.124564
0.124728
0.131631
0.133932
0.136233
0.131631
0.140506
0.140342
0.145602
0.148231
0.152505
0.152505
0.152011
0.152011
0.155627
0.157435
0.151847
0.1576
0.160065
0.16516
0.165489
0.166475
0.166804
0.167625
0.170913
0.174693
0.17272
0.170419
0.175021
0.176008
0.176665
0.17798
0.177487
0.179459
0.180938
0.182253
0.183404
0.185869
0.181596
0.183568
0.184718
0.18439
0.185869
0.186198
0.187184
0.187019
0.187841
0.187841
0.184225
0.191293
0.187019
0.186691
0.188006
0.19195
0.188334
0.1908
0.187677
0.194416
0.1908
0.194909
0.19721
0.191457
0.193429
0.189814
0.191457
0.190471
0.194416
0.189156
0.191128
0.193758
0.192279
0.196717
0.190142
0.193758
0.200004
0.196552
0.196223
0.196388
0.196717
0.197045
0.194909
0.196388
0.199839
0.194744
0.196059
0.196552
0.192772
0.197703
0.197538
0.196223
0.196388
0.196552
0.19721
0.200661
0.196223
0.196059
0.199675
0.194909
0.192772
0.198524
0.197374
0.195895
0.197374
0.195566
0.198031
0.195237
0.195566
0.196059
0.197538
0.197538
0.197867
0.196059
0.197045
0.199018
0.196552
0.198524
0.195895
0.19836
0.194744
0.196552
0.194744
0.196717
0.192279
0.194744
0.198689
0.19573
0.200497
0.197374
0.198196
0.199346
0.199182
0.197867
0.199675
0.196717
0.200332
0.198031
0.19573
0.193429
0.196717
0.196881
0.196552
0.196881
0.197045
0.198031
0.195566
0.199018
0.197703
0.197374
0.195566
0.198853
0.195566
0.198524
0.200497
0.197045
0.19573
0.196881
0.197538
0.197374
0.197703
0.197703
0.198524
0.196388
0.198196
0.198196
0.197703
0.195237
0.197374
0.19721
0.195073
0.197538
0.199346
0.197867
0.196388
0.195895
0.196388
0.193594
0.189978
0.195566
0.198031
0.199182
0.197538
0.201483
0.196059
0.199018
0.200332
0.19836
0.200332
0.195566
0.195566
0.198196
0.19836
0.19721
0.200661
0.196552
0.199511
0.198031
0.198524
0.197045
0.200004
0.197867
0.199675
0.198689
0.199839
0.201154
0.196881
0.201154
0.197374
0.199675
0.197703
0.200004
0.195402
0.199182
0.199182
0.200825
0.199018
0.196059
0.195566
0.196552
0.19573
0.197703
0.197867
0.193758
0.200004
0.199182
0.198853
0.20214
0.198524
0.201154
0.198196
0.198853
0.198524
0.198031
0.197703
0.199511
0.199839
0.201483
0.202305
0.200004
0.199675
0.200332
0.197703
0.200332
0.198524
0.197703
0.198524
0.200332
0.198524
0.201976
0.199346
0.199018
0.199182
0.199346
0.198524
0.197374
0.197538
0.198524
0.201154
0.200332
0.201319
0.199018
0.19836
0.199675
0.199675
0.196059
0.204113
0.198853
0.197538
0.197703
0.197538
0.200332
0.196388
0.200004
0.198853
0.20099
0.199839
0.201976
0.200168
0.206085
0.200168
0.200004
0.201812
0.19836
0.199018
0.196881
0.198524
0.201319
0.200661
0.198853
0.203126
0.200825
0.202305
0.202305
0.200004
0.200004
0.199182
0.198853
0.200825
0.19836
0.199346
0.200168
0.197703
0.199839
0.199346
0.197045
0.198196
0.200168
0.199675
0.201319
0.199675
0.199675
0.200497
0.199182
0.199675
0.199182
0.198031
0.202305
0.19836
0.200332
0.200168
0.194251
0.19836
0.197703
0.19836
0.199182
0.20214
0.200661
0.200332
0.202469
0.196059
0.198853
0.199182
0.197703
0.199018
0.197703
0.195895
0.200168
0.199018
0.200825
0.197538
0.198031
0.199839
0.201154
0.198524
0.201976
0.19836
0.199346
0.199675
0.195237
0.19836
0.198853
0.199346
0.19721
0.199675
0.197045
0.197867
0.200661
0.199346
0.200332
0.199018
0.199511
0.199675
0.199675
0.19836
0.200332
0.197538
0.197703
0.199018
0.199675
0.196388
0.197867
0.197374
0.196059
0.194087
0.19721
0.201483
0.198031
0.198853
0.200661
0.197703
0.194744
0.199511
0.19721
0.199346
0.198853
0.197045
0.19836
0.198689
0.199675
0.198853
0.199675
0.197374
0.199675
0.198524
0.200825
0.19721
0.197374
0.19836
0.201812
0.200661
0.200825
0.201154
0.198853
0.198196
0.198853
0.197867
0.199182
0.198689
0.199018
0.199182
0.199182
0.198524
0.198524
0.200825
0.199839
0.200332
0.196388
0.195402
0.197538
0.198689
0.19573
0.197867
0.198524
0.197703
0.19836
0.197538
0.199675
0.200004
0.196388
0.198524
0.199675
0.201483
0.202469
0.201154
0.201647
0.199675
0.198689
0.199675
0.199511
0.199675
0.197703
0.200825
0.198196
0.200825
0.198689
0.19836
0.200332
0.201976
0.200661
0.199182
0.200661
0.19836
0.200004
0.20099
0.200332
0.19836
0.200497
0.19721
0.199675
0.196059
0.199346
0.197867
0.198689
0.20099
0.200661
0.200168
0.200661
0.202469
0.198524
0.199182
0.196223
0.197867
0.198031
0.199018
0.200825
0.201812
0.197867
0.199839
0.198689
0.199018
0.198689
0.203784
0.206085
0.202305
0.200168
0.204606
0.202633
0.199018
0.200661
0.200004
0.199018
0.200661
0.200661
0.200332
0.199346
0.198853
0.200497
0.198689
0.198524
0.200661
0.200661
0.19836
0.200497
0.199346
0.196552
0.198524
0.197703
0.200497
0.196717
0.200332
0.198196
0.200497
0.197374
0.198524
0.199182
0.199511
0.200004
0.198031
0.199182
0.198853
0.199839
0.19836
0.198689
0.196717
0.199839
0.199182
0.198853
0.198196
0.19836
0.200168
0.200497
0.200004
0.199346
0.201154
0.198689
0.198196
0.200168
0.19836
0.200004
0.200168
0.201976
0.203126
0.197374
0.199839
0.198689
0.199346
0.199675
0.198031
0.20099
0.198196
0.200661
0.198031
0.198689
0.197538
0.201154
0.196059
0.199018
0.199511
0.200497
0.198853
0.199346
0.200004
0.199346
0.20099
0.196388
0.199018
0.199346
0.197703
0.195237
0.195073
0.196552
0.196059
0.198689
0.199018
0.200332
0.201647
0.200497
0.198031
0.200661
0.199018
0.199182
0.197867
0.199675
0.198196
0.197538
0.199839
0.199675
0.19836
0.200332
0.200332
0.196388
0.197374
0.200825
0.201483
0.198853
0.199018
0.197867
0.201319
0.200825
0.199675
0.196388
0.19836
0.197374
0.199511
0.198524
0.197538
0.199018
0.200661
0.201319
0.199675
0.201647
0.199839
0.20099
0.196223
0.199018
0.200825
0.196388
0.19573
0.199346
0.196881
0.197867
0.201647
0.196059
0.201319
0.200332
0.200497
0.200332
0.201976
0.199018
0.202798
0.200825
0.20099
0.198524
0.199839
0.198031
0.199511
0.198031
0.197703
0.199675
0.200004
0.201976
0.194416
0.200332
0.19721
0.201483
0.197867
0.200497
0.199511
0.201319
0.198853
0.199018
0.200004
0.200497
0.19721
0.198689
0.200661
0.19573
0.199018
0.199839
0.199675
0.199182
0.200497
0.200497
0.201154
0.199182
0.200332
0.198031
0.196552
0.19836
0.197867
0.193101
0.197703
0.196059
0.19721
0.197538
0.197538
0.203291
0.20214
0.198031
0.200332
0.199675
0.199839
0.199346
0.200825
0.200661
0.199839
0.199182
0.199839
0.201483
0.199346
0.196388
0.205263
0.201319
0.201319
0.201976
0.20214
0.196552
0.202469
0.202469
0.197374
0.200332
0.197703
0.19573
0.198031
0.200497
0.197538
0.204113
0.195402
0.200661
0.200168
0.198031
0.199182
0.199018
0.199018
0.199018
0.199346
0.200004
0.199839
0.197703
0.200497
0.200332
0.200168
0.20099
0.201812
0.197867
0.199839
0.200332
0.199182
0.198031
0.199839
0.200825
0.199511
0.199675
0.200004
0.200004
0.200168
0.201319
0.199839
0.199182
0.201647
0.202962
0.20214
0.199346
0.200332
0.196717
0.194251
0.198853
0.200168
0.199182
0.200168
0.200332
0.201319
0.202305
0.201812
0.203784
0.198031
0.19836
0.200332
0.199182
0.199675
0.203948
0.197867
0.198853
0.200168
0.199018
0.200004
0.199839
0.197867
0.196717
0.19573
0.200004
0.198524
0.199511
0.202962
0.202305
0.200497
0.200497
0.199511
0.200004
0.199511
0.198031
0.200825
0.197867
0.201154
0.200497
0.200661
0.20099
0.201483
0.203948
0.200332
0.201483
0.197538
0.197045
0.197867
0.20214
0.201154
0.202962
0.199346
0.201154
0.198524
0.198524
0.199839
0.200825
0.200661
0.201976
0.20214
0.199839
0.201812
0.197045
0.199182
0.199511
0.199839
0.198031
0.200497
0.198031
0.200332
0.197867
0.196223
0.202798
0.198689
0.200661
0.200168
0.199839
0.19836
0.201319
0.199675
0.200332
0.200497
0.201483
0.199018
0.200332
0.200004
0.200332
0.199018
0.199346
0.199511
0.201154
0.200497
0.202469
0.200332
0.19836
0.196388
0.200497
0.198031
0.196717
0.200332
0.198031
0.197538
0.199018
0.200497
0.198853
0.199182
0.199018
0.200497
0.199839
0.199182
0.198853
0.199018
0.200497
0.200004
0.200497
0.199675
0.200661
0.199511
0.202798
0.197045
0.198524
0.19721
0.20099
0.199675
0.19721
0.20214
0.198031
0.199346
0.19573
0.199346
0.200332
0.20099
0.200004
0.200332
0.198853
0.200825
0.200004
0.201319
0.199839
0.20099
0.200332
0.198196
0.200168
0.199018
0.198524
0.201812
0.201647
0.200661
0.201319
0.19836
0.201976
0.202305
0.199346
0.200004
0.199675
0.200661
0.198196
0.201154
0.197703
0.200332
0.197867
0.200168
0.200004
0.198853
0.197374
0.200497
0.198524
0.199839
0.201812
0.20099
0.200168
0.196717
0.197045
0.196223
0.197703
0.19573
0.200661
0.196388
0.19573
0.197703
0.202798
0.198524
0.202305
0.201483
0.201647
0.20477
0.197703
0.202962
0.200168
0.199182
0.200332
0.200825
0.19836
0.200497
0.201483
0.203455
0.200004
0.202798
0.201154
0.200332
0.202798
0.205592
0.20214
0.199839
0.202305
0.20099
0.198031
0.199182
0.199511
0.198031
0.199675
0.198524
0.200332
0.200825
0.199839
0.202633
0.200004
0.20099
0.201647
0.202798
0.200825
0.202469
0.197867
0.200497
0.200825
0.199346
0.197538
0.202962
0.198689
0.198196
0.201647
0.200825
0.200825
0.200497
0.199675
0.202962
0.203948
0.201483
0.201154
0.200661
0.200332
0.201154
0.202469
0.202798
0.201647
0.200332
0.199182
0.20214
0.199839
0.20214
0.201976
0.199675
0.196717
0.200661
0.198524
0.200661
0.196552
0.202962
0.199839
0.200332
0.200168
0.202469
0.199839
0.199839
0.200332
0.200332
0.20214
0.199182
0.20099
0.196881
0.197045
0.197374
0.201319
0.197374
0.200004
0.200661
0.200004
0.200825
0.202305
0.201154
0.201319
0.201154
0.200004
0.20362
0.200661
0.199346
0.198853
0.201483
0.198689
0.199675
0.20099
0.200825
0.201154
0.201154
0.204934
0.19836
0.198196
0.197703
0.199839
0.198196
0.196223
0.198689
0.203291
0.201154
0.201812
0.203455
0.201483
0.199018
0.200004
0.199511
0.199511
0.200004
0.200661
0.200004
0.199511
0.200661
0.201154
0.200168
0.198689
0.199675
0.193101
0.197867
0.196223
0.200168
0.195895
0.20214
0.200661
0.201976
0.204606
0.201483
0.201319
0.200168
0.201647
0.197867
0.200168
0.198689
0.198853
0.200004
0.200661
0.198689
0.200332
0.199182
0.20214
0.200661
0.200825
0.201154
0.198853
0.200332
0.199182
0.201647
0.197703
0.198196
0.197867
0.19721
0.195895
0.197867
0.199018
0.198689
0.199182
0.200332
0.202798
0.199839
0.20214
0.199182
0.200661
0.200661
0.198196
0.199839
0.199018
0.201976
0.199346
0.201319
0.198853
0.200497
0.196388
0.199675
0.200497
0.200497
0.204277
0.20362
0.203126
0.201154
0.200332
0.199018
0.199675
0.200168
0.198196
0.199839
0.198524
0.199675
0.202469
0.200004
0.200497
0.202798
0.203291
0.198524
0.200825
0.200825
0.200661
0.200168
0.200497
0.200004
0.199839
0.19721
0.196388
0.198196
0.195237
0.199839
0.199018
0.196881
0.199839
0.201647
0.199839
0.201319
0.20099
0.20099
0.200332
0.19721
0.198196
0.198524
0.197867
0.195895
0.202305
0.199182
0.19836
0.19721
0.20099
0.199182
0.203126
0.201976
0.201647
0.199675
0.20099
0.203126
0.199018
0.200332
0.200168
0.202962
0.199182
0.20099
0.198524
0.201154
0.199182
0.201647
0.202305
0.201647
0.199839
0.20214
0.202305
0.199511
0.201154
0.198689
0.202469
0.196717
0.196717
0.204606
0.20362
0.199346
0.201976
0.200661
0.200332
0.19721
0.200168
0.198524
0.200825
0.197374
0.200661
0.200661
0.195566
0.197374
0.197703
0.199018
0.194744
0.196388
0.199675
0.199839
0.198031
0.201483
0.204113
0.200497
0.201647
0.202962
0.200332
0.200661
0.20099
0.199182
0.20099
0.198689
0.200661
0.202798
0.200168
0.201647
0.201647
0.199675
0.199839
0.201647
0.198853
0.200825
0.199018
0.199018
0.200168
0.200168
0.199346
0.202962
0.201154
0.201154
0.20099
0.19573
0.200497
0.197538
0.199018
0.198196
0.19836
0.198196
0.202305
0.19836
0.202305
0.201976
0.199346
0.197374
0.199018
0.198031
0.200497
0.197867
0.198689
0.201647
0.198031
0.200332
0.199675
0.200004
0.195237
0.200168
0.199839
0.200825
0.200497
0.201812
0.201812
0.201976
0.200661
0.200497
0.202798
0.199182
0.199346
0.200825
0.198524
0.201319
0.202798
0.20214
0.200497
0.197867
0.201483
0.199675
0.201154
0.199182
0.202305
0.20099
0.198853
0.199346
0.201154
0.199346
0.198853
0.199839
0.200497
0.199675
0.197374
0.203126
0.198196
0.200661
0.201976
0.201319
0.198524
0.202469
0.197374
0.197538
0.199018
0.197703
0.203784
0.194909
0.198524
0.197703
0.201483
0.197374
0.200825
0.199511
0.200332
0.199511
0.199511
0.203455
0.199839
0.201319
0.200168
0.202962
0.198853
0.20099
0.195895
0.198853
0.198853
0.200661
0.201812
0.199346
0.199346
0.200332
0.201976
0.201319
0.199018
0.199675
0.196552
0.196552
0.199675
0.199346
0.201319
0.199182
0.200825
0.201812
0.198031
0.196881
0.197867
0.197045
0.198524
0.19836
0.194251
0.198031
0.196552
0.195895
0.194744
0.197374
0.194744
0.195073
0.192936
0.196223
0.193429
0.19458
0.193101
0.191293
0.192936
0.191457
0.189814
0.186855
0.187348
0.184061
0.183732
0.180116
0.182746
0.177651
0.179623
0.179459
0.176501
0.175515
0.173214
0.171406
0.169926
0.168118
0.166968
0.167625
0.163516
0.163023
0.160722
0.163845
0.160558
0.160722
0.1576
0.159079
0.155792
0.155463
0.151683
0.149875
0.148067
0.148067
0.146423
0.144122
0.14478
0.139356
0.139849
0.140013
0.139192
0.136891
0.136562
0.134754
0.133603
0.129495
0.120948
0.101061
0.084954
0.07575
0.070162
0.069833
0.06293
0.065724
0.06293
0.067203
0.059972
0.056356
0.055534
0.053726
0.055534
0.055041
0.053233
0.052082
0.051754
0.049124
0.051096
0.052082
0.046659
0.04633
0.050603
0.045837
0.050274
0.03992
0.014116
0.008363
0.007706
0.014609
0.022827
0.027429
0.028908
0.034332
0.035647
0.040577
0.03992
0.045508
0.046823
0.046823
0.051425
0.059807
0.060629
0.067203
0.073284
0.077722
0.083475
0.085118
0.090213
0.09498
0.101718
0.102047
0.10895
0.109443
0.112894
0.118811
0.122427
0.120948
0.124564
0.128508
0.131631
0.134754
0.136726
0.139192
0.140506
0.146588
0.146423
0.14971
0.150039
0.152669
0.151683
0.1576
0.156778
0.159243
0.16138
0.160394
0.163845
0.166146
0.164174
0.172063
0.169762
0.172885
0.174364
0.172885
0.17798
0.176994
0.176008
0.174693
0.178473
0.180774
0.176829
0.178637
0.181103
0.182746
0.180281
0.182746
0.185212
0.184225
0.185376
0.186362
0.185047
0.18554
0.186526
0.191457
0.187019
0.192115
0.192115
0.192279
0.191128
0.189814
0.191457
0.189814
0.191786
0.190307
0.194087
0.190635
0.1908
0.19195
0.194416
0.192772
0.194251
0.192936
0.193429
0.195402
0.193594
0.19573
0.194087
0.195073
0.191128
0.196881
0.191293
0.194251
0.196388
0.195895
0.194744
0.198031
0.19458
0.197045
0.19573
0.196223
0.200661
0.194416
0.19721
0.197538
0.199675
0.199018
0.197374
0.196552
0.197703
0.19458
0.197867
0.199182
0.196223
0.198524
0.197867
0.195402
0.197374
0.197374
0.197703
0.199346
0.197867
0.200332
0.195566
0.19836
0.19573
0.197867
0.196223
0.20099
0.198196
0.20099
0.200004
0.201154
0.199346
0.196552
0.199675
0.19721
0.200004
0.197538
0.20099
0.198031
0.198031
0.196881
0.200168
0.198031
0.197045
0.192936
0.197374
0.200168
0.200825
0.196223
0.196059
0.202305
0.19573
0.201976
0.200332
0.199839
0.200004
0.197703
0.198689
0.200661
0.198524
0.197374
0.200004
0.198853
0.200497
0.199839
0.19836
0.199675
0.200661
0.199346
0.201812
0.198689
0.198689
0.200825
0.199675
0.199182
0.198524
0.202305
0.195073
0.199182
0.199675
0.198689
0.19836
0.198689
0.198524
0.200168
0.200004
0.196717
0.197374
0.200168
0.199346
0.199018
0.198031
0.198031
0.197374
0.19721
0.197703
0.197703
0.193429
0.192279
0.199675
0.198524
0.197374
0.198524
0.199511
0.19836
0.200332
0.201319
0.200004
0.193265
0.195073
0.200661
0.197867
0.199511
0.19836
0.199018
0.198031
0.200004
0.200168
0.199675
0.194251
0.199182
0.198689
0.199182
0.199839
0.19836
0.20099
0.196388
0.200332
0.197867
0.19721
0.19836
0.198031
0.197867
0.195895
0.196881
0.199839
0.200168
0.200168
0.199675
0.199346
0.20214
0.202305
0.198689
0.199675
0.200004
0.198031
0.199018
0.19836
0.19721
0.198689
0.197374
0.200825
0.203291
0.197703
0.199346
0.20099
0.195402
0.200004

Kurve 4

0.000146
-0.002813
0.00146
0.000803
-0.002977
-0.001662
-0.000512
-0.002155
0.000146
-0.002155
-0.001991
-0.001169
-0.00232
-0.002484
-0.001827
-0.003963
-0.001169
-0.00232
-0.003306
-0.001498
-0.001662
-0.004949
-0.003142
-0.005114
-0.0061
-0.004949
-0.004128
-0.004785
-0.003963
-0.00347
-0.001334
-0.003635
-0.001662
-0.000183
-0.001662
-0.00347
-0.00232
-0.005114
-0.005114
-0.003306
-0.004128
-0.003142
-0.003306
-0.003963
-0.001334
-0.000512
-0.003306
0.000146
-0.005936
-0.004456
-0.00347
-0.001005
-0.004128
-0.002648
-0.004949
-0.002813
-0.00347
-0.003306
-0.00347
-0.005443
-0.002484
-0.002155
-0.000512
-0.001498
0.000474
-0.005278
-0.000347
-0.002484
-0.000841
-0.001827
-0.001169
-0.001334
0.001296
-0.003142
-0.005114
0.002775
0.002118
0.002282
0.003268
0.004748
0.004419
0.004255
0.006227
0.005076
0.003761
0.003433
0.00146
0.000474
0.00294
0.004255
0.003597
0.002118
0.003104
0.002118
0.004583
0.000967
0.002775
0.000639
-0.000676
-0.002813
0.001789
0.001954
0.001296
-0.0061
-0.005443
-0.000347
-0.000512
-0.001662
-0.004621
-0.000183
-0.003799
0.000146
-0.000676
-0.000183
-0.000841
-0.001169
-0.000841
-0.000347
-0.000676
-0.001991
-0.002155
-0.001498
0.003597
0.001296
-0.001334
-0.005607
-0.003306
-0.002155
-0.00347
-0.005771
-0.001991
-0.001498
-0.000841
-0.003635
-0.001498
0.000474
-0.004785
-0.000347
-0.001991
-0.001991
-0.002813
-0.001498
-0.004621
-0.001991
-0.00347
-0.002813
-0.00232
-0.003799
-0.00347
-0.001991
-0.005443
-0.003635
-0.001498
-0.005607
-0.002648
-0.000347
-0.001169
-0.001498
-0.005114
-0.000347
0.001625
-0.004621
-0.001169
-0.00347
-0.004128
-0.001662
-0.00232
0.003268
-0.001662
0.001789
-1.9e-05
0.00031
0.001954
0.00146
0.000474
0.000474
-0.001498
-0.001005
-0.003306
-0.002484
-0.001662
-0.001334
-0.002155
-0.003635
-1.9e-05
0.000474
0.002118
0.001625
0.002118
0.000146
0.000639
0.000146
-0.000347
-0.001498
0.000146
-0.001169
-0.002484
-0.001334
-0.000347
0.00294
0.000474
-1.9e-05
-0.000183
0.000967
0.000803
0.003926
0.00146
0.003761
0.00294
0.000474
-0.003306
0.001789
-0.001498
-0.001334
0.001625
-0.000676
0.001954
0.001296
0.001625
0.003761
0.00146
-0.002155
0.001132
-0.000183
0.002775
-0.002977
-0.005114
-0.001334
-0.001662
0.001132
0.001132
-0.000841
-0.002813
0.001625
-0.000512
-0.001334
-0.001169
0.001296
-0.001005
-0.000347
0.001625
0.000639
0.001625
-0.004785
0.00031
-0.000676
-0.003142
-0.001662
-0.002484
-0.000512
0.000803
-0.000512
0.001954
-0.001005
-0.001005
-1.9e-05
0.000639
-0.002977
-0.002813
0.00031
-0.002813
-0.003306
-0.005936
-0.000676
-0.00347
-0.002484
-0.004949
0.001954
-0.003963
-0.000841
-0.005443
-0.003306
-0.001662
-0.002813
-0.002155
-0.000512
-0.004292
-0.004785
0.002447
-0.004621
-0.00232
-0.000841
0.003761
-0.003142
-1.9e-05
-0.000676
-0.001991
-0.001005
-0.002155
0.000146
-0.001991
-0.001662
-0.001498
-0.001169
-0.004292
0.001789
-1.9e-05
-0.001334
-0.001169
-0.001334
-1.9e-05
-0.003306
-0.003142
-0.00232
-0.002155
-0.002977
-0.000183
-0.000347
-0.003142
-0.002813
-0.001827
-0.004292
-0.000512
-0.000841
0.000639
-0.001662
-0.001005
-0.000347
-0.000347
0.001296
-0.003142
-0.001169
-0.004621
-0.001662
-0.005771
-0.004128
-0.003963
-0.002648
-0.003142
-1.9e-05
-0.001827
0.000639
-0.000676
-0.001498
-0.00347
-0.001169
-0.00347
-0.00347
-0.002648
-0.004949
-1.9e-05
-0.002648
-0.00232
-0.002813
-0.002155
-0.00347
-0.001005
-0.001991
-0.001169
-0.002648
-0.006429
0.000146
-0.002648
-0.004456
-0.002977
-0.002648
-0.005443
-0.001827
-0.005278
-0.003142
-0.003963
-0.000183
0.000639
0.000146
0.000803
-0.001662
-1.9e-05
-0.002977
-0.004621
-0.001498
-0.003306
-0.003963
-0.001991
-0.002813
-0.00347
-0.005936
-0.004621
-0.002977
-0.006593
-0.005114
-0.001662
-0.003963
-0.00347
-0.001005
-0.001662
-0.00232
-0.003635
-0.002648
-0.001498
-0.002977
-0.005771
-0.002484
-0.003799
-0.00347
-0.001827
-0.001169
-0.001334
-0.00347
-0.000512
0.000146
-0.000183
-0.006264
-0.000676
-0.001498
-0.001169
-0.001827
-0.001334
-0.006264
-0.002155
-0.00347
-0.00232
-0.003799
-0.002648
-0.00232
0.000803
-0.002813
-0.003142
-0.001498
-0.003799
-0.001169
-0.003142
-0.001334
-0.005443
-0.005443
-0.005443
-0.004128
-0.005278
-0.001334
-0.001169
-0.001662
-0.002813
-0.003142
0.000639
-0.002648
-0.001827
-0.002813
0.001625
-0.00232
0.00031
-0.001498
-0.001169
-0.002155
-0.00232
-0.000841
-0.003799
-0.001827
-0.002813
-0.001169
-0.002977
-0.003142
0.000639
0.001625
-0.000841
-0.002977
-0.000183
-0.000676
-0.003799
-0.002813
-0.003306
-0.003635
-1.9e-05
-0.002648
-0.000676
-0.001005
-0.002813
-0.003142
-0.001169
-0.001827
-0.002155
-0.002155
-0.001169
-0.000841
-0.002155
-0.00232
-0.001498
-0.004128
-0.003799
-0.003306
-0.002977
-0.001169
-0.002648
0.000803
-1.9e-05
-0.001005
-0.002813
-0.000841
-0.001498
0.000967
-0.002813
-0.001334
-0.001005
-0.002977
-0.001498
-0.000676
-0.000183
-0.001827
-0.001005
-0.00232
-0.003963
-0.004621
-0.002813
-0.003635
-0.001498
-0.002484
-0.001991
-0.002484
-0.001169
-1.9e-05
-0.002648
-0.000841
-0.002484
-0.001005
-0.0061
-0.002813
-0.001498
-1.9e-05
-0.00232
-0.003799
-0.002155
-0.001005
-0.002977
-0.001334
-0.00232
-0.004949
-0.001005
-0.005607
0.005405
-0.003142
-0.001827
-0.001334
-0.001827
-0.004785
-0.002155
-0.003142
-0.001662
-0.001991
-0.003963
0.000967
-0.000512
-0.001005
-0.000841
-0.000183
-0.001169
-0.001005
-0.002484
-0.001169
-0.000183
-0.000841
-0.001827
0.00031
-0.003142
-0.002484
-0.000347
-0.003635
-0.001991
-0.002977
-0.007086
-0.006264
-0.001498
-0.001005
0.000474
-0.002648
-0.000676
-0.002484
-0.000676
-0.002648
-0.002484
0.000639
-0.004785
-0.001827
-0.001334
0.002118
-0.002155
-0.002484
-0.000512
-0.00347
-0.007579
-0.004785
-0.004456
-0.004456
-0.001334
-0.000183
-0.000183
-0.002484
-0.001662
-0.002155
-0.000676
-0.00347
-0.000841
-0.00347
-0.001005
-0.001662
0.000474
-0.000512
0.000474
-0.001498
-0.001334
-0.000676
-0.002813
-0.001991
-0.003799
-0.001991
-0.002813
0.000967
-0.003963
0.004748
-0.001498
0.000146
-0.003142
-0.000676
-0.002977
-0.002813
-0.002155
-0.001334
0.002118
-0.001005
-0.000676
-0.003306
-0.000183
-0.002155
-0.001005
-0.004785
-0.003635
-0.005771
-0.003306
-0.0061
0.003761
0.003433
-0.00232
0.000967
-0.001005
-0.001005
-0.001005
-0.002155
0.001132
0.00031
-0.001498
0.000967
-0.002155
-0.000183
-0.003142
-0.003306
-0.001827
-0.001334
-0.002155
-0.001169
-0.002484
0.000639
0.000146
-0.001169
-1.9e-05
0.000146
-1.9e-05
-0.00232
-0.001827
-0.005278
-0.003142
-0.00347
-0.001498
-1.9e-05
-0.001498
-0.00232
-1.9e-05
-0.000347
-0.001662
-1.9e-05
-0.001991
0.001789
-0.001991
0.00146
0.000639
-0.000676
-0.003142
-0.003963
-0.001662
-1.9e-05
-0.006593
-0.004292
-0.000841
-0.001827
-0.000183
0.000803
0.004912
-0.001169
0.001625
0.00146
-0.000183
0.001296
-0.000183
-0.000183
-0.004621
0.000803
0.000474
-0.000512
-0.001334
0.000474
-0.000183
-0.000676
-0.000347
0.000803
-0.000347
0.002611
0.000803
0.002118
0.002118
-0.000183
-0.001827
-0.005114
-0.002977
-0.004128
-0.003799
-0.003142
-0.000676
-0.002813
0.001132
-0.002155
0.001954
-0.001662
0.000639
-0.001827
0.000474
-1.9e-05
-0.002813
-0.00347
-0.00347
-0.00232
-0.003635
-0.003799
-0.000841
0.000639
-0.002648
-0.001169
-0.002155
-0.001169
-0.001662
0.000146
-0.000347
0.000146
-0.001991
-0.001498
0.001625
-0.002648
-0.001334
-0.001334
-0.000841
-0.00232
-0.006264
-0.001005
-0.001334
-0.001991
-0.000183
0.005569
0.011158
0.014445
0.02595
0.034332
0.03729
0.046987
0.051096
0.059643
0.063259
0.069504
0.075585
0.081502
0.083968
0.091364
0.094487
0.098102
0.102376
0.107964
0.113881
0.11273
0.118811
0.117496
0.121441
0.125057
0.130481
0.131631
0.132124
0.13311
0.141493
0.141821
0.145273
0.146916
0.152011
0.153162
0.15234
0.1576
0.157928
0.160394
0.15875
0.165489
0.164503
0.164996
0.168118
0.169762
0.16779
0.170091
0.171077
0.17272
0.175186
0.173214
0.178966
0.180938
0.178802
0.179459
0.184225
0.181431
0.182911
0.181431
0.183404
0.183404
0.184554
0.186198
0.188006
0.187019
0.184554
0.187841
0.186033
0.188334
0.187513
0.183404
0.187184
0.18817
0.186033
0.192936
0.192936
0.194251
0.194251
0.193101
0.194087
0.194909
0.196552
0.170419
0.172227
0.17157
0.173378
0.173871
0.174693
0.176008
0.177487
0.177651
0.180938
0.180116
0.180116
0.182582
0.182089
0.183732
0.183568
0.184718
0.185212
0.183404
0.183568
0.186198
0.187513
0.186855
0.184883
0.19573
0.190307
0.190964
0.193594
0.192936
0.193429
0.191128
0.197045
0.191128
0.193429
0.192115
0.195566
0.193922
0.19573
0.191457
0.193265
0.193758
0.199018
0.197374
0.194416
0.200497
0.198689
0.202305
0.197703
0.199346
0.197374
0.198689
0.199182
0.200332
0.196388
0.199018
0.199182
0.197045
0.20099
0.200004
0.201154
0.201483
0.20099
0.200497
0.198689
0.197867
0.197538
0.197374
0.197374
0.198031
0.196717
0.196388
0.197045
0.196881
0.196223
0.195895
0.197867
0.19836
0.201319
0.197538
0.198031
0.197867
0.196059
0.19836
0.19721
0.197703
0.197867
0.196223
0.195073
0.197045
0.192443
0.197374
0.199018
0.193265
0.194251
0.194087
0.19458
0.190964
0.194087
0.192279
0.19573
0.190142
0.195402
0.195073
0.193594
0.194416
0.194251
0.19195
0.193922
0.194251
0.190964
0.19458
0.191457
0.194087
0.192443
0.193758
0.192443
0.196552
0.19458
0.194744
0.194087
0.193101
0.193101
0.192115
0.194087
0.189978
0.193922
0.192443
0.194909
0.190635
0.193594
0.192115
0.192772
0.193758
0.193265
0.196717
0.194744
0.195566
0.192936
0.195566
0.194416
0.194909
0.197538
0.192772
0.188992
0.19195
0.192772
0.195566
0.195895
0.197703
0.199018
0.197045
0.196059
0.196059
0.197045
0.196388
0.199018
0.195402
0.197703
0.197374
0.197703
0.19573
0.194744
0.196388
0.195237
0.195566
0.196388
0.194416
0.196552
0.19721
0.198031
0.198689
0.197703
0.19836
0.196388
0.195402
0.196552
0.196552
0.194087
0.196717
0.197045
0.196388
0.196717
0.197703
0.197867
0.197538
0.198031
0.198689
0.199018
0.192443
0.19836
0.199018
0.19836
0.195566
0.199182
0.197703
0.194909
0.196223
0.198524
0.199675
0.194416
0.197538
0.200661
0.198853
0.197703
0.201319
0.197703
0.199511
0.198196
0.198853
0.198196
0.197374
0.199839
0.195237
0.196552
0.196881
0.197374
0.194744
0.197374
0.196059
0.198031
0.196552
0.197867
0.197867
0.199018
0.195566
0.197703
0.199346
0.19721
0.197374
0.197538
0.197703
0.197538
0.198031
0.196717
0.199511
0.196881
0.200168
0.197703
0.196717
0.19721
0.200497
0.193922
0.196059
0.196223
0.19836
0.19836
0.198196
0.19836
0.195895
0.200004
0.193758
0.199346
0.195895
0.196717
0.200661
0.198853
0.198853
0.199839
0.199675
0.200168
0.199839
0.19721
0.199675
0.197538
0.201319
0.200168
0.199182
0.200661
0.198524
0.200168
0.197703
0.198031
0.198689
0.196717
0.196059
0.197374
0.198031
0.200497
0.198196
0.200661
0.198524
0.200332
0.199018
0.199018
0.197703
0.199839
0.197045
0.197374
0.197867
0.196059
0.198689
0.194909
0.196059
0.195237
0.199018
0.197703
0.201154
0.198689
0.199675
0.199182
0.200497
0.202633
0.199182
0.197867
0.199018
0.200004
0.196881
0.197867
0.199018
0.197045
0.197867
0.201319
0.199018
0.200497
0.198524
0.201483
0.200661
0.199018
0.199018
0.200825
0.196388
0.197703
0.197703
0.19458
0.197045
0.197703
0.197867
0.199346
0.199018
0.198689
0.200661
0.198689
0.200661
0.199839
0.199182
0.199018
0.199675
0.19836
0.198196
0.195237
0.19573
0.197374
0.193922
0.196388
0.197374
0.200168
0.199675
0.203126
0.197867
0.20099
0.203126
0.202962
0.19836
0.198196
0.200825
0.198196
0.198196
0.198031
0.200661
0.196717
0.197045
0.19836
0.20099
0.198524
0.194744
0.199675
0.199675
0.199675
0.196059
0.203948
0.197374
0.197867
0.197374
0.197703
0.194251
0.200004
0.197703
0.198196
0.199511
0.197703
0.202469
0.199018
0.198689
0.19836
0.199511
0.197374
0.197538
0.196552
0.199511
0.197045
0.199839
0.196388
0.198031
0.198031
0.199182
0.200825
0.200004
0.199346
0.200332
0.20099
0.201647
0.199018
0.199018
0.199675
0.197703
0.198524
0.199511
0.200168
0.197703
0.200497
0.200004
0.198689
0.200332
0.203126
0.199675
0.199018
0.197867
0.202798
0.200661
0.19836
0.20214
0.199675
0.199511
0.196881
0.203126
0.203126
0.199675
0.19836
0.201154
0.201812
0.197538
0.199018
0.201483
0.199675
0.199018
0.202305
0.19573
0.199839
0.195566
0.200332
0.200661
0.200661
0.200004
0.202305
0.200497
0.199018
0.202305
0.199839
0.199018
0.199346
0.201154
0.198196
0.198196
0.200332
0.20362
0.200168
0.201976
0.202633
0.199182
0.199675
0.198524
0.201319
0.202305
0.202305
0.199182
0.201812
0.200661
0.199675
0.200168
0.202305
0.199675
0.199346
0.203948
0.201812
0.20214
0.204441
0.200497
0.202305
0.201154
0.198689
0.200825
0.197538
0.201154
0.201812
0.199839
0.197867
0.201319
0.203126
0.199346
0.201483
0.200497
0.20362
0.201154
0.203784
0.20362
0.201319
0.199839
0.201976
0.199675
0.20214
0.20099
0.199675
0.200825
0.205099
0.204113
0.20362
0.203455
0.202305
0.203126
0.201812
0.203291
0.199182
0.202305
0.20099
0.200497
0.19721
0.202633
0.199839
0.199511
0.201812
0.201154
0.199839
0.200497
0.200497
0.201976
0.200825
0.200497
0.200332
0.199675
0.201154
0.202633
0.200825
0.200497
0.197538
0.199839
0.200497
0.20099
0.201154
0.199182
0.201319
0.198689
0.200168
0.201812
0.201154
0.194909
0.200497
0.202962
0.199675
0.200332
0.20214
0.200661
0.19836
0.200497
0.203126
0.201319
0.19195
0.198689
0.20099
0.198853
0.201319
0.196717
0.198031
0.198853
0.200825
0.197703
0.199182
0.189814
0.199511
0.197867
0.197538
0.199182
0.196059
0.200168
0.197374
0.196223
0.197045
0.199018
0.197374
0.197374
0.19836
0.200004
0.196552
0.199675
0.197867
0.19721
0.200004
0.196059
0.197045
0.200004
0.195237
0.193265
0.194251
0.193265
0.197045
0.195566
0.195073
0.20099
0.197045
0.19836
0.205592
0.198031
0.194416
0.19836
0.197538
0.197867
0.19721
0.19458
0.198524
0.195073
0.196388
0.203784
0.193758
0.197538
0.19721
0.196881
0.198689
0.196881
0.200004
0.198196
0.198524
0.197703
0.202633
0.195073
0.196717
0.197703
0.196881
0.196059
0.197538
0.199675
0.199346
0.198524
0.199839
0.201976
0.195566
0.199346
0.198853
0.194087
0.19721
0.19721
0.195073
0.196388
0.199346
0.198524
0.199018
0.197045
0.197867
0.197538
0.199839
0.19836
0.200497
0.197867
0.200661
0.198524
0.200825
0.197703
0.194744
0.192443
0.201647
0.196388
0.199182
0.202305
0.198031
0.200661
0.19721
0.200497
0.200497
0.199018
0.199675
0.20099
0.199018
0.200332
0.198853
0.199511
0.198689
0.197703
0.197045
0.199018
0.196881
0.196552
0.201154
0.199018
0.198524
0.200661
0.202305
0.201976
0.201976
0.199839
0.198031
0.197538
0.198689
0.198031
0.196223
0.195237
0.201483
0.19458
0.194909
0.197374
0.196059
0.197045
0.194087
0.196388
0.196059
0.198524
0.196881
0.198031
0.196223
0.194251
0.197045
0.197538
0.199018
0.196059
0.198853
0.196552
0.197703
0.194251
0.199839
0.197703
0.19721
0.202962
0.197703
0.197374
0.19721
0.197703
0.193265
0.198196
0.19573
0.196552
0.197703
0.200168
0.19721
0.199675
0.199182
0.198031
0.198853
0.200168
0.199018
0.199018
0.198524
0.195895
0.197045
0.198689
0.198689
0.194416
0.194251
0.197538
0.195237
0.197867
0.200332
0.198524
0.198031
0.199346
0.199839
0.199839
0.201154
0.200004
0.198196
0.198689
0.203291
0.197703
0.197538
0.200168
0.198689
0.199675
0.198853
0.202962
0.196223
0.199182
0.201812
0.197538
0.203948
0.201154
0.195402
0.199346
0.201319
0.197374
0.205099
0.198031
0.199018
0.199839
0.200168
0.198524
0.199182
0.198689
0.199346
0.200497
0.197538
0.200004
0.196388
0.198031
0.196388
0.19836
0.197374
0.200004
0.199018
0.202305
0.198524
0.203784
0.204113
0.201647
0.201812
0.196717
0.199346
0.197538
0.199675
0.19836
0.200168
0.198689
0.20099
0.201647
0.200332
0.19836
0.200825
0.200004
0.19836
0.200825
0.199182
0.19721
0.199839
0.199346
0.195237
0.19836
0.194909
0.200004
0.198031
0.198689
0.200004
0.199182
0.201647
0.200168
0.200168
0.20214
0.198031
0.195895
0.198689
0.198853
0.196552
0.194909
0.19721
0.19721
0.197045
0.196881
0.199675
0.200004
0.200004
0.199675
0.200661
0.19836
0.200004
0.201483
0.199018
0.198853
0.199018
0.199511
0.197538
0.197703
0.198196
0.199018
0.199182
0.199675
0.198524
0.201647
0.199511
0.201319
0.200661
0.19721
0.200332
0.200168
0.199675
0.197703
0.193758
0.195237
0.196717
0.197867
0.197703
0.20099
0.199182
0.199182
0.20099
0.199346
0.199839
0.199675
0.19721
0.197867
0.197703
0.199839
0.199182
0.194416
0.194909
0.19573
0.196223
0.196388
0.197867
0.197703
0.198031
0.200825
0.199346
0.197538
0.197538
0.195237
0.201154
0.19836
0.199839
0.199839
0.195237
0.197374
0.201976
0.197374
0.201647
0.196223
0.197703
0.201154
0.199018
0.198853
0.198524
0.196223
0.199346
0.201976
0.19458
0.199839
0.200332
0.201319
0.197538
0.199839
0.19836
0.199018
0.196717
0.200004
0.201319
0.19836
0.201319
0.198853
0.200004
0.198853
0.20099
0.199675
0.200825
0.196717
0.197703
0.197045
0.201154
0.198689
0.194087
0.199675
0.195237
0.201319
0.200004
0.202469
0.198196
0.197703
0.198196
0.200661
0.199182
0.200168
0.20099
0.199511
0.200661
0.199839
0.200497
0.196552
0.201812
0.199018
0.198524
0.199675
0.19836
0.198689
0.201319
0.196223
0.202633
0.199675
0.200332
0.196552
0.199018
0.199182
0.199182
0.199018
0.197538
0.198689
0.198524
0.200497
0.197867
0.197867
0.199346
0.200661
0.200004
0.201483
0.19721
0.19836
0.200661
0.197374
0.20099
0.198524
0.199182
0.199018
0.200004
0.197374
0.198853
0.194087
0.198689
0.200332
0.198853
0.198689
0.199675
0.202469
0.200497
0.200825
0.200497
0.203126
0.199839
0.199675
0.198689
0.199182
0.198196
0.200497
0.196223
0.200168
0.199018
0.202305
0.207071
0.199675
0.200332
0.200004
0.204934
0.199675
0.20099
0.199839
0.20099
0.199346
0.20099
0.199675
0.197867
0.198689
0.199511
0.200332
0.198524
0.201483
0.197045
0.197867
0.199839
0.200004
0.199675
0.199675
0.199346
0.201154
0.199346
0.201976
0.201154
0.198853
0.199511
0.199346
0.205099
0.202305
0.198689
0.201976
0.200661
0.199182
0.200825
0.199675
0.202962
0.195895
0.201319
0.199839
0.199839
0.199018
0.199839
0.199675
0.200168
0.201319
0.201483
0.200661
0.200661
0.200168
0.201647
0.198853
0.198031
0.200004
0.201483
0.199839
0.200168
0.201154
0.200497
0.199675
0.200332
0.200332
0.201976
0.197703
0.199839
0.196388
0.199675
0.198031
0.200497
0.197374
0.199018
0.201976
0.200661
0.201483
0.200168
0.201154
0.200004
0.200825
0.200332
0.205263
0.200497
0.201319
0.199675
0.199511
0.200168
0.199511
0.20099
0.199839
0.202469
0.20099
0.201812
0.20099
0.20362
0.200004
0.202469
0.197374
0.198853
0.198031
0.199018
0.19721
0.195566
0.201483
0.199675
0.200661
0.201812
0.200497
0.201319
0.200497
0.201319
0.201976
0.201319
0.201647
0.201647
0.20214
0.199839
0.199182
0.197374
0.199839
0.198524
0.197374
0.196552
0.199018
0.201154
0.200497
0.201647
0.199839
0.202962
0.198196
0.201647
0.198689
0.199675
0.197374
0.200332
0.199018
0.201319
0.200661
0.200004
0.200661
0.200004
0.202305
0.198196
0.202962
0.198689
0.202798
0.201647
0.197538
0.202305
0.199675
0.197867
0.200497
0.201976
0.201647
0.201319
0.196552
0.201812
0.19836
0.202633
0.200332
0.202469
0.201319
0.202633
0.20214
0.201319
0.199182
0.199675
0.196388
0.198853
0.198031
0.196717
0.201319
0.198524
0.202469
0.203784
0.204113
0.199839
0.201319
0.200825
0.202962
0.200497
0.200004
0.200168
0.200004
0.199182
0.201154
0.199839
0.198689
0.200168
0.198524
0.201319
0.200004
0.201319
0.201319
0.201483
0.201812
0.199018
0.200332
0.200497
0.201976
0.200332
0.198689
0.198853
0.200825
0.193265
0.199346
0.19836
0.200004
0.198031
0.199346
0.196881
0.200497
0.20099
0.200004
0.20099
0.19836
0.19836
0.197045
0.200004
0.195566
0.199511
0.197867
0.196717
0.198524
0.200004
0.200168
0.201812
0.200168
0.201647
0.200497
0.201647
0.198689
0.199018
0.201319
0.197703
0.202469
0.200825
0.200825
0.200004
0.200332
0.199346
0.200825
0.19836
0.199839
0.200825
0.197867
0.20362
0.20362
0.20362
0.200497
0.201319
0.200661
0.199675
0.197374
0.200004
0.202633
0.202798
0.199839
0.204277
0.199675
0.199675
0.200004
0.201812
0.199511
0.199018
0.199675
0.199346
0.197867
0.197867
0.202305
0.197374
0.200497
0.202469
0.200497
0.196552
0.200004
0.201483
0.196881
0.202633
0.200004
0.201812
0.203455
0.200497
0.199018
0.201319
0.201483
0.20214
0.20099
0.202305
0.20099
0.201976
0.20099
0.201154
0.199839
0.199182
0.199346
0.201319
0.203455
0.201647
0.20099
0.199675
0.202962
0.199839
0.203126
0.203291
0.20362
0.204606
0.199839
0.201483
0.200004
0.200661
0.199182
0.203291
0.199018
0.203455
0.197703
0.203126
0.199346
0.199182
0.201154
0.201812
0.199839
0.203784
0.206578
0.200332
0.203455
0.201976
0.201483
0.202962
0.201154
0.200332
0.204606
0.201319
0.201483
0.204113
0.203948
0.202962
0.203948
0.201812
0.203455
0.203126
0.20099
0.201483
0.200825
0.201483
0.201483
0.203948
0.202469
0.204113
0.200825
0.201976
0.199839
0.200661
0.201647
0.201154
0.20099
0.199182
0.199839
0.199675
0.200825
0.199675
0.201483
0.199182
0.20099
0.199018
0.199346
0.196717
0.198689
0.198689
0.197867
0.201483
0.199511
0.200332
0.200332
0.200168
0.19836
0.20099
0.199839
0.202798
0.20099
0.20214
0.200825
0.199182
0.199346
0.203455
0.201483
0.197703
0.200497
0.199018
0.199675
0.198196
0.202305
0.197538
0.198196
0.198853
0.196388
0.199839
0.200332
0.200661
0.196881
0.198524
0.197538
0.198689
0.196059
0.198196
0.197374
0.195073
0.197374
0.199346
0.197045
0.199182
0.199675
0.199839
0.199182
0.197045
0.196552
0.197045
0.196388
0.194251
0.196552
0.197867
0.196388
0.196552
0.195237
0.197703
0.199839
0.198031
0.201319
0.19573
0.199511
0.20362
0.199018
0.199182
0.200004
0.199839
0.199675
0.197703
0.193758
0.201319
0.197374
0.196717
0.201812
0.197045
0.199346
0.201976
0.200825
0.197374
0.201647
0.200332
0.200168
0.197867
0.199511
0.19836
0.198689
0.195895
0.20099
0.197538
0.201154
0.201483
0.200661
0.200332
0.199839
0.199511
0.200661
0.20099
0.19721
0.201483
0.199511
0.199182
0.197374
0.200004
0.198196
0.199675
0.197538
0.19721
0.196552
0.198853
0.203126
0.20099
0.198524
0.204277
0.199675
0.19836
0.201647
0.197867
0.200004
0.198689
0.197867
0.200332
0.20214
0.197867
0.199182
0.199018
0.200825
0.200332
0.199839
0.197538
0.197703
0.200168
0.199675
0.202798
0.199182
0.012637
0.012308
0.021841
0.026443
0.036633
0.043043
0.051754
0.056191
0.063587
0.072134
0.074271
0.081338
0.08594
0.093007
0.092843
0.097609
0.103691
0.109114
0.110758
0.115195
0.120126
0.124071
0.125386
0.128673
0.133603
0.13311
0.139027
0.139192
0.140013
0.145437
0.150861
0.151683
0.15234
0.15234
0.157928
0.157271
0.156613
0.161051
0.161709
0.162695
0.164831
0.170091
0.168118
0.171241
0.170255
0.169598
0.171241
0.17157
0.172063
0.176501
0.175843
0.176336
0.179788
0.180938
0.182417
0.179952
0.184225
0.177322
0.183239
0.181431
0.18439
0.184225
0.185047
0.183568
0.185047
0.183897
0.186033
0.186198
0.189485
0.188992
0.188827
0.191128
0.190142
0.192279
0.193429
0.194087
0.191128
0.191128
0.191128
0.193265
0.192608
0.192936
0.193922
0.19573
0.196552
0.197703
0.195895
0.194251
0.198031
0.196881
0.197867
0.19573
0.198196
0.194251
0.200825
0.196552
0.197374
0.196059
0.197538
0.197538
0.196059
0.197703
0.196717
0.199018
0.197045
0.198853
0.197867
0.196552
0.199182
0.199018
0.19573
0.198689
0.194909
0.192936
0.197538
0.193265
0.195073
0.196388
0.19836
0.200004
0.200825
0.198524
0.201647
0.199839
0.200332
0.199839
0.200332
0.198524
0.201812
0.197045
0.199018
0.200661
0.198196
0.199839
0.19836
0.200497
0.200168
0.198524
0.199346
0.202962
0.197374
0.202798
0.201976
0.199346
0.199018
0.200497
