Ladekurvenmessung

Zeit: 2018_05_04 09.52.40

Info: FVA3, v = 0.1, T = 23, F = 20, h = 10.2

Ladewiderstand[Ohm]: 1012700

Störkapazität[pF]: 0.000000

Entladezeit[ms]: 200

Abtastrate[Hz]: 250000

Anzahl der Messwerte: 2500.000000

Verzögerung[ms]: 3

Ladespannung[V]: 0.200000


Kurve 1

-0.001662
0.00294
-0.000347
0.003433
0.001954
0.000639
0.00031
-0.000841
0.000146
0.000967
0.003597
0.00031
0.001132
-0.001334
0.000639
-0.000512
0.002447
-0.003306
0.001954
0.000146
0.00146
0.00294
0.00294
0.00409
-0.001827
-0.001662
-0.001827
0.002118
-0.004128
0.000146
-1.9e-05
-0.005607
-0.001991
0.000967
-0.001498
0.001789
-1.9e-05
0.000639
0.00031
-0.002155
-0.002155
-0.001334
-0.002813
0.000146
0.002282
-0.001662
-0.001827
0.002775
0.000639
-0.000183
0.00031
-0.000676
0.001296
-0.000347
-1.9e-05
0.000803
-0.000183
-0.001169
-0.000512
-0.001169
0.001789
-0.000347
-0.002484
0.000146
-0.002484
-0.001005
-0.002813
-0.001498
-0.001005
0.001296
0.000639
0.00409
-0.001005
-0.002813
-0.001498
-0.001334
-0.001991
-0.001169
-0.000183
-0.001991
0.001789
-0.00347
0.001296
-0.003142
-0.000512
-0.000512
0.00409
-0.000676
-0.000676
0.003433
-0.000676
0.000967
0.000967
0.002775
-0.002648
-0.000841
-0.003142
-0.001498
-0.003963
-0.002648
-0.001169
-0.000183
0.000803
0.000474
0.002447
-0.001169
-0.000676
-0.001005
0.000639
-0.004128
-0.004621
-0.001498
-0.001005
-0.003963
-0.002484
-0.001005
-0.002977
-0.000841
-0.003963
0.001296
-0.001005
-0.000512
-1.9e-05
-0.001991
-0.004456
0.000146
-0.001169
-1.9e-05
0.00031
0.002118
-0.000347
-0.001169
-0.002813
-0.001169
0.000967
-0.001498
-1.9e-05
-0.001498
-0.001498
-0.003306
-0.000841
-0.001498
-0.001334
-0.002155
-0.000841
-0.001005
-0.00232
-0.00347
0.000146
-0.001991
-0.001991
-0.000512
-0.002977
0.000967
-0.002648
-0.000676
-0.000183
0.00146
-0.000676
0.003926
-0.004456
-0.002648
-0.000512
-0.003799
-0.001005
-0.004292
0.000474
-0.000347
-0.000347
-0.000347
0.005898
-0.003142
-0.000841
-0.001334
0.001296
0.001789
0.001296
0.001132
0.002775
0.004583
-1.9e-05
0.006227
-0.000841
0.000639
-0.001991
0.000474
-0.001991
-0.001662
0.002611
-0.000347
-0.002155
0.000639
0.003104
-0.000347
-0.000841
0.002611
-1.9e-05
-1.9e-05
-0.002484
-1.9e-05
0.001132
-1.9e-05
0.000639
0.003433
-0.000841
-0.002155
-0.001991
-0.000676
0.000967
-0.000676
0.003761
0.004419
-0.001169
0.000803
0.004583
-0.003306
-0.004292
-0.001498
-0.001991
0.003926
-0.005443
0.000967
-0.001334
-0.003799
0.000967
0.008528
-0.001169
0.000474
0.000639
-0.001498
0.000474
-0.000347
0.00146
-0.001498
0.000146
-0.000841
0.003433
-0.004128
-0.001334
0.000146
-0.001169
-0.000676
-0.000841
0.001132
0.00294
-0.00232
-0.000183
0.003104
-0.00347
0.001132
-0.000347
0.000639
0.001789
-0.002484
0.001954
-0.001498
-0.000183
-0.001498
-0.001991
-0.004128
-0.002484
-0.004292
0.001954
-0.000512
-0.001991
0.000639
0.002118
-0.000676
0.001625
-0.004785
-0.001827
-0.001169
-0.000347
-0.000841
-0.000512
-0.000841
0.007049
0.001789
-0.002813
0.000474
-0.00988
-0.001005
-0.000676
0.001296
-0.002648
0.001132
0.000474
0.002118
0.005734
0.002118
0.002118
-0.00988
-0.001005
-0.001498
0.000639
-0.001662
-0.00232
-0.002155
0.001954
-0.002648
0.000639
0.00146
-0.011524
-0.000676
-0.001498
-0.000183
-0.000676
0.00031
0.003761
0.000474
-0.00232
-0.000512
-0.002813
-0.010702
-0.002648
-0.001498
0.004419
0.001132
0.003104
0.000146
0.001296
0.000146
0.001789
-0.000676
-0.008401
-0.001169
0.000474
-0.001334
0.000146
-0.001498
-0.003142
0.000639
-0.000512
0.004419
-0.002484
-0.00347
0.001789
-0.004621
-0.001662
0.002447
-0.001005
-1.9e-05
0.002447
0.000474
-0.000841
-0.000183
-0.008565
-0.003142
0.002775
-0.002813
0.001789
0.001296
-0.001827
0.001132
0.00294
-0.000512
0.001954
-0.002977
-0.000183
-0.002484
-0.003306
-0.001827
-0.001169
-0.004785
-0.002813
-0.001334
-0.006429
-0.004456
-0.004785
0.00031
-0.003142
0.000146
0.000639
0.001296
-0.001005
0.00294
0.000967
-0.000841
-0.000512
-0.000841
-0.001827
-0.001169
-0.000512
-0.001334
0.00031
-0.002155
-0.004292
0.002447
0.005076
0.000146
0.002118
-1.9e-05
-0.002648
0.00031
-0.001498
-0.000512
-0.003306
-0.003142
-0.000676
-0.000347
-0.002155
0.000803
-0.002977
-0.000841
-0.001005
-0.000347
0.001625
0.001625
-0.000183
0.000803
-0.001498
-0.002648
-0.001991
-0.002648
-0.003142
-0.002648
0.002775
0.001296
0.002118
-0.002484
-0.000183
-0.000512
0.000639
0.000967
-0.001334
0.000146
0.001625
-0.000347
-0.000183
0.000967
-0.000183
0.000967
0.00031
-0.000347
-0.002155
-0.001991
0.000967
-0.001005
-0.003142
-0.001662
-0.002155
0.000967
0.001132
0.000967
0.000967
-0.001991
-0.000183
-0.001498
0.004583
-0.00347
-0.000183
-0.002155
0.002447
-0.003142
0.000639
-1.9e-05
-1.9e-05
-0.001005
-0.00232
0.000146
-0.002155
0.000474
-0.003635
0.002775
0.00031
-0.001662
-0.001169
0.000967
0.003104
0.000639
-0.001005
0.00031
-0.000841
-0.005443
0.001954
-0.000512
0.000146
0.00031
0.002118
-0.002484
0.002282
0.000639
-0.000841
0.000803
0.000639
0.003761
0.003268
-0.002155
0.001625
0.004583
-0.001169
0.00031
-0.000183
-0.000841
0.000967
-0.001827
0.001296
0.00031
-0.001334
0.000967
0.00146
-0.001498
-0.000512
-0.000676
-0.000347
-0.004292
0.002282
-0.000676
-0.001005
-0.003799
-0.001662
-0.001169
-0.002155
0.001132
0.002611
0.00294
0.002611
0.001625
0.000639
0.003104
-0.001169
0.000967
0.00031
-1.9e-05
-0.005278
0.000474
-0.001991
-0.001662
-0.000676
0.003268
-0.000841
0.001296
-0.000183
0.000146
0.001954
-0.000841
0.002282
-0.002484
-0.002813
-0.000512
-0.001169
-0.002155
-0.001005
-0.00232
-0.000183
-0.001662
-0.001827
0.001132
0.001296
-0.001991
0.00146
0.004748
-0.001498
0.001789
-0.000512
0.001132
0.001132
-0.000841
-0.002155
-0.001498
-0.004621
0.001954
-0.00232
-0.000183
-0.004621
-0.001827
0.000474
-0.005114
-0.002813
-0.002977
0.000803
-0.000347
0.000803
0.001625
-0.000183
-0.000183
0.001954
-0.001827
-0.000347
-0.000512
-0.001005
0.001789
-0.001005
0.002282
-1.9e-05
-0.003963
0.002775
0.000474
-0.000512
-0.001334
-0.001334
-0.001169
-0.001827
0.000474
-0.001334
-0.001662
-0.000347
-0.002648
0.001789
-0.003142
-1.9e-05
-0.000676
-0.000512
-1.9e-05
0.001789
-0.002977
0.00294
0.002447
-1.9e-05
-1.9e-05
-0.00232
0.00031
-0.001827
0.001132
-0.003142
-0.000676
-0.002484
-0.000676
0.001132
-0.004949
-0.001827
0.006391
-0.004621
0.002282
0.001625
-0.001991
0.00146
-0.000841
0.002282
0.000803
0.000474
-0.001827
-0.000676
0.000146
-0.002813
-0.001662
-1.9e-05
-0.000676
0.003597
0.000803
0.005241
0.004748
-0.000676
-1.9e-05
0.000639
-0.001169
-0.001991
-0.000347
-0.001005
-0.001005
-0.000841
-0.000676
-0.000676
-0.000347
0.000803
0.001789
0.00031
0.001132
0.000474
-0.000347
0.004912
0.002282
0.002447
0.00146
0.00409
-1.9e-05
0.004255
-0.00232
0.002611
0.000639
0.00031
0.002611
0.005241
-0.002155
0.000803
0.00146
-0.002813
0.006062
0.001625
0.001296
-1.9e-05
0.000639
-0.000512
0.000639
-0.002648
0.001954
0.002775
-0.002484
0.004748
-0.000841
0.00146
0.001625
-1.9e-05
-0.001334
0.002447
0.001296
0.000639
0.000474
-0.000512
-1.9e-05
-0.001005
-0.000347
-0.002484
0.001296
-1.9e-05
0.002447
0.00031
-1.9e-05
-0.001169
-1.9e-05
0.001132
-0.001334
-0.004949
-0.000512
0.000967
0.00031
0.002447
-0.001498
0.002118
0.005734
-1.9e-05
0.001625
0.001789
-0.001169
0.003104
-0.000183
0.004255
0.002775
0.00031
0.003104
0.001132
0.002282
0.000474
-0.003306
0.000639
0.000803
0.000803
0.004255
0.00031
0.001789
0.001132
-0.001498
0.001296
0.004419
-0.001498
0.00146
0.00146
0.001296
0.001132
0.001296
0.001954
0.004583
0.012308
0.017732
0.027922
0.027758
0.041892
0.044029
0.048631
0.056684
0.060958
0.068354
0.071805
0.075585
0.07838
0.087912
0.088734
0.094487
0.097774
0.104348
0.103362
0.106485
0.107306
0.110758
0.108621
0.111744
0.115524
0.117496
0.122427
0.123578
0.125057
0.132289
0.134097
0.134918
0.13837
0.139356
0.14215
0.141821
0.144451
0.141657
0.146095
0.143794
0.14593
0.14215
0.142479
0.148396
0.143958
0.149053
0.150039
0.152176
0.151683
0.155134
0.146916
0.142314
0.136726
0.11536
0.108128
0.10895
0.110758
0.11273
0.11799
0.118647
0.121277
0.122756
0.131302
0.132289
0.132782
0.134261
0.139849
0.144944
0.145766
0.147903
0.147738
0.14971
0.150861
0.15234
0.155134
0.157764
0.156778
0.159079
0.1576
0.159736
0.160229
0.162202
0.164996
0.168612
0.168118
0.168776
0.169105
0.170419
0.170584
0.169926
0.174035
0.173378
0.170419
0.171899
0.176501
0.174528
0.177815
0.178637
0.179952
0.18176
0.181596
0.182746
0.182911
0.184225
0.180938
0.183239
0.182911
0.183075
0.180281
0.182746
0.182417
0.186526
0.185705
0.185376
0.186691
0.188663
0.192936
0.191293
0.192443
0.189978
0.175186
0.166804
0.171899
0.169762
0.170748
0.170419
0.17535
0.173542
0.176501
0.175515
0.17535
0.177651
0.182417
0.186198
0.180445
0.183568
0.183568
0.181431
0.183239
0.185705
0.181596
0.183075
0.178802
0.183568
0.183075
0.162202
0.046823
0.011486
0.017896
0.026114
0.031209
0.038276
0.045344
0.050603
0.058657
0.063752
0.069011
0.068354
0.076572
0.080187
0.084789
0.088405
0.095473
0.092021
0.088405
0.086269
0.085447
0.093336
0.094651
0.101061
0.099746
0.109279
0.110593
0.112566
0.11799
0.120784
0.126043
0.125879
0.128837
0.130974
0.134261
0.137712
0.142314
0.143301
0.14478
0.147903
0.14856
0.148396
0.151025
0.155792
0.156613
0.159079
0.158421
0.162037
0.164667
0.161709
0.138041
0.071312
0.028086
0.019211
0.007213
0.004255
0.001954
0.003268
0.002447
0.002118
-0.000347
0.000803
-1.9e-05
-0.000347
-0.000183
-0.001334
0.003433
0.009514
0.006556
0.00031
0.000474
0.000146
-0.000347
-0.000183
-0.000347
-0.000512
-0.000183
0.000146
0.000639
0.00031
0.000474
0.00031
-1.9e-05
-0.000183
-0.000183
-0.000347
-0.000347
-0.000183
-1.9e-05
0.000146
0.000474
0.005241
0.009843
0.015924
0.024635
0.031209
0.040413
0.043207
0.053397
0.053726
0.062273
0.066875
0.066217
0.077886
0.079859
0.086762
0.090542
0.093665
0.097938
0.10139
0.103033
0.110429
0.110593
0.116182
0.118976
0.123413
0.126207
0.130809
0.130974
0.135247
0.137877
0.140178
0.141821
0.143958
0.140835
0.148889
0.150204
0.150532
0.15497
0.154477
0.157764
0.160394
0.162366
0.160394
0.164338
0.164503
0.165324
0.16779
0.169105
0.168776
0.171406
0.171406
0.173214
0.173378
0.172063
0.175843
0.175679
0.175186
0.175679
0.178144
0.178144
0.17913
0.180116
0.184883
0.181596
0.18176
0.184225
0.182582
0.185869
0.18061
0.182417
0.186362
0.185376
0.185047
0.188663
0.185869
0.18554
0.188663
0.190307
0.188827
0.1908
0.19458
0.190307
0.192772
0.191293
0.192608
0.1908
0.191786
0.190471
0.193429
0.19195
0.191128
0.189649
0.194087
0.186855
0.186033
0.183732
0.18554
0.186362
0.185047
0.187841
0.188663
0.186033
0.187841
0.187677
0.185869
0.189814
0.187677
0.185212
0.18439
0.187513
0.186033
0.115524
0.044029
0.040577
0.048302
0.052247
0.058657
0.061451
0.064245
0.067532
0.062437
0.028415
0.015595
0.003433
-0.002977
0.011979
0.01428
0.006556
0.002118
0.004583
0.009678
0.017732
0.010007
0.002118
0.00672
0.017074
0.024635
0.030552
0.036469
0.041728
0.047152
0.047973
0.044358
0.034989
0.007542
0.001625
0.006556
0.018389
0.023649
0.033346
0.03614
0.017896
0.003104
0.000146
0.000803
0.000967
0.001625
-0.000841
-0.000347
0.011322
0.014609
0.022827
0.030223
0.036962
0.041564
0.049617
0.057177
0.063916
0.066053
0.070983
0.076572
0.078051
0.083475
0.085776
0.091528
0.097281
0.101883
0.103197
0.110265
0.112073
0.099253
0.09991
0.095637
0.014609
0.008363
0.008035
0.008363
0.010336
0.01428
0.006391
0.006227
0.012637
0.016088
0.020197
0.0271
0.03729
0.04107
0.044686
0.051918
0.059478
0.063259
0.070326
0.075421
0.077886
0.081995
0.083968
0.094651
0.094322
0.09876
0.105992
0.109443
0.107142
0.114374
0.115689
0.118976
0.124235
0.129001
0.129166
0.130316
0.129988
0.128015
0.118976
0.114209
0.118976
0.120455
0.126207
0.125386
0.129001
0.122098
0.12933
0.131796
0.134097
0.134097
0.136891
0.143958
0.14593
0.144122
0.148067
0.154148
0.148231
0.148724
0.148231
0.151025
0.151518
0.151847
0.152669
0.157271
0.160394
0.163188
0.164338
0.160558
0.162202
0.160887
0.16253
0.165817
0.166968
0.165817
0.170748
0.168447
0.174857
0.106813
0.076572
0.07953
0.085118
0.08857
0.093172
0.09991
0.098102
0.107635
0.107306
0.111908
0.113881
0.118483
0.122427
0.127029
0.129659
0.13196
0.13574
0.136069
0.143629
0.140013
0.143794
0.145602
0.145108
0.146423
0.152011
0.149382
0.153819
0.15234
0.156778
0.160229
0.164503
0.162202
0.164174
0.165817
0.162037
0.151847
0.144944
0.152505
0.15497
0.15497
0.156285
0.160394
0.156942
0.160229
0.163352
0.164667
0.166804
0.168118
0.169433
0.172063
0.171899
0.169598
0.170913
0.165324
0.165324
0.168447
0.167954
0.166475
0.1742
0.168447
0.171241
0.175679
0.175021
0.175679
0.179788
0.178144
0.178966
0.178144
0.172227
0.172885
0.16894
0.167297
0.167625
0.171406
0.169926
0.171899
0.173378
0.17272
0.174693
0.174857
0.176829
0.177651
0.17798
0.178637
0.17913
0.183239
0.183568
0.179952
0.178309
0.179788
0.17913
0.178637
0.185212
0.179788
0.181103
0.184225
0.182417
0.183732
0.183075
0.180116
0.176665
0.179623
0.1742
0.177322
0.174035
0.173214
0.176172
0.172227
0.174857
0.174857
0.17157
0.173214
0.17535
0.174364
0.178144
0.174693
0.181596
0.176501
0.123413
0.028908
0.012144
0.008199
0.006556
0.008035
0.0105
0.016746
0.021512
0.032524
0.036962
0.046166
0.049617
0.0603
0.060465
0.062437
0.036797
0.004748
0.001789
0.005076
0.00146
0.001296
0.002447
0.005898
0.019868
0.027265
0.033839
0.039263
0.046494
0.047973
0.059972
0.061944
0.067368
0.072791
0.077393
0.083639
0.086104
0.088241
0.09235
0.089063
0.091528
0.099089
0.10139
0.105334
0.102376
0.10895
0.113388
0.116017
0.116346
0.121934
0.122756
0.121277
0.123578
0.123742
0.126536
0.128837
0.130645
0.132782
0.135083
0.134425
0.139027
0.141986
0.142643
0.143794
0.144615
0.130316
0.12818
0.127687
0.001789
0.002282
0.001954
0.005241
0.005734
0.009843
0.012801
0.021183
0.016746
0.018389
0.02069
0.018882
0.021183
0.029894
0.033017
0.038769
0.039427
0.043371
0.046823
0.039263
0.044851
0.05011
0.055205
0.058985
0.067203
0.071805
0.076079
0.082982
0.084296
0.089556
0.091857
0.097281
0.097609
0.10139
0.105334
0.1101
0.110429
0.113223
0.116839
0.117003
0.098267
0.040084
0.000474
0.003926
0.003926
-0.000183
0.003926
-1.9e-05
0.002775
0.000146
0.003433
0.000639
0.003926
0.009021
0.012801
0.021512
0.028908
0.035647
0.042714
0.047973
0.054055
0.060465
0.06408
0.07049
0.073942
0.079859
0.083146
0.084789
0.089885
0.081995
0.081338
0.08594
0.090378
0.097445
0.096294
0.103197
0.106813
0.10895
0.110758
0.112566
0.112894
0.101718
0.09991
0.09876
0.103197
0.104841
0.110758
0.107306
0.115524
0.117496
0.119797
0.125221
0.123578
0.127194
0.127851
0.050439
0.000146
0.003104
0.009185
0.020033
0.023156
0.038769
0.034168
0.046166
0.047645
0.050603
0.060958
0.066217
0.070819
0.073449
0.07575
0.068025
0.063259
0.05011
0.040906
0.032195
0.032688
0.035482
0.039263
0.043536
0.050439
0.055041
0.0603
0.063587
0.056684
0.038769
0.016253
0.008692
0.015431
0.022005
0.029072
0.038276
0.043043
0.046494
0.051918
0.054219
0.05537
0.059643
0.061451
0.065395
0.070326
0.072956
0.080845
0.087419
0.088405
0.091035
0.098924
0.101225
0.107142
0.109607
0.115853
0.11799
0.118483
0.122756
0.127358
0.126043
0.126372
0.127851
0.130152
0.136233
0.135904
0.14215
0.14215
0.146095
0.15234
0.153162
0.14971
0.152998
0.155299
0.155299
0.158257
0.155792
0.1576
0.162037
0.159736
0.157764
0.163516
0.16138
0.164831
0.156942
0.163023
0.161215
0.153655
0.148067
0.132453
0.128673
0.104512
0.103197
0.094487
0.095308
0.096459
0.097938
0.095473
0.100732
0.101883
0.107635
0.110758
0.112237
0.116346
0.111415
0.115853
0.105334
0.096459
0.090871
0.087748
0.092186
0.098595
0.103691
0.10139
0.104841
0.111251
0.113059
0.114374
0.121934
0.122592
0.127522
0.130152
0.132782
0.135247
0.134918
0.13837
0.136562
0.13459
0.11799
0.105005
0.103362
0.100403
0.097938
0.097116
0.099089
0.103855
0.105005
0.108293
0.109772
0.113552
0.111908
0.105992
0.077558
0.045344
0.025785
0.012472
0.004255
0.000967
-0.000676
0.004255
0.000146
0.000474
0.000474
0.000639
0.000146
-1.9e-05
0.000146
0.001296
0.005569
0.001296
0.011979
0.006556
0.007377
-0.001005
0.001789
0.011815
0.015266
0.020197
0.023649
0.021348
-0.001334
0.001296
0.001296
0.000146
0.000474
0.001789
0.00672
0.010336
0.009185
0.014609
0.018225
0.00409
0.001132
0.006391
0.011651
0.008528
0.010336
0.012308
0.010336
-0.000183
0.002611
0.007706
-1.9e-05
0.007542
0.002775
0.001789
0.005241
-0.000512
0.002118
0.003761
0.001296
0.004912
0.005734
0.000474
0.00409
0.00031
0.000967
0.000967
0.00031
0.000639
-0.000512
-0.000347
-0.000183
-0.000347
-0.000183
0.000146
0.00031
0.000474
0.00031
0.000474
0.00031
-1.9e-05
-0.000183
-0.000347
-0.000347
-1.9e-05
0.000146
0.000146
0.00031
0.000474
0.00031
-1.9e-05
-0.000183
-0.000512
-0.000183
-1.9e-05
-0.000183
-1.9e-05
0.000146
0.00031
0.00031
0.00031
-1.9e-05
-0.000183
-0.000347
-0.000347
0.000146
-0.000183
-1.9e-05
0.00031
0.00031
0.00031
0.000474
-1.9e-05
-0.000183
-0.000347
-0.000512
-1.9e-05
-0.000183
0.000146
0.00031
0.000474
0.00031
0.00031
0.000146
-0.000183
-0.000183
-0.000347
-0.000347
0.000146
-1.9e-05
0.000474
-1.9e-05
0.00031
0.000639
-1.9e-05
-0.000512
-0.000183
-0.000347
-0.000512
-1.9e-05
0.000146
0.000146
0.000474
0.000474
0.000474
-0.000183
-0.000512
-0.000183
-0.000183
-0.000347
-0.000183
-1.9e-05
0.000146
0.000474
0.000474
0.000474
-1.9e-05
-0.000183
-0.000512
-0.000347
-0.000676
-0.000183
0.000146
0.000146
0.000474
0.000474
0.000639
-1.9e-05
-0.000183
-0.000347
-0.000183
-0.000676
-0.000183
0.00031
0.000474
0.000474
0.000474
0.000474
-1.9e-05
-1.9e-05
0.000146
-0.000512
-0.001169
-0.000347
-0.000183
0.00031
0.000474
0.000146
0.000474
-1.9e-05
-0.000183
-0.000347
-0.000347
-0.000676
-0.000183
0.000146
0.000146
0.00031
0.000146
0.000146
-1.9e-05
-0.000347
-0.000347
-0.000347
-0.000841
-1.9e-05
0.000146
0.00031
0.000146
0.000803
-0.000183
0.000474
0.004419
0.000967
0.002118
0.005405
0.000474
0.001296
0.007213
0.011651
0.001789
-0.001334
0.004419
-0.002155
-0.001169
-0.001662
-0.000347
0.000967
0.000146
0.005241
0.002775
0.009021
0.010664
0.018554
0.020526
0.018225
0.007706
-0.000183
0.005734
0.012965
0.005898
0.006227
0.007706
0.005734
0.012637
0.006227
0.002118
0.00409
0.002775
-0.001662
0.001132
0.000146
0.000474
0.000967
0.00031
-0.000512
0.000146
-0.000512
-0.000347
-0.000676
-1.9e-05
0.000474
0.000474
0.000639
0.00031
0.001132
-0.000347
0.005241
0.005076
0.000967
0.00031
-0.001827
0.003433
-0.000841
0.00031
-1.9e-05
-0.000347
0.00031
0.000474
-0.000183
-1.9e-05
-0.000512
0.000146
0.000146
0.000803
0.000639
0.000474
0.000146
-1.9e-05
-0.000347
-0.000183
-0.000512
-0.000512
-0.000347
-1.9e-05
0.001296
0.000803
0.00031
0.000474
0.001296
0.001625
0.003268
0.012637
-0.005936
0.000474
0.002282
0.002282
0.006556
0.001296
0.009185
0.016253
0.010336
0.001789
0.005241
0.012144
0.016417
0.022663
0.030716
0.035154
0.018225
0.013952
0.019375
0.022169
0.030059
0.035482
0.041892
0.044686
0.052082
0.051261
0.057342
0.045179
0.03236
0.026114
0.01691
0.018225
0.012637
0.012965
0.014773
0.024635
0.031867
0.038769
0.041892
0.047152
0.047973
0.047973
0.04748
0.046001
0.050932
0.049946
0.055041
0.058328
0.066381
0.064245
0.072791
0.0769
0.081009
0.083968
0.088734
0.091857
0.092843
0.097938
0.091035
0.068847
0.069669
0.075257
0.080187
0.08216
0.041564
0.035811
0.018554
0.011322
0.016581
0.026936
0.017896
0.026936
0.029566
0.033839
0.039098
0.042714
0.050439
0.052904
0.056027
0.028744
0.013787
0.001954
-0.001005
0.000146
0.007049
0.017896
0.025785
0.030387
0.031373
0.02973
0.031045
0.034989
0.034989
0.039098
0.000967
0.00787
0.000803
0.00672
0.001296
-1.9e-05
0.00672
0.012308
0.018554
0.021512
0.019047
0.012965
0.019704
0.021348
0.02973
0.032688
0.036469
0.036633
0.035811
0.036469
0.038441
0.004419
0.001789
0.004419
0.006227
0.001954
0.000803
-0.000347
-0.000183
0.000146
0.00031
0.000146
0.000474
0.000639
-1.9e-05
-0.000183
-0.000347
-0.000183
-0.000512
-0.000183
0.000146
0.000474
0.000474
0.001625
0.008199
0.006556
0.003268
0.001296
0.000639
0.000639
0.00294
-0.001498
0.00294
0.007049
0.007049
0.006227
0.012965
0.019047
0.024142
0.018225
-0.000183
0.000803
0.008692
0.014609
0.014116
0.013787
0.001954
0.001954
-0.000183
0.001132
0.009843
0.001132
0.00294
0.000803
-0.000183
0.000474
0.003926
0.006556
0.000146
-0.000183
-0.000347
-0.000512
-0.000347
-0.001662
0.003433
0.000803
0.00294
0.011979
0.01691
0.025621
0.026443
0.03236
0.036797
0.031209
0.028908
0.013623
0.000474
0.006062
0.010829
0.009185
0.009021
0.003761
0.004419
0.001296
0.002118
0.001296
0.002447
0.000967
0.001296
0.000146
0.001296
-0.000183
0.001296
-0.000512
-0.000347
-0.000347
0.000639
0.000146
0.001625
0.001954
0.002118
0.000967
0.00031
0.000474
0.000639
0.003597
0.000803
0.001132
-0.000347
0.002118
-1.9e-05
0.000639
0.00146
-1.9e-05
0.000967
-1.9e-05
-0.000512
0.000474
0.000146
-0.000347
0.000639
-0.000512
0.000474
0.000474
-0.000676
-0.000183
-1.9e-05
-0.000512
-0.001169
0.001132
0.000803
0.000803
0.000639
0.000639
0.000474
-1.9e-05
-0.000347
-0.000183
-0.000347
-0.000512
-0.000183
0.000146
0.000146
0.000146
0.000146
0.000474
0.000146
-0.000347
-0.000183
-0.000512
-0.000347
-0.000347
0.000146
0.000474
0.000474
0.000474
0.000474
-1.9e-05
-0.000347
-0.000347
-0.000347
-0.000183
-0.000183
-1.9e-05
0.00031
0.000146
0.000639
0.000474
0.000146
-1.9e-05
-0.000347
-0.000183
-0.000512
0.000146
0.000967
0.000639
-0.000183
0.000474
0.000474
-1.9e-05
-0.000183
-0.000512
-0.000347
-0.000512
0.00031
-1.9e-05
0.000639
-1.9e-05
0.000639
0.000639
-1.9e-05
-1.9e-05
-0.000183
-0.000512
-0.000183
-0.000183
-0.000512
0.00031
0.000474
0.000146
0.000639
0.00031
-0.000183
-0.000347
-0.000676
-0.000347
-0.000183
0.000146
0.00031
0.00031
0.000639
0.00031
0.000146
-0.000347
-0.000347
-0.000512
-0.000183
-1.9e-05
-0.000183
0.00031
-1.9e-05
0.000639
0.000474
0.00031
0.000146
-0.000183
-0.000347
-0.000183
-0.000347
0.00031
0.000146
0.000146
0.00031
0.000803
-1.9e-05
-1.9e-05
-0.000347
-0.000347
-0.000512
-1.9e-05
0.000146
-1.9e-05
0.00031
0.00031
0.000474
0.00031
-0.000183
-0.000347
-0.000347
-0.000347
-0.000512
-0.000183
0.00031
0.000146
0.000474
0.000803
-1.9e-05
-1.9e-05
-0.000347
-0.000183
-0.000347
-1.9e-05
-1.9e-05
0.00031
0.000474
0.000474
0.000474
0.00031
-0.000347
-0.000347
-0.000512
-0.000512
-0.000347
-0.000183
0.000639
0.000474
0.000639
0.00031
0.000474
-0.000183
-0.000676
-1.9e-05
-0.000512
-0.000347
-1.9e-05
0.00031
0.00031
0.00031
0.000639
0.000474
-0.000347
-0.000183
-0.000512
-0.000347
-0.000347
0.000146
0.000146
0.000474
0.000474
0.00031
0.000146
-0.000347
-0.000183
-0.000512
-0.000676
-0.000512
-0.000183
0.00031
0.00031
0.000639
0.000639
-0.000183
-1.9e-05
-0.000183
-0.000347
-0.000347
-0.000183
-1.9e-05
0.00031
0.000146
0.00031
0.00031
0.000146
-0.000183
-0.000183
-0.000183
-0.000512
-0.000347
-0.000183
0.000474
0.00031
0.00031
0.000474
0.000146
-1.9e-05
-0.000347
-0.000347
-0.000347
0.000146
0.00031
0.000803
-1.9e-05
0.000803
0.000474
0.000967
0.000803
0.000803
0.001296
0.001132
0.003433
0.001296
0.002282
0.003268
0.002118
-0.000183
0.000639
-0.000512
-1.9e-05
0.001132
0.003433
0.010993
0.014773
0.02447
0.02069
0.027922
0.029237
0.014116
0.001954
0.000803
-1.9e-05
0.008035
0.018389
0.020197
0.011979
0.005898
0.008692
0.008692
0.016088
0.014773
0.011322
0.00935
0.01313
0.018225
0.021019
0.026443
0.031702
0.034661
0.026114
0.026607
0.03088
0.036797
0.045179
0.051261
0.056191
0.061615
0.064245
0.071477
0.073449
0.084296
0.081009
0.086762
0.091528
0.096788
0.09876
0.10254
0.104512
0.104019
0.108293
0.107964
0.114374
0.114867

Kurve 2

-0.007579
-0.004128
-0.009716
-0.001169
-0.000183
-0.00232
-0.005278
-0.002155
-0.005114
-0.006264
-0.004949
-0.005771
-0.001334
-0.005114
-0.006593
-0.008565
-0.006922
-0.008565
-0.00725
-0.012181
-0.007579
-0.007579
-0.006264
-0.006429
-0.009058
-0.005771
-0.007908
-0.004128
-0.0061
-0.007908
-0.005443
-0.00347
-0.008401
-0.007908
-0.00988
-0.006593
-0.008237
-0.007415
-0.001991
-0.005443
-0.00725
-0.005936
-0.00347
-0.007744
-0.006593
-0.0061
-0.006593
-0.005607
-0.005936
-0.007908
-0.005936
-0.007908
-0.008237
-0.0061
-0.002648
-0.001662
-0.009058
-0.009058
-0.006922
-0.004785
-0.006757
-0.004292
-0.005114
-0.007744
-0.008072
-0.006264
-0.008401
-0.00725
-0.008237
-0.007086
-0.006429
-0.008565
-0.005114
-0.007744
-0.00725
-0.002648
-0.006593
-0.007744
-0.004128
-0.007415
-0.007579
-0.005936
-0.005936
-0.007908
-0.007744
-0.007744
-0.008072
-0.006922
-0.00725
-0.003799
-0.007415
-0.007744
-0.007908
-0.005771
-0.006922
-0.000347
-0.005771
-0.005607
-0.005607
-0.006757
-0.005443
-0.007579
-0.005607
-0.007415
-0.001169
-0.006757
-0.004949
-0.007579
-0.007086
-0.00725
-0.005114
-0.006757
-0.0061
-0.008072
-0.006429
-0.003799
-0.008072
-0.003963
-0.007744
-0.006429
-0.008237
-0.00725
-0.00873
-0.0061
-0.007908
-0.007415
-0.005936
-0.004292
-0.00232
-0.005936
-0.0061
-0.004785
-0.001498
-0.00873
-0.005114
-0.004621
-0.005443
-0.007086
-0.005114
-0.006922
-0.007086
-0.006429
-0.0061
-0.007415
-0.006429
-0.005607
-0.008072
-0.00232
-0.005443
-0.004949
-0.005771
-0.006922
-0.006922
-0.005278
-0.001334
-0.005443
-0.007744
-0.005607
-0.007744
-0.006922
-0.005936
-0.007086
-0.006593
-0.006593
-0.002155
-0.004621
-0.007415
-0.004785
-0.005443
-0.008894
-0.00347
-0.006429
-0.005278
-0.007579
-0.0061
-0.006757
-0.007744
-0.003799
-0.004949
-0.003306
-0.004785
-0.005278
-0.004785
-0.005607
-0.008237
-0.003306
-0.00725
-0.002977
0.000639
-0.006593
-0.004949
-0.002813
-0.002813
-0.007415
-0.003306
-0.005936
-0.00347
-0.005443
-0.004292
-0.004785
-0.004621
-0.004292
-0.002155
-0.003799
-0.000512
0.00031
-0.004456
-0.002648
-0.004949
-0.004621
-0.004128
-0.005771
-0.004292
-0.003306
-0.003306
-0.005607
-0.006593
-0.004785
-0.006429
-0.004785
-0.003799
-0.001334
-0.005607
-0.005278
-0.001991
-0.006757
-0.006922
-0.006264
-0.003963
-0.006922
-0.004292
-0.006429
-0.0061
-0.007579
-0.003142
-0.007086
-0.004949
-0.003142
-0.003963
-0.005114
-0.008237
-0.002648
-0.005443
-0.005443
-0.00347
-0.004128
-0.007086
-0.005278
-0.005607
-0.006429
-0.004785
-0.006922
-0.003635
-0.002813
-0.004292
-0.004456
-0.002813
-0.00347
-0.002813
-0.006429
-0.001662
-0.006429
-0.003799
-0.006922
-0.005443
-0.008237
-0.012181
-0.0061
-0.006757
-0.005607
-0.005771
-0.004621
-0.005443
-0.004456
-0.006264
-0.004621
-0.013167
-0.005607
-0.0061
-0.005443
-0.006264
-0.00873
-0.005936
-0.00873
-0.009058
-0.006429
-0.006429
-0.008565
-0.008894
-0.008072
-0.003963
-0.006264
-0.003963
-0.003799
-0.006264
-0.004456
-0.006264
-0.006429
-0.006757
-0.007415
-0.007908
-0.007086
-0.005771
-0.007579
-0.007908
-0.003306
-0.007579
-0.004128
-0.005607
-0.004128
-0.005936
-0.005114
-0.005278
-0.006264
-0.005114
-0.008401
-0.008894
-0.006593
-0.006264
-0.006429
-0.003635
-0.009223
-0.004621
-0.0061
-0.003635
-0.00347
-0.004785
-0.006429
-0.005771
-0.005443
-0.006429
-0.010045
-0.008072
-0.004456
-0.009058
-0.006757
-0.006429
-0.007908
-0.00873
-0.00725
-0.004785
-0.005443
-0.005278
-0.006264
-0.005607
-0.005443
-0.004128
-0.005936
-0.003799
-0.006922
-0.005114
-0.008237
-0.001991
-0.008565
-0.007579
-0.00873
-0.007579
-0.006757
-0.007744
-0.004621
-0.007579
-0.004949
-0.005771
-0.004456
-0.006593
-0.004456
-0.004949
-0.004456
-0.003799
-0.004292
-0.005607
-0.006593
-0.006429
-0.006429
-0.004128
-0.004292
-0.004456
-0.00347
-0.005771
-0.005278
-0.003963
-0.006264
-0.003963
-0.005936
-0.006429
-0.005278
-0.009551
-0.007415
-0.003635
-0.006922
-0.001662
-0.0061
-0.006593
-0.005771
-0.006429
-0.004621
-0.006429
-0.003635
-0.006922
-0.003799
-0.005114
-0.00347
-0.003306
-0.0061
-0.004621
-0.005278
-0.010045
-0.005607
-0.006429
-0.008072
-0.002648
-0.0061
-0.00347
-0.005114
-0.005607
-0.006922
-0.00347
-0.004456
-0.002155
-0.004456
-0.006264
-0.004621
-0.005114
-0.007744
-0.004785
-0.001991
-0.008072
-0.00347
-0.007744
-0.005771
-0.005278
-0.0061
-0.006429
-0.004621
-0.004621
-0.008894
-0.002648
-0.005936
-0.005771
-0.00873
-0.004785
-0.005771
-0.006922
-0.005607
-0.005114
-0.005278
-0.005278
-0.003635
-0.006429
-0.003635
-0.005771
-0.005278
-0.004128
-0.005607
-0.005114
-0.001662
-0.004128
-0.004621
-0.002484
-0.005771
-0.005936
-0.007086
-0.006757
-0.004456
-0.005936
-0.005607
-0.005936
-0.005936
-0.002977
-0.005114
-0.007908
-0.005443
-0.008401
-0.010045
-0.004785
-0.007415
-0.004785
-0.0061
-0.005771
-0.006593
-0.004949
-0.005607
-0.006429
-0.00725
-0.006922
-0.0061
-0.008237
-0.00873
-0.006429
-0.002484
-0.007579
-0.002977
-0.008401
-0.005114
-0.006757
-0.003306
-0.007086
-0.005936
-0.005114
-0.007086
-0.002155
-0.006429
-0.003963
-0.0061
-0.006593
-0.008565
-0.006264
-0.0061
-0.006264
-0.004621
-0.004456
-0.0061
-0.005771
-0.003306
-0.007908
-0.005936
-0.007086
-0.004949
-0.007744
-0.010373
-0.008072
-0.001334
-0.00988
-0.004785
-0.004785
-0.005936
-0.004621
-0.005771
-0.005278
-0.006264
-0.007415
-0.007086
-0.003306
-0.008565
-0.007579
-0.007415
-0.004785
-0.003635
-0.003142
-0.004949
-0.005936
-0.006593
-0.003799
-0.004292
-0.004621
-0.005936
-0.006757
-0.005114
-0.006264
-0.007579
-0.006922
-0.005278
-0.008401
-0.005443
-0.005771
0.002611
-0.007086
-0.002977
-0.001991
-0.006757
-0.004128
-0.005771
-0.003142
-0.0061
-0.003635
-0.005278
-0.006922
-0.007086
-0.004128
-0.007744
-0.007086
-0.00725
-0.001169
-0.003799
-0.003306
-0.002813
-0.005607
-0.004128
-0.003142
-0.005771
-0.005443
-0.005278
-0.006757
-0.009058
-0.009223
-0.007579
-0.00725
-0.002813
-0.006757
-0.005771
-0.00347
-0.007086
-0.003306
-0.004621
-0.00347
-0.005443
-0.004621
-0.005771
-0.003635
-0.005771
-0.005771
-0.006429
-0.005443
-0.007086
-0.006429
-0.005114
-0.002484
-0.004785
-0.004456
-0.007579
-0.008894
0.001132
-0.002648
-0.003963
-0.00232
-0.006429
-0.0061
-0.005607
-0.007086
-0.0061
-0.004292
-0.006757
-0.004128
-0.004621
-0.004949
-0.006593
-0.006429
-0.006429
-0.002813
-0.006264
-0.003306
-0.012839
-0.005278
-0.0061
-0.005607
-0.00873
-0.005771
-0.006429
-0.007744
-0.005607
-0.007086
-0.004292
-0.00725
-0.006922
-0.005936
-0.002155
-0.007415
-0.005607
-0.006593
-0.005114
-0.004456
-0.0061
-0.005443
-0.0061
-0.004949
-0.004949
-0.004128
-0.007744
-0.00725
-0.005607
-0.00873
-0.011359
-0.007415
-0.004785
-0.005114
-0.006757
-0.002484
-0.004621
-0.006757
-0.005114
-0.005936
-0.005607
-0.005114
-0.00725
-0.0061
-0.003142
-0.001662
-0.000183
-0.000841
-0.000676
0.001296
0.004748
0.003926
-0.001991
0.001132
-0.001334
0.00031
-0.000347
0.002282
-0.00232
-0.002155
-0.004128
-1.9e-05
-0.002155
-0.001005
-0.001334
-0.000347
-0.000183
-0.000512
-0.000347
-0.000347
0.00031
-0.001005
0.001954
-0.001991
0.000146
-0.001827
0.000639
-0.001991
-0.001169
-0.000183
-0.001498
-0.002155
-0.003799
-0.002977
-0.004128
-0.003306
-0.002484
-0.001005
-0.002155
-0.002484
-0.005114
0.00031
-0.004128
-0.003306
-0.002977
-0.005936
-0.005936
-0.003306
-0.002484
-0.00347
-0.001662
-0.006922
-0.000676
-0.005443
-0.00232
-0.003963
-0.001169
-0.002648
-0.003142
-0.002155
-0.004949
-0.001827
-0.00347
-0.00347
-0.0061
-0.004949
-0.005936
-0.004456
-0.004292
-0.004128
0.000967
0.007706
0.018061
0.022169
0.031209
0.033346
0.042057
0.045508
0.049946
0.055205
0.061944
0.072627
0.073613
0.076736
0.084296
0.087912
0.089391
0.094322
0.098267
0.10139
0.106156
0.107635
0.111908
0.114374
0.113881
0.119797
0.117661
0.114867
0.109607
0.108457
0.098102
0.103691
0.095473
0.087584
0.088734
0.084954
0.08216
0.085283
0.074928
0.074928
0.06934
0.064738
0.061451
0.054548
0.05389
0.049617
0.048795
0.046166
0.051754
0.040742
0.041728
0.04107
0.041892
0.04255
0.039591
0.03729
0.041564
0.046494
0.041728
0.04896
0.035154
0.042057
0.043371
0.039756
0.042221
0.041564
0.039263
0.038769
0.036633
0.028415
0.030223
0.022334
0.023813
0.023977
0.021841
0.020362
0.020526
0.013459
0.010336
0.010993
0.009678
0.009678
0.006227
0.002447
0.004419
0.00672
0.00935
0.006884
0.007377
0.008035
0.009678
0.008035
0.008363
0.007213
0.008363
0.008363
0.009514
0.008035
0.008692
0.010007
0.006884
0.008528
0.008035
0.006556
0.00787
0.005076
0.007213
0.004419
0.009021
0.008692
0.010007
0.00409
0.00935
0.003761
0.001132
0.003597
0.005405
0.005734
0.005241
0.005076
0.003926
0.008692
0.006556
0.006556
0.006227
0.00146
0.006062
0.00787
0.009678
0.012801
0.01313
0.006884
0.011979
0.008199
0.009843
0.007377
0.002282
0.002282
0.005241
0.005241
0.008035
0.009185
0.005734
0.005734
0.00672
0.004912
0.007213
-0.001334
0.003104
0.006391
0.005569
0.007049
0.005241
0.004255
0.006062
0.00409
0.004419
0.004583
-0.004949
0.003761
0.006227
0.007049
0.004255
0.004255
0.00672
0.003433
0.006884
0.006884
0.005405
-0.006593
0.004583
0.004912
0.005734
0.004419
0.004583
0.004255
0.003926
0.006391
0.006556
0.006556
-0.003306
0.005569
0.003597
0.004912
0.00409
0.005241
0.003926
0.004255
0.005076
0.004748
0.004912
-0.001662
0.007213
0.003104
0.005898
0.005734
0.004419
0.004912
0.007377
0.006391
0.007542
0.005569
0.00031
0.004748
0.005405
0.003761
0.005898
0.007542
0.003433
0.005898
0.003761
0.006062
0.005405
0.001789
0.002118
0.004255
0.003597
0.005898
0.004419
0.005241
0.006391
0.005076
0.004748
0.003433
0.001789
0.001132
0.003926
0.00409
0.008199
0.001625
0.00294
0.004583
0.005076
0.002118
0.00787
0.006062
0.004912
0.007213
0.005241
0.006884
0.004419
0.007706
0.003104
0.004255
0.005405
0.006062
-0.002484
-0.003142
0.00409
0.003597
0.004255
0.003926
0.005734
0.006884
0.005734
0.003104
0.001789
0.001625
0.004255
0.003597
0.005734
0.005734
0.006556
0.004912
0.005898
0.007213
0.004912
0.004255
0.003926
0.003926
0.006556
0.006227
0.001625
0.005241
0.006556
0.000803
0.002118
0.001296
-0.002813
0.001132
0.000474
0.000146
0.001789
0.003268
0.008363
0.008035
0.006227
0.004912
0.005734
0.003926
0.00672
-0.002484
0.004419
0.003597
0.004255
0.003433
0.002282
-0.001005
0.005405
0.003597
0.00146
0.002611
0.002447
0.004583
0.007706
0.012472
0.007542
0.010007
0.007706
0.007377
0.006062
0.003433
0.003761
0.006556
0.008035
0.011979
0.012308
0.008692
0.012144
0.012637
0.015924
0.012965
0.014116
0.013952
0.015102
0.015431
0.01428
0.012637
0.009678
0.011979
0.010993
0.006062
0.00672
0.00787
0.00294
0.009514
0.008528
0.018061
0.019047
0.016417
0.021019
0.023813
0.025128
0.027922
0.028251
0.027758
0.024142
0.016253
0.015924
0.011158
0.013294
0.012965
0.018882
0.013952
0.019704
0.012472
0.009514
0.006227
0.011651
0.011322
0.011486
0.013623
0.008692
0.0105
0.010993
0.010336
0.01428
0.012637
0.008528
0.010171
0.00672
0.008199
0.006062
0.009843
0.00409
0.000146
-0.000512
-0.000512
-0.000183
-0.000347
0.00031
0.000146
0.000146
0.000639
0.000474
0.000146
-1.9e-05
-0.000347
-0.000347
-0.000347
-0.000347
0.000146
0.000146
0.00031
0.00031
0.000474
0.00031
-0.000183
-0.000347
-0.000347
-0.000183
-0.000183
0.000146
0.000474
-1.9e-05
0.00031
0.000474
0.00031
-1.9e-05
-0.000183
-0.000183
-0.000512
-0.000183
-1.9e-05
0.00031
0.000146
0.000474
0.000146
-1.9e-05
-0.000183
-0.000183
-0.000183
-0.000512
-0.000676
0.000146
0.000639
0.00031
0.001296
0.002282
0.003926
0.001296
0.005734
0.002775
0.003926
0.00672
0.001789
0.003433
0.003104
0.001789
0.006556
0.005076
-0.001498
0.005405
0.00031
0.003268
0.004583
0.008692
0.006391
0.00787
0.005405
0.00672
0.009185
0.00672
0.008035
0.004419
0.006062
0.007377
0.005734
0.003268
0.006884
0.003761
0.008528
0.005241
0.004912
0.005405
0.005734
0.004583
0.006227
0.006062
0.002775
0.006391
0.005241
0.007213
0.007706
0.009021
0.003761
0.008199
0.006227
0.005734
0.005405
0.004583
0.012308
0.011651
0.01313
0.00787
0.010171
0.005405
0.011158
0.003761
0.005734
0.00409
0.003926
0.007213
0.010171
0.011815
0.012965
0.008692
0.0105
0.011651
0.016253
0.011651
0.01313
0.022005
0.027758
0.035811
0.037783
0.04107
0.044193
0.049288
0.055698
0.061779
0.065067
0.063423
0.069997
0.075585
0.07953
0.085447
0.087419
0.089556
0.095473
0.095801
0.090871
0.077065
0.057671
0.066546
0.067368
0.073942
0.079037
0.079366
0.086762
0.08857
0.090049
0.098431
0.099582
0.093336
0.045508
0.019868
0.008857
0.010664
0.018882
0.022827
0.020526
0.014609
0.022334
0.028086
0.036469
0.040742
0.048467
0.050439
0.0603
0.061122
0.068189
0.070819
0.076736
0.084296
0.088734
0.090213
0.096952
0.09991
0.10139
0.109114
0.109279
0.11273
0.116346
0.120784
0.121605
0.127687
0.125714
0.127522
0.131796
0.135576
0.138205
0.140342
0.14215
0.144122
0.147574
0.147574
0.152011
0.151683
0.14971
0.151847
0.147903
0.150697
0.155463
0.152011
0.152998
0.155956
0.156449
0.159243
0.159736
0.163845
0.163023
0.165982
0.164338
0.170584
0.16779
0.169433
0.168447
0.169269
0.17157
0.170091
0.164996
0.172392
0.172227
0.170255
0.176994
0.175515
0.176172
0.176008
0.177487
0.172885
0.178637
0.177322
0.178966
0.176008
0.176994
0.178473
0.176336
0.175843
0.172227
0.162859
0.15119
0.146259
0.143136
0.14593
0.146752
0.150532
0.150368
0.155792
0.154148
0.154641
0.15497
0.156613
0.154312
0.1576
0.154148
0.153326
0.156613
0.15612
0.1576
0.156285
0.157764
0.156778
0.161544
0.157928
0.158914
0.158421
0.159736
0.16138
0.163023
0.160394
0.159901
0.160887
0.160394
0.16253
0.157764
0.16516
0.160722
0.159736
0.161544
0.165817
0.163845
0.16779
0.16401
0.16516
0.164174
0.164174
0.16401
0.162695
0.164996
0.163681
0.165653
0.162859
0.165324
0.164996
0.163516
0.165982
0.165489
0.165489
0.168776
0.16516
0.160722
0.131796
0.089885
0.096788
0.099253
0.104184
0.106813
0.107635
0.111744
0.114209
0.116017
0.11651
0.122756
0.08216
0.087419
0.088405
0.079694
0.086433
0.087748
0.091035
0.0935
0.08972
0.089391
0.091364
0.095308
0.08216
0.083803
0.086597
0.090213
0.08709
0.071477
0.072134
0.049946
0.047152
0.051589
0.057999
0.064245
0.068518
0.06934
0.071805
0.070819
0.069504
0.031538
0.00146
0.001789
0.000474
0.000803
-0.001169
-0.000183
-0.000512
-0.000183
-0.000183
0.000474
0.00031
0.000639
0.000639
0.00031
-0.000183
-0.000347
-0.000676
-0.000512
-0.000183
0.000146
0.00031
0.000146
0.00031
0.000639
0.000474
-0.000183
-0.000512
-0.000347
-0.000347
-0.000183
-1.9e-05
0.000146
0.000639
0.000146
0.00031
0.00031
-0.000183
-0.000183
-0.000841
-0.000347
-0.000347
0.000146
0.000146
0.000474
0.000474
0.00031
0.000146
-0.000183
-0.000347
-0.000512
-0.000512
-0.000347
-1.9e-05
0.00031
0.000146
0.000146
0.000474
0.000146
-0.000183
-0.000183
-0.000676
-0.000347
-0.000183
0.00031
0.000474
0.000474
0.00031
0.000474
0.000146
-1.9e-05
-0.000512
-0.000676
-0.000347
-0.000183
0.000146
0.000474
0.000474
0.000474
0.00031
0.00031
-0.000347
-0.000512
-0.000347
-0.000347
-0.000183
-1.9e-05
0.000146
0.000474
0.00031
0.00031
0.000146
-1.9e-05
-0.000347
-0.000347
-0.000512
-0.000347
-1.9e-05
0.000474
0.00031
0.000474
0.000146
0.000146
-0.000183
-0.000347
-0.000512
-0.000347
-0.000183
0.000146
0.000146
0.000146
0.00031
0.00031
0.000146
-0.000183
-0.000183
-0.000676
-0.000512
-1.9e-05
0.000146
0.000146
0.000474
0.000474
0.000474
0.000146
-0.000183
-0.000183
-0.000512
-0.000347
-0.000347
0.000146
0.00031
0.000474
0.000474
0.00031
-1.9e-05
-0.000183
-0.000512
-0.000512
-0.000347
-0.000183
-1.9e-05
0.00031
0.00031
0.000639
0.00031
0.000146
-0.000183
-0.000183
-0.000347
-0.000347
-1.9e-05
-1.9e-05
0.000146
0.000474
0.000639
0.000474
0.000146
-0.000347
-0.000347
-0.000512
-0.000512
-0.000512
-1.9e-05
0.000146
0.00031
0.000474
0.00031
0.00031
-0.000183
-0.000347
-0.000512
-0.000512
-0.000183
0.000146
-1.9e-05
0.000146
0.000639
0.00031
0.000146
-0.000347
-0.000512
-0.000347
-0.000512
-0.000183
-0.000183
0.00031
0.00031
0.000474
0.00031
-1.9e-05
-0.000183
-0.000512
-0.000512
-0.000512
-0.000183
-0.000183
0.000146
0.000474
0.000474
0.000474
0.00031
-0.000183
-0.000347
-0.000512
-0.000512
-0.000347
-1.9e-05
0.00031
0.00031
0.000474
0.000474
-1.9e-05
-1.9e-05
-0.000347
-0.000512
-0.000512
-0.000183
-1.9e-05
0.00031
0.00031
0.000146
0.000474
0.00031
-0.000183
-0.000512
-0.000183
-0.000512
-0.000183
0.000146
0.00031
0.000474
0.000474
0.00031
0.00031
-0.000183
-0.000347
-0.000512
-0.000347
-0.000347
0.000146
0.00031
0.00031
0.000639
0.000639
0.00031
-0.000183
-0.000512
-0.000512
-0.000512
-0.000183
-1.9e-05
0.00031
0.00031
0.000639
0.000146
0.00031
-0.000183
-0.000347
-0.000347
-0.000512
-0.000512
0.000146
0.000146
0.00031
0.000474
0.000474
0.00031
-0.000183
-0.000183
-0.000512
-0.000347
-0.000347
-1.9e-05
0.000146
0.000474
0.00031
0.000639
0.000474
-0.000183
-0.000183
-0.000512
-0.000676
-0.000183
-1.9e-05
0.00031
0.00031
0.00031
0.000474
0.000474
-0.000183
-0.000347
-0.000512
-0.000512
-0.000183
0.000146
0.000474
0.000146
0.000146
0.000474
0.00031
-1.9e-05
-0.000347
-0.000347
-0.000512
-0.000347
-1.9e-05
0.000146
0.00031
0.000474
0.000639
0.000474
-0.000183
-0.000347
-0.000347
-0.000512
-0.000512
-1.9e-05
0.00031
0.000474
0.00031
0.000474
0.00031
-0.000183
-0.000347
-0.000512
-0.000512
-0.000183
-1.9e-05
0.000474
0.00031
0.000474
0.00031
0.000474
-1.9e-05
-0.000183
-0.000512
-0.000512
-0.000347
-1.9e-05
0.00031
0.000474
0.00031
0.000474
0.00031
-0.000183
-0.000347
-0.000512
-0.000512
-0.000347
-1.9e-05
0.000146
0.000474
0.000146
0.000146
0.000146
-0.000183
-0.000347
-0.000347
-0.000512
-0.000183
0.000146
0.00031
0.00031
0.00031
0.000639
0.00031
-0.000183
-0.000183
-0.000347
-0.000841
-0.000347
-1.9e-05
0.00031
0.000146
0.00031
0.000639
0.00031
-0.000183
-0.000512
-0.000183
-0.000347
-0.000347
0.000146
0.000146
0.000474
0.000474
0.000639
0.00031
-0.000347
-0.000183
-0.000347
-0.000347
-0.000347
-0.000183
0.00031
0.000474
0.000474
0.000146
0.00031
-0.000183
-0.000347
-0.000347
-0.000183
-0.000183
0.000146
0.00031
0.00031
0.000146
0.000474
0.00031
0.000146
-0.000183
-0.000512
-0.000512
-0.000183
0.000146
0.000146
0.000474
0.000474
0.000474
0.00031
-0.000183
-0.000347
-0.000183
-0.000512
-0.000347
-0.000183
0.00031
0.00031
0.00031
0.000474
0.00031
-1.9e-05
-0.000347
-0.000512
-0.000676
-0.000183
0.000146
0.00031
0.00031
0.000474
0.00031
0.000146
-0.000183
-0.000183
-0.000347
-0.000512
-0.000347
-0.000183
0.000146
0.000474
0.00031
0.000474
0.000146
-0.000183
-0.000183
-0.000347
-0.000676
-0.000347
0.000146
0.00031
0.000146
0.000474
0.00031
0.00031
-1.9e-05
-0.000347
-0.000347
-0.000512
-0.000512
0.000146
0.000474
0.00031
0.00031
0.000639
0.00031
-0.000183
-0.000512
-0.000183
-0.000347
-0.000183
-1.9e-05
0.00031
0.00031
0.000474
0.000474
0.000146
-0.000183
-0.000183
-0.000512
-0.000676
-0.000512
0.000146
0.00031
0.000146
0.00031
0.000474
0.00031
-0.000183
-0.000347
-0.000512
-0.000347
-0.000347
-1.9e-05
0.00031
0.00031
0.000474
0.000146
0.00031
-1.9e-05
-0.000183
-0.000347
-0.000347
-0.000512
0.000146
0.00031
0.000146
0.00031
0.000474
0.00031
-0.000183
-0.000347
-0.000347
-0.000347
-0.000183
0.000146
0.000146
0.00031
0.000474
0.000639
0.000474
-1.9e-05
-1.9e-05
-0.000183
-0.000512
-0.000347
-1.9e-05
0.000146
-1.9e-05
0.000474
0.000474
0.00031
-0.000183
-0.000347
-0.000183
-0.000347
-0.000347
0.00031
0.000146
0.00031
0.000474
0.000474
0.000474
-1.9e-05
-0.000183
-0.000183
-0.000512
-0.000512
-1.9e-05
-1.9e-05
0.00031
0.000146
0.000474
0.000146
-1.9e-05
-0.000347
-0.000512
-0.000347
-0.000183
-1.9e-05
0.000146
0.000474
0.00031
0.00031
0.000146
-0.000183
-0.000183
-0.000347
-0.000347
-0.000183
-1.9e-05
-1.9e-05
0.00031
0.00031
0.000474
0.00031
-0.000183
-0.000183
-0.000347
-0.000347
-0.000183
0.000146
0.000146
0.00031
0.000474
0.00031
0.000146
0.000146
-0.000183
-0.000512
-0.000347
-0.000183
0.000146
0.00031
0.000146
0.00031
0.00031
0.000146
-1.9e-05
-0.000183
-0.000347
-0.000512
-0.000183
-1.9e-05
0.00031
0.000146
0.00031
0.000639
0.000474
0.000146
-0.000347
-0.000676
-0.000512
-0.000512
-1.9e-05
0.000639
-0.000841
0.006227
0.011815
0.020855
0.028744
0.029566
0.03614
0.039427
0.044522
0.040742
0.008857
0.002775
0.000146
0.000474
0.000146
-1.9e-05
0.003104
0.010171
0.015102
0.023649
0.022827
0.03236
0.032524
0.005898
0.011322
0.015266
0.014609
0.004912
-0.000512
0.001132
0.000803
0.00146
0.008199
0.009843
0.007377
0.010829
0.019211
0.010829
0.010007
0.006556
0.014773
0.015595
0.016253
0.017567
0.025785
0.028908
0.035811
0.041892
0.045344
0.049781
0.050274
0.053726
0.060629
0.060136
0.054548
0.047809
0.040249
0.047809
0.050768
0.049617
0.042221
0.046494
0.047973
0.051918
0.055534
0.05389
0.056356
0.057671
0.049288
0.01691
0.006062
0.005076
0.010336
0.003104
0.009185
0.011486
0.015431
0.01954
0.002775
0.002447
0.000803
0.000146
-0.000183
-0.000183
-0.000347
-0.000347
0.000146
0.000474
0.000146
0.002775
0.002447
0.001625
0.001296
0.00294
0.000146
0.003268
0.006227
0.004255
0.007377
0.009678
0.017567
0.015266
0.019704
0.024964
0.014609
-0.000347
0.001132
-0.000841
-0.000183
0.004255
0.008857
0.013787
0.008199
0.001789
-0.000183
-1.9e-05
0.001132
-0.000841
-0.000512
0.000474
0.000474
0.001954
0.000146
0.002282
-1.9e-05
0.000146
-0.000841
0.000474
0.00146
0.005569
0.002282
0.001132
0.001954
0.002611
0.002118
0.000474
-1.9e-05
-0.000183
-0.000512
-0.000676
-0.000347
-0.000183
0.000639
0.000146
0.000967
0.000474
0.000474
0.000967
0.000967
0.000803
0.006556
-0.000512
0.004419
0.001296
-0.000841
0.001789
0.00672
0.007049
0.012637
0.019211
0.009021
-0.001334
0.00294
0.002447
0.012144
0.013623
0.015924
0.022169
0.00409
0.000967
0.001789
-0.002155
0.000146
0.001132
0.000474
0.003597
0.008857
0.012472
0.012965
0.013952
0.003761
0.005241
0.006556
0.001296
0.004748
0.003433
0.009514
0.006227
0.011651
0.016581
0.020855
0.020526
0.001132
0.00031
0.00294
0.009185
0.015595
0.020855
0.025292
0.030716
0.03729
0.040084
0.049288
0.054055
0.052411
-0.000347
0.007213
0.011322
0.01691
0.01313
0.019868
0.01691
0.006391
0.005241
0.00409
0.007542
0.000967
0.00672
-0.000347
0.001296
0.000967
0.000639
0.00031
0.00031
0.000146
-0.000183
-0.000347
-0.000512
-0.000347
-0.000183
0.000146
0.00031
0.000474
0.000474
0.000639
-1.9e-05
-0.000183
-0.000347
-0.000347
-0.000676
-1.9e-05
0.000146
0.00031
0.00031
0.000474
0.000146
-0.000183
-0.000183
-0.000512
-0.000183
-0.000512
-1.9e-05
0.00031
0.000474
0.00031
0.00031
0.00031
0.000146
-1.9e-05
-0.000347
-0.000512
-0.000347
-1.9e-05
0.000146
0.000474
0.000146
0.000639
0.000639
0.00031
-0.000183
0.001132
-0.000347
0.003597
-1.9e-05
0.000146
0.00031
0.00031
0.000474
0.001132
0.000146
-0.000512
0.000146
-0.000512
0.000967
-0.000183
0.000639
0.000803
-1.9e-05
0.001954
0.000474
0.002118
0.001132
0.001789
0.000803
0.00031
0.003597
0.005076
0.009021
0.009514
0.010829
0.007706
0.010171
0.005569
0.007542
0.00787
0.003926
0.005898
0.012472
0.019047
0.02447
0.026771
0.022991
0.02447
0.028415
0.035318
0.035811
0.032688
0.037455
0.021019
0.003597
0.000967
-0.000347
0.000146
-0.000183
0.001296
-0.000183
0.000639
-0.003963
0.00031
0.000639
-0.000183
0.002282
0.002775
0.00031
0.003597
0.003104
0.000803
0.008857
0.005569
0.019868
0.028251
0.034825
0.042221
0.049781
0.052411
0.059643
0.067039
0.069669
0.076079
0.07197
0.083639
0.087748
0.090871
0.092843
0.098924
0.100896
0.105992
0.111251
0.11158
0.115524
0.111251
0.120455
0.125057
0.130481
0.13196
0.132617
0.132946
0.141328
0.139685
0.143794
0.146095
0.139849
0.144287
0.149875
0.14856
0.151518
0.156285
0.152505
0.159408
0.159243
0.159408
0.163681
0.164667
0.16401
0.167625
0.168118
0.165817
0.171077
0.170091
0.172227
0.1742
0.171241
0.170913
0.173707
0.171734
0.173707
0.175679
0.178309
0.176336

Kurve 3

0.001789
0.000639
0.001789
-0.001498
0.001132
-0.002977
-0.001662
-0.000512
0.000639
0.000474
-0.000841
0.001132
-0.001498
0.001954
-0.000676
-0.000183
0.000967
0.00031
0.000146
0.001296
-0.002813
-0.001498
-0.001991
-0.004292
-0.000841
-0.001662
0.000146
-0.003142
-0.001005
-0.000512
-0.001005
0.000146
0.000967
-0.001005
0.000639
-0.001005
0.003926
-0.004292
-0.000676
0.002118
-0.001498
0.001132
-0.003635
-0.001662
-0.004128
-0.002484
-0.000841
-0.001169
-0.001827
0.001132
-0.000183
-0.000347
0.00146
-0.004621
-0.002155
-0.000841
-0.003142
-0.002813
-0.004456
-0.004456
-0.001827
-0.00347
-0.001662
-0.001498
-0.00347
-0.001498
0.002611
-0.00232
0.001296
0.00031
-0.001991
-0.001169
-0.002813
-0.002813
0.001789
-0.005771
-0.003142
-0.000512
-0.005607
-0.002648
-0.003142
-0.000841
-0.000841
0.000474
-0.000841
-0.000512
-0.001334
-0.007086
0.002118
0.000967
-0.002648
-0.002484
0.002611
-0.002648
-0.003635
-0.003306
-0.002155
-0.004785
-0.003306
-0.000347
-0.000512
-0.000183
0.000146
-0.001827
-0.002155
-0.000512
-0.003306
-0.003142
-0.001498
-0.001005
-0.004621
-0.001662
-0.003799
-0.004292
-0.000512
-0.001334
0.00146
-0.001991
-0.00232
-0.001498
-0.000841
-0.001498
0.00031
-0.003306
-0.001169
-0.002484
-0.004456
-0.004456
-0.002155
-0.009716
-0.005443
-0.001169
-0.007086
-0.002813
-0.002977
-0.002813
-0.001827
-1.9e-05
-0.001498
-0.000512
-0.001827
-0.002977
0.000474
-0.003306
-0.002155
-0.004949
-0.001498
-0.002813
-0.000676
-0.002977
-0.002155
-0.002155
-0.004128
-0.001498
-0.001005
-0.003635
0.000474
-0.000676
-0.000183
-0.000676
-0.002484
-0.00232
-0.003306
-0.002484
-0.004128
-0.002484
-0.004785
-0.002484
-0.005443
-0.001169
-0.00347
-0.001005
-0.002484
-0.000841
-0.001991
-0.007086
-0.001662
-0.003306
-0.001662
-0.006593
-0.002155
-0.002977
-0.002648
-0.004128
-0.001827
-0.001991
-0.003963
-0.003142
-0.00232
0.000474
-1.9e-05
0.001132
-0.001827
-0.002155
-0.003142
0.000474
-0.003799
-0.002977
-0.005771
-0.001827
-0.003963
-0.002648
-0.004949
-0.001498
-0.003799
-0.002977
0.001132
-0.002484
-0.000676
-0.000841
-0.001334
-0.001334
-0.002484
-0.001827
-0.001005
-0.00347
0.00031
0.000146
-0.001991
-0.002484
-0.002977
-0.001498
-0.00232
-0.002155
-0.001005
-0.002155
-0.004128
-0.000183
-0.001498
-0.001498
-0.006922
0.003761
0.002447
-0.000183
-0.001334
-0.000676
-0.001662
-0.002484
-0.000512
0.000474
0.000146
-0.001991
-0.003306
0.000639
0.000474
-0.002813
0.000803
-0.002155
-0.002484
-0.000841
-0.001169
-0.007086
-0.006264
-0.001827
-0.001334
0.000639
-0.004785
0.001296
-0.001991
0.001296
-0.005607
0.002447
-0.003635
-0.000183
-0.002155
-0.001662
-0.000512
-0.003142
-0.000841
-0.002155
-0.001498
-0.000676
-0.000512
-0.002813
-0.000512
-0.002155
0.000474
-0.002648
-0.003142
-0.001827
-0.004292
-0.002813
-0.005443
-0.000183
-0.002648
-0.001169
-0.001662
-0.000183
-0.001005
-0.000183
-0.002484
0.002775
-0.00232
-0.001498
-0.001498
-0.002648
0.001296
-0.002648
-0.001827
0.000146
-0.000512
0.003761
0.000967
0.001132
0.001625
0.000639
0.000474
-0.002648
0.000146
-0.001662
-0.004621
-0.001498
-0.001662
-0.000183
-0.000512
-0.001334
-0.003142
0.001789
-0.003306
0.000803
-0.001827
-0.001005
-0.001005
0.001132
-0.002155
-0.000183
-0.002155
-0.001827
-0.004621
-0.002155
-0.000183
0.000639
-0.000512
-0.003963
0.00031
-0.002484
0.001132
-0.000676
0.001954
-0.001991
-0.001827
-0.001827
-0.001169
-0.002155
-0.002977
-0.001827
-0.002484
0.001132
0.00031
0.002118
0.000967
-0.003799
-0.002155
-0.003799
-0.002155
-0.001827
-0.000676
-0.000841
-0.001662
0.00031
-1.9e-05
-0.002977
-0.001005
-0.003142
-0.000347
-0.002155
-0.004128
-0.000183
0.00146
-0.000347
0.000474
0.001954
0.00146
-0.002813
-0.002813
-0.000183
-0.001827
-0.000841
-0.001662
-0.001991
-0.005936
-0.002484
0.00146
-0.001991
-0.001827
0.000639
-0.000183
0.001132
-0.001334
0.000474
-0.000676
-0.002155
-0.001498
0.003433
-0.002813
-0.002648
-0.001498
-0.002484
-1.9e-05
-0.004949
-0.002484
-0.000841
-0.000841
0.004255
0.007542
-0.001827
-0.000183
0.001296
-0.002977
-0.001662
-0.004128
-0.000183
-0.001005
-0.001334
-0.002155
0.003761
-0.003799
-0.001827
-0.001334
0.00031
-0.000676
-0.002155
-0.001005
0.000474
0.00031
-0.001827
0.003597
-0.004292
0.001132
-0.003635
-0.003963
-0.005278
-0.007744
-0.004785
-0.001662
-0.001991
0.00031
0.001132
-0.00232
-0.001827
-0.001991
0.000803
-0.002484
-0.001827
0.00031
-0.000512
-0.000347
-0.000512
-0.004621
-0.001662
-0.000183
0.00146
0.000474
-0.001005
-0.004949
-0.001827
-0.000676
-0.00347
-1.9e-05
-0.00873
0.002282
-0.004949
0.001132
-1.9e-05
-0.000512
-0.004128
-0.000512
-0.001169
-0.002155
-0.000841
-0.010045
-0.001827
-0.003306
-0.001498
-0.001169
-0.000841
-0.003142
0.001954
-0.003799
0.003104
-0.000676
-0.011852
-0.002648
-0.002648
-0.007908
-0.003635
-0.001827
-0.004785
0.000639
-0.00232
0.000474
-0.001498
-0.00873
-0.002155
0.000639
-0.000347
-0.000183
0.000146
-0.001991
0.003268
-1.9e-05
-0.002155
-0.002155
-0.012017
-0.0061
0.000474
-0.001169
-0.001169
-0.000512
-0.000512
-0.000676
0.001296
0.00031
-0.000183
-0.00873
-0.006922
0.000474
-0.000841
-0.00347
-0.002155
-0.002977
-0.002977
-0.000512
-0.001498
-0.001169
-0.00873
-0.002484
-0.002484
-0.002813
-0.001005
-0.002155
-0.002813
-0.000347
0.001296
-0.005114
0.000474
-0.007744
-0.004456
-0.003142
-0.000841
-0.000347
-0.001169
-0.001169
-1.9e-05
-1.9e-05
-0.001169
0.00031
-0.001005
0.00031
-0.003142
-0.002813
-0.004128
-0.001991
-0.002977
0.001789
0.002611
0.001132
-0.001827
-0.003142
-0.000183
0.000639
0.001132
-0.000676
0.000146
-0.001498
-0.000183
-0.001334
-0.000512
0.000474
-0.002484
-0.0061
0.001625
-0.001991
-0.002155
0.000639
-0.001827
0.001296
0.00146
0.00146
-0.001005
-0.001991
-0.00347
-0.003799
-0.003306
0.002447
-0.001662
0.001625
-0.000183
-0.000183
-0.001334
-0.000347
-0.000183
-0.003635
-0.001005
-0.001991
-1.9e-05
-0.001334
-0.000841
-0.001169
-0.002484
-0.004785
-0.000676
-0.003142
-0.002484
0.00294
-0.002155
-0.005771
-0.002484
-0.001991
-0.000676
0.001625
-0.000841
0.000146
-0.003635
-0.00232
-0.001991
-0.001498
-0.001991
-0.001498
-0.000183
-0.000183
0.00146
-0.000676
-0.001334
-0.001498
-0.005936
-0.003635
0.00146
-0.003799
0.00031
-0.000512
-0.001827
-0.003799
-0.002484
-0.000841
-0.000676
-0.002484
-0.001334
-0.002484
-0.002155
-0.000183
-0.000183
-1.9e-05
-0.001827
0.000803
-0.00347
-0.000676
-0.003799
-0.002813
-0.004949
-0.003799
-0.000841
0.000803
0.000803
-1.9e-05
0.000474
-0.001169
0.003433
-0.002155
0.000146
-0.002813
-0.002977
-1.9e-05
-0.001827
-0.002484
-0.00347
-0.002484
-0.000512
-0.000512
-0.002813
-0.002155
-0.001662
0.000474
-0.001169
0.001625
-0.00232
-0.002813
-0.003306
-0.002977
-0.000347
-0.003635
-0.005443
-0.004292
-0.003306
-0.001334
0.000639
-0.002155
-0.000512
0.00146
0.000146
-0.001334
-0.000347
-0.001498
-0.000676
-0.001005
-0.002813
-0.001662
-0.000183
-0.004128
-0.004128
-0.001662
0.000474
-0.002155
-0.00232
-1.9e-05
-0.000676
0.001132
0.003104
0.00146
0.000146
-1.9e-05
-0.002155
-0.001169
-0.003799
-0.002155
-0.002977
-0.001498
-0.000676
-0.003142
0.003433
-0.001662
-0.002484
-0.001498
0.00146
0.001132
0.001132
-0.001662
-0.000676
0.000639
-0.000841
-0.000512
-0.001334
-0.001334
-0.003142
-0.000512
-0.002977
-0.000183
-0.002977
-0.001005
-0.002484
-0.000183
0.000474
-0.000512
-0.000183
-0.000841
0.000639
-0.002155
0.000146
-0.002977
-0.001827
-0.000512
0.005405
0.011815
0.018882
0.025457
0.029566
0.038605
0.040577
0.043865
0.05011
0.054712
0.061779
0.064574
0.072134
0.073942
0.075257
0.079859
0.082817
0.087912
0.089227
0.093336
0.094158
0.100075
0.100732
0.103033
0.107142
0.111087
0.107306
0.104677
0.114867
0.112894
0.116017
0.111251
0.115853
0.121441
0.121934
0.123578
0.128508
0.125714
0.129495
0.13574
0.133768
0.13574
0.137384
0.139356
0.142314
0.146916
0.145108
0.143301
0.143629
0.146752
0.148067
0.148231
0.145108
0.148067
0.146752
0.149217
0.144451
0.140835
0.148231
0.149875
0.150532
0.153984
0.155134
0.148724
0.152833
0.151354
0.153819
0.15234
0.153984
0.155956
0.156285
0.157271
0.157764
0.159572
0.160229
0.163023
0.165489
0.169105
0.170419
0.169105
0.170748
0.170419
0.172885
0.179295
0.171734
0.175186
0.173214
0.174035
0.178473
0.177158
0.178966
0.175021
0.181596
0.180774
0.179952
0.179952
0.182417
0.176336
0.178144
0.180774
0.180281
0.182746
0.180116
0.172556
0.163681
0.167297
0.165489
0.164667
0.170913
0.169762
0.171241
0.174857
0.173871
0.173049
0.177651
0.176008
0.175679
0.175843
0.17798
0.176501
0.17798
0.179952
0.180774
0.177158
0.183239
0.179952
0.181924
0.184061
0.183239
0.183732
0.183568
0.185212
0.188334
0.190471
0.186526
0.184061
0.182746
0.185212
0.186033
0.182253
0.187841
0.184061
0.187019
0.18817
0.187677
0.188499
0.187841
0.187184
0.184061
0.186526
0.187841
0.18554
0.191457
0.186526
0.191128
0.190142
0.193922
0.1908
0.194087
0.190307
0.192936
0.1908
0.19195
0.193594
0.190142
0.194744
0.194744
0.193265
0.192279
0.192936
0.194087
0.199511
0.19573
0.194744
0.192279
0.196881
0.19573
0.19721
0.196223
0.196059
0.19458
0.197538
0.200825
0.194744
0.190471
0.193922
0.196223
0.191786
0.199018
0.193922
0.197867
0.197867
0.194251
0.20099
0.196223
0.197703
0.195237
0.201319
0.194251
0.192279
0.190635
0.192443
0.19195
0.193429
0.196881
0.195895
0.194087
0.194251
0.197374
0.189156
0.19458
0.193922
0.192443
0.193429
0.193429
0.193265
0.191128
0.189978
0.192279
0.189649
0.19573
0.197374
0.195402
0.194416
0.192936
0.188827
0.190307
0.188663
0.184554
0.185376
0.184718
0.187841
0.185705
0.180445
0.183075
0.183239
0.186691
0.188334
0.189156
0.188334
0.192608
0.188334
0.191621
0.191457
0.190471
0.191457
0.191786
0.190142
0.194087
0.187513
0.190471
0.189814
0.192443
0.193922
0.195073
0.193758
0.193594
0.196881
0.194251
0.194087
0.189978
0.197867
0.195402
0.195895
0.195895
0.196717
0.194416
0.194087
0.195237
0.19195
0.195402
0.194909
0.19721
0.195895
0.197867
0.196717
0.19721
0.197703
0.198853
0.195237
0.197045
0.194909
0.192279
0.192772
0.194251
0.193101
0.194416
0.194416
0.194909
0.191128
0.197374
0.198524
0.193101
0.198689
0.194909
0.195566
0.195566
0.197538
0.197538
0.198031
0.200004
0.197703
0.19721
0.196223
0.197703
0.196388
0.198853
0.197538
0.197045
0.196552
0.198524
0.200168
0.20362
0.197867
0.197374
0.197538
0.195402
0.196717
0.196717
0.193101
0.195073
0.198196
0.195895
0.198689
0.19573
0.198196
0.195895
0.195402
0.196717
0.197374
0.196552
0.197045
0.19836
0.198196
0.197374
0.195073
0.199182
0.19721
0.197538
0.194416
0.196717
0.198031
0.197867
0.197867
0.201483
0.196881
0.198196
0.199018
0.198524
0.201483
0.195895
0.200661
0.19721
0.197374
0.196552
0.198031
0.19573
0.198031
0.195895
0.194416
0.19573
0.199018
0.200332
0.198031
0.198031
0.200332
0.200497
0.200497
0.202469
0.196717
0.20099
0.198031
0.199839
0.197045
0.197703
0.196717
0.198689
0.199839
0.196881
0.200332
0.198196
0.200332
0.20099
0.201812
0.199839
0.20099
0.198689
0.199675
0.200497
0.19721
0.196552
0.198524
0.197703
0.195566
0.196552
0.197538
0.199018
0.197703
0.198031
0.197374
0.204113
0.200332
0.200661
0.201647
0.199839
0.199511
0.198031
0.199182
0.196881
0.198853
0.197867
0.200661
0.196717
0.198524
0.196717
0.198689
0.199839
0.201812
0.203126
0.20099
0.200497
0.199839
0.200004
0.199511
0.198031
0.19836
0.199018
0.19458
0.201647
0.197867
0.201647
0.201976
0.199675
0.19721
0.200825
0.195237
0.199346
0.199182
0.197703
0.197867
0.197867
0.199346
0.197374
0.202469
0.199675
0.200004
0.199018
0.199839
0.199182
0.199182
0.197045
0.197867
0.199182
0.199182
0.200825
0.197867
0.200332
0.192443
0.193758
0.189814
0.192772
0.18932
0.187019
0.184061
0.187019
0.188334
0.18817
0.191786
0.190635
0.18932
0.190964
0.18817
0.184554
0.18439
0.181431
0.183075
0.172227
0.168118
0.150204
0.141986
0.12292
0.105334
0.091692
0.085776
0.060136
0.034003
0.037783
0.030387
0.028908
0.029072
0.031373
0.019211
0.024964
0.009021
0.009678
0.010336
0.010171
0.00409
0.004583
0.005076
0.006556
0.004255
0.001625
0.008199
0.003926
0.009514
0.015266
0.02069
0.023813
0.02447
0.025457
0.032853
0.036633
0.034989
0.036633
0.045179
0.041892
0.045015
0.041235
0.034496
0.03992
0.040577
0.041235
0.040084
0.04255
0.044029
0.047152
0.047809
0.048795
0.046494
0.053233
0.0603
0.062437
0.066217
0.069011
0.072791
0.073942
0.080187
0.080845
0.086104
0.091857
0.093007
0.10254
0.104348
0.112237
0.114867
0.116182
0.118483
0.122098
0.121441
0.124071
0.126865
0.132617
0.132946
0.138863
0.138041
0.142972
0.141657
0.146752
0.14856
0.15119
0.152833
0.152998
0.158586
0.155463
0.155299
0.158257
0.163845
0.159408
0.164667
0.164503
0.164338
0.166475
0.168283
0.171734
0.167132
0.173378
0.176336
0.177651
0.175843
0.179952
0.17798
0.179459
0.178309
0.177651
0.18061
0.18176
0.179952
0.182582
0.180281
0.179459
0.185376
0.181596
0.186033
0.184883
0.185869
0.18554
0.189485
0.190964
0.189978
0.188663
0.19195
0.186198
0.190307
0.192608
0.196388
0.192443
0.193101
0.19458
0.193101
0.193594
0.191786
0.193101
0.192608
0.194251
0.193101
0.196059
0.192279
0.195566
0.196552
0.194744
0.194251
0.193758
0.192115
0.194087
0.193594
0.197374
0.19573
0.191293
0.196059
0.195073
0.197045
0.194744
0.197703
0.194744
0.196223
0.19721
0.196059
0.197045
0.195237
0.195237
0.19458
0.197703
0.194744
0.197374
0.194416
0.195566
0.197703
0.19721
0.194416
0.198524
0.19836
0.198689
0.200168
0.197045
0.200168
0.198689
0.19836
0.197538
0.200004
0.195073
0.199675
0.19721
0.197538
0.197703
0.196881
0.198524
0.198689
0.199182
0.198524
0.200497
0.198196
0.198524
0.199182
0.196388
0.198853
0.198031
0.197538
0.199182
0.198524
0.196717
0.195237
0.197867
0.197374
0.20099
0.200168
0.198853
0.200497
0.197374
0.197703
0.197045
0.198689
0.197045
0.198524
0.196881
0.198689
0.19721
0.197538
0.198689
0.196059
0.199839
0.197374
0.201812
0.198689
0.203455
0.200168
0.203784
0.201812
0.20214
0.200661
0.201647
0.196881
0.197538
0.19721
0.19573
0.197374
0.199346
0.200332
0.199675
0.200825
0.199675
0.201812
0.19836
0.201647
0.20099
0.202798
0.201976
0.199511
0.198524
0.197867
0.198196
0.196552
0.199839
0.19721
0.198031
0.199346
0.200004
0.199182
0.200661
0.200004
0.19836
0.19836
0.200497
0.198196
0.195566
0.198031
0.197867
0.199018
0.198689
0.200497
0.201319
0.200497
0.19836
0.198196
0.196059
0.19721
0.196223
0.197703
0.200332
0.200332
0.199346
0.199018
0.199182
0.199018
0.199182
0.19836
0.200332
0.197703
0.201319
0.197867
0.199675
0.199182
0.199675
0.203126
0.20362
0.195237
0.199511
0.196717
0.194251
0.199511
0.198031
0.199182
0.199018
0.201319
0.197867
0.199839
0.197374
0.197045
0.198031
0.19836
0.20362
0.197867
0.197538
0.197045
0.198031
0.19836
0.200004
0.196059
0.200168
0.197703
0.200332
0.199346
0.20099
0.201647
0.199839
0.201319
0.199346
0.197045
0.19721
0.200825
0.196881
0.198689
0.199182
0.200332
0.199018
0.20362
0.201483
0.199018
0.198524
0.19836
0.199675
0.199346
0.198524
0.196881
0.194416
0.197045
0.197045
0.196717
0.202962
0.200825
0.199182
0.205263
0.199511
0.200661
0.198031
0.198853
0.20099
0.197867
0.198689
0.196881
0.19573
0.19836
0.197867
0.196388
0.196059
0.200168
0.201647
0.201647
0.198853
0.201319
0.200168
0.198853
0.196388
0.201647
0.199511
0.196552
0.20099
0.200168
0.20099
0.197703
0.201319
0.199182
0.200825
0.199839
0.203948
0.196717
0.201319
0.200332
0.198853
0.20099
0.19573
0.198524
0.199182
0.196223
0.194087
0.201154
0.196059
0.19836
0.198524
0.19573
0.197538
0.197867
0.19836
0.199182
0.201319
0.198196
0.200497
0.193758
0.200497
0.197374
0.198689
0.197538
0.196881
0.195895
0.196388
0.197867
0.19721
0.198689
0.19836
0.201154
0.200004
0.201483
0.199018
0.200168
0.196059
0.198031
0.199511
0.201647
0.198853
0.19836
0.197374
0.199182
0.198524
0.198689
0.199511
0.200332
0.199675
0.199675
0.20099
0.196223
0.199839
0.196059
0.200497
0.198031
0.201154
0.19721
0.197867
0.200004
0.198031
0.19721
0.197374
0.201483
0.19721
0.201154
0.199511
0.199675
0.197538
0.201483
0.200168
0.198853
0.200332
0.196223
0.196388
0.197703
0.198853
0.195895
0.199018
0.194909
0.201976
0.198853
0.199839
0.199182
0.199839
0.200497
0.200661
0.20099
0.198031
0.196717
0.197703
0.199839
0.200825
0.199018
0.197538
0.199675
0.196223
0.199182
0.197045
0.198196
0.197703
0.19836
0.199346
0.200497
0.199346
0.202469
0.204441
0.199346
0.203126
0.19721
0.199346
0.200497
0.202469
0.198031
0.198689
0.197703
0.197538
0.198689
0.199018
0.198689
0.19836
0.199675
0.199839
0.200661
0.197867
0.19836
0.195895
0.199182
0.197538
0.196881
0.197045
0.199182
0.195073
0.195895
0.194744
0.202798
0.199182
0.199675
0.19836
0.200004
0.200497
0.197374
0.201647
0.199346
0.200825
0.199675
0.200497
0.195566
0.199675
0.197045
0.200332
0.196552
0.197703
0.200825
0.202962
0.201976
0.200168
0.20099
0.199018
0.201483
0.19836
0.201976
0.196552
0.192608
0.196388
0.198196
0.196059
0.196881
0.199839
0.197045
0.201154
0.197867
0.201154
0.19721
0.198031
0.197867
0.19836
0.198031
0.196223
0.200004
0.199018
0.199182
0.200661
0.199182
0.197703
0.200168
0.197374
0.199346
0.19836
0.195402
0.198031
0.199839
0.201812
0.199839
0.19836
0.199675
0.19836
0.197703
0.199839
0.197374
0.198524
0.199675
0.200497
0.199018
0.201647
0.202305
0.196717
0.197538
0.199182
0.197867
0.199839
0.198031
0.198031
0.198196
0.20099
0.201154
0.199018
0.199346
0.199018
0.200497
0.197374
0.199018
0.196717
0.19836
0.19836
0.199511
0.197374
0.198853
0.196552
0.19836
0.198689
0.197374
0.202305
0.198524
0.199675
0.199839
0.199675
0.197538
0.201812
0.195073
0.196881
0.198031
0.199182
0.199018
0.196552
0.199182
0.199346
0.201483
0.199839
0.199839
0.200332
0.198524
0.199346
0.200004
0.199675
0.201976
0.197374
0.197867
0.197867
0.197045
0.199018
0.196717
0.197374
0.200168
0.202962
0.198196
0.200825
0.198853
0.20099
0.200004
0.199839
0.199018
0.198031
0.199346
0.197867
0.197867
0.197045
0.198853
0.200168
0.196717
0.19573
0.198524
0.197867
0.19836
0.199839
0.201319
0.198853
0.199182
0.200004
0.197045
0.197538
0.19721
0.196881
0.200497
0.198853
0.198524
0.200661
0.199018
0.200825
0.198689
0.201812
0.200004
0.199839
0.202798
0.204606
0.199675
0.194087
0.199018
0.196717
0.197538
0.196223
0.200825
0.197045
0.199018
0.195566
0.202633
0.196717
0.199511
0.198196
0.199675
0.200332
0.199346
0.199675
0.198853
0.197703
0.197374
0.204113
0.192608
0.196552
0.198031
0.196059
0.195402
0.197538
0.19836
0.198196
0.200497
0.199511
0.205427
0.197538
0.197045
0.195566
0.19721
0.197867
0.196223
0.193429
0.202305
0.197703
0.19836
0.204441
0.196717
0.199182
0.200168
0.199182
0.200004
0.201647
0.201154
0.198524
0.197703
0.200168
0.200825
0.196388
0.197045
0.198031
0.19721
0.200168
0.194087
0.203291
0.201483
0.199675
0.20099
0.199511
0.199675
0.198031
0.199346
0.197703
0.198689
0.194251
0.197045
0.199182
0.195402
0.19721
0.19721
0.198853
0.20099
0.200332
0.199839
0.198853
0.195402
0.203291
0.19721
0.198853
0.196059
0.19195
0.198196
0.198689
0.196881
0.199346
0.198689
0.196223
0.199182
0.19721
0.199839
0.19721
0.192115
0.199018
0.201154
0.197538
0.200168
0.200004
0.197703
0.200168
0.198524
0.197867
0.197867
0.186855
0.19836
0.200332
0.199018
0.200168
0.195895
0.197703
0.196717
0.200332
0.19836
0.199511
0.188992
0.195237
0.198031
0.193101
0.199346
0.196059
0.195073
0.198196
0.199346
0.19721
0.199511
0.187019
0.195895
0.197703
0.196059
0.196388
0.199182
0.200004
0.200497
0.198196
0.199675
0.199182
0.188499
0.197703
0.197867
0.199346
0.195895
0.199839
0.195402
0.197867
0.202798
0.202469
0.199346
0.192443
0.19721
0.199182
0.199346
0.197538
0.199511
0.197867
0.200825
0.200825
0.200168
0.195402
0.191128
0.195895
0.19836
0.197045
0.197374
0.198524
0.199018
0.201647
0.19721
0.199839
0.193922
0.196881
0.195237
0.196388
0.19836
0.194909
0.196388
0.198853
0.19836
0.196552
0.196552
0.199675
0.198524
0.196717
0.198524
0.198853
0.199839
0.199182
0.202798
0.200168
0.200332
0.200497
0.199675
0.197867
0.197045
0.197045
0.19573
0.201154
0.198524
0.200497
0.200497
0.202962
0.197703
0.200168
0.198689
0.198031
0.198031
0.199018
0.19836
0.194744
0.197703
0.198689
0.197867
0.197867
0.199182
0.196388
0.198196
0.199839
0.196388
0.199182
0.198853
0.199839
0.200825
0.19836
0.197045
0.194744
0.199346
0.198196
0.191786
0.202469
0.199511
0.199675
0.198031
0.200661
0.199018
0.198524
0.199675
0.199018
0.197538
0.200004
0.19836
0.19836
0.199018
0.200497
0.201319
0.199675
0.198196
0.194251
0.198196
0.197045
0.198853
0.196388
0.199182
0.197538
0.199182
0.19721
0.199346
0.199675
0.197045
0.198031
0.196552
0.201154
0.196881
0.199839
0.198853
0.199675
0.199018
0.203126
0.198196
0.196717
0.197867
0.196388
0.196223
0.196388
0.199839
0.198853
0.201154
0.19836
0.202798
0.200004
0.201483
0.201319
0.196223
0.197374
0.19836
0.198031
0.197374
0.199182
0.198853
0.199511
0.197374
0.198031
0.19836
0.19836
0.198196
0.200004
0.199675
0.201483
0.19721
0.200004
0.197703
0.198524
0.197374
0.196717
0.197538
0.196388
0.197867
0.19573
0.197374
0.197374
0.203291
0.203291
0.202798
0.199839
0.20099
0.197703
0.197045
0.200168
0.197867
0.196717
0.196059
0.196552
0.197374
0.198196
0.196059
0.195566
0.197867
0.200661
0.198853
0.198689
0.199675
0.198689
0.200332
0.19836
0.200168
0.197374
0.197703
0.19836
0.19836
0.196388
0.199018
0.197045
0.201483
0.199182
0.199511
0.199018
0.199018
0.201319
0.203455
0.200661
0.197538
0.200004
0.197538
0.200661
0.198524
0.198031
0.197374
0.198853
0.196881
0.198853
0.198853
0.202469
0.202798
0.198853
0.20099
0.200661
0.198031
0.198853
0.19721
0.197538
0.199346
0.195895
0.196717
0.197045
0.198689
0.196881
0.196552
0.200168
0.198853
0.199346
0.200497
0.201647
0.198853
0.198524
0.196388
0.201319
0.197538
0.201647
0.200497
0.198853
0.199018
0.199511
0.198853
0.197867
0.198689
0.198853
0.199018
0.200497
0.195402
0.20099
0.198031
0.197374
0.201154
0.200332
0.199675
0.199182
0.198524
0.196881
0.200497
0.199675
0.198524
0.201154
0.199839
0.200332
0.197703
0.195073
0.196059
0.198689
0.200332
0.199018
0.202305
0.200661
0.198853
0.19721
0.199346
0.199511
0.19721
0.198196
0.200332
0.199839
0.20099
0.198853
0.198031
0.199839
0.20099
0.198853
0.202305
0.200332
0.20214
0.200825
0.200825
0.200825
0.198853
0.19721
0.197703
0.199675
0.195073
0.202798
0.19458
0.197538
0.197538
0.199511
0.199675
0.200332
0.198031
0.199018
0.199511
0.198689
0.199182
0.19721
0.198853
0.197374
0.197538
0.197703
0.200004
0.197045
0.198689
0.19836
0.198524
0.200497
0.198853
0.199346
0.197045
0.198524
0.192936
0.198196
0.197703
0.197374
0.196552
0.199346
0.198031
0.198196
0.19458
0.196223
0.19836
0.198689
0.201319
0.199346
0.199675
0.199675
0.200168
0.200332
0.200004
0.198689
0.198689
0.197374
0.201812
0.197538
0.199182
0.198031
0.198524
0.201154
0.198853
0.196059
0.195237
0.196388
0.197703
0.200004
0.199182
0.20099
0.196881
0.199346
0.197703
0.200332
0.198853
0.197045
0.199346
0.19721
0.198853
0.198853
0.200004
0.198524
0.198524
0.197045
0.202305
0.196059
0.196881
0.19721
0.199018
0.203784
0.199182
0.198689
0.199511
0.198689
0.198031
0.199839
0.198031
0.199675
0.197538
0.199346
0.198853
0.202469
0.198524
0.199182
0.198196
0.199182
0.202305
0.196717
0.199018
0.199182
0.197703
0.198853
0.200497
0.196717
0.201812
0.196717
0.199018
0.196552
0.199346
0.197374
0.198853
0.198853
0.198524
0.201647
0.199182
0.200661
0.198689
0.199182
0.200004
0.199018
0.197045
0.201319

Kurve 4

-0.000347
-0.000512
-0.000347
-0.000512
-1.9e-05
0.000146
0.000146
0.00031
0.000474
0.00031
-0.000183
-0.000183
-0.000512
-0.000347
-0.000183
0.000146
-1.9e-05
0.000146
0.000146
0.000474
0.00031
-0.000183
-0.000183
-0.000347
-0.000183
-0.000183
0.00031
0.000146
0.000146
0.000146
0.000474
-1.9e-05
-1.9e-05
-0.000183
-0.000347
-0.000347
-0.000183
-1.9e-05
0.00031
0.00031
0.00031
0.000474
0.00031
-0.000183
-0.000183
-0.000512
-0.000512
-0.000512
0.00031
0.000146
0.00031
0.00031
0.00031
0.00031
-0.000183
-0.000347
-0.000512
-0.000512
-1.9e-05
0.000146
0.000146
0.00031
0.00031
0.000474
0.00031
-0.000183
-0.000183
-0.000183
-0.000512
-0.000512
-1.9e-05
0.00031
0.000474
0.000474
0.000146
0.00031
-0.000183
-0.000512
-0.000183
-0.000347
-0.000183
-0.000183
0.000146
0.000146
-1.9e-05
0.00031
0.000474
-0.000183
-0.000183
-0.000347
-0.000512
-0.000347
0.000146
0.000474
0.000474
0.000474
0.000474
0.000146
-0.000183
-0.000347
-0.000347
-0.000347
-0.000183
-1.9e-05
0.00031
0.000639
0.000474
0.000474
0.00031
-0.000183
-0.000183
-0.000841
-0.000347
-0.001334
-1.9e-05
-1.9e-05
0.00031
0.000474
0.000474
0.000146
0.000967
0.00031
-0.001169
0.00146
0.000146
0.003104
-0.000183
0.000146
0.001296
-0.003142
-0.003142
-0.000512
0.003104
-0.002155
-1.9e-05
0.001132
0.00031
-0.000841
0.000474
-0.000183
-0.001005
-0.007415
0.005898
-0.001662
0.000146
-0.000183
0.000146
-0.004292
-0.001498
-0.003963
-0.001991
-0.002977
-0.004128
-0.000347
-0.003142
-0.000347
-0.001169
0.001789
-0.001334
0.001132
0.001132
0.000474
0.000639
-0.001498
-0.000676
-0.003635
-0.001005
-0.00232
0.001954
-0.002813
0.000639
-0.002155
-0.000347
-0.000183
-0.000676
0.002611
0.001954
-0.000676
0.001132
-0.001498
-0.00347
-0.000841
-0.002155
-1.9e-05
-0.001498
-0.000347
-0.001662
0.002118
-0.001498
-0.001991
-0.001991
-0.002813
0.001296
-0.000183
-0.000347
0.000474
-0.000183
-0.002484
-0.000512
-0.003306
0.002282
-0.004456
-0.001662
0.001132
0.000474
0.001132
-0.000512
-0.001827
-1.9e-05
0.000639
0.001625
-0.000676
0.000146
0.00031
-0.002813
-0.001498
-0.000512
0.000146
-0.000841
0.000474
-0.001662
-0.001169
-0.001827
-0.000841
-0.001169
-0.001498
-0.000183
-0.001498
0.000639
-0.001334
-0.001334
-0.003306
0.00031
-0.003635
0.00031
0.000803
-0.000676
-0.000841
-1.9e-05
-1.9e-05
-0.001991
0.002118
0.000474
0.004255
-0.000512
0.000967
-0.002155
0.000803
0.000803
0.001625
0.001132
0.001132
0.000474
0.002282
-0.00232
0.000474
0.001789
-0.004785
-0.001334
-0.001334
0.001296
0.002118
-0.001169
-0.001005
0.000146
0.002118
0.004748
0.004419
0.002118
0.002447
0.001296
0.001954
0.000967
0.00031
-0.000183
0.002118
-0.001169
0.002611
0.001625
0.002775
0.000474
-0.001005
-0.000347
0.002282
0.000967
0.003433
0.003104
0.003597
0.002775
0.001132
0.000474
0.001132
0.005734
0.001296
0.002611
-0.000183
-0.001991
0.002447
0.002447
0.001954
0.004583
-0.000841
0.003104
0.005076
0.002611
0.003268
0.000967
0.003268
0.002611
0.003268
-0.000512
0.004255
-1.9e-05
-0.000347
0.005076
0.004748
0.008857
0.00146
0.00672
0.002447
0.005898
0.001789
0.004912
0.001132
0.002775
0.002282
0.001954
0.001789
0.002611
-0.000183
0.003597
0.003433
0.000146
0.002282
-0.000512
0.000474
0.00031
0.001625
0.000146
0.000803
0.001132
0.002118
0.004748
0.003597
-0.002813
-1.9e-05
-0.001334
-0.002155
0.000803
-0.001334
0.000474
-0.005114
0.000803
0.001625
0.003268
-0.000841
0.001132
0.001789
0.002282
0.002447
0.002611
0.000803
0.001789
0.003433
0.00294
0.003104
-0.002484
0.002118
0.001954
-1.9e-05
0.001132
0.00146
0.00146
0.004748
0.002611
0.002447
0.002282
0.001789
-1.9e-05
0.00031
0.00146
0.005076
0.000967
-0.000841
0.003433
-0.001827
-0.000512
-0.000841
0.00031
-0.001827
0.001954
0.000639
0.000639
-0.000841
-0.003306
-0.000183
-0.000841
-0.002648
-1.9e-05
-0.002648
-0.003306
-0.003142
-0.001334
0.000639
-0.001334
0.002447
-0.001991
0.000967
0.000803
0.000639
0.000474
0.000967
0.000639
-0.001169
-0.001005
-0.001662
-0.001169
-0.002813
0.00031
-0.001827
-0.001169
-0.000183
-0.002155
0.000803
0.000146
0.001625
-0.000183
0.000803
0.003761
0.001789
-0.000676
-0.001991
0.003926
-0.000841
0.000146
0.001954
-0.000512
-0.001169
0.000146
-0.000841
0.000803
0.000967
0.000146
0.00031
0.000146
-0.000347
0.004255
0.00146
0.00294
0.001625
0.000639
-0.002155
-0.000183
-0.001498
-0.002484
-0.000512
-0.001991
0.000474
-0.000841
0.000146
0.001132
-0.000512
-1.9e-05
-1.9e-05
-0.001005
0.00294
-0.002155
-0.001005
-0.001334
-0.001005
-0.000841
-0.001991
0.001132
-0.001991
0.001296
-0.001662
0.003268
-0.002155
-0.000841
0.000803
0.006556
-0.005278
-0.003306
0.000146
-0.002155
-0.002155
-0.001662
0.003268
-0.002977
-0.000512
-0.001334
0.000474
-1.9e-05
-0.000347
-0.000841
0.002611
0.001789
0.000474
0.003104
-0.001498
0.000146
0.000639
-0.000347
0.000146
-0.000841
-1.9e-05
0.000474
-0.000512
0.001954
0.000474
0.001625
0.00146
0.00146
0.001789
0.00031
0.002282
0.001625
0.000474
0.000474
-0.000512
0.001132
-0.000841
0.001132
0.002282
-0.003306
0.001296
-0.001827
0.001132
0.001296
0.000474
-0.001662
0.003104
0.002447
0.000146
-1.9e-05
-0.001334
0.003268
-0.002484
0.003433
-0.001334
0.001625
0.001954
0.001954
-0.006429
0.001296
-0.000347
-0.002977
0.001954
-0.005936
-0.002648
-0.003142
-0.002484
-0.000676
0.00294
-0.001334
0.001954
0.002611
0.000639
-0.001334
-0.002484
-0.001169
-0.004292
-0.001991
-0.000183
-0.000512
-0.001169
-0.000841
-0.001334
0.000967
0.000803
-1.9e-05
-0.000347
0.002611
0.001296
-0.000347
-0.000676
-0.00232
-0.000512
-0.000841
-0.000841
-0.001334
-0.001005
-0.000183
0.00031
-0.001169
0.00031
-0.003306
0.000474
0.003268
0.000146
0.001132
0.000803
-0.001827
-0.000841
-0.001498
-0.001169
0.001296
-0.00232
-0.001991
-0.002648
-0.001498
-0.004292
0.001296
-0.000347
0.003104
0.001789
-0.000183
-0.004785
0.002775
-0.000512
-0.001991
0.000639
-0.000347
0.00031
-0.003142
0.002447
-0.000676
-1.9e-05
0.00031
0.003761
-1.9e-05
0.001625
0.003433
0.001789
0.00031
-0.00347
0.001132
0.001625
0.000639
-0.001334
0.003597
-0.002648
0.000146
-0.000841
0.001625
0.001296
-0.000347
-0.002155
-0.002648
-0.002648
-1.9e-05
0.005569
-0.001991
0.001132
-0.001334
-0.001005
0.000967
-0.001334
-0.001991
-0.000676
-0.001169
-0.001005
0.006884
-0.000183
0.000967
0.00031
0.001954
0.005405
0.002118
0.002282
0.003104
0.000474
0.00031
0.006227
-0.001169
0.00031
0.000146
-0.000183
0.00031
-0.001498
0.001789
0.001789
0.000639
0.000639
0.007049
-0.000841
-0.000841
0.002447
0.001132
0.000967
-0.000347
0.000639
-0.001005
0.000967
-0.001169
0.00294
0.001789
0.003104
0.004419
-0.001827
0.001625
0.000146
0.001132
0.000146
0.001296
-0.001662
0.000474
-0.001005
0.000146
-0.001005
0.00031
-0.000841
-0.002977
0.002282
0.00031
0.003268
0.001789
-0.004785
-0.001498
-0.001334
-0.000841
0.001132
0.000639
0.00031
0.002611
-0.001334
0.002775
-0.00232
-0.004456
-0.001005
0.001296
-0.001827
-0.000183
-0.001827
0.000146
0.00146
0.002447
0.002118
0.002118
-0.00725
-0.001169
0.000967
0.000803
-0.000183
-1.9e-05
-0.000676
-0.001498
-1.9e-05
0.000474
0.003433
-0.007415
-0.000512
0.000474
0.001789
-1.9e-05
0.002118
-0.001827
0.002282
0.001625
-0.000512
0.003597
-0.006264
0.011815
0.018882
0.024635
0.030223
0.035482
0.039427
0.047645
0.059314
0.063259
0.067696
0.06293
0.076407
0.08216
0.085283
0.08857
0.094815
0.095801
0.10139
0.104512
0.10895
0.106978
0.110922
0.114045
0.119633
0.124235
0.126865
0.131631
0.130809
0.136233
0.137548
0.141328
0.142479
0.141
0.144615
0.152505
0.149382
0.150368
0.148889
0.154641
0.156778
0.156285
0.162366
0.159408
0.158421
0.161709
0.163188
0.164338
0.167132
0.165653
0.168283
0.171899
0.173542
0.172885
0.171406
0.168776
0.173707
0.176008
0.175843
0.177158
0.176008
0.18061
0.180445
0.184225
0.182417
0.183568
0.180938
0.183568
0.183404
0.186198
0.186198
0.183897
0.186033
0.185376
0.188663
0.188663
0.18817
0.187019
0.187348
0.188006
0.190307
0.188992
0.1908
0.188663
0.192115
0.192772
0.192772
0.193429
0.189156
0.189485
0.191457
0.193922
0.192443
0.192936
0.190635
0.193758
0.192608
0.192936
0.189156
0.192936
0.192443
0.194087
0.194087
0.193922
0.195895
0.19721
0.199839
0.197045
0.196388
0.19573
0.198196
0.195237
0.197374
0.196388
0.194744
0.193265
0.19458
0.198524
0.198031
0.197538
0.19573
0.197867
0.195895
0.197867
0.19721
0.199018
0.196552
0.199346
0.197374
0.198031
0.194416
0.196552
0.199839
0.191786
0.194909
0.195566
0.199346
0.198031
0.200004
0.198689
0.199018
0.197867
0.198524
0.19836
0.196059
0.194744
0.195895
0.193265
0.192115
0.198196
0.199346
0.196223
0.19573
0.195895
0.202469
0.201812
0.197703
0.202305
0.19836
0.202305
0.203455
0.200168
0.196388
0.198031
0.198031
0.195566
0.197867
0.196223
0.198689
0.19836
0.199346
0.200825
0.201483
0.198853
0.201319
0.199018
0.201319
0.199018
0.19573
0.198031
0.197538
0.196881
0.199018
0.202633
0.196717
0.20099
0.201154
0.199018
0.199675
0.202962
0.198689
0.20099
0.200332
0.204277
0.197867
0.196388
0.199511
0.198031
0.197045
0.19573
0.198689
0.198196
0.20099
0.197538
0.205263
0.20099
0.201647
0.201154
0.20099
0.201154
0.195895
0.195566
0.198853
0.198031
0.197374
0.198853
0.200168
0.200661
0.20099
0.200004
0.199182
0.199182
0.199839
0.199511
0.200332
0.201154
0.198689
0.200661
0.200497
0.19836
0.19836
0.197374
0.199839
0.199346
0.201319
0.199182
0.200661
0.200332
0.201154
0.20477
0.202633
0.20214
0.197374
0.199839
0.200332
0.19836
0.196388
0.200332
0.197867
0.200004
0.200825
0.200332
0.197867
0.204606
0.201647
0.19836
0.197703
0.196881
0.196881
0.195566
0.197867
0.195073
0.197045
0.197703
0.199511
0.197867
0.198524
0.198031
0.197703
0.195895
0.198689
0.19836
0.198196
0.198196
0.19573
0.197703
0.198196
0.19721
0.196059
0.198689
0.197538
0.197867
0.197045
0.19836
0.19836
0.198031
0.197703
0.200332
0.19836
0.200497
0.19721
0.196717
0.20214
0.197538
0.197374
0.195566
0.19573
0.198853
0.19836
0.199182
0.199018
0.199182
0.198524
0.201319
0.201812
0.196223
0.192936
0.197045
0.193429
0.201647
0.194416
0.19836
0.199346
0.198689
0.198031
0.202633
0.195402
0.198031
0.200497
0.197374
0.20214
0.196059
0.197045
0.196388
0.197867
0.199182
0.198689
0.196388
0.196059
0.199182
0.201647
0.202962
0.200168
0.198853
0.199018
0.199675
0.202633
0.201812
0.197374
0.200825
0.201647
0.199346
0.200168
0.198689
0.195237
0.196881
0.198524
0.200825
0.200168
0.200825
0.200168
0.200332
0.203948
0.200661
0.194909
0.146095
0.100403
0.029401
0.001296
0.000474
-0.000183
-0.000347
-0.000347
-0.000512
-0.000183
0.000146
0.00031
0.000474
0.000474
0.000474
0.000146
-0.000183
-0.000183
-0.000347
-0.000676
-0.000512
-0.000183
0.000474
0.00031
0.000639
0.000967
0.000146
-0.000183
-1.9e-05
-0.000183
-0.000512
-1.9e-05
0.000146
0.000474
0.000474
0.000474
0.000639
0.000146
-0.000347
-0.000183
-0.000512
-0.000512
-0.000676
0.000146
0.00031
0.00031
0.000474
0.000639
-1.9e-05
-0.000347
-0.000183
-0.000183
-0.000347
-0.000512
0.000146
0.000146
0.00031
0.000474
0.000639
0.00031
-1.9e-05
-1.9e-05
-0.000183
-0.000347
-0.000512
0.000146
0.00031
0.000146
0.000474
0.000639
-1.9e-05
-1.9e-05
-0.000183
-0.000676
-0.000347
-0.000512
0.000146
0.00031
0.00031
0.000474
0.000474
-1.9e-05
0.000146
-0.000347
-0.000183
-0.000512
-1.9e-05
0.000146
0.000146
0.000474
0.000474
0.000146
-0.000183
-0.000347
-0.000183
-0.000347
-0.000347
-0.000347
-1.9e-05
0.00031
0.000474
0.00031
0.000474
0.000146
-0.000347
-0.000512
-0.000676
-0.000183
-0.000183
-1.9e-05
0.000474
0.00031
0.000474
0.000474
0.000146
-0.000183
-0.000183
-0.000183
-0.000347
-1.9e-05
0.00031
0.000474
0.00031
0.000146
0.00031
0.000146
-1.9e-05
-0.000347
-0.000347
-0.000347
-1.9e-05
0.000146
0.00031
0.000146
0.000474
0.000474
0.000146
-0.000183
-0.000347
-0.000512
-0.000512
-1.9e-05
0.000146
0.000474
0.000474
0.00031
0.000474
0.00031
-0.000183
-0.000183
-0.000512
-0.000512
-0.000183
0.00031
0.00031
0.00031
0.000146
0.00031
0.000146
-0.000183
-0.000183
-0.000347
-0.000676
-0.000183
0.000146
0.000146
0.000474
0.00031
0.000474
0.000146
-0.000183
-0.000183
-0.000183
-0.000183
-1.9e-05
-1.9e-05
0.000146
0.000146
0.000474
0.00031
0.000146
-0.000183
-0.000183
-0.000347
-0.000512
-0.000347
-0.000183
0.000146
0.00031
0.00031
0.000474
0.00031
-0.000183
-0.000512
-0.000347
-0.000347
-1.9e-05
-1.9e-05
0.00031
0.00031
0.000146
0.000639
0.00031
-0.000183
-0.000183
-0.000512
-0.000676
-1.9e-05
0.000146
0.00031
0.000146
0.00031
0.000474
0.00031
-0.000183
-0.000347
-0.000183
-0.000512
-0.000347
-1.9e-05
0.000146
0.00031
0.000474
0.00031
0.000146
-1.9e-05
-0.000183
-0.000512
-0.000347
-0.000183
0.000146
0.00031
0.000474
0.000474
0.000474
0.00031
-1.9e-05
-0.000183
-0.000347
-0.000676
-0.000183
0.000146
0.000146
0.00031
0.00031
0.00031
0.000146
-0.000183
-1.9e-05
-0.000347
-0.000512
-0.000347
0.000146
0.00031
0.000474
0.000146
0.000639
0.000146
-1.9e-05
-0.000183
-0.000512
-0.000512
-1.9e-05
0.000146
0.00031
0.000474
0.000474
0.000474
0.00031
-1.9e-05
-0.000347
-0.000347
-0.000347
-0.000347
-1.9e-05
0.00031
0.000146
0.00031
0.00031
-1.9e-05
-0.000183
-0.000512
-0.000183
-0.000347
-0.000183
0.000146
0.00031
0.00031
0.00031
0.00031
0.000146
-1.9e-05
-0.000183
-0.000183
-0.000512
-1.9e-05
-1.9e-05
0.00031
0.00031
0.000474
0.000474
0.00031
-1.9e-05
-0.000347
-0.000347
-0.000347
-0.000347
0.00031
0.000146
0.00031
0.00031
0.00031
0.000146
-0.000347
-0.000512
-0.000512
-0.000512
-0.000347
-1.9e-05
0.00031
0.000474
0.000474
0.00031
0.000146
-1.9e-05
-0.000676
-0.000183
-0.000347
-1.9e-05
0.000146
0.00031
0.00031
0.00031
0.000474
0.000146
-0.000183
-0.000512
-0.000512
-0.000347
-0.000347
-1.9e-05
0.000146
0.000146
0.000146
0.000639
0.000146
-0.000512
-0.000347
-0.000347
-0.000512
-0.000512
-1.9e-05
0.000146
0.000146
0.00031
0.000474
0.000146
-1.9e-05
-0.000183
-0.000183
-0.000347
-0.000347
0.000146
0.000146
0.000146
0.00031
0.000474
0.00031
-0.000183
-0.000512
-0.000183
-0.000347
-0.000347
0.000146
-1.9e-05
0.00031
0.00031
0.000639
0.000146
-0.000183
-0.000347
-0.000183
-0.000512
-0.000347
-1.9e-05
-1.9e-05
0.00031
0.00031
0.00031
0.000146
-0.000183
-0.000512
-0.000347
-0.000512
-0.000347
-1.9e-05
0.00031
0.000146
0.00031
0.000639
0.000474
-1.9e-05
-0.000183
-0.000512
-0.000347
-0.000347
0.000146
0.000146
0.000146
0.00031
0.00031
0.000146
-0.000183
-0.000347
-0.000347
-0.000676
-0.000676
-1.9e-05
0.000146
0.00031
0.00031
0.000474
0.000146
-0.000183
-0.000347
-0.000512
-0.000512
-0.000347
-1.9e-05
0.000146
0.00031
0.00031
0.00031
0.00031
-0.000183
-0.000347
-0.000512
-0.000512
-0.000183
0.000146
0.000146
0.00031
0.00031
0.000474
0.00031
-0.000183
-0.000183
-0.000512
-0.000676
-0.000183
0.000146
0.00031
0.000146
0.000474
0.00031
0.000146
0.000146
-0.000347
-0.000347
-0.000512
-0.000347
-1.9e-05
0.000146
0.000146
0.00031
0.00031
0.000146
-0.000183
-0.000347
-0.000347
-0.000512
-0.000347
0.000146
0.000146
0.000146
0.00031
0.00031
0.00031
-1.9e-05
-0.000512
-0.000512
-0.000347
-0.000183
-1.9e-05
-1.9e-05
0.000474
0.000474
0.000474
0.000146
-0.000183
-0.000183
-0.000183
-0.000347
-0.000183
-1.9e-05
0.000146
0.000146
0.00031
0.000474
0.00031
-0.000183
-0.000183
-0.000347
-0.000512
-1.9e-05
-1.9e-05
0.00031
0.000474
0.00031
0.000474
0.00031
-1.9e-05
-0.000347
-0.000347
-0.000676
-0.000347
0.000146
-1.9e-05
0.000474
0.00031
0.00031
0.00031
-0.000183
-0.000347
-0.000183
-0.000347
-0.000347
0.000146
0.00031
0.000146
0.00031
0.000639
0.000146
-0.000347
-0.000183
-1.9e-05
-0.000347
-0.000183
-1.9e-05
0.00031
0.000146
0.000474
0.00031
0.000146
-0.000183
-0.000183
-0.000347
-0.000347
-0.000512
-1.9e-05
-1.9e-05
0.000474
0.00031
0.000146
0.000146
-0.000183
-0.000347
-0.000347
-0.000512
-0.000512
0.000146
0.000146
0.000474
0.00031
0.00031
0.00031
-1.9e-05
-0.000183
-0.000347
-0.000512
-0.000347
0.000146
0.00031
0.000146
0.000474
0.000474
0.00031
-0.000183
-0.000183
-0.000347
-0.000183
-0.000512
-1.9e-05
0.000146
0.00031
0.000474
0.00031
0.00031
-0.000183
-0.000183
-0.000512
-0.000347
-0.000347
-1.9e-05
-1.9e-05
0.00031
0.000474
0.000474
0.00031
-0.000183
-1.9e-05
-0.000347
-0.000512
-0.000347
0.000146
-1.9e-05
0.000474
0.000474
0.00031
0.00031
-0.000183
-0.000512
-0.000512
-0.000347
-0.000347
0.000146
0.000146
0.000146
0.00031
0.000474
0.000146
-1.9e-05
-0.000183
-0.000183
-0.000512
-0.000347
0.000146
0.000474
0.000146
0.000639
0.000474
0.00031
-0.000183
-0.000347
-0.000183
-0.000512
-0.000183
0.000146
-1.9e-05
0.000474
0.00031
0.000639
0.00031
-0.000183
-0.000347
-0.000512
-0.000183
-0.000347
-0.000183
0.00031
0.000146
0.000474
0.000474
0.00031
-0.000347
-0.000512
-0.000347
-0.000347
-0.000512
-1.9e-05
0.000146
0.00031
0.000474
0.00031
0.00031
-0.000183
-0.000347
-0.000183
-0.000512
-0.000183
-0.000183
0.00031
0.000146
0.000146
0.00031
0.000146
-1.9e-05
-0.000183
-0.000347
-0.000347
-0.000347
0.000146
0.00031
0.00031
0.000474
0.000474
-1.9e-05
-0.000183
-0.000183
-0.000347
-0.000183
-0.000347
-1.9e-05
-1.9e-05
0.000474
0.000146
0.000474
-1.9e-05
-1.9e-05
-0.000347
-0.000347
-0.000347
-0.000347
-0.000183
0.00031
0.000146
0.00031
0.000474
0.000146
-1.9e-05
-0.000347
-0.000512
-0.000512
-0.000512
0.000146
0.000146
0.000146
0.00031
0.00031
0.00031
-0.000183
-0.000183
-0.000512
-0.000347
-0.000347
-1.9e-05
0.000146
0.00031
0.000146
0.000474
0.00031
-0.000183
-0.000183
-0.000347
-0.000512
-0.000347
-1.9e-05
0.000146
0.00031
0.00031
0.00031
-1.9e-05
-0.000183
-0.000183
-0.000347
-0.000347
-0.000512
-1.9e-05
0.000146
0.000146
0.00031
0.000474
0.00031
-1.9e-05
-0.000347
-0.000347
-0.000347
-0.000347
-1.9e-05
-1.9e-05
-1.9e-05
0.00031
0.00031
0.000146
-1.9e-05
-1.9e-05
-0.000183
-0.000347
-0.000512
-1.9e-05
0.000474
0.00031
0.00031
0.00031
0.000474
-1.9e-05
-0.000183
-0.000183
-0.000512
-0.000512
-0.000183
0.00031
0.000474
0.000474
0.000474
0.00031
-1.9e-05
-0.000347
-0.000347
-0.000183
-0.000183
-0.000183
0.000146
0.000474
0.000474
0.000146
0.000474
-0.000183
-0.000347
-0.000347
-0.000512
-0.000347
-0.000183
-1.9e-05
0.000146
0.00031
0.00031
0.000146
-0.000183
-0.000347
-0.000347
-0.000347
-0.000183
-1.9e-05
0.000146
0.00031
0.000474
0.00031
0.00031
0.000146
-1.9e-05
-0.000512
-0.000512
-0.000183
0.000146
-1.9e-05
0.000146
0.00031
0.00031
0.00031
0.000146
-0.000347
-0.000347
-0.000347
-0.000347
-1.9e-05
0.000146
0.00031
0.00031
0.000474
0.00031
-0.000183
-0.000183
-0.000512
-0.000512
-0.000347
-0.000183
0.000146
0.000146
0.000474
0.00031
0.000146
-0.000183
-0.000183
-0.000347
-0.000347
-0.000512
-1.9e-05
-1.9e-05
0.00031
0.000474
0.000474
0.000474
-1.9e-05
-0.000512
-0.000183
-0.000347
-0.000512
-1.9e-05
0.00031
-1.9e-05
0.00031
0.00031
0.00031
-1.9e-05
-0.000183
-0.000347
-0.000347
-0.000676
-1.9e-05
-1.9e-05
0.00031
0.00031
0.00031
0.000146
-0.000183
-0.000183
-0.000347
-0.000512
-0.000512
-1.9e-05
0.000146
0.00031
0.00031
0.000474
0.000474
-1.9e-05
-0.000183
-0.000347
-0.000347
-0.000512
-1.9e-05
0.000146
-1.9e-05
0.00031
0.000474
0.00031
-0.000183
-0.000347
-0.000512
-0.000676
-0.000512
0.000146
0.00031
0.000146
0.000146
0.000474
0.000146
-0.000183
-0.000183
-0.000347
-0.000347
-0.000676
-1.9e-05
0.00031
0.000474
0.00031
0.000474
0.00031
-0.000183
-0.000183
-0.000347
-0.000183
-0.000347
0.000146
0.000146
0.000474
0.000474
0.00031
0.00031
-1.9e-05
-0.000183
-0.000347
-0.000347
-0.000347
-0.000183
0.000146
0.00031
0.00031
0.00031
0.00031
-0.000183
-0.000183
-0.000347
-0.000183
-0.000183
0.000146
0.000146
-1.9e-05
0.000474
0.000474
0.00031
-0.000183
-0.000183
-0.000347
-0.000512
-0.000512
0.000146
0.000146
0.00031
0.00031
0.00031
0.00031
-0.000183
-0.000183
-0.000183
-0.000347
-0.000347
-1.9e-05
0.000146
0.000146
0.000146
0.00031
0.000474
-0.000183
-0.000512
-0.000512
-0.000347
-0.000347
0.000146
-1.9e-05
0.00031
0.00031
0.00031
0.000474
-1.9e-05
-0.000183
-0.000512
-0.000676
-0.000347
0.000146
0.000146
0.00031
0.00031
0.000474
0.000474
-0.000183
-0.000347
-0.000183
-0.000512
-0.000347
0.000146
-1.9e-05
0.00031
0.000639
0.00031
0.00031
-1.9e-05
-1.9e-05
-0.000347
-0.000347
-0.000347
-1.9e-05
-1.9e-05
0.000474
0.00031
0.000474
0.000474
-0.000183
-0.000183
-0.000183
-0.000347
-0.000512
-0.000347
0.000146
0.000146
0.00031
0.00031
0.000474
-1.9e-05
-1.9e-05
-0.000347
-0.000512
-0.001005
-1.9e-05
0.000803
-1.9e-05
0.000639
0.00031
0.000474
0.000146
0.003104
0.000474
0.000474
0.002775
-0.000512
0.001789
0.000803
0.001132
0.000146
0.00409
0.014609
0.02332
0.028908
0.037455
0.04633
0.048795
0.055041
0.059314
0.066875
0.070655
0.072791
0.079037
0.085283
0.091035
0.094815
0.102047
0.099582
0.10254
0.110758
0.112894
0.116346
0.11651
0.121441
0.128673
0.128015
0.131302
0.138699
0.133275
0.133603
0.137877
0.140506
0.145108
0.143301
0.147409
0.151354
0.154641
0.156942
0.161873
0.155792
0.160558
0.160722
0.164174
0.164831
0.160722
0.168776
0.167297
0.170584
0.169926
0.178473
0.168283
0.171899
0.1742
0.175186
0.17798
0.176829
0.17913
0.181924
0.183075
0.178637
0.186526
0.179459
0.183075
0.181267
0.18817
0.184554
0.182582
0.186362
0.187019
0.186033
0.187513
0.188663
0.190964
0.190142
0.19195
0.192115
0.18817
0.190142
0.188334
0.189649
0.18932
0.190471
0.188499
0.191457
0.191786
0.191786
0.193265
0.192443
0.195237
0.197045
0.19573
0.192772
0.197374
0.190142
0.19195
0.194909
0.195237
0.192772
0.195566
0.192608
0.195895
0.194087
0.194087
0.196552
0.187348
0.196717
0.194251
0.197045
0.196223
0.197703
0.195073
0.198853
0.196881
0.19836
0.202633
0.188006
0.196223
0.196717
0.197867
0.197374
0.198689
0.193922
0.200825
0.19836
0.199346
0.197703
0.188827
0.19458
0.19721
0.196059
0.200168
0.198689
0.197867
0.201154
0.199346
0.199839
0.199511
0.189649
0.196388
0.20214
0.199675
0.198524
0.198853
0.199346
0.200661
0.201647
0.200825
0.200661
0.194087
0.193265
0.201812
0.197703
0.199018
0.196059
0.20099
0.197538
0.198853
0.193922
0.201812
0.194087
0.197703
0.199675
0.199182
0.200825
0.200332
0.20362
0.201483
0.202305
0.200332
0.200168
0.196717
0.19721
0.19836
0.20099
0.195895
0.19573
0.197703
0.200497
0.199018
0.19721
0.201976
0.196059
0.200004
0.197045
0.202469
0.200168
0.201483
0.198196
0.199839
0.200004
0.200004
0.199511
0.197867
0.197538
0.199511
0.201812
0.199839
0.199182
0.199675
0.199346
0.199511
0.201976
0.200825
0.198196
0.200004
0.201154
0.19836
0.201154
0.199675
0.198196
0.202305
0.198853
0.200168
0.19721
0.201319
0.199018
0.19836
0.202469
0.202633
0.199511
0.201483
0.201483
0.200168
0.200497
0.196388
0.199182
0.196552
0.201154
0.195073
0.199839
0.198031
0.199511
0.201976
0.200825
0.198196
0.200825
0.198689
0.196223
0.199511
0.197867
0.198853
0.201647
0.201647
0.200825
0.201647
0.199675
0.201319
0.199182
0.196717
0.200661
0.201976
0.199018
0.200661
0.201319
0.201647
0.201319
0.199675
0.203126
0.199182
0.199182
0.199182
0.198689
0.199675
0.198689
0.19836
0.197867
0.201647
0.199675
0.200168
0.201154
0.199839
0.200825
0.203126
0.194251
0.20362
0.200497
0.201647
0.202962
0.200168
0.198689
0.199839
0.196388
0.136726
0.006227
0.011322
0.016746
0.025621
0.030716
0.038276
0.044193
0.049288
0.057506
0.060465
0.067861
0.072791
0.079859
0.079859
0.087419
0.094158
0.097281
0.100239
0.102047
0.109114
0.10895
0.113552
0.117332
0.120948
0.125057
0.129166
0.131302
0.134097
0.135904
0.137548
0.140506
0.141
0.138534
0.14478
0.14856
0.146916
0.155299
0.156285
0.16138
0.140835
0.146259
0.14856
0.148889
0.153326
0.157271
0.155463
0.158257
0.155463
0.15875
0.161215
0.161873

Kurve 5

-1.9e-05
-1.9e-05
-0.000512
-0.000512
-0.000347
-0.000347
-1.9e-05
0.00031
0.00031
0.000474
0.00031
0.000146
-0.000183
-0.000183
-0.000347
-0.000512
-0.000183
0.000146
0.000146
0.00031
0.00031
0.000146
-0.000183
0.000146
-0.000347
-0.000183
-0.000347
-0.000183
0.000146
-1.9e-05
0.00031
0.000474
0.000474
-1.9e-05
-0.000512
-0.000183
-0.000512
-0.000512
-0.000183
0.000146
0.000474
0.000474
0.00031
0.000639
0.000146
-0.000183
-0.000347
-0.000347
-0.000347
-0.000183
0.000146
-1.9e-05
0.00031
0.00031
0.000474
0.000146
-1.9e-05
-0.000512
-0.000183
-0.000676
-0.000347
0.000146
0.000146
0.000474
0.000474
0.000474
0.000146
-0.000183
-0.000183
-0.000512
-0.000512
-0.000183
-1.9e-05
0.00031
0.00031
0.00031
0.000474
-1.9e-05
-0.000183
-0.000183
-0.000512
-0.000512
-0.000183
-1.9e-05
0.00031
0.00031
0.000474
0.000474
0.000146
-0.000183
-0.000347
-0.000347
-0.000512
-0.000183
0.000146
0.000146
0.00031
0.00031
0.000146
-1.9e-05
-0.000183
-0.000183
-0.000183
-0.000347
-0.000183
-1.9e-05
0.000474
0.00031
0.00031
0.000474
-1.9e-05
-0.000183
-0.000347
-0.000347
-0.000347
-0.000183
0.000146
0.000146
0.000474
0.000146
0.00031
0.00031
-1.9e-05
-0.000676
-0.000347
-0.000676
-0.000183
0.000146
0.00031
0.00031
0.000474
0.00031
0.000146
-0.000183
-0.000183
-0.000183
-0.000512
-0.000347
0.000146
0.00031
0.000639
0.000474
0.000474
0.000146
-0.000183
-0.000512
-0.000347
-0.000512
-1.9e-05
0.00031
0.000146
0.00031
0.000146
0.000474
0.00031
-0.000183
-0.000512
-0.000512
-0.000512
-1.9e-05
-1.9e-05
0.000146
0.00031
0.00031
0.00031
0.00031
-1.9e-05
-0.000347
-0.000512
-0.000512
-0.000183
0.000146
-1.9e-05
0.00031
0.000639
0.000474
0.00031
-0.000347
-0.000347
-0.000512
-0.000512
-0.000183
0.000146
0.000146
0.00031
0.00031
0.000474
0.00031
-0.000183
-0.000183
-0.000512
-0.000512
-0.000183
-1.9e-05
0.000146
0.00031
0.000474
0.000474
0.000146
-1.9e-05
-0.000512
-0.000512
-0.000512
-0.000347
0.000146
0.000146
0.000474
0.00031
0.000474
0.000146
-0.000183
-0.000347
-0.000512
-0.000512
-0.000347
0.000146
0.000474
0.000474
0.000474
0.000639
0.000146
-0.000183
-0.000347
-0.000347
-0.000512
-0.000183
0.000146
0.000803
0.001132
0.001625
0.000639
0.00031
-0.000347
-0.000512
-0.000512
-0.001005
0.00031
-0.000841
0.00031
-0.001169
-0.001662
-0.000347
0.000474
-0.000183
-0.000841
-0.000841
-0.000676
0.001132
-0.001662
0.002282
-0.001334
-0.000841
0.002775
0.000639
0.002611
0.000803
-0.002155
0.000146
-1.9e-05
0.000146
-0.001827
-0.002813
0.001132
-0.001169
0.002611
0.001132
-0.000183
-0.000183
-0.001498
0.00146
-0.002484
0.001132
0.000639
0.002118
-0.001498
0.001954
0.00409
0.00409
-0.000347
-0.001005
-0.000676
-0.000512
-0.001827
0.000639
0.000474
0.000474
0.001132
-0.000841
-0.000512
-0.000183
-0.00232
-0.000512
-0.000676
-0.00347
0.00031
-0.001498
-0.001005
-0.000676
0.000146
0.000803
0.001132
0.001789
0.001296
-0.000676
0.00031
0.002447
-0.001662
0.000967
-0.001991
0.005076
-0.00232
-0.003306
-0.00232
-0.003963
-0.002155
0.001132
0.000146
0.000474
0.000803
0.000639
-0.000183
-0.000347
-0.000512
-0.000183
-0.001991
0.002447
-0.003142
-0.003635
-0.000676
0.00031
-0.002155
-0.001991
-0.000841
0.002118
-1.9e-05
-1.9e-05
0.001132
0.004912
0.00146
0.00409
0.001132
0.001625
0.00146
0.002447
0.001789
0.000146
0.00031
-0.000347
0.000967
-0.001498
0.001625
-0.000841
-0.000841
-0.003635
0.000967
0.001625
0.000639
0.001625
0.000639
0.001132
0.00294
0.001789
-0.000183
0.000146
-0.000512
-0.001169
-0.001005
-0.000183
-0.005443
-0.001498
-0.005771
0.000639
-0.001005
0.001132
0.002282
-0.001662
-0.001334
0.00031
0.000474
-0.002813
0.000803
-0.000841
0.001625
0.003433
0.001132
0.000803
-0.000512
-0.002155
-0.001005
0.001296
0.001954
-0.000676
0.000803
0.002447
-1.9e-05
0.002118
0.000146
0.001789
-0.001498
0.000146
-0.001005
0.001625
-0.001169
-0.000512
0.000146
0.000639
0.00031
0.00031
-0.000183
-0.000183
-0.000347
-0.000183
-0.000183
-1.9e-05
0.000146
-1.9e-05
-0.001827
-0.001005
0.001132
-0.00232
-0.001498
0.000967
0.00146
0.001132
-0.001827
0.000146
-0.001005
0.000803
0.00031
0.00031
-0.000512
-0.000347
-0.000347
-0.000676
-0.001334
-0.00232
-0.001005
-0.002977
0.000639
0.000146
0.000146
0.001132
0.000146
-1.9e-05
0.00294
0.000474
0.001789
-1.9e-05
0.000803
0.000803
-1.9e-05
-0.002155
0.000474
0.000474
0.000146
0.00031
-0.000183
0.001296
-0.000841
0.000639
-0.000512
0.003597
0.00146
0.003268
0.00146
0.000803
0.000803
-0.002813
-0.002977
0.000146
-0.001991
-0.002813
-0.002484
-0.003799
-0.001498
-0.003142
0.000803
0.000967
-0.001169
0.002447
0.00031
-0.003799
0.001132
0.000146
-0.004456
0.002118
-0.000183
0.000474
0.000146
0.000146
-0.001498
0.00031
0.000146
-0.001827
0.000803
-0.000183
-0.000347
0.001625
0.002118
0.000146
0.002282
-0.004785
-0.000512
-0.001662
0.000146
-0.001005
-0.001498
-0.000676
0.001954
-0.000347
0.000474
0.00294
-0.001005
0.000146
0.002775
0.000639
0.00031
-0.001169
-0.001169
-0.000841
0.000146
-0.001169
-0.003799
-0.001662
-0.002813
-0.001334
-1.9e-05
-1.9e-05
-0.002155
0.000803
0.001789
0.001132
0.000474
0.000967
0.001296
0.009678
-0.000183
0.001625
0.001132
-0.001991
0.001789
-0.001334
0.001132
-0.000347
-1.9e-05
-0.000347
-0.001005
-0.000512
0.001296
0.002282
-0.001662
-0.00232
-0.003306
-0.000183
0.001132
0.002447
-0.001005
-0.000183
-0.001169
-0.000347
0.000803
0.001954
0.002775
-0.000347
0.003268
-0.000512
0.000146
-0.003142
0.000146
-0.001991
-1.9e-05
-0.000841
0.000639
0.001625
-0.001827
-0.001662
-0.001005
0.00146
-0.003799
0.001132
-0.001169
0.001625
0.000146
-0.001662
0.000474
0.005076
-0.001169
0.002282
0.001954
-0.001662
0.00031
0.002447
-0.00232
0.000146
-0.001334
0.000639
-0.002155
0.00031
0.003104
0.002282
0.001296
-0.001827
0.004419
-0.004292
0.000474
0.000803
0.00031
0.00294
-0.000512
-1.9e-05
0.003926
0.00146
-0.001169
0.000803
0.000474
0.001954
-0.004456
-0.003306
-1.9e-05
0.001625
0.000474
0.000146
0.000474
0.000639
-0.000512
-0.004949
-0.00232
-0.000347
-0.000841
-0.000183
-1.9e-05
-0.001169
-0.000183
-0.002484
-0.00232
-0.002155
-0.003142
-0.003799
-0.002155
-0.000183
-0.001662
0.000146
-0.001662
-1.9e-05
-0.003142
0.001789
-0.001662
-0.001498
-0.002155
0.001625
0.000803
-0.000512
-0.000512
-0.003799
0.000639
-0.000676
-0.00232
-0.000347
0.000146
-1.9e-05
0.001296
-0.000183
0.003926
-0.001827
0.000146
-0.001169
-0.001169
-0.002155
-0.003306
-0.001498
-0.000841
-0.001991
-0.002484
-0.001169
0.001296
0.00146
-0.003142
-0.000676
-0.000841
-0.000676
0.00146
0.000474
-0.000347
-0.000512
-1.9e-05
-0.000183
-0.001498
-0.001991
0.000146
-0.001005
0.00031
-0.001169
0.001296
-0.000841
0.002118
0.000639
0.001132
-0.000841
-0.002648
-0.001334
0.00031
-0.002648
0.000967
-0.000512
-0.005607
0.002282
-0.001334
0.000639
-0.000841
0.000146
-0.000183
-0.001827
0.000639
0.000146
0.000803
-0.000347
-0.000347
-0.000347
0.002775
-0.002813
0.002118
-0.002484
-0.000512
-0.004456
0.001296
0.003597
0.001954
0.000639
0.00146
0.00031
-0.000841
0.001789
-0.000183
0.00031
-0.001334
0.00031
-0.000841
-1.9e-05
0.002118
0.002611
-0.000512
-0.000183
0.001789
-0.000347
0.000803
-0.001169
-0.003635
-0.002155
-0.000512
-0.000841
0.002118
0.003433
0.011158
0.021676
0.023977
0.030059
0.038934
0.04255
0.050274
0.056191
0.060958
0.068518
0.073778
0.077722
0.083803
0.087419
0.089391
0.094815
0.094158
0.104512
0.105334
0.10632
0.116017
0.119469
0.118154
0.124399
0.125057
0.130316
0.132617
0.135576
0.135411
0.139685
0.143465
0.144287
0.146423
0.147738
0.150204
0.152011
0.153819
0.157271
0.157435
0.15612
0.159243
0.162037
0.161544
0.165817
0.164996
0.165817
0.166311
0.169433
0.16779
0.171734
0.167297
0.17157
0.175679
0.174035
0.174857
0.176501
0.17272
0.178309
0.178966
0.176172
0.180281
0.177815
0.179295
0.182089
0.178966
0.179459
0.183568
0.182582
0.115031
0.026443
0.002775
0.012472
0.018554
0.022169
0.028086
0.039591
0.0437
0.051754
0.056027
0.062766
0.065888
0.073284
0.078708
0.08331
0.086269
0.095473
0.096623
0.101225
0.102376
0.105498
0.11158
0.112237
0.119469
0.121605
0.079694
0.0769
0.083146
0.08857
0.092679
0.096623
0.100732
0.101883
0.108621
0.112894
0.113223
0.11799
0.118976
0.124564
0.123578
0.129495
0.130809
0.135247
0.133932
0.139356
0.140835
0.143629
0.142643
0.144944
0.150532
0.147903
0.152998
0.152669
0.159572
0.155134
0.161709
0.161873
0.160887
0.162202
0.163681
0.161051
0.165653
0.167132
0.167461
0.170913
0.170419
0.17157
0.171734
0.176665
0.171734
0.172392
0.175679
0.176172
0.177487
0.18176
0.17913
0.178966
0.17913
0.179623
0.180116
0.17913
0.182582
0.180445
0.182746
0.182089
0.184554
0.186033
0.184225
0.184061
0.187184
0.187184
0.186855
0.184225
0.187841
0.186691
0.185869
0.190471
0.187677
0.187019
0.183732
0.186198
0.188663
0.187184
0.18439
0.18439
0.179788
0.177651
0.16779
0.163023
0.157107
0.155792
0.139849
0.065231
0.065395
0.049781
0.056027
0.057671
0.063259
0.069997
0.074928
0.077229
0.08331
0.081995
0.093993
0.095966
0.098595
0.106978
0.105334
0.03614
0.036962
0.044851
0.046823
0.054712
0.063916
0.064902
0.042714
0.003926
0.009185
0.008528
0.011815
0.017567
0.027265
0.030552
0.038769
0.044193
0.051261
0.051918
0.059314
0.068189
0.070983
0.072956
0.082982
0.086597
0.090706
0.096623
0.09991
0.101225
0.102704
0.110922
0.111744
0.115853
0.119469
0.124399
0.126207
0.127687
0.129659
0.13311
0.13574
0.137384
0.141986
0.142643
0.147574
0.15497
0.15234
0.152176
0.151518
0.153326
0.155627
0.158257
0.15875
0.156449
0.161215
0.153655
0.16253
0.16253
0.162695
0.163352
0.163845
0.171406
0.16779
0.169269
0.167625
0.170748
0.170584
0.174035
0.172556
0.174857
0.170748
0.17157
0.17535
0.17272
0.1742
0.174857
0.177487
0.173707
0.180281
0.17535
0.17913
0.176665
0.178637
0.179952
0.183897
0.182253
0.17913
0.181924
0.18176
0.179459
0.177158
0.183404
0.176336
0.180281
0.178637
0.180774
0.176994
0.179788
0.181103
0.18439
0.181596
0.183075
0.185047
0.178144
0.185047
0.185047
0.185047
0.180445
0.180938
0.182911
0.181267
0.181924
0.178637
0.185376
0.179623
0.180116
0.180774
0.181596
0.177487
0.179788
0.178802
0.177158
0.176008
0.177815
0.180774
0.174364
0.174857
0.176336
0.173707
0.177487
0.178802
0.175186
0.178144
0.179295
0.175186
0.17913
0.179952
0.176829
0.179623
0.176336
0.176336
0.174528
0.177815
0.177322
0.174857
0.175515
0.181103
0.173707
0.176008
0.178473
0.175515
0.176665
0.175843
0.179623
0.177158
0.1742
0.168776
0.17798
0.170748
0.174035
0.173214
0.174693
0.170748
0.172063
0.173049
0.171077
0.17272
0.173871
0.174693
0.171406
0.171406
0.171077
0.174035
0.169762
0.170748
0.170913
0.16894
0.170748
0.173871
0.171734
0.172392
0.173707
0.173214
0.175843
0.180116
0.175515
0.171241
0.17535
0.17272
0.174693
0.171241
0.173871
0.173542
0.176008
0.175679
0.1742
0.173378
0.175679
0.175021
0.175021
0.176172
0.165489
0.173214
0.168283
0.168283
0.172392
0.176665
0.172227
0.171899
0.175515
0.1742
0.176008
0.167461
0.17535
0.1742
0.1742
0.176665
0.176336
0.170091
0.174857
0.16779
0.170419
0.170255
0.156778
0.169762
0.16779
0.169433
0.166968
0.172227
0.163516
0.169269
0.165817
0.167461
0.163023
0.155956
0.164667
0.169926
0.166475
0.165982
0.169433
0.16401
0.167625
0.168118
0.170255
0.168776
0.161544
0.169433
0.169762
0.171734
0.170091
0.169926
0.169105
0.168612
0.169598
0.171241
0.170913
0.15875
0.163516
0.166968
0.168776
0.167625
0.169269
0.168776
0.166968
0.170091
0.167297
0.169926
0.163516
0.165817
0.164174
0.163845
0.163352
0.163845
0.16516
0.164831
0.166146
0.166311
0.168612
0.161873
0.166475
0.164503
0.172392
0.167625
0.165653
0.169433
0.165489
0.166968
0.167297
0.166804
0.163188
0.164996
0.164174
0.167954
0.163681
0.164338
0.163188
0.166311
0.167132
0.163681
0.163023
0.159901
0.161544
0.161709
0.162202
0.160229
0.159901
0.160394
0.164667
0.163352
0.164503
0.163516
0.164338
0.16401
0.165653
0.166968
0.164503
0.162859
0.16516
0.165817
0.163188
0.164667
0.159901
0.161709
0.162037
0.162366
0.159243
0.161544
0.161544
0.16516
0.165489
0.164503
0.161873
0.162202
0.161544
0.160558
0.161873
0.159408
0.157271
0.158914
0.164174
0.1576
0.162859
0.159079
0.160722
0.159079
0.159572
0.160229
0.160394
0.161873
0.161215
0.161051
0.161544
0.164174
0.15612
0.158914
0.160558
0.159572
0.157271
0.153984
0.159408
0.161051
0.159243
0.161544
0.160558
0.158257
0.121605
0.114045
0.099089
0.100732
0.096623
0.070983
0.05389
0.037783
0.03088
0.024306
0.019211
0.014773
0.016417
0.013787
0.01428
0.013459
0.015266
0.020197
0.020855
0.022991
0.019704
0.020362
0.014773
0.008528
0.002611
0.00787
0.008528
0.0105
0.008692
0.006227
0.005898
0.006884
0.004583
0.005076
0.006227
0.001132
0.004583
0.004912
0.006062
0.004912
0.008363
0.005241
0.005734
0.00672
0.008035
0.010829
0.000967
0.005076
0.008199
0.012472
0.017074
0.002775
0.001789
0.006062
0.002775
0.004912
0.001132
0.004255
0.004419
0.007377
0.010664
0.008857
0.011651
0.005734
0.008857
0.005569
0.008528
0.012637
0.01691
0.012472
0.012965
0.018718
0.016253
0.012801
0.015102
0.015595
0.018882
0.018718
0.022663
0.018225
0.011322
0.014116
0.012472
0.013459
0.009843
0.010007
0.008692
0.018225
0.024306
0.021841
0.022005
0.027922
0.034332
0.041892
0.050603
0.050274
0.058164
0.061286
0.068682
0.069504
0.073613
0.076079
0.08216
0.086762
0.088241
0.094322
0.094651
0.099746
0.103526
0.105498
0.106649
0.112073
0.111744
0.118318
0.120291
0.121112
0.122756
0.127687
0.130645
0.13311
0.134754
0.136398
0.13952
0.140835
0.144615
0.14593
0.151683
0.148724
0.154806
0.154641
0.156285
0.157107
0.160229
0.161873
0.162037
0.163516
0.163681
0.166146
0.169269
0.172556
0.170091
0.171406
0.169762
0.173214
0.171077
0.168283
0.172227
0.178802
0.17272
0.178144
0.18061
0.180116
0.181431
0.180116
0.180938
0.180445
0.183897
0.177158
0.184061
0.177815
0.179295
0.181103
0.184225
0.184718
0.18817
0.188827
0.187019
0.190142
0.184061
0.188499
0.187841
0.186526
0.187348
0.189485
0.188663
0.187513
0.187677
0.188334
0.190142
0.18817
0.189485
0.190471
0.192279
0.192608
0.194909
0.191293
0.193922
0.195073
0.194087
0.194087
0.19195
0.18817
0.192608
0.193265
0.189978
0.191621
0.194087
0.195237
0.19195
0.195073
0.194416
0.193265
0.193101
0.1908
0.192936
0.197374
0.194744
0.192443
0.190635
0.191786
0.191457
0.192279
0.190471
0.190307
0.195402
0.196881
0.198524
0.196881
0.198689
0.196388
0.198031
0.195073
0.19458
0.191128
0.195895
0.19458
0.194416
0.197374
0.196552
0.197374
0.195402
0.19836
0.195895
0.197703
0.196059
0.199346
0.19836
0.20099
0.20099
0.19721
0.197538
0.195566
0.195237
0.195402
0.197538
0.193265
0.173542
0.164667
0.168118
0.168776
0.094487
0.0105
0.010993
0.01313
0.013787
0.000146
0.000803
0.00787
0.000967
-0.004292
0.005241
-1.9e-05
-0.001005
-0.000347
-0.000183
-0.000512
-0.001005
0.00146
0.000146
0.003104
0.00031
0.000803
-1.9e-05
-1.9e-05
-0.000183
-0.000512
-0.000512
-0.000183
-1.9e-05
0.00031
0.00031
0.000474
0.000639
-1.9e-05
0.000146
-0.000512
-0.000183
-0.000347
-0.000183
0.000146
0.000146
0.00031
0.00031
0.000474
0.00031
-0.000347
-0.000512
-0.000347
-0.000676
-0.000347
0.00031
0.000146
0.000146
0.000474
0.000639
-1.9e-05
-0.000347
-1.9e-05
-0.000512
-0.000347
-0.000347
0.000146
0.000146
0.00031
0.000474
0.000474
0.000146
-0.000183
-0.000183
-0.000512
-0.000512
-0.000347
-1.9e-05
0.000474
0.000639
0.000474
0.000639
-1.9e-05
-0.000347
-0.000183
-0.000347
-0.000512
-0.000347
-1.9e-05
-1.9e-05
0.000474
0.000474
0.000474
-1.9e-05
0.000146
-0.000512
-0.000347
-0.000347
-0.000512
0.000146
0.00031
0.000639
0.00031
0.00031
-1.9e-05
-0.000183
-0.000183
-0.000347
-0.000512
-0.000347
-1.9e-05
0.000474
0.00031
0.00031
0.000474
0.000146
-1.9e-05
-0.000183
-0.000347
-0.000512
-0.000183
0.000146
-1.9e-05
0.00031
0.000474
0.000146
0.000146
-1.9e-05
-0.000183
-0.000512
-0.000347
-0.000183
-1.9e-05
0.000146
0.000146
0.000474
0.000639
0.000146
-0.000183
-0.000347
-0.000512
-0.000512
-0.000347
0.000146
0.00031
0.00031
0.00031
0.00031
0.000146
-0.000183
-0.000347
-0.000347
-0.000512
-0.000183
-1.9e-05
0.00031
0.00031
0.00031
0.000474
0.00031
-1.9e-05
-0.000183
-0.000512
-0.000347
-0.000183
0.000146
0.000146
0.00031
0.00031
0.000146
0.000146
-0.000183
-0.000512
-0.000347
-0.000676
-0.000347
-0.000183
0.00031
0.000146
0.00031
0.000474
0.00031
-0.000183
-0.000183
-0.000512
-0.000347
-0.000347
-1.9e-05
0.00031
0.000474
0.00031
0.000639
0.000146
-1.9e-05
-0.000183
-0.000347
-0.000512
-0.000183
-1.9e-05
0.00031
0.000474
0.00031
0.00031
0.00031
-1.9e-05
-0.000347
-0.000676
-0.000676
-0.000347
0.000146
0.000146
0.000474
0.000474
0.00031
0.000146
-0.000347
-0.000347
-0.000512
-0.000347
-0.000347
0.000146
0.00031
0.00031
0.000474
0.00031
0.000146
-0.000183
-0.000347
-0.000347
-0.000183
-0.000512
-1.9e-05
0.000146
0.00031
0.000474
0.000474
0.000146
-1.9e-05
-0.000183
-0.000512
-0.000347
-0.000183
0.000146
0.000146
0.000474
0.00031
0.000639
0.000146
-0.000183
-0.000183
-0.000512
-0.000347
-0.000347
-1.9e-05
0.00031
0.00031
0.00031
0.000474
0.00031
-1.9e-05
-0.000183
-0.000183
-0.000183
-0.000347
-0.000183
0.00031
0.000474
0.000474
0.000474
0.000146
0.000146
-0.000347
-0.000183
-0.000512
-0.000183
-1.9e-05
0.000146
0.000474
0.00031
0.000639
0.00031
-0.000183
-0.000347
-0.000183
-0.000512
-0.000347
-1.9e-05
0.000146
0.00031
0.000474
0.000474
0.00031
-0.000183
-0.000347
-0.000512
-0.000347
-1.9e-05
-0.000183
0.00031
0.000639
0.00031
0.000639
0.000474
-0.000183
-0.000347
-0.000183
-0.000512
-0.000183
0.000146
-1.9e-05
0.000474
0.00031
0.000474
0.000146
-0.000347
-0.000512
-0.000347
-0.000347
-0.000512
-1.9e-05
0.000146
0.000474
0.000474
0.000474
0.00031
-0.000347
-0.000183
-0.000512
-0.000512
-0.000347
-0.000183
0.00031
0.00031
0.000474
0.00031
0.000146
-0.000183
-0.000183
-0.000512
-0.000512
-0.000512
0.000146
0.000474
0.00031
0.00031
0.000474
0.00031
-0.000183
-0.000347
-0.000347
-0.000676
-0.000347
0.000146
0.000146
0.00031
0.000474
0.000474
0.000474
-0.000183
-0.000347
-0.000512
-0.000512
-0.000347
0.000146
0.000146
0.000146
0.00031
0.000474
0.00031
-0.000183
-0.000512
-0.000183
-0.000183
-0.000183
-1.9e-05
-1.9e-05
0.000474
0.000474
0.000474
0.000146
-1.9e-05
-0.000347
-0.000512
-0.000512
-0.000183
-1.9e-05
0.000474
0.000146
0.000474
0.000474
0.00031
-0.000183
-0.000676
-0.000512
-0.000183
-0.000183
0.000146
0.000146
0.00031
0.00031
0.000474
0.00031
-0.000183
-0.000183
-0.000512
-0.000512
-0.000183
0.00031
0.00031
0.000474
0.00031
0.000639
0.000146
-0.000183
-0.000512
-0.000347
-0.000347
-0.000347
0.000146
0.00031
0.000474
0.000474
0.00031
0.00031
-1.9e-05
-0.000183
-0.000512
-0.000676
-0.000347
0.000146
0.000474
0.000474
0.000474
0.000474
0.000146
-0.000183
-0.000347
-0.000512
-0.000347
-0.000183
0.000639
0.000146
0.00031
0.00031
0.00031
-0.001334
-0.000183
-0.001169
-0.000347
-0.000183
-0.000183
0.000146
0.000474
0.000146
0.00031
0.001954
0.000474
-0.000183
-1.9e-05
-0.000676
-0.000841
-0.000841
-0.000183
0.000474
0.00031
0.000967
0.000474
0.00031
-1.9e-05
-1.9e-05
0.001625
0.002118
-0.000347
0.000146
0.000146
0.000146
0.000146
0.000146
0.000146
0.007542
-0.000512
-0.000841
0.000146
0.000803
0.000474
0.001132
0.001789
0.004419
0.000803
0.000146
-0.000183
0.003926
-0.000512
0.000639
0.008363
0.003761
-0.000676
0.004912
0.00672
0.000474
0.00031
0.000146
0.002775
-0.000183
0.000146
0.001132
0.001954
0.004255
0.002282
-0.000183
0.004419
0.000967
-0.000183
-0.000183
-0.000347
-0.001169
-0.000183
-1.9e-05
0.00031
0.000474
0.000803
0.000639
0.000146
0.001789
-0.000347
0.002118
0.003597
0.005569
0.004583
0.004419
0.000146
0.001789
0.000146
-1.9e-05
-0.002813
-0.000183
-1.9e-05
-0.000347
0.001132
0.00031
0.00031
0.002118
0.003268
0.001296
0.00146
-0.000183
-1.9e-05
0.002118
0.001132
-1.9e-05
0.00031
-0.001005
0.006062
0.005734
0.000803
0.00409
0.003597
0.011322
0.008528
0.00031
-1.9e-05
0.002775
0.000639
0.003926
0.00294
0.002118
0.00031
0.002611
0.00031
-0.001827
-0.000347
-1.9e-05
-1.9e-05
0.000803
0.000474
0.00031
0.000474
0.000146
0.001296
-0.000183
-0.000512
-0.000347
-0.000183
0.002118
0.000146
0.00031
0.000474
0.00031
0.000146
-1.9e-05
-0.000183
-0.000183
-0.000512
-0.000183
-0.000183
0.000146
0.00031
0.000474
0.000474
0.000146
-0.000183
-0.000183
-0.000512
-0.000676
-0.000183
-1.9e-05
0.00031
0.000146
0.000639
0.000474
0.00031
-0.000183
-0.000183
-0.000347
-0.000347
-0.000512
-1.9e-05
0.000146
0.000474
0.00031
0.000639
0.00031
-0.000347
-0.000347
-0.000512
-0.000512
-0.000347
-1.9e-05
0.00031
0.000474
0.000474
0.000474
0.000474
-0.000183
-0.000347
-0.000347
-0.000512
-0.000347
-1.9e-05
0.000474
0.000146
0.000474
0.000474
0.000474
-0.000347
-0.000183
-0.000347
-0.000512
-0.000347
-1.9e-05
0.000146
0.00031
0.00031
0.000474
0.000146
-0.000183
-0.000183
-0.000676
-0.000512
-0.000512
-1.9e-05
-1.9e-05
0.000474
0.000474
0.00031
0.00031
0.000146
-0.000512
-0.000183
-0.000347
-0.000512
-0.000183
0.000146
0.00031
0.00031
0.00031
0.000146
-0.000183
-0.000183
-0.000183
-0.000512
-0.000347
-0.000183
0.000146
0.00031
0.00031
0.00031
0.000146
-0.000183
-0.000183
-0.000347
-0.000183
-0.000183
-0.000183
0.000146
0.00031
0.00031
0.00031
0.000146
-1.9e-05
-0.000347
-0.000347
-0.000512
-0.000347
-1.9e-05
-1.9e-05
0.00031
0.00031
0.000474
0.000146
-0.000183
-0.000347
-0.000512
-0.000512
-0.000512
-1.9e-05
0.00031
0.000639
0.000474
0.000803
0.00031
-0.000183
-0.000347
-0.000841
-0.000512
-0.000183
0.000146
0.00031
0.000474
0.00031
0.000474
0.000474
-0.000183
-0.000347
-0.000512
-1.9e-05
0.00031
0.000803
0.000639
0.000967
-1.9e-05
0.00146
0.000146
0.000146
-1.9e-05
0.00031
-0.001169
-0.000841
-0.000676
0.00031
0.001132
0.000803
0.000967
0.00031
-0.000841
-0.000183
0.001132
-0.000183
-0.000512
0.00031
0.000639
0.001296
0.000639
-0.000183
0.000474
0.000146
-0.000183
-0.000676
-0.000183
-0.000183
0.000474
0.001954
-0.001498
0.000967
-0.000512
0.000967
0.000474
0.000474
-0.000512
-0.000347
-0.001662
-0.000183
0.000146
-1.9e-05
0.000967
0.000474
0.000474
-1.9e-05
0.000146
-0.000347
-0.000512
-0.001005
0.00031
0.000474
0.00031
0.00031
0.000474
0.000146
-1.9e-05
-0.000512
-0.000347
-0.000347
-0.000676
0.000146
0.000474
0.000474
0.000639
0.000474
0.000146
0.000146
0.000146
-0.000676
0.000146
0.000146
0.000146
0.00031
0.00031
0.000146
0.002775
0.000474
0.000146
-0.000676
-0.000347
-0.000512
0.000474
0.00031
0.00146
0.000967
0.000803
0.000474
-0.001005
0.000803
0.000639
-0.000183
-0.000676
0.00031
-0.000512
0.000639
0.000146
0.000474
0.000474
0.000803
0.00031
0.000639
0.001625
-0.000676
0.000803
0.000474
0.001132
0.000474
0.00031
0.000474
0.001132
-0.000347
0.000146
-0.000676
-0.000183
0.00031
0.000967
0.000474
0.000967
0.000639
0.001296
0.000639
-0.000676
0.001132
-0.000676
0.000639
-0.000512
-0.000183
-0.000512
0.000474
-0.000512
0.001625
0.000639
-0.000183
0.000474
0.000146
-1.9e-05
0.000474
0.000967
-1.9e-05
-0.000347
0.000967
0.000474
0.000639
-0.001334
-0.000347
0.000146
-0.000347
-0.001169
0.00031
-0.000183
0.000639
0.00031
0.000803
0.000146
0.000803
-0.000512
0.000803
-1.9e-05
-1.9e-05
-0.000841
0.000474
0.000146
0.000967
0.00031
0.000146
0.000639
0.000146
0.000146
-0.001169
-0.000512
0.000639
0.000639
0.00031
0.001296
0.000803
0.001296
-0.000676
-1.9e-05
-0.000841
-0.000512
-0.001498
-0.000841
0.000967
-0.000183
0.000639
0.00031
0.000474
-0.000183
0.000146
-1.9e-05
-0.000347
-0.001334
0.001132
0.000639
-0.000183
-0.000512
0.000474
0.000639
-0.000512
