Ladekurvenmessung

Zeit: 2018_05_04 09.04.50

Info: FVA3, v = 1.05, T = 23, F = 20, h = 518.2

Ladewiderstand[Ohm]: 1012700

Störkapazität[pF]: 0.000000

Entladezeit[ms]: 200

Abtastrate[Hz]: 250000

Anzahl der Messwerte: 2500.000000

Verzögerung[ms]: 3

Ladespannung[V]: 0.200000


Kurve 1

-0.006429
-0.006593
-0.005936
-0.007744
-0.005278
-0.008401
-0.004456
-0.010373
-0.008894
-0.00873
-0.010866
-0.008565
-0.010045
-0.00873
-0.007579
-0.007415
-0.007086
-0.010702
-0.011359
-0.00988
-0.010538
-0.010373
-0.010045
-0.010209
-0.013496
-0.012017
-0.008894
-0.012839
-0.009223
-0.013825
-0.010702
-0.013167
-0.013167
-0.012674
-0.011688
-0.012181
-0.011524
-0.015633
-0.01514
-0.013496
-0.019577
-0.019413
-0.018591
-0.017605
-0.017934
-0.017605
-0.01892
-0.019577
-0.020399
-0.020563
-0.02007
-0.023029
-0.023029
-0.022864
-0.024179
-0.025658
-0.021056
-0.026152
-0.025658
-0.028124
-0.030425
-0.026645
-0.03174
-0.033548
-0.032726
-0.040451
-0.032726
-0.030918
-0.033219
-0.037821
-0.034534
-0.039464
-0.036342
-0.038643
-0.042258
-0.041108
-0.040451
-0.041601
-0.040286
-0.042587
-0.04571
-0.040944
-0.047025
-0.044888
-0.049161
-0.049655
-0.047847
-0.045053
-0.046039
-0.046696
-0.047847
-0.05327
-0.04686
-0.05327
-0.049326
-0.053435
-0.051298
-0.054421
-0.051627
-0.054914
-0.052613
-0.051298
-0.054585
-0.054421
-0.053435
-0.051462
-0.05475
-0.053599
-0.055736
-0.05212
-0.054914
-0.053928
-0.048504
-0.05212
-0.052613
-0.045546
-0.050805
-0.056064
-0.049983
-0.048833
-0.046039
-0.046203
-0.042423
-0.0393
-0.037492
-0.035027
-0.028946
-0.028617
-0.026152
-0.023522
-0.020563
-0.01629
-0.014647
-0.012674
-0.006593
-0.005607
-0.003142
0.000146
0.002775
0.002282
0.006556
0.014116
0.013787
0.018882
0.019868
0.024142
0.022005
0.023484
0.021512
0.025457
0.023813
0.02332
0.023484
0.02332
0.025457
0.024142
0.026278
0.02595
0.023813
0.022005
0.026607
0.020855
0.021348
0.020362
0.015595
0.017896
0.017732
0.022498
0.012801
0.018061
0.013787
0.017732
0.012637
0.01313
0.015924
0.014938
0.015924
0.01691
0.018554
0.015266
0.019868
0.014938
0.016253
0.017732
0.020197
0.016417
0.016253
0.016088
0.024142
0.020197
0.018554
0.021183
0.021841
0.022991
0.022005
0.022169
0.023813
0.021841
0.022005
0.026771
0.024142
0.023649
0.022991
0.026443
0.025785
0.023649
0.024142
0.026278
0.026114
0.02595
0.028908
0.028086
0.02973
0.028744
0.028086
0.029072
0.03088
0.031867
0.032195
0.02973
0.028908
0.029072
0.034332
0.028251
0.028415
0.031373
0.033674
0.029894
0.032853
0.034496
0.034825
0.036797
0.036469
0.042057
0.034661
0.036304
0.037126
0.036304
0.034496
0.034661
0.031702
0.033017
0.034661
0.034989
0.03614
0.033346
0.033839
0.032853
0.03351
0.030059
0.032031
0.030223
0.029072
0.030552
0.028744
0.027593
0.028744
0.024964
0.02595
0.022827
0.022498
0.026443
0.022005
0.025292
0.025457
0.026278
0.024142
0.027265
0.026278
0.02595
0.022663
0.021676
0.022169
0.019047
0.02069
0.018718
0.022169
0.017403
0.021841
0.019047
0.019047
0.018882
0.018225
0.016581
0.016088
0.014938
0.017732
0.014445
0.012637
0.012144
0.014116
0.012308
0.014445
0.010664
0.011815
0.012144
0.011979
0.011815
0.011322
0.012472
0.010664
0.011651
0.009514
0.011815
0.009185
0.00787
0.008857
0.008199
0.007542
0.006556
0.008199
0.005076
0.002611
0.004255
0.00672
0.00146
0.004912
0.003104
0.004419
0.004255
0.004419
0.005241
0.00146
0.003926
0.001296
0.00146
0.000639
0.001625
-0.001005
0.002447
0.00031
0.000967
0.000146
0.003104
-0.000676
0.00146
0.001789
-0.000183
-0.001662
-0.001498
0.004583
-0.003142
0.000474
0.00146
0.000967
-0.000676
0.002118
-0.000841
-0.001662
0.003104
-0.001169
0.000474
0.001132
0.003104
0.001954
0.002447
0.000474
0.001625
0.00031
-0.000347
0.000803
0.003104
0.001132
0.000639
0.003104
0.00146
0.00146
-0.001827
0.000146
-0.001169
0.000967
-0.00232
-1.9e-05
-0.000347
0.001132
0.001132
0.003926
-0.000512
0.000803
0.001625
0.000803
0.00031
-0.001169
-0.000183
0.00146
0.003104
-0.000183
-0.000512
0.00146
-0.001005
-0.002813
0.001132
-0.001169
0.00146
0.000146
-0.000676
0.001954
0.002282
0.002611
0.00031
0.001625
-1.9e-05
0.002775
-0.001827
0.000803
-0.001169
0.002611
-0.000183
0.004748
0.002282
-0.001005
0.002447
-0.000183
0.002282
0.001132
0.002282
0.000639
-0.000676
-0.005443
0.000803
-0.001662
-0.00232
-0.002484
0.000474
-1.9e-05
0.000146
-0.001991
0.00146
0.001625
-1.9e-05
0.002611
0.000803
0.000803
0.000639
0.005734
-0.000841
-0.001662
-0.001991
-0.001498
-0.001991
-0.001827
-0.000347
0.003597
-1.9e-05
0.00294
0.001625
-0.000347
0.00031
-0.000183
0.000967
-0.002648
0.000803
-0.001169
0.001789
-0.000183
-0.000676
-0.001334
-0.002484
0.000474
-0.001169
-0.001991
-0.00347
0.00146
-0.000512
0.001132
-0.000676
0.002611
0.000639
-0.001991
-0.003142
-0.00232
-0.002977
-0.00232
-1.9e-05
-0.000347
0.001789
0.000803
0.000803
0.000967
0.00294
-0.000183
0.00146
0.001625
0.005076
0.004255
0.003268
0.001625
-0.000841
-0.001498
-0.000676
0.000803
-1.9e-05
0.00409
0.00146
0.001789
0.001789
0.004748
0.004419
0.006227
0.000474
0.00294
0.003761
0.00146
0.002775
0.00031
0.001296
0.003104
0.001954
0.003268
0.005405
0.001625
0.003104
0.002775
0.00146
0.000967
0.003433
0.002118
0.000639
0.005241
0.000474
0.001132
0.00031
0.000146
0.001296
0.001296
-0.001498
0.003433
-0.000183
0.001954
0.00146
0.002611
0.002611
0.00409
0.005241
0.005076
0.001132
-0.001498
0.002611
-0.001991
0.003104
0.003761
0.002611
-0.000512
-0.000347
-0.000347
0.002118
0.001625
0.001132
0.002282
0.002447
0.002118
0.003597
0.005569
0.000474
0.002775
0.000639
0.003104
0.000803
0.001954
0.002447
0.001625
0.001132
0.001132
0.00146
0.001789
0.002611
0.003433
0.00031
-0.001662
0.000803
-0.001334
0.001789
0.000146
0.002118
0.004583
-0.001498
-0.000347
0.000967
-0.000512
-0.001827
0.000639
-1.9e-05
0.00031
0.002611
0.003926
0.001132
0.001132
-0.000841
0.00031
-0.002648
-0.003306
-0.004456
-0.003142
-0.004785
-0.001334
-0.001827
0.00031
-0.000841
-0.001991
-0.00232
-0.003963
-0.002977
-0.003635
-0.001662
-0.003963
-0.00232
-0.002813
-0.005443
-0.005443
-0.005771
-0.006264
-0.007415
-0.005278
-0.005607
-0.00347
-0.008894
-0.003963
-0.005278
-0.003799
-0.006264
-0.004292
-0.004456
-0.003306
-0.004292
-0.001827
-0.003142
-0.00347
-0.001498
-0.005771
-0.001827
-0.00347
-0.002484
-0.001662
0.001132
0.00031
-0.001662
-0.00347
-0.001662
-0.001827
-0.002484
-0.001005
-0.000512
0.001296
-0.000183
0.004748
-0.001334
0.000146
0.001625
-0.001169
-0.001662
-0.002813
-0.000512
0.00031
-0.000512
-0.000676
0.000967
0.002118
0.002118
0.000474
0.000639
-0.000676
-0.00232
-0.000183
0.003268
0.00031
-0.001334
-0.000183
0.000146
-0.005278
-0.000183
-0.001827
-0.000183
-0.001334
0.000639
0.000639
0.000639
0.003268
0.000146
0.000803
-0.000347
0.000474
0.002775
0.00031
-0.000183
0.007049
-1.9e-05
0.001296
0.000967
-0.002813
0.000639
-0.001169
-0.002484
-0.000512
0.003268
0.000474
0.00146
-1.9e-05
0.001789
-0.000676
0.001789
0.000146
0.003597
0.000146
-0.000183
0.002118
-0.001334
0.00409
0.002447
0.002447
-1.9e-05
0.001789
0.001296
0.00031
-0.000512
0.001954
0.00031
-0.002155
0.000803
0.000474
-0.001005
-0.001169
-0.000676
-0.003799
-0.000183
-0.00347
-0.001005
-0.001169
-0.002648
-0.000512
0.001625
-0.001498
0.000146
0.00031
-0.001498
0.000639
-0.002813
-0.004292
-0.002484
-0.004456
-0.005443
-0.000841
-0.002648
-0.001827
-0.00232
0.000146
-0.003635
-0.002977
-0.001498
-0.001334
-0.001498
0.000639
0.005734
0.010664
0.020526
0.028251
0.031209
0.038769
0.046166
0.054055
0.061944
0.064245
0.075257
0.074928
0.085118
0.090706
0.093336
0.099417
0.100896
0.107471
0.113881
0.114867
0.11273
0.122756
0.120948
0.129988
0.129659
0.134425
0.135904
0.139027
0.143794
0.144122
0.146588
0.148889
0.154477
0.151847
0.155792
0.155299
0.159243
0.157764
0.159408
0.159243
0.165653
0.163845
0.166804
0.170091
0.169762
0.169269
0.173871
0.174693
0.174693
0.175186
0.178637
0.177815
0.176994
0.178144
0.176336
0.180116
0.179623
0.18061
0.180938
0.18176
0.183075
0.182582
0.18439
0.186362
0.184883
0.186198
0.1908
0.18817
0.192443
0.188006
0.18932
0.188499
0.189156
0.189814
0.187348
0.192936
0.187513
0.192608
0.188499
0.192936
0.193429
0.192115
0.188499
0.192772
0.188827
0.194909
0.191621
0.194087
0.191621
0.192115
0.192608
0.191293
0.191457
0.193101
0.194087
0.193265
0.199675
0.193265
0.197045
0.195237
0.196059
0.195073
0.19721
0.197045
0.195237
0.197538
0.19721
0.196059
0.195237
0.19836
0.197374
0.19836
0.197374
0.198853
0.196388
0.200332
0.200168
0.200497
0.196388
0.199182
0.197867
0.19836
0.199511
0.20099
0.197703
0.197045
0.199346
0.19836
0.199839
0.196223
0.200004
0.197045
0.196388
0.199346
0.196552
0.197045
0.198196
0.193758
0.198524
0.195895
0.196552
0.197703
0.199346
0.197538
0.197538
0.19721
0.200497
0.198689
0.195895
0.196552
0.196388
0.198689
0.199182
0.200497
0.197538
0.198524
0.200004
0.196717
0.196717
0.199182
0.197374
0.196059
0.197374
0.194251
0.197045
0.19458
0.191128
0.19458
0.195895
0.194744
0.195237
0.194744
0.196388
0.198031
0.193594
0.198196
0.196552
0.196059
0.197703
0.197538
0.195402
0.194416
0.194087
0.196717
0.196552
0.194251
0.196059
0.193922
0.194087
0.191786
0.199511
0.196223
0.195402
0.194909
0.197538
0.194744
0.19573
0.192936
0.193265
0.193265
0.191621
0.197538
0.196223
0.19836
0.193922
0.196223
0.19573
0.195237
0.196223
0.198031
0.196059
0.196059
0.195895
0.195566
0.191786
0.195895
0.197374
0.195566
0.194909
0.194416
0.196717
0.194087
0.196717
0.19721
0.194416
0.196881
0.19836
0.194909
0.196881
0.19573
0.195895
0.19458
0.196059
0.194251
0.1908
0.19573
0.191786
0.19458
0.193594
0.193265
0.193758
0.19721
0.196059
0.195402
0.195237
0.19721
0.196388
0.192279
0.194251
0.192279
0.188663
0.191293
0.196881
0.193922
0.19721
0.195073
0.194416
0.195895
0.196881
0.196223
0.197045
0.196223
0.196059
0.198689
0.196552
0.199839
0.195073
0.197374
0.196388
0.196388
0.193265
0.197374
0.19721
0.19573
0.197538
0.199511
0.19836
0.199018
0.203455
0.198524
0.199182
0.199511
0.199675
0.200497
0.200825
0.193429
0.19573
0.198031
0.19721
0.197045
0.196552
0.197538
0.198689
0.199839
0.199182
0.199182
0.200004
0.201319
0.200004
0.202305
0.209865
0.201483
0.201319
0.202633
0.199511
0.201812
0.199511
0.200661
0.199018
0.20099
0.200168
0.19836
0.199182
0.199839
0.202633
0.202305
0.202633
0.201812
0.203948
0.201319
0.201647
0.201154
0.203126
0.200168
0.200168
0.202798
0.201319
0.202469
0.198853
0.203126
0.201319
0.204606
0.203455
0.203291
0.20214
0.203948
0.201319
0.200497
0.201647
0.200004
0.201154
0.199675
0.199511
0.197374
0.201976
0.199839
0.199511
0.19721
0.201976
0.199018
0.201154
0.200497
0.201154
0.200661
0.199182
0.20214
0.197703
0.199182
0.198524
0.195566
0.199511
0.201154
0.200168
0.199839
0.200825
0.198031
0.201319
0.19836
0.200168
0.199346
0.200168
0.196223
0.198853
0.199018
0.199346
0.197374
0.198853
0.199018
0.199675
0.196717
0.200004
0.19836
0.199675
0.200825
0.19721
0.197703
0.199511
0.197867
0.197538
0.200661
0.197538
0.203784
0.199346
0.201154
0.196223
0.201812
0.199018
0.198689
0.199511
0.200004
0.201154
0.199018
0.200332
0.201319
0.20099
0.197867
0.202305
0.20099
0.202469
0.201319
0.204441
0.196223
0.199839
0.199675
0.198196
0.201647
0.199675
0.201647
0.201812
0.200825
0.20099
0.202962
0.197703
0.20362
0.200168
0.201154
0.201976
0.199839
0.20214
0.201154
0.201647
0.201812
0.202305
0.200661
0.199839
0.198689
0.200497
0.199511
0.201319
0.202798
0.200661
0.197867
0.203455
0.197538
0.202305
0.201647
0.202798
0.203126
0.199511
0.200332
0.202305
0.204113
0.201812
0.201483
0.200004
0.20214
0.201154
0.202469
0.201812
0.202962
0.197703
0.201647
0.202305
0.203455
0.200825
0.201154
0.201154
0.199182
0.200661
0.198853
0.200332
0.198853
0.200332
0.200168
0.200497
0.200497
0.199511
0.200825
0.199839
0.198196
0.197867
0.201154
0.197703
0.200661
0.19573
0.197867
0.197045
0.19573
0.19573
0.198689
0.200661
0.197703
0.198524
0.199018
0.199346
0.199018
0.201483
0.197045
0.196388
0.195895
0.199018
0.195402
0.197374
0.197867
0.196059
0.199346
0.197045
0.19836
0.19573
0.191786
0.196717
0.19836
0.198524
0.199018
0.196717
0.198853
0.196552
0.196881
0.196881
0.191621
0.194251
0.19573
0.19721
0.197538
0.198196
0.199182
0.198689
0.199346
0.200332
0.197867
0.192279
0.197703
0.199675
0.197703
0.19836
0.195895
0.194744
0.192443
0.199182
0.195402
0.195566
0.19458
0.198524
0.200004
0.198853
0.200168
0.198689
0.199018
0.197867
0.199675
0.199182
0.199511
0.191293
0.199839
0.196223
0.196881
0.19836
0.19721
0.195073
0.200168
0.201483
0.198196
0.197867
0.197867
0.198196
0.19836
0.198524
0.197867
0.196717
0.19721
0.197703
0.197045
0.197703
0.197045
0.200004
0.197703
0.196717
0.197867
0.197045
0.19836
0.196881
0.197703
0.197538
0.198853
0.197374
0.20214
0.194744
0.196059
0.196717
0.19458
0.19458
0.192772
0.197374
0.197374
0.194744
0.197867
0.202469
0.193101
0.197703
0.19573
0.196717
0.196881
0.195237
0.19721
0.195895
0.197045
0.195402
0.202633
0.192608
0.197538
0.195237
0.194087
0.19721
0.197538
0.191786
0.195237
0.195402
0.192936
0.200332
0.191786
0.194087
0.192279
0.193758
0.193265
0.193594
0.191457
0.193594
0.192443
0.192936
0.192115
0.192936
0.192772
0.192443
0.192772
0.190471
0.193429
0.18932
0.192279
0.191786
0.192279
0.19195
0.189156
0.18817
0.192608
0.190142
0.191128
0.193429
0.191457
0.195895
0.195402
0.195237
0.197703
0.194416
0.194744
0.19721
0.196388
0.198524
0.197538
0.199018
0.194744
0.196881
0.196223
0.194251
0.196717
0.19195
0.199511
0.198196
0.197867
0.19721
0.198196
0.198689
0.198853
0.198031
0.200168
0.198689
0.199346
0.197867
0.198689
0.198689
0.19836
0.199675
0.198853
0.199839
0.19836
0.200168
0.194909
0.201319
0.19836
0.199018
0.195895
0.200661
0.200332
0.198689
0.197703
0.198031
0.199018
0.196388
0.199182
0.19721
0.200168
0.198689
0.199346
0.196223
0.200332
0.199675
0.201154
0.200825
0.19836
0.19721
0.198689
0.197045
0.197045
0.19721
0.19721
0.201319
0.200004
0.199839
0.200004
0.199182
0.196552
0.199018
0.200497
0.199182
0.198031
0.199675
0.200168
0.19836
0.196717
0.199511
0.196388
0.198524
0.199346
0.196388
0.198689
0.194909
0.196388
0.195566
0.199182
0.197867
0.198031
0.196059
0.198689
0.20099
0.198196
0.198524
0.197045
0.197374
0.197867
0.200004
0.197045
0.199182
0.19573
0.197374
0.19836
0.198524
0.199182
0.196881
0.196881
0.197045
0.199675
0.198689
0.200332
0.197867
0.200497
0.198031
0.201812
0.195566
0.201483
0.198031
0.199182
0.199346
0.198689
0.203948
0.201319
0.200497
0.202962
0.201976
0.201976
0.203948
0.200004
0.203948
0.203126
0.203455
0.201483
0.200332
0.19721
0.199839
0.200332
0.199182
0.202962
0.201976
0.20362
0.207071
0.20477
0.204606
0.20362
0.20214
0.205099
0.202962
0.201483
0.201647
0.201154
0.202469
0.201976
0.201812
0.201812
0.201319
0.198524
0.201647
0.20099
0.202305
0.201154
0.202798
0.20477
0.201647
0.199839
0.20099
0.200004
0.199839
0.199675
0.199675
0.200332
0.199182
0.197867
0.199839
0.199839
0.195566
0.202633
0.200497
0.197703
0.202469
0.199839
0.199182
0.200661
0.200661
0.199511
0.198524
0.194416
0.199018
0.195073
0.196223
0.196388
0.196059
0.197703
0.197538
0.197045
0.199182
0.195895
0.19836
0.198853
0.195402
0.195566
0.194744
0.19573
0.196552
0.195895
0.192279
0.194416
0.196223
0.197703
0.19836
0.194744
0.196388
0.196881
0.195237
0.196881
0.199675
0.19573
0.19721
0.193594
0.19836
0.194909
0.194251
0.192608
0.193594
0.193265
0.193758
0.193594
0.192279
0.193594
0.19458
0.19836
0.190471
0.196881
0.192443
0.191128
0.190142
0.192936
0.192279
0.189156
0.192608
0.194251
0.190142
0.195073
0.190964
0.194087
0.195402
0.193758
0.195073
0.193101
0.19195
0.193265
0.196717
0.194251
0.196717
0.193265
0.19458
0.191786
0.19721
0.195402
0.195073
0.19573
0.195402
0.197374
0.194909
0.197867
0.194087
0.195895
0.193265
0.195566
0.193265
0.19573
0.194087
0.196059
0.195237
0.195566
0.19573
0.194909
0.195237
0.194087
0.19573
0.193758
0.194909
0.191621
0.196552
0.193265
0.191293
0.195237
0.193429
0.193265
0.195073
0.194251
0.194909
0.197703
0.192443
0.198853
0.195895
0.197045
0.195237
0.194087
0.195566
0.19458
0.196388
0.198196
0.198196
0.195402
0.197045
0.194416
0.197703
0.197045
0.195895
0.195402
0.196552
0.193758
0.19573
0.194087
0.194416
0.197374
0.191786
0.19458
0.196881
0.193922
0.195073
0.196717
0.193101
0.19721
0.195073
0.194251
0.195566
0.197538
0.191786
0.199675
0.194251
0.193265
0.192608
0.191128
0.19458
0.194416
0.191621
0.196717
0.198524
0.195566
0.198196
0.196059
0.196388
0.197538
0.195073
0.194744
0.194909
0.194087
0.194416
0.196059
0.194909
0.19721
0.196223
0.19458
0.199018
0.19573
0.193594
0.197538
0.196059
0.197374
0.195895
0.196717
0.195895
0.19573
0.193758
0.193922
0.192443
0.19836
0.197867
0.195402
0.196881
0.19573
0.19721
0.198196
0.197867
0.195237
0.199182
0.195402
0.195402
0.196717
0.198524
0.195566
0.193594
0.196059
0.194087
0.196223
0.194744
0.19573
0.197703
0.195895
0.202469
0.201483
0.198524
0.200004
0.198853
0.199018
0.196552
0.196717
0.195895
0.195402
0.197703
0.195566
0.200332
0.19836
0.196717
0.198196
0.198853
0.195402
0.198196
0.198031
0.198031
0.201154
0.200332
0.20099
0.199182
0.199346
0.197867
0.201812
0.199675
0.198524
0.197538
0.198689
0.197703
0.203455
0.200825
0.200004
0.199346
0.197538
0.201154
0.196881
0.199839
0.198524
0.197538
0.200332
0.200004
0.199182
0.19836
0.195895
0.197867
0.198196
0.195566
0.200825
0.200497
0.199018
0.199839
0.203455
0.200825
0.199511
0.199511
0.200004
0.200332
0.198031
0.197045
0.20099
0.19836
0.201319
0.202962
0.200004
0.200497
0.19836
0.199346
0.203784
0.201647
0.199839
0.201319
0.198031
0.202305
0.200825
0.202962
0.196717
0.199839
0.198689
0.199839
0.198853
0.199511
0.200004
0.200661
0.199839
0.199346
0.203126
0.199675
0.200825
0.199346
0.201976
0.196881
0.19836
0.19836
0.193429
0.197538
0.196388
0.197703
0.197538
0.200332
0.19721
0.197374
0.198689
0.199346
0.199346
0.200332
0.197867
0.199675
0.198689
0.199675
0.196717
0.198031
0.196223
0.198524
0.199511
0.197538
0.199675
0.19836
0.200168
0.198031
0.199346
0.198689
0.199675
0.200168
0.197867
0.198689
0.193101
0.19458
0.195402
0.197867
0.19836
0.197867
0.195895
0.200825
0.198031
0.198689
0.197703
0.200004
0.197703
0.196717
0.19721
0.200004
0.196881
0.196552
0.19836
0.19458
0.195402
0.195402
0.198853
0.194087
0.197374
0.197538
0.197867
0.198031
0.197867
0.197867
0.199511
0.198031
0.196223
0.197538
0.199018
0.198031
0.195402
0.195566
0.195237
0.19836
0.194416
0.199839
0.196388
0.194909
0.195566
0.197045
0.197045
0.199346
0.199346
0.19721
0.194909
0.19573
0.199182
0.195073
0.202305
0.197045
0.19721
0.20099
0.200661
0.20099
0.200004
0.199675
0.199018
0.199839
0.196717
0.198689
0.198031
0.198853
0.197703
0.20362
0.204113
0.201812
0.201154
0.20099
0.198853
0.199675
0.198689
0.199675
0.199018
0.199182
0.200004
0.200332
0.199675
0.200004
0.20099
0.198853
0.198853
0.199346
0.197867
0.196881
0.201154
0.198031
0.20214
0.197703
0.201319
0.198853
0.199346
0.200497
0.198689
0.19836
0.19721
0.201483
0.202305
0.204113
0.200825
0.202798
0.199018
0.202305
0.201812
0.20099
0.200332
0.200661
0.203291
0.198031
0.201154
0.199511
0.200497
0.19721
0.199839
0.201976
0.200332
0.200004
0.202798
0.201154
0.201154
0.203455
0.200332
0.199839
0.199182
0.201647
0.199182
0.200497
0.19836
0.20099
0.20099
0.200497
0.202962
0.202305
0.202798
0.203948
0.201812
0.200497
0.203784
0.197538
0.200825
0.19836
0.200497
0.19721
0.200004
0.196223
0.197374
0.202305
0.198689
0.200497
0.199839
0.19573
0.196388
0.199511
0.198196
0.199346
0.197703
0.19721
0.196388
0.197867
0.195566
0.19836
0.193265
0.193594
0.191621
0.199346
0.195566
0.193758
0.194416
0.196388
0.197703
0.193922
0.195895
0.194909
0.195237
0.194744
0.196552
0.193265
0.195073
0.192443
0.193429
0.193758
0.193922
0.194909
0.191128
0.190964
0.192443
0.196717
0.192772
0.191786
0.191128
0.192443
0.193101
0.189978
0.189156
0.190471
0.189814
0.191457
0.191457
0.189814
0.194251
0.191293
0.193758
0.189156
0.192443
0.189649
0.192443
0.190635
0.191786
0.1908
0.190471
0.18932
0.187513
0.192279
0.190142
0.193758
0.191786
0.193594
0.191457
0.192115
0.193429
0.195073
0.193594
0.196059
0.193265
0.190142
0.193101
0.193429
0.193922
0.193758
0.196059
0.19721
0.197374
0.194909
0.196717
0.197538
0.197045
0.195566
0.19721
0.193265
0.200332
0.202305
0.201154
0.199839
0.197867
0.200661
0.198853
0.197703
0.199839
0.199511
0.199018
0.202633
0.200497
0.202633
0.199511
0.20362
0.202305
0.202962
0.200661
0.197703
0.202305
0.205263
0.202633
0.201812
0.20477
0.204934
0.203455
0.201319
0.202962
0.199018
0.202633
0.20214
0.202305
0.203291
0.204606
0.20477
0.203948
0.202962
0.201154
0.203455
0.203455
0.202469
0.201154
0.201812
0.199018
0.20362
0.200497
0.200004
0.200004
0.19721
0.202962
0.198524
0.199511
0.199018
0.202469
0.198196
0.202798
0.199511
0.200825
0.200825
0.200661
0.198524
0.196717
0.198524
0.196223
0.197374
0.197538
0.200332
0.201154
0.195895
0.197538
0.197045
0.19573
0.197374
0.193265
0.195895
0.197867
0.196552
0.19836
0.198031
0.195402
0.195237
0.196717
0.196388
0.196223
0.195402
0.196552
0.195566
0.197867
0.197867
0.198853
0.197045
0.195402
0.195073
0.196717
0.195237
0.19458
0.192608
0.197867
0.197538
0.196717
0.197045
0.195895
0.195895
0.195073
0.198196
0.196059
0.198196
0.196881
0.195237
0.198031
0.197703
0.19721
0.198689
0.19573
0.197045
0.198689
0.196223
0.197867
0.198689
0.195895
0.192279
0.20099
0.197538
0.196881
0.197703
0.200168
0.199675
0.196388
0.196059
0.197867
0.196552
0.199018
0.199675
0.196388
0.199346
0.197045
0.197374
0.19721
0.197867
0.195402
0.197045
0.19721
0.197374
0.198524
0.198031
0.197703
0.19573
0.197374
0.192936
0.199346
0.196059
0.198689
0.195895
0.194744
0.19721
0.199018
0.196552
0.197703
0.197703
0.198196
0.197538
0.196388
0.198031
0.198031
0.198853
0.195566
0.19836
0.19573
0.198031
0.198853
0.19836
0.193758
0.195237
0.196388
0.19458
0.196717
0.19836
0.201647
0.196059
0.200661
0.197867
0.200497
0.196717
0.197538
0.196881
0.199018
0.196881
0.200004
0.197045
0.197538
0.197867
0.198031
0.200332
0.197045
0.198524
0.196881
0.199182
0.199346
0.198524
0.200004
0.194251
0.196552
0.19836
0.196059
0.194416
0.19721
0.194251
0.197867
0.195895
0.196059
0.200004
0.198196
0.19836
0.199675
0.199839
0.199839
0.199839
0.198853
0.196552
0.195237
0.193594
0.199346
0.198689
0.197538
0.202798
0.199511
0.197045
0.197703
0.199018
0.199675
0.200168
0.196552
0.200332
0.199675
0.198853
0.19836
0.198689
0.197703
0.19721
0.198031
0.196388
0.199675
0.193265
0.197045
0.195566
0.200661
0.197045
0.200004
0.197045
0.201812
0.200661
0.195237
0.196059
0.194251
0.197703
0.19573
0.196388
0.193265
0.198524
0.196059
0.196552
0.197374
0.197867
0.197045
0.198031
0.199182
0.200004
0.195402
0.192936
0.198689
0.196388
0.194251
0.195237
0.195895
0.192279
0.197045
0.198196
0.197867
0.19836
0.200168
0.200332
0.198524
0.200168
0.198031
0.198196
0.197374
0.199182
0.198031
0.19836
0.197867
0.198524
0.198524
0.198031
0.196388
0.198196
0.200497
0.199346
0.200661
0.200332
0.200661
0.199182
0.201319
0.201976
0.199182
0.199018
0.197703
0.197867
0.198853
0.196223
0.199018
0.198853
0.19836
0.199018
0.198196
0.198853
0.199182
0.197045
0.196059
0.200004
0.196552
0.200332
0.199675
0.197374
0.198196
0.20362
0.198031
0.19836
0.200168
0.197045
0.20214
0.196881
0.199839
0.199182

Kurve 2

-0.004292
-0.000347
0.002447
-0.000512
0.001296
0.000803
0.001625
0.000474
0.001132
-0.000841
0.002447
0.000146
0.001132
0.001132
-0.002813
-0.000841
-0.001498
-0.000512
0.000146
0.000146
0.000639
0.001296
0.000146
-0.000841
0.001625
0.000639
-0.002648
0.00031
-0.000183
0.000803
0.002282
0.005241
0.000803
0.00146
0.000146
0.001132
0.001296
-0.001005
0.001625
-0.000183
0.000474
0.000639
-1.9e-05
0.003268
0.002611
0.001789
0.001789
0.002775
-0.002155
0.001625
-0.003142
-0.001498
-0.001991
0.000639
-0.001169
0.001625
-0.000183
0.001954
-0.001334
0.000474
-0.000183
-1.9e-05
-0.000841
-0.004292
0.001296
-0.001169
0.00031
-0.001005
0.002282
-0.002813
0.000146
-0.000183
0.000146
-0.004128
-0.000512
-1.9e-05
-0.00232
0.000146
-0.001498
0.001625
-0.000676
0.003433
-0.002977
-0.000347
-0.000347
-0.001169
0.00146
0.000474
-0.002155
0.000967
-0.001005
-0.000512
-0.000512
0.003433
0.001625
0.000146
-0.000347
0.000639
0.000474
0.001132
0.000803
0.000146
0.00146
-0.00347
-0.000676
-0.000676
-0.001498
-0.002648
-0.000676
-0.000512
-0.002813
-0.000676
0.00146
0.000639
0.000146
0.000967
-0.001334
0.000146
-0.001498
0.001625
-0.000183
-0.001005
-0.00232
0.00031
0.000474
-0.003799
-0.002813
-0.005114
-0.001827
-0.0061
-0.002648
-0.004128
-1.9e-05
-0.001662
0.005569
-0.002813
-0.000183
0.000639
-0.002155
-0.001662
-0.00232
-0.001169
0.000146
0.001789
-0.000183
0.001789
-0.003963
-0.001169
0.002118
0.002447
-0.001334
0.001296
0.001296
0.000803
0.000967
0.000474
0.000639
-0.001498
-0.002484
0.000146
-0.002484
-0.000841
0.001132
-0.001169
-0.001334
-0.001169
0.000474
0.001296
0.000146
0.00031
0.00031
0.00031
-0.001005
-0.00232
0.000474
-0.000676
-0.001005
-0.000347
-0.003306
0.000639
-0.00232
-0.002977
-0.000512
-1.9e-05
-0.000183
0.002611
0.002282
0.002775
0.002611
0.000639
0.000967
-0.000347
0.003597
0.000146
-0.001662
-0.004292
-1.9e-05
-0.001827
0.001789
0.001954
-0.000347
0.002118
0.003268
0.000474
-1.9e-05
0.003268
-0.001498
0.001625
-0.000347
0.001625
-0.000676
-0.000676
-0.004785
-0.000183
-0.001334
-0.00347
-0.001005
-0.001662
0.000967
0.000639
-1.9e-05
0.000639
0.00146
-0.001005
0.001789
-0.002155
-0.001827
-0.002813
-0.002813
-0.005278
-0.001827
0.002775
-0.000183
0.000803
-0.001498
0.004912
-0.001827
0.000803
0.001132
0.000803
-0.001005
0.003268
-0.000347
0.000639
-0.000841
-0.002813
-0.005114
-0.001991
-0.003635
-0.002155
-0.001662
-0.001005
-1.9e-05
-0.000347
-1.9e-05
0.001789
0.002118
0.00294
0.000803
0.001625
0.000474
-0.000676
-0.000676
-0.001334
-0.001169
-0.002155
-0.000841
-0.001662
-0.002484
-0.001005
-0.000347
-0.000183
-0.002484
0.000639
0.000146
0.000146
-0.00232
-0.001005
-0.000841
-0.001991
-0.00232
-0.002484
-0.001005
-0.00232
0.000146
-0.001827
-0.004456
-0.003142
0.000474
-0.000841
-0.004456
0.00146
-1.9e-05
-0.001334
-0.000183
0.000803
0.002118
0.00031
-0.001827
0.00146
-0.001827
-0.000512
-0.002977
0.000803
-0.001498
0.002282
-1.9e-05
-0.003799
0.000474
0.000474
0.000803
-0.001827
-1.9e-05
-0.003306
-0.001169
-0.001005
-0.001498
-0.000841
-0.000347
-0.002155
-0.000676
-0.000676
-0.00232
-0.000841
-0.000841
-0.001498
-0.003142
-0.002484
-0.002484
-0.000512
-0.002813
-0.000841
-0.000347
-0.002977
-0.002813
0.001789
-0.002155
-0.000841
-0.004128
-0.000512
-0.001827
-1.9e-05
-0.000676
0.001954
0.00146
-0.004949
0.002447
-0.000183
0.001296
-0.002648
0.002775
0.000146
-0.000676
-0.000512
0.000803
-0.001662
-0.000512
-0.001498
0.00031
0.000639
-0.002155
-0.001991
0.000639
0.001296
-0.003635
0.00146
-0.003963
0.003433
0.00031
-0.001334
-0.000676
-0.001169
-1.9e-05
-0.001498
-1.9e-05
-0.001498
0.002775
-0.00232
-0.003963
-0.003142
0.000146
-0.001991
-0.004621
-0.001169
0.003268
-0.000512
-0.000183
0.003433
-0.000347
-0.001169
-0.001005
0.00031
-0.00232
-0.001334
-0.001169
0.00031
-0.000347
0.00031
0.000146
0.00146
-0.000183
-0.001169
0.003597
-0.002484
-0.000512
-0.003306
-0.000841
-0.001005
-0.005771
-0.000347
-0.000841
-0.004128
-0.00232
-0.002648
-0.000347
-0.003635
0.002611
-1.9e-05
-0.000183
0.000146
0.00294
-0.001827
-0.001498
0.000146
0.000146
-0.003142
-0.006757
-0.001991
-0.001991
-0.002155
-0.004621
0.000474
-0.000676
-0.000347
0.001132
0.002447
0.003268
-0.002813
0.002282
0.00031
0.001132
-0.000841
-0.000183
-0.003799
-0.000347
-0.002484
-0.000841
-0.001991
-0.00347
0.000474
-0.000512
0.000146
-0.000676
0.000639
-0.004128
0.003761
0.001625
0.003104
0.000803
0.00031
-0.001169
0.000146
-0.000183
-0.002813
-0.000676
-0.001827
-0.001169
-0.001169
-0.000841
-0.000512
-0.001005
-0.000676
0.001132
0.000474
-0.001005
-0.00347
-0.00232
-0.003963
-0.001498
-0.004128
-0.005607
-0.000183
0.000639
0.000146
-0.00232
-0.003142
-0.004949
-0.002648
-0.004456
0.001296
-0.001662
0.000146
-0.001005
0.000639
-0.000676
-0.001005
-0.000347
-0.002813
-0.000841
-0.001827
-0.001334
-0.001662
-0.000841
-0.001827
0.001625
0.001296
-1.9e-05
-0.000841
-0.001169
-0.004128
-0.004456
-0.001334
-0.002813
-0.004949
-0.000512
-0.000183
-0.003142
0.000967
-0.001991
-0.003635
-0.000841
0.000803
-0.001334
-0.000347
-0.001005
-0.000512
-0.000841
-0.002484
-0.002484
-1.9e-05
-0.007086
-0.002977
0.000474
-0.001169
0.00409
-0.001334
-0.000183
0.002775
-0.004292
-1.9e-05
0.001132
-0.002484
0.000474
0.00031
-0.000841
0.00031
-0.000183
-0.002155
-0.000841
0.002447
-0.001827
0.00031
-0.001169
-0.001334
-0.000347
-0.003799
-0.002155
0.000803
-0.003963
0.001296
0.002611
-0.000347
-0.002648
-0.001991
0.00294
-0.003635
-0.001498
-0.00232
0.000146
-0.00347
-0.001169
-0.000183
-0.001005
-0.0061
-0.001662
0.00031
0.00031
0.000146
-0.001991
0.000803
-0.004785
-0.000512
-0.002155
-0.00232
-0.012017
-0.003799
-0.002155
0.000639
0.003597
0.000146
0.000803
-0.001498
0.000474
-0.000512
0.003597
-0.013003
-0.000512
0.000639
0.000639
-0.000183
0.001132
-0.001827
-0.004292
0.000146
-0.001662
-0.000183
-0.010702
-0.000183
-0.000676
-0.000512
0.000803
-0.000841
-0.001334
-1.9e-05
-0.000841
0.000474
-1.9e-05
-0.008237
-0.000347
0.001789
-0.00347
-0.001827
-0.000676
-0.002977
0.001954
-0.002813
-0.001169
-0.002484
-0.006757
-0.004621
0.000474
0.000474
0.001954
0.000474
-0.000183
-0.001827
-0.001991
-0.000183
-0.001169
0.002447
-0.004128
0.001625
-0.001169
-0.001334
-1.9e-05
0.001296
-0.001169
0.001296
0.000639
0.001296
0.003104
-0.001827
0.002282
-0.005114
0.00031
0.00294
0.002447
-0.002155
0.00409
-0.000512
-0.004292
0.003433
-1.9e-05
-0.001498
0.000474
-0.000183
0.00031
0.000146
-0.002155
0.000967
-0.001005
-0.000841
0.003104
-0.000512
-0.002484
-0.001991
-0.00232
-0.003306
-0.001498
-0.00232
0.000474
0.000803
-0.000347
0.007377
0.000639
-0.000347
0.000639
-0.00232
-0.001169
-0.000676
-0.000183
-0.001334
0.001132
-0.001498
0.00409
-0.001498
-0.000841
-0.000512
-1.9e-05
0.000803
0.001132
-0.000676
0.000474
0.003926
0.001954
0.009678
-0.000347
0.002775
-0.001005
0.000639
0.00146
-0.001169
0.002447
0.002282
-0.001005
-0.001169
0.005898
-1.9e-05
0.002611
-0.001334
0.001954
-0.001005
-0.000347
-0.001169
0.001789
-0.001005
-0.001662
0.003104
-0.004621
-0.000676
-0.004128
-0.002648
-0.004621
-0.001498
-0.001662
0.001625
-0.001991
0.003926
0.003268
-0.003635
-0.003306
-0.001169
-0.001169
-0.001498
-0.001498
-0.003799
-0.000676
-0.00232
-0.000512
0.005076
-0.003799
0.00031
0.010993
0.01954
0.029894
0.031538
0.042714
0.049781
0.051754
0.059972
0.067532
0.069504
0.07049
0.080023
0.080681
0.088898
0.093829
0.099746
0.100568
0.109279
0.11158
0.118811
0.118483
0.123249
0.1267
0.1267
0.132453
0.13196
0.132946
0.136891
0.141657
0.143958
0.150532
0.143629
0.150368
0.152998
0.155299
0.157764
0.160722
0.158914
0.161051
0.164667
0.163845
0.169269
0.164996
0.168118
0.169269
0.171241
0.169105
0.174364
0.172885
0.17535
0.176829
0.17798
0.18176
0.178309
0.180116
0.18176
0.181596
0.181267
0.183404
0.182417
0.182417
0.184883
0.185869
0.186855
0.186691
0.185212
0.186526
0.187513
0.187513
0.189978
0.187184
0.190471
0.191621
0.19195
0.192772
0.18817
0.189814
0.190635
0.189156
0.18932
0.189156
0.191128
0.193594
0.193101
0.194744
0.193922
0.196881
0.195566
0.195073
0.194744
0.195566
0.194416
0.19721
0.194087
0.196717
0.195566
0.198196
0.194087
0.196881
0.195566
0.196059
0.19573
0.195402
0.195073
0.196881
0.196717
0.19573
0.200497
0.1576
0.112073
0.117332
0.122427
0.128015
0.127358
0.131138
0.133932
0.135576
0.137384
0.143465
0.140013
0.145108
0.146916
0.149217
0.148889
0.153326
0.153326
0.157271
0.1576
0.157271
0.162695
0.166146
0.163023
0.16516
0.168118
0.166311
0.17272
0.172063
0.175186
0.1742
0.174364
0.177651
0.176829
0.177322
0.17798
0.17913
0.182253
0.178802
0.180445
0.183732
0.181267
0.184554
0.185376
0.185705
0.181103
0.185212
0.186033
0.185705
0.186691
0.187677
0.188334
0.189649
0.187019
0.195237
0.188334
0.189978
0.189814
0.188827
0.19195
0.188663
0.191457
0.191786
0.192772
0.191621
0.19458
0.188827
0.191128
0.193758
0.195402
0.189649
0.194909
0.194744
0.194744
0.19836
0.194744
0.199675
0.193758
0.198689
0.194909
0.197703
0.192772
0.196059
0.194744
0.196223
0.196388
0.197703
0.201154
0.196059
0.198196
0.196223
0.19836
0.194909
0.200004
0.199346
0.197703
0.194909
0.198689
0.198196
0.195237
0.196388
0.194087
0.197374
0.196552
0.194744
0.192443
0.199675
0.199018
0.198524
0.202305
0.196223
0.197538
0.198853
0.197538
0.197703
0.197045
0.19458
0.199182
0.19573
0.200825
0.199346
0.195402
0.19721
0.199346
0.200661
0.200497
0.195566
0.199018
0.200168
0.197703
0.197045
0.200497
0.197703
0.196223
0.199675
0.19721
0.199182
0.200332
0.197538
0.200004
0.198524
0.199346
0.204441
0.200661
0.201647
0.201483
0.197703
0.200661
0.196881
0.195402
0.197374
0.198524
0.197538
0.202633
0.194416
0.198031
0.200661
0.056684
0.058492
0.068518
0.072791
0.078544
0.010336
0.016088
0.029072
0.028744
0.03614
0.044358
0.050768
0.056356
0.064409
0.06934
0.0769
0.082488
0.08594
0.095966
0.095801
0.102704
0.100732
0.107635
0.11158
0.113223
0.119469
0.123413
0.127029
0.12933
0.136562
0.134754
0.136562
0.139356
0.142479
0.144944
0.146423
0.146752
0.153984
0.160722
0.157107
0.162202
0.160394
0.160722
0.163188
0.162859
0.165489
0.165324
0.167954
0.170584
0.17157
0.172885
0.177815
0.176501
0.173707
0.175021
0.176336
0.178966
0.175843
0.176994
0.177322
0.180445
0.180281
0.186033
0.180116
0.181431
0.180938
0.183404
0.186526
0.18554
0.18554
0.185212
0.187019
0.187841
0.195566
0.186362
0.191621
0.18932
0.192115
0.190307
0.192115
0.186526
0.191786
0.189649
0.189156
0.193429
0.188499
0.191621
0.187513
0.189978
0.192608
0.194744
0.192279
0.196717
0.192115
0.196223
0.196552
0.193101
0.192772
0.192443
0.194251
0.196552
0.193265
0.19573
0.195566
0.195073
0.195566
0.199346
0.196388
0.197374
0.194744
0.195073
0.196388
0.195566
0.195402
0.195566
0.196059
0.196881
0.199346
0.195566
0.195237
0.198689
0.197538
0.199675
0.198689
0.199675
0.198196
0.198853
0.197703
0.200332
0.197374
0.199182
0.19721
0.196388
0.197045
0.19836
0.204277
0.194744
0.199018
0.195566
0.196717
0.196059
0.19836
0.198689
0.199511
0.19836
0.198689
0.200332
0.19836
0.199182
0.198031
0.198689
0.192608
0.197045
0.199511
0.202469
0.196223
0.198853
0.201647
0.202962
0.200825
0.198689
0.198853
0.197538
0.197703
0.196223
0.198689
0.197538
0.201154
0.200825
0.200661
0.199018
0.200661
0.199018
0.197374
0.198196
0.198031
0.198524
0.198196
0.201319
0.199511
0.200661
0.197374
0.201319
0.199346
0.198524
0.199018
0.200661
0.198524
0.200168
0.201647
0.202962
0.200332
0.196223
0.200004
0.198689
0.198196
0.199018
0.199839
0.198031
0.199839
0.199675
0.197538
0.199346
0.199839
0.198196
0.199675
0.201647
0.19836
0.194744
0.199675
0.198689
0.198031
0.196223
0.198524
0.200825
0.198524
0.201319
0.199182
0.199675
0.199182
0.197045
0.198031
0.201319
0.197374
0.196881
0.19836
0.199018
0.201154
0.197045
0.198689
0.198031
0.199511
0.199675
0.201647
0.199839
0.200332
0.199839
0.19836
0.196881
0.198031
0.200004
0.197374
0.200332
0.194744
0.198853
0.199675
0.199018
0.201483
0.19836
0.199018
0.199839
0.197045
0.201483
0.20214
0.200497
0.199018
0.195402
0.199346
0.195073
0.195895
0.19721
0.197538
0.195566
0.196881
0.196223
0.203455
0.200168
0.199182
0.197538
0.201976
0.201647
0.199839
0.200332
0.198524
0.199018
0.199018
0.19836
0.198524
0.19836
0.196881
0.197374
0.198524
0.199182
0.199018
0.19836
0.19836
0.199511
0.199182
0.197703
0.200332
0.197703
0.197703
0.196552
0.198196
0.195237
0.19721
0.194744
0.196717
0.197045
0.199346
0.196388
0.199675
0.199675
0.20099
0.204606
0.193265
0.198031
0.193758
0.198196
0.194416
0.196059
0.195237
0.197374
0.196223
0.196388
0.197538
0.195237
0.196223
0.196717
0.199346
0.196223
0.198689
0.197374
0.198524
0.195237
0.19721
0.199675
0.197867
0.196717
0.198853
0.199018
0.196717
0.198524
0.196388
0.199346
0.197867
0.199182
0.197045
0.199511
0.196388
0.201154
0.19573
0.198031
0.199346
0.193594
0.195073
0.195237
0.197045
0.196552
0.197374
0.196388
0.196881
0.189649
0.190142
0.18817
0.007542
0.015266
0.018554
0.026936
0.027593
0.033346
0.039098
0.048467
0.05389
0.0603
0.065395
0.070819
0.07838
0.083639
0.086926
0.096788
0.095308
0.101718
0.104677
0.111251
0.112237
0.118154
0.123085
0.123413
0.127851
0.130481
0.135411
0.135247
0.053397
0.010829
0.020033
0.025292
0.034989
0.042057
0.048631
0.056356
0.059643
0.067532
0.073449
0.077886
0.084625
0.088077
0.092186
0.098431
0.003926
0.01428
0.020855
0.029894
0.034661
0.041564
0.049124
0.056027
0.061944
0.064574
0.070326
0.078708
0.083146
0.085283
0.093665
0.09498
0.088734
0.022334
0.027593
0.03351
0.043536
0.047645
0.053562
0.061122
0.066546
0.07312
0.079201
0.083146
0.087748
0.093007
0.095308
0.103362
0.104677
0.111744
0.11158
0.116346
0.118976
0.123906
0.12555
0.127687
0.134754
0.132782
0.136891
0.141821
0.143465
0.143136
0.149546
0.148889
0.155134
0.151847
0.155627
0.15875
0.158586
0.160722
0.161544
0.164338
0.165653
0.167461
0.16779
0.170091
0.168118
0.171406
0.169762
0.175515
0.173871
0.177487
0.179952
0.176501
0.17913
0.177815
0.0437
0.049124
0.052247
0.061779
0.066381
0.072463
0.080187
0.085283
0.089391
0.093336
0.097774
0.103197
0.105827
0.109114
0.111415
0.118483
0.118811
0.123578
0.127851
0.128673
0.130152
0.136562
0.136233
0.139192
0.137219
0.144451
0.140671
0.146588
0.154148
0.152505
0.154148
0.156942
0.158914
0.160065
0.159243
0.159243
0.163845
0.164174
0.167132
0.167461
0.169105
0.166968
0.171077
0.17272
0.173214
0.172063
0.17535
0.180281
0.179623
0.178309
0.182746
0.182253
0.179295
0.182582
0.181267
0.183732
0.180281
0.184061
0.18439
0.180938
0.18439
0.18817
0.187513
0.186855
0.186691
0.186855
0.190964
0.187184
0.189978
0.18932
0.187677
0.188827
0.193758
0.192115
0.191786
0.190635
0.193101
0.192936
0.189814
0.191293
0.191786
0.192443
0.191457
0.195566
0.19195
0.197374
0.192608
0.193758
0.194087
0.192772
0.194416
0.192115
0.187841
0.182746
0.183897
0.182417
0.184225
0.181596
0.182911
0.186033
0.188499
0.187677
0.190307
0.188992
0.190142
0.193758
0.191786
0.190471
0.190964
0.190635
0.189814
0.192115
0.189978
0.193758
0.192772
0.191293
0.19458
0.19573
0.19458
0.195237
0.194087
0.195402
0.192443
0.19195
0.192936
0.196059
0.191128
0.197045
0.198196
0.194416
0.198853
0.196223
0.195566
0.197538
0.198031
0.197045
0.200004
0.19721
0.201319
0.195237
0.197374
0.197374
0.19573
0.198689
0.193594
0.201812
0.196059
0.200004
0.203126
0.201647
0.201319
0.201154
0.199018
0.202798
0.200825
0.199018
0.200497
0.198853
0.199675
0.196881
0.201812
0.200168
0.199511
0.19836
0.200168
0.200332
0.198853
0.197703
0.200004
0.199511
0.198689
0.205263
0.200004
0.20099
0.198689
0.199675
0.197703
0.194251
0.197703
0.198853
0.196388
0.199018
0.200497
0.199675
0.199018
0.199511
0.20099
0.200168
0.199346
0.19573
0.199839
0.19721
0.19721
0.200168
0.202798
0.199182
0.200168
0.200168
0.197703
0.191786
0.199346
0.200497
0.198031
0.198524
0.199675
0.198853
0.199511
0.200004
0.197703
0.200661
0.19721
0.200168
0.197538
0.200168
0.197045
0.198031
0.199346
0.197867
0.199182
0.19721
0.199346
0.195895
0.199018
0.197374
0.198031
0.197374
0.200332
0.200168
0.198853
0.197538
0.199182
0.198031
0.197045
0.197374
0.198196
0.196223
0.199346
0.195566
0.19836
0.199182
0.193429
0.199346
0.198853
0.197374
0.194416
0.196717
0.200825
0.196717
0.196223
0.201319
0.199511
0.197703
0.199675
0.197538
0.198853
0.196717
0.194744
0.197374
0.201812
0.195402
0.201319
0.199675
0.198853
0.199675
0.198524
0.19836
0.19721
0.19836
0.195895
0.198031
0.192936
0.199675
0.19458
0.197045
0.196388
0.197538
0.199018
0.199182
0.202305
0.196223
0.20099
0.197538
0.200332
0.19836
0.199839
0.195402
0.198031
0.195073
0.198196
0.196388
0.194909
0.196059
0.193265
0.197703
0.193922
0.195237
0.195402
0.201812
0.198196
0.201154
0.196552
0.198196
0.197374
0.196881
0.19836
0.198196
0.19458
0.196223
0.199182
0.197374
0.198196
0.196059
0.198689
0.19721
0.197867
0.200168
0.197374
0.197867
0.200497
0.198031
0.198031
0.198196
0.198031
0.19721
0.196059
0.195402
0.195895
0.200825
0.201483
0.199018
0.198689
0.198689
0.197703
0.199182
0.196717
0.196881
0.196223
0.197374
0.196223
0.19573
0.193429
0.19836
0.193429
0.193101
0.197867
0.196717
0.198689
0.197374
0.200332
0.192936
0.19573
0.195237
0.199675
0.198524
0.195895
0.196059
0.197045
0.196059
0.196223
0.197703
0.195895
0.197703
0.198853
0.197867
0.19573
0.19836
0.197374
0.199839
0.198196
0.195402
0.200825
0.196552
0.200332
0.197867
0.198524
0.194251
0.196881
0.195402
0.200332
0.197045
0.196717
0.198524
0.199346
0.197045
0.199346
0.198524
0.197374
0.198524
0.197045
0.195402
0.196388
0.196717
0.194087
0.194416
0.198524
0.199018
0.198689
0.197703
0.197867
0.198853
0.197374
0.202798
0.200004
0.201319
0.200497
0.198524
0.198689
0.198524
0.198689
0.197703
0.199511
0.195237
0.198196
0.195073
0.197703
0.198689
0.198524
0.200004
0.200004
0.195566
0.197538
0.199018
0.199018
0.197374
0.195566
0.196717
0.199182
0.196717
0.195895
0.198524
0.194416
0.199018
0.196223
0.197538
0.198031
0.197538
0.199182
0.19836
0.200168
0.195566
0.199182
0.196717
0.198196
0.192936
0.19721
0.196223
0.196717
0.199675
0.198031
0.19836
0.199018
0.203455
0.198853
0.198689
0.197538
0.19836
0.198196
0.198524
0.198689
0.199511
0.198524
0.198689
0.198196
0.197538
0.196388
0.19721
0.19721
0.199346
0.200168
0.199675
0.199511
0.199839
0.197374
0.198524
0.199346
0.197374
0.199511
0.197374
0.198031
0.197703
0.197867
0.19836
0.198524
0.198524
0.197867
0.198524
0.193101
0.199675
0.19836
0.199182
0.197045
0.199018
0.197867
0.196388
0.19836
0.197045
0.197867
0.19721
0.197867
0.198853
0.197374
0.195402
0.197703
0.19458
0.199018
0.197538
0.199675
0.198031
0.198689
0.197867
0.197867
0.199346
0.196552
0.200004
0.198524
0.198853
0.197703
0.198524
0.198196
0.200004
0.19721
0.198689
0.197867
0.19573
0.197538
0.199018
0.197867
0.198689
0.202305
0.19721
0.199018
0.19836
0.198524
0.200168
0.196552
0.197538
0.198853
0.196388
0.199018
0.19458
0.194251
0.198689
0.193101
0.193758
0.19836
0.198524
0.199839
0.200168
0.200332
0.20099
0.197045
0.197374
0.197045
0.196223
0.198689
0.198524
0.197703
0.198031
0.200332
0.197703
0.196059
0.19836
0.199346
0.198031
0.199675
0.197703
0.197703
0.195895
0.199511
0.198031
0.198196
0.197703
0.198031
0.197703
0.195895
0.198689
0.199182
0.199675
0.199182
0.198524
0.198031
0.201976
0.197867
0.203126
0.198031
0.197867
0.198196
0.19721
0.195566
0.194251
0.19721
0.197045
0.197045
0.194416
0.198031
0.196059
0.199182
0.197374
0.201154
0.197703
0.196717
0.201483
0.197045
0.201976
0.199675
0.202305
0.198524
0.198853
0.196223
0.198031
0.196552
0.196552
0.198689
0.199346
0.198031
0.199018
0.197374
0.19721
0.200168
0.198196
0.197538
0.197538
0.194909
0.196223
0.197703
0.195402
0.19836
0.197538
0.195566
0.196059
0.197538
0.197374
0.198853
0.19721
0.199182
0.198853
0.19721
0.196717
0.197538
0.19721
0.193922
0.195895
0.19458
0.194416
0.192608
0.196059
0.196881
0.197538
0.19836
0.202469
0.199675
0.198031
0.199675
0.197045
0.202469
0.194744
0.199346
0.200004
0.194251
0.197538
0.200004
0.198689
0.196717
0.198524
0.200168
0.199182
0.199182
0.199182
0.200004
0.200004
0.196717
0.201319
0.197045
0.198196
0.197045
0.198031
0.196059
0.193265
0.197045
0.196717
0.197867
0.197703
0.201154
0.197703
0.197374
0.197538
0.199346
0.19721
0.199018
0.198196
0.198031
0.196059
0.20099
0.199839
0.199182
0.193922
0.197374
0.198853
0.196552
0.199839
0.197538
0.200332
0.196717
0.200825
0.19836
0.197374
0.193594
0.199182
0.19836
0.196717
0.196388
0.202798
0.19573
0.201319
0.200825
0.197374
0.20099
0.197538
0.199839
0.196059
0.199018
0.198196
0.199839
0.199182
0.199182
0.198689
0.196059
0.19836
0.198196
0.19836
0.197703
0.199018
0.195237
0.199511
0.19721
0.197703
0.198196
0.197867
0.19721
0.196552
0.196717
0.197538
0.197538
0.196059
0.202962
0.200004
0.201812
0.199346
0.200332
0.196552
0.196717
0.197374
0.196881
0.106649
0.030552
0.039427
0.045508
0.054219
0.004583
-0.000183
0.000803
-0.000512
-1.9e-05
-0.000347
-0.000183
-0.000347
-0.000676
-0.000347
-0.000676
-0.000841
-0.000512
-0.000183
-0.000183
-0.000183
-0.000183
-1.9e-05
-1.9e-05
-0.000512
-0.000676
-0.000676
-0.000676
-0.000347
-0.000183
-0.000183
-1.9e-05
-1.9e-05
0.00031
0.001625
0.00031
-0.000676
-1.9e-05
-0.000841
-1.9e-05
0.000639
-0.001005
0.003761
0.001789
0.005569
0.008857
0.011486
0.017567
0.024306
0.024306
0.031373
0.037948
0.040742
0.049288
0.052904
0.057013
0.05915
0.067368
0.066546
0.071477
0.070162
0.077558
0.081995
0.08857
0.090871
0.097116
0.101225
0.101883
0.109936
0.110593
0.115853
0.093007
0.037948
0.044851
0.049946
0.056027
0.064574
0.067861
0.074599
0.078708
0.087419
0.089556
0.086597
0.097281
0.100896
0.105992
0.109443
0.11158
0.116675
0.119962
0.125057
0.125879
0.126207
0.120619
0.132124
0.137877
0.141986
0.143794
0.145766
0.148231
0.151354
0.152669
0.155956
0.152833
0.150697
0.160558
0.160394
0.160722
0.163516
0.165982
0.165817
0.168612
0.169926
0.170584
0.170584
0.169433
0.171899
0.174364
0.176829
0.178473
0.175843
0.178966
0.175515
0.176829
0.17798
0.180116
0.177815
0.181431
0.182582
0.18176
0.185869
0.183075
0.186198
0.185212
0.185705
0.186691
0.187348
0.184883
0.18439
0.183239
0.186362
0.186855
0.18817
0.189649
0.189156
0.190964
0.190142
0.192608
0.194251
0.189814
0.191128
0.193265
0.191457
0.192443
0.191128
0.191621
0.189156
0.193265
0.194251
0.196881
0.193265
0.193594
0.194909
0.19195
0.195402
0.194416
0.194416
0.192936
0.196717
0.197867
0.199675
0.190471
0.194087
0.195895
0.193429
0.194416
0.193758
0.194416
0.194416
0.194909
0.195895
0.202962
0.193429
0.19721
0.194416
0.196881
0.192936
0.193429
0.194087
0.192608
0.192936
0.195895
0.20099
0.195237
0.193922
0.196552
0.197867
0.194416
0.197374
0.197867
0.199839
0.197538
0.198524
0.203291
0.193922
0.194251
0.192936
0.192608
0.195073
0.195237
0.194087
0.198524
0.198689
0.196717
0.201319
0.194909
0.199839
0.199675
0.201647
0.198689
0.200825
0.194416
0.198853
0.198031
0.197703
0.20214
0.195566
0.195895
0.198853
0.195402
0.198196
0.197538
0.197374
0.19836
0.199018
0.196717
0.200332
0.194416
0.194909
0.19573
0.195237
0.195402
0.197538
0.198196
0.197045
0.198689
0.197374
0.200825
0.198853
0.198196
0.198196
0.193922
0.195566
0.195895
0.19573
0.195566
0.197703
0.194744
0.20099
0.192772
0.194416

Kurve 3

-0.001991
0.000967
0.001625
-0.002813
0.002282
0.001789
0.000967
0.000146
0.002775
0.000474
0.001954
-0.000841
-1.9e-05
0.001132
0.000803
-0.000183
0.002447
0.00146
0.000146
0.001296
-0.000183
-0.001498
-1.9e-05
-0.000841
-0.002484
-0.000512
-0.001334
0.002447
0.001132
-0.000676
0.001789
0.001296
0.00031
-0.001169
-0.002155
-0.00232
-0.001498
-0.001005
0.002118
-0.004621
-0.000676
-0.000676
0.001296
0.00146
0.001954
0.002611
0.000639
0.00146
0.000967
0.00031
-1.9e-05
0.000967
0.002118
0.005076
-0.001334
0.000803
0.002282
-0.000183
-0.00232
0.000146
0.00031
0.003104
-0.001827
0.00409
0.000967
-0.000183
0.001132
-0.000841
-0.000512
-0.000183
0.001132
-0.003306
-0.001334
-0.002648
-0.001498
-0.002648
-0.001827
-0.000347
-0.000183
0.001296
0.000146
-1.9e-05
-0.001498
0.000803
0.001789
-0.000841
0.002611
0.000146
-0.001498
-0.001498
-0.000841
-0.000512
-0.000676
-1.9e-05
0.003433
0.001296
0.000474
0.001132
0.00146
-0.001169
0.003926
-0.000347
0.001625
-0.000841
0.00146
-1.9e-05
0.00031
-0.000183
-0.001005
-0.000347
-0.000676
-0.000512
0.003926
0.00031
-0.001005
0.00294
0.00031
0.005405
-0.001662
-0.000676
0.000967
0.002282
-0.000676
0.001132
-0.000676
-0.001334
-0.003635
-0.001334
-1.9e-05
-0.001991
0.000639
0.000146
0.001132
-0.000347
0.002118
0.000146
0.00409
0.006227
0.003268
0.003597
-0.000512
-0.000347
-0.000841
-0.000183
-0.001005
0.00031
-0.000676
0.003104
0.000803
0.000639
0.001954
0.001789
0.002282
0.003104
-0.000183
-0.001005
-0.001169
0.000803
-0.002648
-1.9e-05
0.001625
-0.002484
0.001132
0.001789
-0.001334
-0.000841
0.000474
0.000146
0.00146
-0.000512
0.003433
-0.000841
-0.001662
-0.000347
-0.003142
-0.001169
0.002118
-0.000841
-0.00347
-0.000183
-0.003306
-0.000183
0.001789
0.000639
-0.000676
0.004255
0.00031
0.000803
0.00031
0.001296
0.000474
-0.000841
0.002447
-1.9e-05
0.000474
-0.001662
0.002775
0.002118
0.002447
0.001789
0.002282
0.00031
0.000803
0.001296
0.002118
0.001789
0.00031
0.004748
-0.00232
0.000146
0.000474
-0.003799
-0.000183
-0.001169
-0.000676
0.000639
0.000967
-0.000347
0.001625
-0.000183
0.001789
-1.9e-05
0.000639
-0.001827
-0.000512
-0.002813
-0.000676
-0.004785
-0.00347
-0.003799
-0.000183
-0.000512
-0.005443
0.000146
-0.001005
0.000639
0.000474
0.000967
-1.9e-05
0.001954
-0.000183
0.001954
-1.9e-05
0.001296
0.000146
-1.9e-05
-0.001334
0.001954
-0.006593
-0.002484
0.000146
-0.003306
-0.000347
0.000146
-0.000183
0.00031
0.000803
-0.001827
0.003104
-0.001169
0.000803
0.00146
-0.001005
-0.001991
-0.001334
-0.005607
0.000146
0.00031
-0.001991
0.001954
-0.002155
-0.000183
0.001789
-0.001662
-0.001334
0.000146
-0.001662
0.006227
-0.002648
-0.001827
0.00146
-0.000841
0.00031
-0.001334
-0.000676
-0.002648
-0.000347
0.000146
0.000639
-0.003142
-0.001169
0.001296
0.001954
0.000474
0.000639
0.002447
-0.001169
0.002447
0.00031
0.002775
-0.000841
-0.000676
-0.001169
0.002118
-0.001662
0.000639
-0.002484
-0.000347
-1.9e-05
-1.9e-05
-0.000676
-0.001005
0.00031
-0.002648
0.002447
0.000803
-0.002648
-0.000347
-0.001662
-0.002813
-0.00347
-0.002648
-0.002155
-0.001169
-0.000512
-0.003963
-0.005278
-0.001991
-0.004456
-0.001498
-0.001005
-0.00232
-0.004292
-0.002155
0.000639
0.00031
-0.001991
0.000474
-0.005936
-0.002813
-0.001169
-0.000841
-0.000841
-1.9e-05
-0.001169
-0.000183
-0.003306
-0.004785
0.002775
-0.012181
-0.003799
-0.002155
-0.001334
-0.001662
0.00031
0.000146
-0.001991
0.000146
-0.000841
-1.9e-05
-0.008237
-0.001991
-0.000841
0.001789
-0.000183
0.00031
0.000803
-0.00232
0.000474
0.000803
-0.000512
-0.011031
-0.002813
-0.002484
-0.001334
0.000803
-0.004456
-0.004621
0.002611
0.00146
0.001296
0.001296
-0.006429
-0.002813
0.000803
0.000967
-0.001169
-0.000841
-0.000512
-0.001827
-0.001005
0.00031
-0.001991
-0.007579
-0.003142
-0.003963
-0.002155
0.000639
-0.002648
0.00294
0.001954
0.00146
0.001296
0.001132
-0.009058
0.001954
-0.001498
-0.001334
-0.002155
-0.00347
0.000146
-0.003142
0.000474
-0.00232
0.000146
-0.003799
-0.000512
0.000146
0.000146
-0.000676
-0.000512
0.00031
-0.001005
-0.003799
-0.006922
-0.002155
-0.007744
-0.005443
-0.005114
-0.001662
-0.001662
-0.000347
0.000967
-0.001991
0.00031
0.002118
0.001296
-0.001991
-0.000676
-0.002484
0.00031
-0.001498
-0.000183
-0.001991
-0.003306
-0.000676
0.00294
0.001625
-0.002977
-0.001827
0.000803
-0.00232
-0.001005
0.000639
-0.001334
0.001296
-0.001334
0.000803
-0.001662
-0.002155
-0.003306
-0.002484
-0.001498
-0.002155
-0.001498
-0.000347
-0.000347
-0.001991
0.001789
0.000474
-0.000183
-0.002977
0.001625
-0.000347
0.001625
-0.000512
-0.000183
-0.002155
-0.005278
-0.005114
-0.000676
-0.001498
-0.002813
0.000474
0.000967
-0.000676
0.001625
0.000967
-0.003306
0.00294
0.000474
0.000639
-0.001169
-0.00232
0.001132
0.00146
0.000474
-0.000841
0.000967
-0.001498
-0.001991
-0.000676
0.001296
-0.001169
0.000474
-0.000512
-1.9e-05
-0.000512
0.00031
-0.000841
-0.002155
-0.000676
-0.000841
-0.001827
0.00031
-0.000676
-0.001662
0.001132
-0.001827
0.000474
-0.003142
-0.000841
-0.001169
0.000146
-0.001005
0.000474
-0.004128
-0.000841
0.000474
-0.004292
-0.001169
-0.001005
-0.000347
-0.000512
0.003433
-0.001827
0.003761
-0.000841
-0.000347
0.001625
0.002775
-0.001334
0.00031
0.000803
0.001954
0.003926
0.000146
0.005405
-0.001662
-0.000676
-0.000183
0.001954
0.001954
0.00031
-0.000183
0.002447
0.000474
0.001625
0.007377
-0.002648
0.000967
-0.001827
0.000803
-0.000676
0.000803
-0.001498
0.00146
0.000146
0.000803
0.002118
-0.002648
0.00031
0.001954
-0.005278
-0.004292
-0.001991
0.001296
0.001789
0.002282
0.001132
0.001296
-0.000347
0.001296
-0.000512
-0.000347
0.001132
-0.001498
-0.000512
0.001132
0.000639
0.002118
0.003761
0.000639
-0.001005
0.002447
0.005569
0.003268
0.003761
0.004255
0.000639
0.00031
-0.001169
0.00031
-0.004785
-0.002648
0.000639
-0.00232
0.001132
-0.000512
-0.000512
-0.002155
-0.001662
-0.002813
0.000474
-0.003142
-0.000512
-0.002977
-0.001005
-0.002648
-0.002813
-0.001991
0.000474
0.004583
-0.003142
0.00146
-0.002977
-0.001005
-0.001498
0.001132
0.003433
0.003597
0.00031
-0.002155
-0.003799
-0.002977
-0.00347
-0.005114
-0.004621
-0.00347
-0.001827
-0.00347
-0.002484
-0.003799
-0.002155
-0.002484
-0.002155
-0.000512
0.011486
0.008857
0.010171
0.015102
0.010336
0.006884
0.006556
0.006391
0.00935
0.007377
0.007377
0.004419
0.002447
0.005405
0.00294
0.004419
0.003268
0.004912
0.004748
-0.001498
0.001132
-0.001169
-0.001991
-0.002155
-0.003963
-0.001662
-0.000512
-0.004785
-0.000512
-0.002484
-0.003306
-0.001991
0.001954
-0.001498
-0.000183
0.001132
-0.000676
-0.002155
-0.000183
-0.001991
0.000146
0.001296
-0.000183
0.000803
-0.0061
0.002282
-0.001662
-0.001005
-0.004621
-0.001827
-0.000841
-0.000183
-0.000347
0.001296
0.003104
-1.9e-05
0.003268
0.002118
0.005076
-1.9e-05
0.00294
-0.002155
-0.001498
0.001132
-0.003635
0.000803
-0.00232
0.00031
-0.000841
-0.000841
0.000803
0.001954
-0.001498
0.001296
-0.002484
0.000146
0.000474
-0.001005
-0.004292
-0.001498
-0.002484
-0.001662
-0.000841
-0.001005
0.001954
0.00294
0.000639
0.000146
0.000639
-0.001827
0.001296
0.000803
-0.000841
0.001296
-0.002648
0.000803
-0.001005
-0.001005
-0.003963
-0.003306
-0.000347
-0.002648
-0.00232
0.000474
0.004255
0.010664
0.019868
0.028086
0.032524
0.044193
0.04748
0.05274
0.059314
0.067368
0.069997
0.076736
0.080845
0.084625
0.094158
0.094158
0.101718
0.103526
0.109936
0.116675
0.117496
0.11914
0.12177
0.096788
0.10139
0.106485
0.109607
0.113881
0.120784
0.123742
0.123742
0.131302
0.130809
0.132289
0.135904
0.141164
0.143136
0.147081
0.148396
0.14971
0.144615
0.146095
0.149546
0.150697
0.151847
0.148889
0.000474
0.003104
0.015266
0.024306
0.029566
0.037948
0.046001
0.05011
0.031538
0.000474
0.003597
0.005898
-0.000183
-0.000676
0.001789
0.008363
-1.9e-05
-1.9e-05
0.001132
0.012308
0.004583
0.002611
0.01428
0.02447
0.029894
0.039427
0.041892
0.046987
0.057177
0.060136
0.070162
0.073942
0.08216
0.085611
0.091364
0.095637
0.102376
0.101883
0.106485
0.113059
0.115031
0.122263
0.123085
0.125879
0.126865
0.135411
0.135083
0.141493
0.138534
0.141
0.145273
0.146095
0.149546
0.152505
0.151847
0.154477
0.159079
0.155627
0.167132
0.162695
0.165653
0.164503
0.168447
0.16779
0.172063
0.16779
0.172556
0.170748
0.175843
0.176336
0.1742
0.176008
0.173378
0.176829
0.178144
0.180774
0.178637
0.179623
0.182253
0.181267
0.183568
0.183732
0.18439
0.186362
0.187019
0.187019
0.186526
0.185376
0.187677
0.186855
0.187184
0.189485
0.187677
0.188992
0.187513
0.189814
0.190142
0.189978
0.194416
0.188827
0.193429
0.190471
0.193101
0.192115
0.190307
0.042714
0.00294
0.004912
0.014938
0.024142
0.025457
0.034168
0.039756
0.052247
0.053397
0.060629
0.066217
0.072791
0.07953
0.083803
0.090871
0.091364
0.094487
0.100732
0.104019
0.105334
0.112401
0.114209
0.114045
0.120619
0.125879
0.129988
0.132289
0.133439
0.134918
0.144122
0.139356
0.144122
0.146588
0.149217
0.149546
0.154148
0.154477
0.158257
0.1576
0.158257
0.162859
0.162859
0.168118
0.166146
0.166475
0.168283
0.172227
0.17272
0.173049
0.172063
0.175515
0.179952
0.17535
0.174693
0.173871
0.175021
0.177651
0.179788
0.182089
0.183568
0.183239
0.183075
0.185869
0.184718
0.18554
0.188334
0.185705
0.188006
0.188663
0.189156
0.185869
0.186198
0.187513
0.187513
0.187184
0.185869
0.191128
0.191786
0.190635
0.192936
0.193265
0.192279
0.194087
0.192936
0.195073
0.192115
0.192772
0.193758
0.192608
0.193429
0.195402
0.194909
0.195566
0.197045
0.194744
0.197538
0.193265
0.193922
0.19458
0.196717
0.195237
0.197703
0.197374
0.196388
0.19195
0.194087
0.19721
0.195566
0.19458
0.19458
0.196223
0.194251
0.197703
0.194909
0.198524
0.196881
0.196717
0.199839
0.195895
0.199018
0.192936
0.19573
0.19458
0.19721
0.19721
0.194744
0.192936
0.198524
0.196059
0.196388
0.196881
0.19836
0.199839
0.196388
0.200332
0.198524
0.200332
0.19721
0.199839
0.197867
0.200168
0.196717
0.197045
0.197538
0.199839
0.19836
0.197045
0.19836
0.198031
0.198689
0.199018
0.198196
0.198853
0.19836
0.19573
0.200825
0.20099
0.200004
0.199675
0.199675
0.196388
0.196881
0.19573
0.194416
0.196059
0.197045
0.198196
0.200661
0.197867
0.19836
0.201647
0.196388
0.201319
0.19458
0.196881
0.19458
0.198031
0.196388
0.197374
0.196717
0.199018
0.200004
0.198196
0.201483
0.198524
0.200332
0.19836
0.200661
0.199346
0.202469
0.20099
0.199182
0.200004
0.194087
0.197867
0.195237
0.19836
0.19721
0.19836
0.198196
0.200168
0.197867
0.201319
0.198853
0.200661
0.20214
0.201976
0.199839
0.197703
0.200004
0.198196
0.200661
0.196881
0.197703
0.198689
0.196388
0.197867
0.200168
0.196881
0.199346
0.199839
0.200004
0.197703
0.197374
0.200332
0.200661
0.198853
0.19573
0.20099
0.197703
0.199018
0.199018
0.199839
0.198524
0.200004
0.199018
0.198031
0.19836
0.202305
0.198524
0.199675
0.199018
0.202305
0.201319
0.200661
0.198524
0.199018
0.200661
0.198196
0.202633
0.197703
0.199346
0.198689
0.199675
0.199182
0.200332
0.198524
0.201319
0.196388
0.199182
0.203126
0.199675
0.200332
0.199182
0.199839
0.198031
0.200332
0.19836
0.200825
0.198196
0.196717
0.196223
0.199018
0.197538
0.19836
0.197703
0.197867
0.201483
0.197538
0.202962
0.197045
0.201976
0.200168
0.19836
0.19721
0.200332
0.196717
0.198524
0.199511
0.198196
0.199839
0.198853
0.199839
0.200497
0.201976
0.199675
0.200168
0.199018
0.199346
0.201154
0.199511
0.199675
0.20214
0.199346
0.200004
0.199182
0.196552
0.199018
0.193922
0.198196
0.199018
0.20099
0.200825
0.201154
0.199675
0.200332
0.200004
0.199675
0.199346
0.19836
0.196223
0.196388
0.19836
0.195566
0.198031
0.195895
0.200661
0.199346
0.19836
0.200332
0.201154
0.199182
0.20214
0.199018
0.196881
0.196717
0.197374
0.200168
0.197374
0.20214
0.196881
0.199018
0.199182
0.199839
0.198689
0.200332
0.199839
0.201483
0.199182
0.200168
0.202962
0.199346
0.201647
0.201812
0.200168
0.19836
0.200168
0.19721
0.198853
0.197374
0.197867
0.201154
0.201483
0.197538
0.200332
0.201483
0.199018
0.201976
0.197045
0.196059
0.201319
0.197703
0.19721
0.199511
0.197538
0.197045
0.196059
0.199018
0.199511
0.201154
0.201319
0.200497
0.200168
0.199839
0.20099
0.197703
0.200004
0.201319
0.198524
0.199346
0.198196
0.198524
0.198853
0.19721
0.201319
0.199675
0.19836
0.201483
0.202469
0.198524
0.199675
0.200168
0.199675
0.20099
0.199675
0.199839
0.200168
0.198689
0.199346
0.198524
0.199839
0.199511
0.201154
0.198689
0.201319
0.199346
0.199346
0.199675
0.202962
0.202633
0.199511
0.198853
0.199346
0.19836
0.198524
0.199675
0.199182
0.198196
0.196881
0.19836
0.199182
0.201319
0.200825
0.201154
0.200497
0.200168
0.200825
0.201483
0.199839
0.200004
0.199839
0.200168
0.200661
0.201483
0.201319
0.196717
0.199675
0.197538
0.200332
0.201319
0.199511
0.199839
0.201319
0.200825
0.204606
0.201483
0.20099
0.200497
0.199839
0.199675
0.199675
0.197703
0.200332
0.201647
0.200332
0.202469
0.199839
0.201976
0.201647
0.198853
0.199346
0.201154
0.200497
0.200497
0.200661
0.201647
0.206578
0.201647
0.201647
0.201976
0.20214
0.199018
0.202305
0.200168
0.201812
0.201319
0.203784
0.202962
0.203126
0.202633
0.202962
0.202798
0.202305
0.202633
0.201483
0.202469
0.201154
0.205427
0.203291
0.205921
0.205427
0.202469
0.202633
0.204441
0.202798
0.203126
0.203455
0.20362
0.205099
0.204277
0.204113
0.202633
0.203126
0.201976
0.202469
0.200825
0.202469
0.19836
0.199839
0.203784
0.19836
0.19836
0.20214
0.20099
0.199511
0.202962
0.202469
0.205592
0.200497
0.205099
0.205099
0.20477
0.202469
0.202798
0.204277
0.201319
0.202633
0.202633
0.20362
0.201483
0.20362
0.204277
0.205427
0.202469
0.202962
0.201154
0.20099
0.200332
0.200332
0.198031
0.20099
0.199839
0.201976
0.202305
0.196223
0.201483
0.200825
0.199511
0.197374
0.199675
0.198853
0.198524
0.197538
0.198689
0.19836
0.198524
0.195566
0.196388
0.192936
0.196717
0.196388
0.19195
0.197703
0.193429
0.197374
0.195237
0.194909
0.19573
0.196388
0.194251
0.19458
0.19458
0.194416
0.193594
0.193594
0.196059
0.195402
0.195566
0.192772
0.196552
0.192608
0.196059
0.194087
0.194087
0.19458
0.197045
0.196881
0.197374
0.195237
0.196059
0.193758
0.192279
0.195073
0.194087
0.19458
0.19458
0.19458
0.193101
0.19573
0.197867
0.198524
0.193594
0.197374
0.195237
0.19721
0.196223
0.197374
0.198031
0.197703
0.195895
0.19836
0.200168
0.191786
0.194909
0.194087
0.193594
0.192772
0.196552
0.196881
0.196223
0.200168
0.197045
0.199511
0.196717
0.199182
0.197703
0.197374
0.197703
0.198853
0.196881
0.194909
0.197374
0.198196
0.19721
0.197045
0.197867
0.200332
0.200661
0.195895
0.201812
0.200497
0.19836
0.198853
0.199839
0.197538
0.197867
0.19721
0.197538
0.194909
0.197867
0.197045
0.19721
0.197867
0.199839
0.20214
0.197703
0.200825
0.202305
0.19721
0.195895
0.198196
0.196223
0.192936
0.193265
0.198853
0.19573
0.199182
0.199511
0.197538
0.199018
0.197703
0.198524
0.199018
0.204277
0.197045
0.201154
0.199346
0.200332
0.199346
0.199018
0.197867
0.19721
0.19836
0.198196
0.197703
0.196717
0.199675
0.199182
0.198524
0.199018
0.203291
0.201483
0.201154
0.200332
0.199675
0.201812
0.196717
0.199675
0.198689
0.198196
0.199346
0.197538
0.198689
0.198689
0.197703
0.200332
0.198196
0.197374
0.197538
0.20099
0.195895
0.198689
0.203455
0.19836
0.197703
0.201647
0.198853
0.198524
0.199346
0.199182
0.201154
0.20099
0.200497
0.20099
0.199511
0.199675
0.200332
0.200004
0.199511
0.199675
0.201647
0.199346
0.198853
0.201154
0.200168
0.20214
0.19721
0.201483
0.198853
0.200332
0.196388
0.20362
0.200825
0.199346
0.200497
0.20099
0.199018
0.19836
0.199839
0.197703
0.199346
0.199018
0.200661
0.196388
0.199018
0.198196
0.195566
0.199675
0.197045
0.198524
0.197867
0.195566
0.194087
0.196388
0.193101
0.194744
0.196717
0.200004
0.197045
0.197045
0.19573
0.196388
0.196552
0.195073
0.196717
0.195402
0.197045
0.199675
0.196223
0.196388
0.198031
0.195237
0.198031
0.195566
0.19573
0.19721
0.196388
0.19573
0.196552
0.198524
0.192443
0.193758
0.196388
0.196552
0.195073
0.195566
0.197045
0.198689
0.196717
0.196059
0.197538
0.198196
0.199018
0.198196
0.196717
0.196223
0.196717
0.196388
0.19721
0.199018
0.198524
0.194087
0.193758
0.197045
0.196388
0.199346
0.19721
0.200168
0.198031
0.197703
0.199675
0.199018
0.19836
0.196552
0.194744
0.198196
0.196881
0.200332
0.193758
0.198031
0.197703
0.198689
0.198524
0.20099
0.196059
0.197867
0.197538
0.19721
0.199511
0.195895
0.198524
0.194087
0.19721
0.196223
0.198031
0.19573
0.198689
0.196223
0.197374
0.198689
0.198689
0.19836
0.199675
0.200168
0.200168
0.198853
0.19721
0.203126
0.19836
0.196388
0.19573
0.197045
0.193922
0.197045
0.199018
0.195895
0.199839
0.200332
0.197045
0.199182
0.200168
0.198524
0.199018
0.198689
0.197538
0.199018
0.199018
0.19836
0.197538
0.196059
0.196223
0.196059
0.200497
0.200332
0.201154
0.200004
0.19721
0.199675
0.197045
0.200168
0.197703
0.198031
0.195566
0.19721
0.193265
0.198689
0.197045
0.197703
0.197374
0.197703
0.19836
0.198196
0.198524
0.197867
0.19721
0.197703
0.201319
0.202962
0.200332
0.198031
0.200168
0.194251
0.196717
0.195073
0.193101
0.196223
0.194909
0.200497
0.196717
0.199346
0.199182
0.198031
0.196717
0.201154
0.197867
0.200168
0.200004
0.200004
0.198031
0.198689
0.200332
0.197867
0.196059
0.195402
0.199675
0.197045
0.197045
0.197374
0.197867
0.200332
0.199346
0.198689
0.197867
0.201319
0.196223
0.198853
0.197867
0.19836
0.19721
0.198031
0.197374
0.198853
0.197538
0.197703
0.200004
0.198524
0.198853
0.203291
0.198853
0.197374
0.198853
0.196059
0.198689
0.197867
0.197703
0.194251
0.201812
0.198689
0.200004
0.197867
0.198524
0.197538
0.199018
0.19836
0.199675
0.199182
0.200661
0.19721
0.19836
0.199346
0.197867
0.200825
0.195895
0.198196
0.196223
0.20099
0.196059
0.199018
0.193758
0.198689
0.199346
0.195566
0.197867
0.19721
0.199511
0.19836
0.199511
0.198196
0.198524
0.196059
0.198031
0.19721
0.19721
0.196717
0.196388
0.198524
0.199346
0.205263
0.199018
0.199675
0.201154
0.196388
0.195566
0.200497
0.196223
0.195402
0.19836
0.199018
0.196717
0.200004
0.198853
0.195402
0.199511
0.195402
0.198853
0.197703
0.199346
0.19836
0.199511
0.198689
0.201483
0.201483
0.200825
0.196552
0.197045
0.198196
0.196388
0.196223
0.19721
0.199182
0.197703
0.194251
0.197867
0.19836
0.194416
0.200332
0.195895
0.199346
0.194087
0.199675
0.200168
0.196223
0.196717
0.197374
0.197045
0.196388
0.19836
0.20214
0.200332
0.19573
0.19836
0.197045
0.197374
0.19573
0.201319
0.197538
0.200497
0.197045
0.196223
0.200004
0.196552
0.197374
0.198853
0.198524
0.197867
0.198524
0.196552
0.201319
0.196717
0.197703
0.200661
0.199511
0.200004
0.199675
0.200168
0.198031
0.200497
0.198031
0.199018
0.197867
0.197703
0.195402
0.199182
0.199018
0.19721
0.19836
0.197045
0.199511
0.198196
0.195237
0.200168
0.199182
0.196388
0.198689
0.199675
0.199018
0.19836
0.199675
0.200004
0.197703
0.194087
0.195566
0.196881
0.195402
0.19573
0.198031
0.197867
0.19721
0.197045
0.200004
0.199182
0.196552
0.199675
0.197703
0.196223
0.196223
0.197703
0.195895
0.19573
0.192115
0.195566
0.195402
0.198031
0.196223
0.195402
0.198853
0.195895
0.199675
0.196552
0.19721
0.19836
0.199511
0.195566
0.195895
0.195402
0.194744
0.193101
0.193429
0.19573
0.192443
0.194744
0.193922
0.196223
0.193429
0.193922
0.192608
0.188006
0.193594
0.188827
0.191457
0.189649
0.188006
0.188663
0.182417
0.167625
0.162202
0.147245
0.140342
0.136233
0.140342
0.135083
0.133932
0.130481
0.128837
0.124893
0.125386
0.123413
0.123085
0.123578
0.120619
0.120291
0.114702
0.111415
0.104512
0.098924
0.092843
0.093993
0.091035
0.089391
0.087255
0.082817
0.077558
0.074928
0.072134
0.066053
0.062273
0.056191
0.054548
0.049781
0.046823
0.04633
0.042714
0.038934
0.039263
0.035647
0.034168
0.028744
0.024799
0.025457
0.02595
0.028086
0.023977
0.024142
0.027593
0.02973
0.026443
0.02595
0.028744
0.026771
0.02973
0.026936
0.026278
0.025457
0.023649
0.021183
0.022827
0.021676
0.022991
0.019868
0.018389
0.019704
0.019375
0.017567
0.020362
0.017732
0.017896
0.019868
0.021348
0.020855
0.01954
0.019868
0.017403
0.019047
0.017896
0.020197
0.016746
0.015595
0.018389
0.017239
0.015431
0.017239
0.015102
0.019375
0.017567
0.016253
0.020033
0.022169
0.021676
0.022334
0.022169
0.018718
0.023156
0.018718
0.020362
0.021841
0.025457
0.024142
0.026114
0.02447
0.031867
0.027593
0.025292
0.032031
0.028744
0.03088
0.031702
0.036962
0.036469
0.040084
0.039263
0.0437
0.044358
0.046494
0.047809
0.050932
0.054712
0.055698
0.060465
0.060793
0.065888
0.06671
0.073942
0.074106
0.077722
0.080352
0.083475
0.090213
0.093665
0.096788
0.103033
0.105334
0.108457
0.114374
0.116346
0.121605
0.119469
0.12555
0.128015
0.132289
0.136233
0.137877
0.139192
0.143958
0.146588
0.148396
0.153326
0.148724
0.154641
0.152998
0.155792
0.156449
0.158093
0.158257
0.16516
0.163681
0.164174
0.166968
0.166475
0.167297
0.173542
0.175186
0.173049
0.176336
0.175679
0.176994
0.177651
0.178966
0.17913
0.176336
0.180938
0.182911
0.181267
0.182911
0.184225
0.183568
0.18439
0.185212
0.186691
0.186855
0.184883
0.185376
0.185705
0.189156
0.188499
0.190471
0.1908
0.190635
0.191621
0.187019
0.188992
0.184225
0.186362
0.192115
0.192772
0.190142
0.190142
0.192608
0.192772
0.194087
0.193265
0.194744
0.187841
0.193429
0.195237
0.194909
0.191457
0.193265
0.194744
0.193922
0.196388
0.199346
0.194909
0.187348
0.19573
0.194744
0.19836
0.193101
0.197867
0.196059
0.193265
0.195402
0.198031
0.196059
0.186691
0.195237
0.195895
0.19573
0.19721
0.196552
0.195895
0.197867
0.197538
0.198853
0.196881
0.190142
0.196881
0.198196
0.197703
0.200168
0.201319
0.198031
0.193758
0.196388
0.197703
0.195237
0.188334
0.195402
0.196717
0.195895
0.19836
0.197867
0.19721
0.201647
0.205592
0.202633
0.20214
0.193265
0.196881
0.199018
0.197703
0.200168
0.196059
0.198031
0.198853
0.204277
0.199182
0.199182
0.193429
0.196552
0.200004
0.198031
0.200168
0.198196
0.199018
0.195402
0.198031
0.195566
0.199675
0.191621
0.195895
0.197374
0.19836
0.199346
0.199182
0.198524
0.199346
0.201976
0.199018
0.199511
0.193922
0.199182
0.196552
0.195895
0.189649
0.191786
0.195237
0.195237
0.199346
0.19573
0.200168
0.19721
0.19721
0.199511
0.200825
0.199675
0.200661
0.199182
0.200332
0.199182
0.198689
0.198689
0.200497
0.195073
0.196717
0.19721
0.19836
0.200661
0.199346
0.199182
0.200661
0.201483
0.200497
0.203948
0.19573
0.199839
0.199182
0.199182
0.197867
0.198689
0.195895
0.197867
0.200825
0.199018
0.201812
0.197045
0.199018
0.199182
0.201154
0.199511
0.199839
0.196388
0.199182
0.196552
0.199839
0.202962
0.199018
0.197867
0.200497
0.198853
0.198853
0.201483
0.196881
0.200497
0.199511
0.201319
0.202469
0.199346
0.199018
0.200168
0.200004
0.198853
0.198524
0.19721
0.197045
0.198196
0.200168
0.199675
0.198196
0.196059
0.200168
0.200004
0.20099
0.197538
0.199675
0.199511
0.200332
0.198031
0.200004
0.197538
0.198689
0.199511
0.197867
0.199675
0.197538
0.198031
0.198853
0.199182
0.197045
0.203948
0.199182
0.197045
0.196717
0.201483
0.197538
0.193758
0.199346
0.199018
0.200004
0.199839
0.204934
0.197374
0.199346
0.199018
0.201647
0.198196
0.19836
0.19721
0.201483
0.19836
0.198196
0.204441
0.197867
0.201154
0.200332
0.200661
0.200497
0.20214

Kurve 4

0.000967
0.000639
0.00146
-0.000512
0.00294
0.000803
0.000474
0.000803
0.002775
0.00031
0.000803
0.00146
0.000474
0.004255
0.000639
0.002118
0.002775
-0.000841
0.00031
-0.001498
-0.000676
0.000967
-0.000347
-0.001005
0.003104
0.000474
0.003597
0.00031
0.002775
-0.001827
0.00146
0.000474
0.000474
0.001789
-0.001662
0.000474
0.003268
-0.001334
0.000803
-0.000347
-0.001498
0.001296
-0.001334
-0.001498
-0.001169
-0.001334
-0.001991
-0.000841
-0.000841
0.002282
-0.000183
0.000639
0.000639
-0.002484
0.002282
-0.001991
-0.000183
-0.00232
0.004419
-0.002484
0.000639
-0.002155
-0.000512
0.001132
0.001296
-0.001334
-1.9e-05
-0.001334
-1.9e-05
-0.000347
-0.000676
0.002282
-0.002155
-0.000841
-0.002813
-0.002155
-0.000676
-0.004128
-0.003306
-0.001334
-0.001662
0.000146
0.000803
-0.000512
-0.003142
-0.002155
-0.000347
-0.004456
0.000803
-0.004949
-1.9e-05
-0.001005
-0.001827
-0.001169
-0.00347
-0.002977
-0.001827
-0.00232
-0.001827
-0.000347
-0.001827
0.002282
0.000146
0.000803
0.00031
0.00031
0.00146
-0.004785
-0.002484
-0.003142
-0.001498
-0.00347
-1.9e-05
-1.9e-05
0.001625
0.000146
-0.001827
0.000803
0.000474
-0.000841
0.001625
0.000146
-0.001991
0.000803
0.000967
-0.001827
-0.000676
-0.004128
-0.001662
-0.001827
-0.001662
0.001625
-0.001498
0.000639
-0.000347
0.002282
0.000967
0.003104
-0.000183
0.003104
-0.002813
0.00031
-0.004949
-0.004785
-0.003963
-0.002977
-0.003635
-0.003635
-0.000841
-0.003306
-0.001662
-0.002155
-0.001005
-0.001498
-1.9e-05
-0.002813
0.001954
0.001296
-0.001169
0.002611
-0.00232
-0.002813
-0.000676
-0.00347
-0.00232
-0.001498
-0.004949
-0.001169
-0.000676
-0.000512
-0.001827
-0.001498
-0.004456
-0.001005
-0.000676
-0.002648
-0.002484
-0.004621
-0.001827
-0.002484
-0.001662
-0.002648
-0.002155
-0.003799
-0.001334
-0.004621
-0.001498
-0.002648
-0.003799
-0.000347
-0.001005
0.000639
-0.005443
-0.002155
-0.004456
-0.005771
-0.003963
-0.001334
-0.003799
-0.000676
-0.003306
-0.00232
-0.002155
0.000146
-0.002648
0.000967
-0.001169
-0.004292
-0.002484
-0.003635
-0.005443
-0.001005
0.000803
-0.000183
0.003761
-0.003306
0.00146
-0.001498
0.00031
-0.001827
0.000803
0.001296
0.001296
0.001625
-0.001005
-0.011524
-0.023029
-0.016948
-0.017769
-0.015961
-0.014975
-0.000841
-0.009223
-0.004949
-0.005278
-0.00347
-0.002155
0.001789
-0.000347
-0.002648
0.001789
0.001789
0.00146
-0.002484
0.002282
0.001296
0.005076
0.007213
0.000146
0.001954
0.000146
0.004419
-0.005771
0.000803
0.004748
-0.000512
0.001954
0.002282
0.0105
0.003104
0.008363
0.001625
-0.000676
0.000803
0.004255
-0.005278
-0.000183
0.001789
0.000803
-0.025494
-0.001827
0.002611
0.003597
0.004255
0.00031
-0.001991
-0.000512
-0.001169
0.000474
0.000639
0.001789
-0.001662
-0.002813
-0.002648
-0.004621
-0.001334
-0.001498
-0.001498
0.00146
0.004912
-0.001334
0.001625
-0.000676
-0.000841
-0.000512
0.004419
0.003104
0.002447
0.001296
0.003268
0.002447
0.002775
0.002447
-0.001662
0.002118
0.002611
0.008199
-0.001005
0.003104
0.00409
0.000639
-0.001498
0.003597
0.003597
0.000639
0.000967
0.001789
0.00146
0.000639
0.000967
0.000474
0.003761
0.000639
0.003104
0.000639
0.000474
-0.000676
0.002447
0.000146
0.00146
0.001296
0.003268
0.002775
0.002118
0.00146
0.000639
-0.000347
-0.001334
0.00031
0.00146
0.005241
0.000639
-0.000183
0.001132
-0.000183
-0.001827
0.004583
0.001954
0.002282
0.003433
0.000967
0.003926
0.00294
0.004748
0.001132
0.005898
-0.000347
0.002118
-0.000512
0.001132
0.001296
0.004583
0.000803
0.007706
0.004748
0.001789
0.002775
0.003761
0.003268
0.000967
0.002282
0.003433
0.001132
0.000474
0.003761
0.002447
-1.9e-05
-1.9e-05
0.001789
0.00146
-0.001005
-0.000512
0.000639
0.004255
0.002775
0.006062
0.003104
0.001625
0.001296
-0.001005
0.000639
-0.001334
-0.003799
-0.002155
-0.001498
-0.003799
0.003597
0.001625
0.001132
0.000474
0.002447
0.001625
-0.000512
0.000474
0.002282
-0.001991
-0.002977
0.000639
0.00146
0.00031
0.00031
0.002775
-0.002155
-0.001169
-0.001334
0.00031
-0.000676
0.001625
0.002775
0.002611
0.002611
0.002118
0.003104
0.00146
-0.001169
-0.001334
-0.001169
-0.001827
-0.001005
-0.001334
0.002118
-0.002155
-0.001334
-0.002484
0.002611
-0.000841
-0.000347
-0.001662
0.001296
0.002611
-0.002977
0.003104
0.001296
-0.002155
-0.001662
-0.024179
-0.0227
-0.007908
-0.007908
-0.000183
0.000639
0.003597
0.004748
0.003268
-0.004785
-0.001827
0.001789
0.00031
0.002447
-0.000512
-0.001498
-0.004785
-0.001005
-0.001498
0.001954
-0.001827
0.001954
0.001954
-0.000676
0.002282
0.000639
0.002118
0.001625
0.004912
-0.001005
-0.001169
0.000146
0.000639
0.002118
-0.003142
-0.002484
-0.000183
-0.001005
-0.002977
-0.000347
-0.000676
0.00146
0.000474
0.000639
-0.000347
0.000474
-0.003306
-0.001169
-0.00725
-0.004292
-0.001169
0.000639
-0.003142
-0.00232
-0.002813
-0.001005
-0.001169
0.000474
-0.001827
0.000474
-0.001991
0.002118
0.001954
0.000803
0.001132
-0.001991
-0.000183
-0.001827
0.001625
-0.000512
-0.000347
-0.000183
-0.001005
-0.000676
-0.000183
0.001296
-1.9e-05
0.00031
0.00031
-0.000183
-0.002648
0.000967
-0.001334
0.000639
-0.000512
0.000639
0.00031
0.001625
-0.00347
-0.000841
-0.001498
-1.9e-05
-0.000512
-1.9e-05
-0.000676
0.001625
-0.003963
-0.004621
0.000474
-0.000841
-0.001498
0.000639
-0.001334
-0.000347
0.00031
0.000803
-0.001498
0.001296
-0.000347
0.002611
0.000803
0.002118
0.000146
0.001625
0.001789
0.002775
0.002775
0.003268
0.007213
0.002447
0.001132
0.003926
0.000474
-0.000512
0.003104
-0.000676
0.004255
0.000474
0.003268
0.00146
0.000803
0.000803
0.00294
-0.000676
0.001625
0.000967
0.001132
0.001625
0.00146
0.002775
0.000639
0.00146
-0.000183
-0.000841
-1.9e-05
0.00031
-0.000512
-0.002648
-0.002648
0.001954
0.000474
0.000967
0.00146
0.000146
0.001625
0.001296
0.001954
0.000474
0.001789
-0.001005
0.000146
0.002775
0.002775
-0.001334
0.001296
-0.000183
0.000146
-1.9e-05
0.003268
-0.000183
-0.003306
0.002447
-0.000512
0.000639
0.002118
-0.001005
-0.001169
0.000146
-0.000183
-0.000512
-0.000512
-0.000512
0.000639
0.001296
-0.000347
-0.001334
0.000146
-0.000347
0.000967
-0.000841
0.001296
-0.001334
-0.000347
0.000639
0.002282
-0.001498
-0.001662
0.00146
-1.9e-05
-0.001169
0.000146
-0.001827
-0.002155
0.001625
-0.001827
0.000639
0.001132
-0.000676
0.001296
0.000474
-0.003963
0.002611
-1.9e-05
0.000146
0.00031
-0.002155
0.002775
0.001132
0.000967
0.000474
-0.000512
0.001954
0.002611
0.000474
0.002775
-1.9e-05
0.00031
-0.000841
-0.000512
-0.000183
-0.000841
-0.000347
-0.001991
0.002282
0.000146
-0.001169
-0.000512
0.002447
0.000639
0.000803
-1.9e-05
0.001132
0.00146
-0.000183
-0.000512
-0.004785
-0.001498
-0.002484
-0.000183
-0.00232
0.000967
-0.003142
-0.004456
-0.000183
0.001296
-0.000347
0.001789
-0.000347
0.000146
0.000639
0.002611
-0.001169
0.000146
0.003268
0.001789
-0.001662
-0.000676
0.000803
-0.001334
-1.9e-05
-0.000347
0.007706
0.001789
0.003104
0.000474
0.000967
0.00294
0.000146
0.001296
-0.00347
0.000803
0.001132
0.000146
0.001132
0.003104
-0.000512
0.001625
-0.000512
-0.001662
-0.000512
-0.000183
0.00146
0.000803
0.00146
-0.002155
0.001296
-0.001005
-0.001334
-0.001991
0.000146
-0.003963
-0.000347
-0.001827
0.001132
0.000967
0.00031
0.007049
0.008363
0.022005
0.028251
0.032524
0.040906
0.050439
0.05389
0.063587
0.069997
0.074764
0.077065
0.08709
0.088241
0.090213
0.100239
0.100075
0.106978
0.111087
0.114867
0.121441
0.12292
0.126207
0.12933
0.132453
0.135411
0.133603
0.141
0.089391
0.093172
0.096788
0.102047
0.106156
0.109114
0.114209
0.11651
0.120784
0.122427
0.129659
0.131467
0.135247
0.134425
0.140506
0.141821
0.141164
0.143136
0.149053
0.149053
0.151025
0.153162
0.155134
0.158914
0.159572
0.163681
0.163845
0.162695
0.161873
0.169598
0.165489
0.168776
0.169598
0.172063
0.172063
0.171899
0.175021
0.177322
0.173378
0.173214
0.179623
0.175843
0.17798
0.181924
0.183568
0.181596
0.183404
0.182746
0.182417
0.183239
0.183897
0.186855
0.183732
0.184554
0.186198
0.187841
0.184883
0.190635
0.188334
0.191786
0.1908
0.189649
0.192115
0.190635
0.187513
0.188827
0.191128
0.188663
0.190471
0.192279
0.193429
0.191457
0.193101
0.193429
0.194744
0.191128
0.19458
0.199675
0.194909
0.196223
0.19721
0.195237
0.199018
0.195402
0.195566
0.194416
0.194744
0.195566
0.190471
0.194251
0.193429
0.197045
0.194744
0.195402
0.198031
0.19836
0.19573
0.195073
0.194251
0.195237
0.195402
0.19721
0.197867
0.198853
0.197538
0.198689
0.200332
0.196388
0.19836
0.197538
0.19458
0.195566
0.200497
0.197374
0.19836
0.197538
0.197703
0.200004
0.195237
0.198689
0.196223
0.197867
0.198689
0.199346
0.199346
0.200004
0.198031
0.195895
0.202798
0.197374
0.200004
0.197538
0.199511
0.198031
0.199675
0.199182
0.204113
0.197867
0.199839
0.203126
0.198196
0.200661
0.199839
0.198853
0.200825
0.199511
0.199346
0.200004
0.196717
0.198031
0.199182
0.19836
0.196881
0.199182
0.19836
0.200168
0.19721
0.199346
0.198853
0.197703
0.199182
0.200332
0.197045
0.19458
0.200332
0.19458
0.197374
0.193758
0.200661
0.199675
0.20099
0.197867
0.202305
0.199675
0.199511
0.199675
0.19836
0.196881
0.191293
0.199675
0.197374
0.199346
0.198196
0.201647
0.198524
0.200004
0.199018
0.20099
0.199182
0.197374
0.204113
0.200332
0.202305
0.199182
0.202962
0.20099
0.201154
0.198853
0.199346
0.197538
0.197374
0.202469
0.200004
0.200168
0.200661
0.202305
0.20099
0.20099
0.199511
0.202305
0.200168
0.199182
0.199182
0.200332
0.197374
0.196223
0.199346
0.196881
0.199675
0.200168
0.201319
0.198853
0.200332
0.199675
0.201483
0.198689
0.201154
0.20362
0.199675
0.198524
0.200497
0.198196
0.199675
0.196881
0.199675
0.200825
0.199182
0.201976
0.201154
0.200168
0.199018
0.203455
0.199675
0.200004
0.196388
0.201319
0.20214
0.199182
0.197867
0.20099
0.19721
0.197703
0.201647
0.198689
0.200004
0.198853
0.200497
0.199675
0.19836
0.199346
0.200825
0.199018
0.199018
0.197045
0.198031
0.19836
0.197538
0.197867
0.196881
0.200004
0.199839
0.201812
0.198689
0.195402
0.20099
0.201154
0.199346
0.200004
0.201812
0.202633
0.200004
0.200661
0.201483
0.20099
0.199182
0.199018
0.199346
0.198031
0.199346
0.198689
0.198853
0.200661
0.199018
0.195566
0.195073
0.195402
0.198031
0.200004
0.197703
0.198196
0.199675
0.198196
0.198524
0.200497
0.203126
0.200332
0.201154
0.199675
0.198196
0.196059
0.199182
0.200168
0.200004
0.198689
0.197867
0.197538
0.198031
0.196881
0.19721
0.197045
0.199346
0.196059
0.200004
0.196881
0.19836
0.198689
0.200332
0.198196
0.200004
0.199675
0.200497
0.20214
0.200332
0.197867
0.194416
0.199018
0.19836
0.200004
0.19458
0.20099
0.198524
0.197374
0.199675
0.197374
0.200497
0.199346
0.200661
0.200661
0.201976
0.198196
0.200497
0.198689
0.199018
0.199346
0.195073
0.197538
0.198689
0.197703
0.199346
0.199839
0.198853
0.197703
0.19836
0.198524
0.19836
0.198196
0.197703
0.202798
0.199675
0.201154
0.201483
0.199511
0.199346
0.199839
0.199675
0.197867
0.198853
0.200004
0.200825
0.200661
0.201319
0.200825
0.199839
0.19836
0.206414
0.200004
0.205263
0.196717
0.199839
0.199346
0.199346
0.198689
0.200168
0.198689
0.19836
0.199839
0.197538
0.199511
0.197045
0.200661
0.199839
0.199839
0.197867
0.201319
0.201812
0.200661
0.199511
0.200497
0.197538
0.198031
0.200661
0.197045
0.197374
0.196717
0.20099
0.195237
0.198196
0.19836
0.201647
0.196881
0.200332
0.200332
0.200497
0.200004
0.199018
0.201483
0.198853
0.200332
0.198689
0.200332
0.19836
0.198853
0.201154
0.199346
0.197045
0.200825
0.202469
0.198524
0.200004
0.199675
0.200661
0.19836
0.199346
0.19836
0.198031
0.199182
0.200168
0.201319
0.196717
0.198853
0.19721
0.196881
0.201647
0.201483
0.199346
0.198196
0.198031
0.201647
0.200661
0.199675
0.199018
0.200825
0.196881
0.194744
0.197374
0.197867
0.197374
0.196552
0.19836
0.199675
0.199511
0.197867
0.200332
0.196881
0.198196
0.200168
0.199675
0.198031
0.199018
0.197703
0.199839
0.193758
0.19573
0.19721
0.198524
0.19573
0.19573
0.199346
0.196223
0.198689
0.19836
0.201483
0.196552
0.199182
0.198524
0.197374
0.19573
0.19721
0.196552
0.194744
0.19721
0.197374
0.199839
0.19573
0.200004
0.200332
0.196059
0.198031
0.200661
0.198689
0.198031
0.198853
0.198524
0.197867
0.194416
0.195402
0.196059
0.195237
0.194251
0.197374
0.198196
0.199182
0.197045
0.199839
0.199675
0.200004
0.198689
0.199346
0.198689
0.197538
0.198689
0.197867
0.200497
0.198524
0.199346
0.204113
0.198853
0.19836
0.199018
0.19836
0.199675
0.198524
0.201647
0.199018
0.199839
0.200332
0.199839
0.198196
0.195566
0.197538
0.196881
0.196717
0.192115
0.200004
0.200332
0.196717
0.196881
0.200332
0.199182
0.197538
0.201319
0.199675
0.196552
0.196059
0.198689
0.196552
0.196881
0.199018
0.201154
0.197867
0.200825
0.19836
0.200332
0.198524
0.19836
0.202305
0.199839
0.200661
0.19836
0.201647
0.198031
0.199018
0.19836
0.200004
0.197867
0.197703
0.199839
0.203126
0.198689
0.200661
0.201976
0.199346
0.200825
0.199018
0.200004
0.200497
0.200004
0.198031
0.20214
0.198524
0.19836
0.198524
0.201976
0.200004
0.197538
0.200825
0.200661
0.201319
0.199675
0.201647
0.201647
0.198524
0.201976
0.201647
0.198853
0.199018
0.197703
0.197703
0.198196
0.197867
0.199511
0.200332
0.199346
0.199839
0.200004
0.199018
0.199839
0.201319
0.200004
0.198524
0.202305
0.196388
0.201319
0.199346
0.202305
0.196388
0.198196
0.196881
0.200004
0.198853
0.199675
0.20099
0.196388
0.199182
0.198524
0.198196
0.197538
0.199839
0.199511
0.200168
0.198196
0.201319
0.204113
0.201319
0.200332
0.200661
0.198689
0.198196
0.197538
0.197703
0.199675
0.19836
0.198689
0.198524
0.199675
0.200004
0.200825
0.199346
0.201647
0.201647
0.201154
0.20214
0.202633
0.201976
0.201812
0.201483
0.201483
0.203455
0.200497
0.202305
0.203948
0.204934
0.203291
0.204441
0.202305
0.205263
0.201483
0.200825
0.201483
0.201647
0.201483
0.202798
0.202633
0.200332
0.202305
0.199511
0.201647
0.201319
0.201483
0.20099
0.206085
0.202469
0.203126
0.20214
0.201976
0.203784
0.19836
0.199511
0.199675
0.200332
0.200168
0.200332
0.19836
0.198853
0.197374
0.199839
0.199346
0.196881
0.198689
0.199675
0.201976
0.198524
0.200332
0.197374
0.19836
0.201976
0.198524
0.197703
0.196717
0.196881
0.197045
0.198196
0.199839
0.19836
0.197867
0.202305
0.199675
0.200332
0.197538
0.199675
0.198853
0.200332
0.198031
0.19721
0.19721
0.200168
0.196059
0.197867
0.198689
0.197374
0.199182
0.201483
0.198853
0.198524
0.20362
0.197538
0.200332
0.201976
0.20099
0.200332
0.199675
0.197045
0.197538
0.196223
0.197867
0.196717
0.195073
0.199675
0.198196
0.198031
0.198853
0.198689
0.19721
0.200332
0.198689
0.199675
0.19458
0.196717
0.200168
0.198031
0.197867
0.194744
0.200004
0.000639
0.002611
0.00935
0.021019
0.01428
0.032031
0.040084
0.045508
0.048795
0.061286
0.064574
0.067696
0.076572
0.078708
0.084789
0.077558
0.093007
0.098595
0.103526
0.102211
0.109607
0.113552
0.114538
0.120455
0.127029
0.1267
0.127522
0.135247
0.132289
0.136562
0.138205
0.143301
0.142972
0.14478
0.148067
0.153326
0.153984
0.160394
0.155299
0.159572
0.161873
0.163188
0.165817
0.166311
0.168776
0.170584
0.173214
0.172556
0.177651
0.173378
0.173871
0.173542
0.177651
0.180445
0.179952
0.178144
0.180281
0.182746
0.182911
0.188334
0.183897
0.18554
0.18176
0.188334
0.185376
0.188992
0.187348
0.187019
0.188992
0.186855
0.189649
0.187184
0.1908
0.190471
0.190471
0.190142
0.188499
0.189485
0.193101
0.193594
0.192936
0.00294
0.003433
0.011979
0.01954
0.027429
0.033181
0.03992
0.047316
0.057506
0.062108
0.069176
0.075257
0.078215
0.08331
0.089885
0.094487
0.100239
0.102211
0.107635
0.111087
0.114702
0.117825
0.126207
0.124728
0.128837
0.129659
0.132617
0.137055
0.139356
0.141821
0.146095
0.147245
0.146752
0.151683
0.149875
0.154312
0.155627
0.155463
0.158257
0.160065
0.160887
0.163681
0.163845
0.16779
0.171241
0.164996
0.172392
0.172885
0.177815
0.171406
0.174528
0.175186
0.176336
0.177158
0.176008
0.181596
0.179459
0.180774
0.183239
0.18061
0.181924
0.186033
0.180774
0.183897
0.18439
0.186033
0.188499
0.186362
0.187348
0.188663
0.188334
0.189156
0.193429
0.189649
0.189978
0.188663
0.190471
0.189485
0.190635
0.185869
0.189814
0.190307
0.188992
0.18817
0.191786
0.192115
0.193758
0.193922
0.193758
0.192608
0.192279
0.193594
0.191786
0.194416
0.190142
0.193265
0.195237
0.194087
0.194744
0.194087
0.189156
0.192115
0.190964
0.194251
0.19573
0.192608
0.195895
0.195237
0.194744
0.195402
0.19573
0.19458
0.19458
0.192608
0.194416
0.193594
0.195073
0.194744
0.195566
0.196059
0.195566
0.199346
0.195402
0.197374
0.194744
0.196717
0.195402
0.197045
0.194909
0.196388
0.195402
0.195566
0.193429
0.193101
0.19836
0.193922
0.19836
0.197538
0.200332
0.197045
0.200497
0.197538
0.19836
0.196881
0.19721
0.195895
0.19721
0.195237
0.195895
0.192443
0.194251
0.196223
0.193429
0.198689
0.198031
0.195402
0.20099
0.200168
0.197867
0.200661
0.200332
0.201647
0.19836
0.200332
0.199018
0.196717
0.199182
0.195895
0.199675
0.197374
0.196223
0.200497
0.196717
0.198524
0.199346
0.198524
0.198689
0.200332
0.197703
0.198689
0.197538
0.198196
0.197538
0.19721
0.197374
0.198689
0.195237
0.199018
0.200004
0.199511
0.198689
0.200332
0.199346
0.198689
0.197703
0.199511
0.200004
0.196388
0.195237
0.192772
0.195566
0.196388
0.197045
0.196059
0.19721
0.195073
0.20214
0.200332
0.20099
0.198031
0.195402
0.199675
0.199182
0.200332
0.196552
0.199839
0.196388
0.199182
0.197374
0.199182
0.196717
0.195402
0.196223
0.198524
0.197374
0.198031
0.197867
0.198031
0.200168
0.19836
0.200168
0.196388
0.198853
0.198524
0.198196
0.197374
0.198524
0.193594
0.194087
0.199018
0.199346
0.199018
0.199675
0.196881
0.198196
0.199182
0.197867
0.198689
0.198689
0.196059
0.199511
0.20214
0.195566
0.199182
0.19573
0.194909
0.196223
0.196388
0.200497
0.195237
0.19458
0.19836
0.19836
0.198524
0.20214
0.197374
0.199018
0.199018
0.198524
0.196388
0.20099
0.195402
0.195895
0.200004
0.196881
0.200661
0.197374
0.200004
0.198031
0.199839
0.199346
0.198196
0.195073
0.201483
0.19836
0.198031
0.199839
0.19573
0.193101
0.196717
0.19721
0.194909
0.198853
0.195237
0.201319
0.197374
0.200168
0.19721
0.196717
0.198853
0.200661
0.200004
0.196388
0.201483
0.195073
0.196881
0.197867
0.199182
0.200661
0.196717
0.196388
0.198524
0.196223
0.198689
0.199675
0.198524
0.19836
0.200661
0.200661
0.20099
0.198853
0.196223
0.199511
0.197867
0.19836
0.196717
0.199018
0.196717
0.200661
0.199675
0.199839
0.198196
0.20099
0.200004
0.19721
0.199675
0.199346
0.196059
0.199675
0.198524
0.197374
0.199511
0.194416
0.199018
0.19721
0.19836
0.197045
0.197374
0.137712
0.14215
0.147574
0.148231
0.148231
0.149053
0.154148
0.152011
0.157764
0.15875
0.163681
0.160229
0.16401
0.165489
0.164667
0.169433
0.168283
0.170584
0.171241
0.17272
0.173214
0.175515
0.174857
0.180774
0.176829
0.179459
0.18061
0.178966
0.180116
0.181103
0.181103
0.182582
0.181431
0.182253
0.18554
0.18439
0.184225
0.188499
0.186526
0.188663
0.190307
0.18932
0.18817
0.188499
0.189814
0.190142
0.190142
0.189649
0.190307
0.1908
0.189485
0.190142
0.189485
0.191621
0.187677
0.191457
0.191128
0.195402
0.191621
0.195073
0.196059
0.193265
0.194744
0.19458
0.193265
0.195402
0.196552
0.19195
0.194744
0.194087
0.195566
0.193101
0.197867
0.191457
0.196059
0.195237
0.196881
0.198689
0.197374
0.196388
0.19573
0.198524
0.195402
0.198853
0.194744
0.19721
0.19458
0.197374
0.199018
0.198853
0.196059
0.199511
0.199018
0.199182
0.200004
0.201154
0.19836
0.197045
0.199018
0.20099
0.198689
0.193758
0.195566
0.195895
0.192279
0.19195
0.196388
0.197045
0.197703
0.200661
0.200661
0.200004
0.199182
0.197867
0.199839
0.199018
0.198524
0.197867
0.196881
0.197374
0.199839
0.19836
0.197538
0.199182
0.19836
0.200004
0.200497
0.199839
0.200825
0.198524
0.200661
0.201483
0.201483
0.199182
0.198853
0.198524
0.199346
0.19721
0.197867
0.199182
0.200004
0.196717
0.199839
0.201483
0.200661
0.203948
0.200004
0.203291
0.198853
0.201812
0.201154
0.200661
0.199018
0.199511
0.202962
0.199018
0.199675
0.202305
0.204277
0.20099
0.203126
0.201976
0.203455
0.202798
0.20477
0.202962
0.202798
0.202633
0.202305
0.200168
0.200004
0.201319
0.202305
0.203291
0.201154
0.204606
0.201812
0.202962
0.202798
0.203126
0.198524
0.204441
0.200825
0.201976
0.199346
0.199182
0.198853
0.19836
0.198689
0.197538
0.19836
0.197538
0.19836
0.19721
0.196552
0.19721
0.198689
0.200168
0.199182
0.196388
0.197703
0.196881
0.195895
0.196881
0.195895
0.196059
0.195895
0.198196
0.196388
0.196223
0.198524
0.198196
0.197538
0.199675
0.19573
0.19458
0.194909
0.193758
0.19721
0.195895
0.196717
0.198031
0.197867
0.197045
0.201483
0.195402
0.199018
0.19458
0.198853
0.197374
0.197703
0.199182
0.19836
0.198031
0.19836
0.201647
0.195566
0.198853
0.196717
0.197703
0.197374
0.196881
0.197045
0.199182
0.195895
0.196059
0.197538
0.189814
0.19573
0.195237
0.195073
0.19721
0.197045
0.195237
0.196717
0.19721
0.199182
0.198031
0.197703
0.195402
0.19836
0.197045
0.200004
0.194744
0.195073
0.200825
0.195237
0.205427
0.203784
0.199511
0.198853
0.200168
0.197703
0.199018
0.196059
0.199675
0.19721
0.197045
0.19721
0.198689
0.197867
0.198853
0.196223
0.197374
0.197703
0.195895
0.199839
0.197703
0.200497
0.198031
0.202469
0.196388
0.198853
0.196388
0.197538
0.195566
0.198689
0.201483
0.197867
0.199675
0.198689
0.198031
0.196717
0.199018
0.19573
0.199018
0.199182
0.198031
0.199839
0.19836
0.199018
0.198524
0.198524
0.195895
0.19721
0.200332
0.19721
0.197045
0.195237
0.199346
0.200825
0.198196
0.200825
0.200004
0.19721
0.198689
0.198031
0.198196
0.198031
0.195566
0.198853
0.199675
0.195237
0.199675
0.197045
0.197703
0.198031
0.199182
0.196717
0.199839
0.197867
0.199346
0.200004
0.198196
0.198524
0.198524
0.192608
0.198196
0.200497
0.195402
0.197538
0.195402
0.197538
0.196881
0.199018
0.200661
0.20099
0.198196
0.199018
0.199182
0.198524
0.20099
0.196223
0.200497
0.198689
0.197045
0.195073
0.201976
0.201319
0.195073
0.199346
0.200332
0.197045
0.197374
0.201319
0.196388
0.200168
0.197867
0.202469
0.19721
0.196223
0.19836
0.199675
0.194909
0.200332
0.199182
0.195895
0.199675
0.197374
0.198853
0.19836
0.19836
0.197703
0.200004
0.197538
0.201647
0.200661
0.197045
0.196881
0.195237
0.196223
0.195402
0.195402
0.197045
0.196881
0.198031
0.199018
0.199018
0.198853
0.198689
0.200497
0.198689
0.200004
0.199182
0.198031
0.197045
0.199511
0.197867
0.197703
0.196552
0.198524
0.196717
0.196388
0.19836
0.197867
0.198689
0.197538
0.198689
0.198031
0.200497
0.199839
0.20099
0.199018
0.198689
0.196881
0.199018
0.19721
0.194087
0.196223
0.197867
0.198031
0.197374
0.198689
0.196881
0.197703
0.196881
0.199018
0.195566
0.197538
0.197538
0.195073
0.19721
0.195895
0.197703
0.194087
0.199346
0.196059
0.200332
0.196059
0.197374
0.197867
0.199018
0.199018
0.200332
0.200004
0.202798
0.202469
0.199018
0.20099
0.19721
0.200661
0.19836
0.198853
0.199675
0.200004
0.197538
0.198196
0.198689
0.199839
0.199346
0.201647
0.199839
0.200004
0.201812
0.197045
0.200168
0.198031
0.197538
0.197538
0.197867
0.196059
0.199018
0.197538
0.199511
0.199511
0.199511
0.201154
0.203455
0.203455
0.19836
0.198196
0.195402
0.198031
0.196881
0.19573
0.197538
0.199182
0.197374
0.200825

Kurve 5

0.002447
0.003926
0.006227
0.000474
0.003761
0.001296
0.001789
-0.000347
0.004912
0.002775
0.000639
0.001789
0.000967
0.000803
0.005241
0.003761
0.003433
0.003104
-0.000183
0.005076
0.002775
0.001954
0.001954
0.006391
0.001954
0.001625
-0.000512
-1.9e-05
0.000146
0.000474
0.002775
0.003926
0.003433
0.00031
0.002775
0.002447
-0.001005
-0.001334
0.001625
-1.9e-05
-0.000512
0.001954
0.003761
0.000474
0.00146
0.001296
0.001296
0.00146
0.00031
0.000146
0.000967
-0.000347
0.004748
0.008528
0.003761
0.005734
-0.000841
0.002282
0.000474
0.000146
-0.000512
-0.000512
-1.9e-05
0.00409
0.003433
0.000967
0.002118
0.001132
0.00409
0.00031
0.002282
-0.000512
0.002447
-0.005771
0.003104
0.002118
0.000639
0.000803
-0.000183
0.002611
-0.001662
0.001789
-0.000347
0.001296
-0.000676
0.003268
0.002611
0.004583
0.001954
0.001625
0.001296
0.00031
0.001132
-0.001827
-0.000183
-0.000512
0.003268
0.001625
0.002118
0.000967
0.000639
0.002775
-0.000676
-0.002648
-1.9e-05
-0.002648
0.000474
0.001954
0.001789
0.000803
0.000146
0.001789
0.003268
-0.000347
-0.001169
0.003597
-1.9e-05
0.003433
-0.002484
0.002447
0.001789
0.000967
-0.001334
0.005076
0.005405
-0.000183
0.00146
0.00031
-0.000183
-0.002155
0.003433
-1.9e-05
0.001625
0.000146
0.000146
0.001625
0.000146
-0.001498
-0.001498
-0.000347
-0.000841
0.003268
-0.002155
0.002611
0.001789
0.002611
0.000967
0.001296
-0.000841
0.002611
-0.000347
-1.9e-05
0.003761
0.003104
0.000474
0.000803
0.000967
-0.001334
0.001296
0.000474
-1.9e-05
0.000146
0.001954
0.000967
0.001789
0.001954
-0.001662
0.003104
0.001625
0.000146
0.00031
0.000146
0.002447
-0.001334
0.001954
0.002611
0.000803
0.003926
0.001789
0.002775
0.001132
0.00146
0.00031
0.002118
-0.001662
-0.001498
-0.001005
-0.001827
-1.9e-05
-0.001169
-0.000512
0.000146
0.002118
0.000639
0.004912
-0.002648
0.002611
0.002611
0.000967
0.001954
0.001954
-0.003142
-0.001827
0.001625
0.003104
0.00031
-0.001498
0.002447
0.000146
0.001954
0.001625
0.00409
0.001296
0.000639
0.001789
-0.000347
0.002775
0.00409
0.000967
-0.000512
0.000803
-0.000512
0.005241
-0.008072
0.004583
0.003433
-0.000183
0.000803
0.00146
0.002447
0.000474
0.003433
0.001625
0.002118
-0.001005
-0.001827
-0.001827
-0.000676
-0.001991
-0.001169
-0.000183
0.00031
0.00146
0.000967
0.002118
0.001625
0.001132
0.00294
0.00409
-0.000676
0.000639
0.00146
0.00409
0.001625
0.000967
0.003268
0.000639
0.00031
0.000967
0.000474
0.000639
0.000639
0.001789
0.00146
0.001296
0.002611
0.002447
0.002775
-0.000347
0.001132
-0.001005
0.001625
-0.007415
0.00146
-0.000841
-0.0061
-0.002977
0.001625
-0.000183
0.000474
0.001954
-0.002813
0.001625
-0.000841
0.003104
0.000967
-0.000347
-0.001169
0.000146
-0.002155
-0.001005
-0.003142
0.00409
0.000803
-0.001498
0.003433
0.000803
0.001789
0.000967
0.006062
-0.003799
0.000146
0.000474
-0.000347
-0.000347
-0.001991
-0.000347
-1.9e-05
-1.9e-05
0.002447
0.001132
-0.001662
0.001625
-0.000183
-1.9e-05
0.000474
0.001132
0.000639
0.003433
0.000474
0.002118
-0.000183
0.000474
0.000803
0.000639
0.002118
0.001132
0.004255
-0.000183
0.006062
-1.9e-05
0.001296
0.003104
0.000967
0.000803
0.002282
0.000474
0.00146
0.004255
0.000474
-0.000183
-0.004128
0.000967
-0.000347
-0.001169
-0.001662
0.002118
0.000474
-0.000347
0.001954
0.005405
0.001954
0.003104
0.002775
0.005241
-0.000183
-0.00232
0.00409
-0.001662
0.002611
-1.9e-05
0.00146
-0.001662
0.00294
-0.001169
0.001296
-0.000512
0.001625
0.00146
0.001789
0.000639
0.003597
0.004912
0.00146
0.003926
0.002118
0.003761
-0.002155
-0.001005
-0.001662
-0.000183
-0.001498
0.000639
0.000639
-0.000512
0.001954
-0.000347
0.000967
-0.001005
-0.002155
0.001132
0.001789
-0.000512
0.000967
-0.000841
0.000146
0.003926
0.00031
-0.003963
0.000474
-1.9e-05
0.000146
0.001132
0.00031
0.003104
0.004255
0.003104
0.001132
0.003268
0.000967
0.002282
-0.001005
0.000639
-0.000512
0.002118
-0.001662
0.001954
0.001625
-0.001827
0.003433
0.001789
0.003104
0.00031
0.000146
0.00031
0.001296
-0.001005
0.000474
0.003268
0.00294
0.001296
0.001954
0.001132
0.00031
-0.000347
-0.002977
0.000146
-0.001334
-0.001498
0.000803
0.002775
0.002611
0.00409
0.001789
0.005241
0.000639
0.00031
0.002118
-0.000183
-0.000841
-0.000512
0.00031
-0.002155
0.002282
0.001296
0.001625
-0.001827
0.002611
0.002611
0.001625
0.001296
0.002611
0.003104
-1.9e-05
0.004419
-0.000183
0.000639
-0.001498
0.001789
-0.001334
0.000474
0.000967
-0.001662
-0.001334
0.00031
0.004255
0.00294
0.002118
0.003104
0.001296
-0.000183
-0.000347
0.000474
0.001954
0.000967
-0.000183
-0.000841
0.000967
-0.001991
-0.001005
-0.001334
0.000146
0.001132
0.001132
0.002118
0.001296
0.00294
0.00672
0.001789
0.002282
0.001132
0.001132
0.001296
-0.000676
0.000803
-0.001498
-1.9e-05
-0.001169
-0.000183
0.002611
0.000967
-0.002155
0.004419
0.000803
-0.000512
0.004419
0.002447
0.003268
0.000639
0.003926
-0.001991
-0.003799
-0.001169
-0.00232
-0.00232
-0.000347
0.000967
0.001789
-0.000347
-0.002648
0.004583
-0.000841
0.001789
0.000146
0.001296
-0.000347
-0.002155
-0.001498
-0.000676
-0.00347
-0.002977
0.00146
0.00031
-0.000347
-0.001169
0.000639
0.000474
-0.000841
-0.001005
0.002611
0.000474
0.001954
0.003761
0.00031
-0.003799
-0.001662
-0.001827
0.001296
-0.002484
-0.001662
0.002775
-0.000841
0.000146
0.002118
0.004255
-0.001334
0.001296
0.000474
0.000803
0.001789
-0.001498
-0.00347
-0.000347
-0.000512
-0.000841
0.000639
-0.000676
0.000967
-0.003142
0.003597
-1.9e-05
0.003433
0.001789
0.003433
0.001789
0.002447
-0.000512
-0.002155
-0.001662
-0.001827
-0.001498
-0.003635
0.001132
-0.000676
0.002775
-0.001005
0.001296
-0.000841
-0.000183
0.000967
0.001789
-0.000347
-0.000676
0.001954
0.00031
-0.000841
-0.001334
-0.001005
-0.000841
0.00031
-0.002484
0.001954
-0.001498
-0.000183
0.002282
0.000474
-0.000676
0.003268
-0.002155
-0.000841
0.000474
-0.005771
0.000146
-0.001498
-1.9e-05
-0.000841
0.002447
-0.000512
0.000146
0.000474
0.000803
0.00031
-0.000347
0.000639
-0.001991
-0.001991
-0.001498
0.001296
-0.002977
0.00146
-0.004128
0.000146
0.001789
0.00031
-0.000512
0.00031
0.001132
0.001625
0.000803
0.001132
-0.000841
-0.001498
-1.9e-05
0.002118
0.001789
-0.002648
-0.000512
-0.000512
0.000967
-1.9e-05
-0.000676
-0.005114
-0.000347
-0.000512
-0.000347
0.00146
-0.001827
0.000967
-0.002155
0.000474
-0.002484
-0.003306
-0.00725
-1.9e-05
0.000474
0.000146
0.001132
-1.9e-05
-1.9e-05
-0.000841
0.000803
-0.002484
-0.000512
-0.013332
-0.00232
-0.003142
-0.000347
0.000146
-0.001991
-0.001991
0.001954
0.000146
0.002118
0.001789
-0.009058
-0.001991
0.000146
0.002118
-0.001662
0.001132
-0.001498
0.000474
0.000146
0.000474
-0.001827
-0.007744
-0.002484
0.000639
-0.001005
0.000803
0.00146
0.00031
0.00031
0.00031
-1.9e-05
-0.000841
-0.005607
-0.002484
-0.000347
-0.00232
-0.001498
-0.002155
-0.001169
-0.001662
0.002775
-0.000841
0.00146
-0.000512
0.000474
-1.9e-05
-0.001169
-0.002484
0.00031
0.001132
-0.003635
0.000639
-0.003963
-0.00232
-0.001991
-0.003142
-0.000347
-0.002648
0.001625
0.002118
-0.000347
-0.002484
0.002282
-0.002977
0.00031
0.001789
-0.000183
0.002447
0.011815
0.018554
0.024635
0.031538
0.040413
0.050439
0.054219
0.062108
0.070326
0.072134
0.0769
0.085283
0.087584
0.093007
0.096788
0.101554
0.104348
0.109279
0.111744
0.122098
0.117332
0.121112
0.127358
0.128344
0.132289
0.134754
0.138534
0.141493
0.144451
0.143794
0.1576
0.147409
0.151683
0.152505
0.153162
0.154806
0.156285
0.161215
0.162695
0.166146
0.165489
0.175515
0.167461
0.170255
0.170584
0.175679
0.172885
0.175021
0.175515
0.176172
0.17913
0.174364
0.185047
0.178144
0.182089
0.181431
0.183732
0.180774
0.184554
0.183732
0.186526
0.18554
0.187348
0.193101
0.186691
0.188006
0.186855
0.188334
0.190307
0.190635
0.191621
0.191293
0.191786
0.19195
0.194744
0.189978
0.191457
0.192772
0.193265
0.193594
0.196388
0.19721
0.194416
0.194251
0.194087
0.19573
0.191293
0.194909
0.1908
0.192772
0.19721
0.19721
0.196881
0.19721
0.19836
0.197703
0.201319
0.196717
0.198524
0.19836
0.196552
0.19836
0.199182
0.201812
0.197538
0.200168
0.195402
0.20362
0.19573
0.196552
0.198031
0.198524
0.200497
0.200497
0.198853
0.199675
0.199182
0.198524
0.203291
0.195237
0.201154
0.199018
0.199018
0.198524
0.199018
0.197045
0.198853
0.200004
0.198689
0.201647
0.19836
0.197703
0.198196
0.197045
0.19836
0.198524
0.194251
0.201319
0.199182
0.199346
0.19836
0.200168
0.199839
0.198196
0.200661
0.199511
0.200661
0.200168
0.201319
0.199675
0.201647
0.201812
0.203126
0.197045
0.19836
0.200004
0.198689
0.199182
0.199346
0.200004
0.200661
0.199675
0.199182
0.201647
0.196388
0.202633
0.198524
0.202633
0.199839
0.199018
0.195237
0.20099
0.200004
0.200332
0.19836
0.199839
0.199018
0.199346
0.200497
0.198031
0.200661
0.199018
0.200497
0.193101
0.198689
0.19721
0.196059
0.19721
0.197374
0.199839
0.19836
0.201647
0.200332
0.199839
0.200497
0.202305
0.196388
0.201647
0.199018
0.200332
0.20099
0.198031
0.198031
0.200661
0.200332
0.199346
0.201319
0.197538
0.198853
0.198031
0.201154
0.198689
0.200168
0.200168
0.203126
0.199346
0.19836
0.203455
0.197045
0.199675
0.202469
0.199346
0.201647
0.197538
0.200332
0.201647
0.199675
0.201319
0.200825
0.198853
0.197703
0.197703
0.197374
0.196552
0.199182
0.198524
0.199839
0.201812
0.201483
0.199675
0.200332
0.198524
0.201647
0.199018
0.200661
0.200661
0.197703
0.198853
0.199675
0.196881
0.201976
0.199511
0.200661
0.202469
0.199839
0.201154
0.199839
0.200332
0.197374
0.201976
0.200332
0.201647
0.199839
0.200332
0.199018
0.199182
0.198524
0.19836
0.198524
0.197374
0.202633
0.200168
0.204441
0.198196
0.202633
0.201647
0.200497
0.19721
0.20099
0.199839
0.201647
0.196552
0.197045
0.199675
0.198031
0.200661
0.198689
0.204113
0.201319
0.201154
0.200168
0.201812
0.199675
0.202962
0.202305
0.199511
0.199839
0.199511
0.200661
0.198524
0.199018
0.198524
0.199346
0.198196
0.199839
0.199182
0.19836
0.199675
0.201483
0.198853
0.201154
0.199839
0.199018
0.201812
0.199018
0.198689
0.201319
0.196881
0.19836
0.199018
0.19721
0.194087
0.197703
0.196717
0.198196
0.20362
0.199018
0.202962
0.199675
0.200332
0.20099
0.197538
0.201647
0.198196
0.200661
0.19573
0.198853
0.199018
0.199346
0.195566
0.198853
0.199346
0.200825
0.200825
0.201154
0.199511
0.199675
0.201483
0.200661
0.201483
0.197045
0.198196
0.200497
0.200661
0.198853
0.201647
0.196717
0.200661
0.199182
0.200004
0.202798
0.199839
0.19836
0.199511
0.200168
0.198524
0.201976
0.198524
0.201154
0.199018
0.200661
0.199182
0.200168
0.198031
0.199182
0.197374
0.195566
0.200497
0.197703
0.199018
0.200661
0.201647
0.200497
0.197703
0.198853
0.200168
0.197538
0.198853
0.20099
0.199675
0.201154
0.197867
0.20099
0.20099
0.198853
0.197374
0.196552
0.196388
0.203291
0.200332
0.201976
0.200661
0.20214
0.201812
0.200168
0.199839
0.200497
0.199018
0.199346
0.200332
0.200825
0.201976
0.199018
0.201647
0.200332
0.201483
0.198524
0.20099
0.199839
0.200497
0.203126
0.199346
0.201319
0.201154
0.201154
0.199675
0.201976
0.199346
0.203126
0.19836
0.200825
0.197703
0.198853
0.200497
0.200332
0.199346
0.201154
0.202798
0.199182
0.200004
0.199675
0.202469
0.199839
0.201154
0.199018
0.203455
0.198524
0.200004
0.204277
0.199675
0.198689
0.202305
0.200825
0.200497
0.202962
0.201976
0.201976
0.200004
0.200004
0.201154
0.201154
0.198196
0.201154
0.199839
0.198031
0.201154
0.201647
0.201154
0.20099
0.199511
0.203126
0.200168
0.199839
0.199839
0.197703
0.200825
0.200004
0.202469
0.197374
0.200497
0.197867
0.199839
0.196717
0.197867
0.198689
0.200332
0.200168
0.201976
0.204277
0.199346
0.201812
0.199182
0.205099
0.199675
0.199675
0.199182
0.201976
0.19721
0.203455
0.202469
0.19836
0.201812
0.200661
0.205592
0.200497
0.201812
0.196717
0.20214
0.200004
0.201976
0.20362
0.200332
0.200661
0.199346
0.204277
0.197538
0.199018
0.199346
0.200332
0.200168
0.199839
0.200661
0.201154
0.198853
0.203455
0.205427
0.200497
0.196552
0.199839
0.199182
0.198853
0.199018
0.198689
0.199018
0.197867
0.200332
0.202305
0.198853
0.199182
0.20099
0.20099
0.20214
0.20099
0.202798
0.199018
0.199182
0.20099
0.204606
0.19721
0.199346
0.201154
0.197538
0.201154
0.200168
0.198853
0.198689
0.203455
0.198524
0.202962
0.199346
0.201483
0.199018
0.202633
0.199675
0.200332
0.199182
0.197867
0.201319
0.197538
0.20099
0.19721
0.199675
0.200004
0.199675
0.199182
0.200497
0.20214
0.201154
0.20214
0.200004
0.202305
0.19836
0.199511
0.199346
0.198689
0.196717
0.198689
0.198196
0.197045
0.197867
0.199018
0.200332
0.200661
0.200497
0.200497
0.205756
0.200332
0.202962
0.200661
0.203455
0.199839
0.201319
0.200497
0.200168
0.197703
0.199182
0.198689
0.199018
0.200661
0.20099
0.203784
0.196552
0.20362
0.20214
0.199675
0.199182
0.200168
0.199839
0.201154
0.194744
0.20099
0.201319
0.195895
0.200168
0.203291
0.200004
0.198689
0.199675
0.202798
0.200332
0.197045
0.200332
0.201154
0.198196
0.196717
0.200825
0.197703
0.197703
0.200168
0.19836
0.200004
0.198853
0.201647
0.200825
0.199839
0.197538
0.200168
0.199839
0.202962
0.196059
0.199346
0.199839
0.199346
0.197867
0.199018
0.198689
0.197703
0.199018
0.197538
0.200004
0.198524
0.199675
0.198689
0.200497
0.198689
0.199511
0.199675
0.200661
0.200661
0.197045
0.197538
0.198853
0.198031
0.195073
0.195402
0.19721
0.200661
0.197867
0.194909
0.200332
0.196552
0.19573
0.198689
0.198196
0.198031
0.200004
0.198689
0.198853
0.198689
0.200661
0.201483
0.201483
0.199018
0.19721
0.197538
0.19836
0.200825
0.199675
0.198689
0.198689
0.200332
0.20214
0.200004
0.199018
0.200332
0.19836
0.200332
0.199675
0.197867
0.200825
0.200497
0.19836
0.198689
0.197538
0.198853
0.19721
0.199182
0.199018
0.199675
0.199675
0.199018
0.202798
0.200004
0.200661
0.200332
0.198853
0.200332
0.199511
0.198853
0.197703
0.198196
0.19573
0.199182
0.199675
0.197045
0.196881
0.201647
0.19836
0.200661
0.199018
0.202469
0.200168
0.199346
0.198524
0.200497
0.203455
0.199018
0.200332
0.199839
0.20099
0.203455
0.202633
0.200332
0.202305
0.198853
0.202305
0.200497
0.200497
0.20099
0.199839
0.198853
0.201647
0.200332
0.200168
0.199839
0.199675
0.200004
0.200004
0.199346
0.198689
0.200661
0.198196
0.20362
0.201154
0.20099
0.201976
0.198524
0.201647
0.201976
0.19836
0.19836
0.197538
0.199839
0.197867
0.196717
0.197867
0.198196
0.201154
0.200332
0.200825
0.200168
0.201154
0.200332
0.200661
0.205921
0.200004
0.200497
0.20099
0.199346
0.200825
0.198689
0.196388
0.199346
0.198524
0.200661
0.200661
0.201483
0.201647
0.202633
0.200825
0.199018
0.201319
0.199675
0.199511
0.198196
0.199511
0.197703
0.20099
0.199839
0.200497
0.199346
0.199839
0.201319
0.20099
0.199182
0.200168
0.20099
0.20099
0.201319
0.199018
0.198689
0.199182
0.198689
0.199182
0.198689
0.195073
0.19721
0.196223
0.203126
0.20099
0.203291
0.201154
0.200168
0.203126
0.206085
0.202469
0.19836
0.20099
0.198853
0.200168
0.199346
0.201812
0.201647
0.198853
0.200661
0.201154
0.201647
0.199346
0.200661
0.19836
0.202962
0.200825
0.203126
0.200661
0.201483
0.199511
0.199675
0.198196
0.199839
0.200497
0.201647
0.200332
0.200497
0.202305
0.198689
0.200168
0.199182
0.201319
0.199511
0.200497
0.197703
0.200168
0.197703
0.200004
0.200168
0.200497
0.199346
0.200332
0.201647
0.198031
0.200825
0.198689
0.200004
0.202469
0.203455
0.201483
0.199675
0.194087
0.091199
0.054055
0.00935
0.004255
0.005898
0.001789
0.001789
0.003433
0.002611
0.000639
-0.001334
0.001954
0.000474
0.00031
0.001625
0.00294
-1.9e-05
0.001789
0.002611
0.000474
-0.001005
0.002118
0.000967
0.002282
0.00146
0.001954
0.001296
0.000967
0.00146
0.003761
0.003597
0.001296
0.001954
0.00146
0.005734
0.008528
0.015431
0.025785
0.03236
0.040249
0.047316
0.056191
0.057671
0.067039
0.069833
0.08216
0.082817
0.086762
0.09235
0.096294
0.099417
0.106978
0.111415
0.113223
0.11651
0.11799
0.120619
0.123906
0.126865
0.129988
0.133932
0.134097
0.141328
0.143629
0.145602
0.148067
0.148231
0.151518
0.152998
0.155134
0.154148
0.15612
0.160065
0.163188
0.163681
0.16779
0.165489
0.169598
0.168612
0.171241
0.17272
0.172063
0.173378
0.174035
0.176829
0.178637
0.177815
0.176829
0.180116
0.18061
0.182253
0.18176
0.183239
0.182582
0.183732
0.187019
0.190471
0.18817
0.185376
0.188006
0.188334
0.187513
0.188663
0.189649
0.186691
0.188499
0.187513
0.192115
0.190471
0.189156
0.190964
0.192772
0.189978
0.191293
0.193101
0.192279
0.194416
0.194416
0.19458
0.193265
0.194416
0.191457
0.19573
0.192608
0.195237
0.197374
0.194909
0.194909
0.19458
0.19573
0.197538
0.193101
0.192443
0.196388
0.193594
0.195566
0.197045
0.197867
0.19721
0.199346
0.199182
0.198853
0.198689
0.197538
0.19836
0.197703
0.200497
0.198853
0.199182
0.19836
0.200497
0.197703
0.199182
0.199839
0.199182
0.199182
0.197703
0.199346
0.197703
0.200004
0.200661
0.19721
0.200332
0.199675
0.197867
0.199182
0.196552
0.200332
0.198524
0.199182
0.199675
0.198853
0.197703
0.199675
0.200332
0.199675
0.199511
0.198524
0.197374
0.199182
0.196059
0.193265
0.200004
0.194744
0.195566
0.199346
0.197538
0.19721
0.198031
0.19836
0.200168
0.199511
0.200332
0.200661
0.198031
0.202305
0.19721
0.203291
0.200168
0.199675
0.199018
0.199018
0.198031
0.198524
0.19836
0.198524
0.201483
0.203948
0.200497
0.198689
0.201976
0.199511
0.199346
0.199839
0.200332
0.197538
0.198031
0.198031
0.201483
0.201154
0.200825
0.199182
0.199018
0.200168
0.200004
0.19836
0.199182
0.200497
0.198196
0.198689
0.197867
0.200004
0.197538
0.196059
0.198196
0.196717
0.19573
0.198196
0.196059
0.198853
0.201812
0.197374
0.202469
0.198689
0.200497
0.19573
0.199182
0.196717
0.199675
0.196717
0.200497
0.199018
0.199346
0.197703
0.197538
0.198689
0.198524
0.202469
0.195402
0.198524
0.199182
0.199018
0.200661
0.201647
0.200004
0.197374
0.198031
0.19721
0.197538
0.19836
0.198689
0.197045
0.201154
0.198196
0.201154
0.197867
0.199675
0.198689
0.199346
0.19836
0.202305
0.200004
0.197045
0.19836
0.198031
0.199675
0.19721
0.197374
0.197045
0.201319
0.197374
0.199182
0.198524
0.198689
0.198524
0.202305
0.195402
0.200332
0.19836
0.197867
0.200332
0.197867
0.199511
0.197703
0.198689
0.200825
0.199839
0.197538
0.197867
0.195402
0.198689
0.196881
0.200004
0.19836
0.200332
0.197867
0.197867
0.198853
0.196717
0.200004
0.197703
0.202798
0.198524
0.198689
0.199346
0.201154
0.197045
0.199675
0.200004
0.200497
0.198853
0.197045
0.199839
0.19573
0.19721
0.197045
0.200825
0.199018
0.199839
0.200168
0.200004
0.197703
0.199511
0.197703
0.198689
0.197538
0.201319
0.201154
0.198524
0.199511
0.200004
0.200168
0.197703
0.20099
0.199018
0.198689
0.199839
0.200332
0.196717
0.194744
0.199511
0.198689
0.200497
0.198853
0.199018
0.200332
0.20099
0.19458
0.198524
0.197538
0.198524
0.197374
0.204441
0.198689
0.197867
0.200004
0.197703
0.198853
0.196223
0.199511
0.194087
0.194909
0.195566
0.196388
0.197867
0.198689
0.198524
0.199346
0.199182
0.200661
0.200004
0.197867
0.197703
0.199182
0.198853
0.197867
0.197703
0.200825
0.20099
0.19836
0.200168
0.198689
0.199346
0.196881
0.200825
0.199675
0.199675
0.199182
0.199675
0.19721
0.200168
0.201976
0.199346
0.199018
0.194909
0.200332
0.199511
0.197374
0.199182
0.200004
0.198196
0.198853
0.198196
0.200332
0.198689
0.19458
0.199839
0.197538
0.19836
0.195237
0.198524
0.195402
0.198196
0.195073
0.195566
0.196881
0.196059
0.198196
0.198524
0.195237
0.199182
0.199511
0.198031
0.198689
0.197538
0.198524
0.194744
0.195895
0.19721
0.200004
0.196717
0.196552
0.198524
0.197045
0.197867
0.198853
0.197374
0.198196
0.197703
0.197045
0.201647
0.196223
0.199675
0.197045
0.195566
0.196717
0.200168
0.196223
0.196552
0.199346
0.199839
0.197703
0.199675
0.199839
0.197703
0.201812
0.196717
0.197703
0.200332
0.201319
0.199839
0.198524
0.197374
0.198853
0.196881
0.196717
0.196881
0.197045
0.200332
0.195895
0.200004
0.196223
0.200332
0.198689
0.199511
0.198689
0.201812
0.198031
0.196717
0.195237
0.198524
0.197045
0.197538
0.199182
0.197374
0.200332
0.19836
0.199675
0.19721
0.199675
0.199839
0.198689
0.196223
0.197867
0.20099
0.197703
0.198689
0.197045
0.199018
0.197538
0.200825
0.195566
0.199511
0.198031
0.197374
0.198196
0.199346
0.200332
0.200004
0.204441
0.196552
0.197867
0.199018
0.196717
0.196388
0.198853
0.198031
0.199511
0.197045
0.201976
0.19721
0.199839
0.199839
0.200168
0.199511
0.200825
0.198853
0.199182
0.197867
0.199018
0.200168
0.198689
0.198524
0.198524
0.198853
0.197703
0.198853
0.19721
0.198524
0.200004
0.201319
0.199018
0.206907
0.201812
0.201154
0.201154
0.199182
0.199839
0.196388
0.199346
0.198524
0.198853
0.196552
0.203291
0.197867
0.200332
0.195895
0.199675
0.200004
0.196881
0.196223
0.195402
0.201319
0.196059
0.201976
0.197045
0.198853
0.198031
0.199182
0.197045
0.198524
0.198689
0.199839
0.199839
0.199511
0.202305
0.201319
0.199839
0.199675
0.200168
0.199018
0.199511
0.196223
0.201812
0.19836
0.199839
0.199182
0.199018
0.19721
0.199675
0.198524
0.198524
0.199182
0.199346
0.199675
0.200332
0.199675
0.198689
0.198196
0.196552
0.199018
0.198853
0.196059
0.192443
0.201154
0.198524
0.197538
0.201154
0.200332
0.198689
0.197374
0.197374
0.195237
0.197045
0.194251
0.197703
0.197538
0.200825
0.197703
0.200661
0.199018
0.19573
0.198031
0.199839
0.198031
0.197538
0.200497
0.197703
0.19836
0.198524
0.200168
0.196059
0.196881
0.194416
0.196223
0.19836
0.194251
0.199182
0.199511
0.198196
0.199018
0.199675
0.196552
0.198031
0.196388
0.197867
0.196717
0.197045
0.19836
0.199182
0.199182
0.201812
0.201647
0.199018
0.20214
0.19721
0.198196
0.197703
0.197867
0.197045
0.199018
0.196388
0.19836
0.19573
0.195237
0.197045
0.196717
0.196717
0.198524
0.197045
0.199018
0.201483
0.197538
0.200497
0.197374
0.198853
0.196223
0.199346
0.194251
0.197703
0.19836
0.198031
0.20214
0.205756
0.200497
0.197703
0.199346
0.200661
0.200004
0.19836
0.198689
0.198689
0.199018
0.19721
0.19836
0.197374
0.19573
0.197374
0.19721
0.198524
0.199346
0.198853
0.200332
0.198853
0.195402
0.201812
0.198196
0.199182
0.198031
0.197374
0.194416
0.198196
0.19573
0.194909
0.197703
0.198031
0.199018
0.199182
0.198689
0.197538
0.200661
0.195895
0.201319
0.199346
0.201812
0.199346
0.197703
0.197703
0.19836
0.19573
0.197045
0.19458
0.196223
0.198031
0.199839
0.201647
0.199511
0.201812
0.199839
0.19836
0.19721
0.199182
0.198853
0.196881
0.19721
0.200004
0.195237
0.198853
0.198853
0.196717
0.197045
0.195073
0.194087
0.197045
0.197867
0.199839
0.197045
0.19721
0.19836
0.19573
0.194744
0.193265
0.19458
0.19458
0.196059
0.19836
0.19721
0.199839
0.19721
0.199182
0.200661
0.198196
0.191128
0.198031
0.197867
0.200004
0.198524
0.199675
0.198196
0.197045
0.203948
0.200825
0.199839
0.188334
0.196552
0.197703
0.198196
0.197867
0.200497
0.198524
0.199346
0.199018
0.199346
0.202633
0.189156
0.198031
0.198031
0.198524
0.198031
0.198689
0.196881
0.200168
0.199839
0.200332
0.197867
0.188334
0.197538
0.199018
0.198524
0.19836
0.197867
0.19573
0.198031
0.198689
0.197867
0.198031
0.190964
0.196881
0.199839
0.196388
0.198524
0.197867
0.199018
0.198524
0.200332
0.200332
0.199018
0.194909
0.197045
0.199018
