Ladekurvenmessung

Zeit: 2018_05_04 08.54.56

Info: FVA3, v = 0.1, T = 23, F = 20, h = 17.3

Ladewiderstand[Ohm]: 1012700

Störkapazität[pF]: 0.000000

Entladezeit[ms]: 200

Abtastrate[Hz]: 250000

Anzahl der Messwerte: 2500.000000

Verzögerung[ms]: 3

Ladespannung[V]: 0.200000


Kurve 1

-0.002155
0.000474
0.002118
0.002447
-1.9e-05
0.001296
-0.000183
-0.002813
0.002118
0.000639
0.00146
0.003433
-0.000183
0.000474
0.002118
-0.000183
0.001132
-0.000183
-0.001498
-0.00232
-1.9e-05
-0.001334
0.00031
-0.001827
0.000803
-1.9e-05
-0.000183
0.001625
0.001132
0.000474
0.000967
0.000803
0.001625
0.001296
-0.000841
0.000803
0.002118
0.003761
-0.001827
-0.000512
0.000639
-0.001991
-0.000183
0.000146
0.000803
-0.001662
0.000967
0.00146
0.001625
0.001132
0.000146
-0.003142
0.000803
-0.001169
-0.001827
-0.001169
-0.002813
-0.002977
0.001296
-0.000841
-0.00232
0.00146
-0.00232
-0.001662
-0.000841
-0.001498
-0.002648
-0.003963
-0.001005
-0.002813
-0.000841
-0.005114
-0.003799
-0.000841
-0.001991
-0.001169
-0.002977
-0.003306
-0.001827
-0.00232
-0.001169
-0.001991
-0.001827
-0.001498
-0.001498
0.000474
-1.9e-05
0.000474
0.003104
-0.000347
-0.001334
-0.000347
-0.003142
0.000967
-0.003306
-0.001498
-0.002484
-0.000841
-0.002648
-0.000512
-0.002813
-0.001005
-0.00232
-0.001169
-0.000512
-0.000676
-0.001991
-0.002813
-0.001005
-0.002484
-0.001827
-0.003142
0.001296
-0.001334
-0.002155
0.000803
-0.000183
0.000967
-0.000841
-0.002648
-0.002648
-0.001005
-0.002155
-1.9e-05
-0.002813
0.003597
-0.001662
-0.001169
-0.001005
-0.001498
-0.000676
0.000146
-0.001498
-0.001169
0.001296
-0.000512
-0.001169
-0.000347
-0.001662
-0.001662
0.000803
-0.001827
-0.000512
-0.000512
-0.001334
-0.000841
-0.001005
-0.001991
-0.000841
0.000967
-0.003142
0.003104
-0.00347
-0.000347
0.001789
0.001954
-0.000676
-0.000676
-0.001005
-0.00232
-0.000347
-0.00232
-0.001662
-0.001005
-0.002648
-0.000183
-0.001334
-0.000841
0.000474
0.000803
0.000967
-0.000676
-0.00232
-0.000676
-0.001498
-0.004785
-0.001005
0.001132
-1.9e-05
-0.000347
0.000639
-0.000347
0.002447
0.001954
-0.003142
0.001789
-0.001169
0.001296
0.000803
-0.001991
-0.002484
-0.001334
-1.9e-05
0.001132
-1.9e-05
-0.001005
-0.000183
-0.002813
0.00146
0.000967
-1.9e-05
-0.001662
0.001625
0.001296
0.00146
0.000146
-0.003963
-1.9e-05
-0.000676
0.000639
0.000967
0.000474
-0.000676
0.000639
-0.002648
0.002282
-0.002648
-0.00232
-0.003963
-0.001334
-0.004621
-0.003142
-0.001991
-0.001827
-1.9e-05
-0.001827
0.000639
-0.000676
0.000639
-0.000676
0.000146
0.002447
0.000967
0.000474
0.000146
-0.000676
-0.000183
-0.000347
-0.001662
-0.000841
-0.001827
-0.001662
-0.000183
0.004912
0.00031
0.002775
-0.000183
0.002282
0.000146
0.000803
-1.9e-05
-0.001005
-0.002813
-0.000183
-0.001334
-0.001334
-0.00232
-0.001498
0.000639
-0.000347
-1.9e-05
0.001625
0.000474
-1.9e-05
0.001625
0.000803
-0.000347
-0.001498
-0.003306
-0.00232
-0.004785
-0.004621
-0.001991
-0.000676
-0.002977
0.000803
-0.001662
-1.9e-05
-0.000183
-0.000183
0.001954
0.000639
-0.002648
-0.000841
-0.001827
-0.001662
0.001625
-0.001662
-0.001498
-0.001991
-0.000676
-0.002648
-0.001169
-0.000512
-0.004621
0.00031
0.001625
-0.000183
0.000639
-0.001005
0.000146
-0.000347
-0.006757
-0.002484
-0.001827
-0.000841
-0.002484
-0.000512
-0.003306
0.001625
-0.000676
-0.001005
-0.001827
-0.009716
-0.003142
-0.001334
-0.003635
-0.00232
-0.002813
-0.004949
0.000474
-0.003142
-0.001334
-0.001334
-0.001005
-0.004621
0.000639
-0.001827
-0.000183
-0.000676
-0.001005
0.00146
0.001132
-1.9e-05
-0.000512
0.003926
-0.002977
-1.9e-05
-0.001827
0.000639
-0.001005
-0.000347
0.000146
-0.00232
-0.000841
-0.001827
0.00409
-0.001662
0.00031
-0.000183
-0.001169
-0.001498
-0.001662
-0.000841
0.00031
0.001296
0.000474
-1.9e-05
-0.001662
-0.001005
0.001296
-0.000841
-0.00232
0.000967
-0.000183
0.004583
0.000803
0.001296
-0.001827
-0.001827
0.000474
-0.001169
-0.001662
-0.002155
-0.000512
0.001789
-1.9e-05
0.000639
-0.000183
0.001296
-0.001169
-0.002813
0.001132
-0.000347
0.000803
-0.000512
0.00146
-0.000183
0.002447
-0.001005
0.002118
0.001625
-0.002155
-0.002648
0.000803
-0.001827
-0.002484
0.000146
-0.00347
0.000474
-0.000841
-0.001662
-0.001827
0.000639
-0.001169
0.000474
0.000803
-0.001334
0.00146
-0.001005
-0.000183
-0.001169
-0.001498
0.001625
-0.001662
-0.002813
-0.001169
-0.003799
-0.001991
-0.003799
-0.000347
0.002447
-0.001662
0.00031
-0.001498
0.004748
-0.001169
0.00146
-0.001169
-0.001169
0.000146
-0.001169
-0.001662
-1.9e-05
0.00031
-0.000183
-0.000183
-0.000183
0.00031
0.000967
0.002611
0.000967
0.003761
0.001954
0.00146
0.004419
0.000474
-0.001169
0.001954
-0.000841
-0.000841
-0.002484
0.000146
-0.000676
0.000146
0.001132
-1.9e-05
0.000803
0.000474
0.000803
-0.000512
0.000474
-0.002648
-0.002977
-0.000841
-0.001334
-0.001827
0.000639
-0.000183
-0.003635
0.001132
-0.000512
0.00146
-0.000512
0.000639
0.001625
0.000967
-0.001498
0.002611
-0.003142
0.001625
-0.000841
-0.000512
-0.001005
-0.001662
0.00146
-0.000183
-1.9e-05
0.00031
0.001132
0.00031
-0.001662
-0.002155
-0.000676
-0.000676
-0.001662
0.001296
-0.001334
0.003268
0.000146
0.000146
-0.001169
-0.000676
-0.001662
-0.000676
-0.001334
0.002118
-0.000841
0.000474
-0.000676
0.00031
0.001132
-0.001498
0.000639
0.000803
0.001625
0.000146
-0.00232
-0.002813
-0.000512
-0.001498
-0.001991
-0.002977
0.000639
-0.001991
0.001789
-0.002484
0.000803
0.000967
-1.9e-05
0.00146
-0.000347
0.000803
0.003761
-0.002648
0.00031
0.002118
-0.001005
0.001296
-0.000676
0.001954
0.00146
0.000146
0.000474
0.001296
-0.001827
-0.001169
0.000639
0.001789
0.001954
0.00031
0.002118
-0.001169
-0.000676
0.00031
0.00146
-0.003635
0.000639
0.00031
-0.000676
-0.000183
-0.000512
0.003761
0.005569
0.002611
0.002118
0.003597
-0.003142
-0.000676
-0.001991
0.001625
-0.001498
0.00031
0.000474
0.000803
-0.000347
0.000639
0.000639
-1.9e-05
0.000803
0.000639
-0.000347
0.00294
0.005405
-0.001498
0.005898
0.001132
0.000803
0.000146
0.001132
-0.003963
-1.9e-05
-0.001005
0.000474
0.001625
0.002775
0.00031
-0.000347
0.003433
0.002447
0.002775
-0.000183
0.002282
0.000803
0.001789
0.001132
0.00031
0.000146
-0.000512
-0.000347
0.001625
0.001954
0.003268
0.003761
-0.000347
0.002775
0.00031
0.00294
0.003268
0.003104
-0.000183
0.001789
0.000474
-0.001334
0.000803
0.001625
0.000639
0.001789
0.003104
0.000803
0.002447
0.000803
0.00409
0.001625
0.002611
-0.000512
0.002282
0.001296
0.003597
0.00146
0.000474
0.001296
0.000146
0.000474
-0.001169
0.000146
0.003104
0.000967
-0.000676
0.001789
-0.000841
0.001132
-0.001005
-0.000676
-1.9e-05
0.000967
-0.000512
-0.001827
0.000474
-0.001827
0.001954
0.000803
0.001625
-0.001662
-0.000183
0.000146
-0.001827
0.000967
0.00031
-0.006593
-0.001827
0.001625
-0.001991
-0.000183
-0.001005
0.001296
0.002282
0.002447
0.000146
0.001296
0.000803
0.002447
0.001296
-1.9e-05
-0.000841
0.000146
0.002118
0.00146
0.001625
0.001296
0.004419
0.000803
0.004255
0.002447
0.001625
0.003761
0.003926
0.000474
0.001296
0.00031
0.000146
-0.001662
-0.000512
-0.000183
-0.000676
0.00146
0.000639
0.002611
-0.006429
-0.001334
-0.000183
0.000639
-0.004456
-0.001005
-0.002813
0.000474
-0.002484
-0.001991
-0.002813
-0.006922
-0.001991
-0.001991
-0.001827
0.001296
0.000967
-0.001169
0.002118
-0.000347
0.002447
0.000146
0.002118
-0.002155
-0.001169
-0.001991
-0.001827
-0.000347
-1.9e-05
0.001625
-0.002813
-0.001991
-0.000347
0.007377
-0.001991
0.002447
-0.000676
0.002611
0.00031
0.001296
0.002118
-0.000347
-0.001498
0.003761
0.013459
0.018225
0.025785
0.033017
0.039756
0.047316
0.050768
0.060465
0.069176
0.068189
0.073613
0.081338
0.082982
0.088405
0.092843
0.097116
0.09876
0.104184
0.1101
0.110758
0.113223
0.117661
0.123906
0.125879
0.128508
0.134425
0.134425
0.137055
0.139356
0.140342
0.143958
0.145766
0.148067
0.150204
0.152669
0.152833
0.158093
0.156449
0.159408
0.159408
0.164831
0.165489
0.165653
0.166804
0.168612
0.169598
0.171899
0.17157
0.171406
0.173378
0.173049
0.176829
0.175843
0.179295
0.175843
0.18061
0.180774
0.180281
0.184718
0.182417
0.182746
0.184718
0.187348
0.184554
0.184061
0.185869
0.189156
0.185047
0.186526
0.183897
0.190142
0.189649
0.188499
0.192443
0.191457
0.193429
0.192279
0.193594
0.191786
0.193101
0.193101
0.196388
0.192936
0.195895
0.196059
0.192772
0.197045
0.196717
0.195895
0.193922
0.195895
0.194087
0.195402
0.192936
0.193758
0.197045
0.195895
0.194744
0.198031
0.196223
0.19721
0.197538
0.197538
0.196717
0.197374
0.196223
0.197867
0.198853
0.196388
0.195895
0.19721
0.197045
0.196223
0.199511
0.195895
0.199182
0.197538
0.199839
0.198689
0.196388
0.202962
0.201976
0.198031
0.20099
0.199839
0.197538
0.201483
0.197703
0.200168
0.199182
0.201154
0.201483
0.202633
0.200332
0.199675
0.20099
0.201647
0.202469
0.200004
0.201647
0.199018
0.200004
0.197867
0.200497
0.19836
0.197703
0.200661
0.199839
0.200168
0.19836
0.201976
0.197867
0.198524
0.19836
0.200004
0.198689
0.198524
0.195895
0.199018
0.195402
0.193265
0.197374
0.197867
0.198524
0.200004
0.199839
0.200825
0.199675
0.199346
0.200661
0.200497
0.202469
0.197374
0.200825
0.200825
0.200332
0.199675
0.198853
0.199182
0.202633
0.200825
0.201154
0.200332
0.202305
0.199675
0.199839
0.202633
0.199839
0.20099
0.199182
0.200497
0.200004
0.198689
0.203291
0.199346
0.201647
0.202633
0.202469
0.201483
0.201483
0.200004
0.203291
0.199839
0.201812
0.199675
0.200825
0.202305
0.20099
0.200004
0.200661
0.198524
0.19836
0.198196
0.197867
0.200661
0.19836
0.198853
0.198853
0.200004
0.199182
0.198031
0.201483
0.198196
0.19836
0.19836
0.199346
0.201812
0.200168
0.200661
0.200004
0.200332
0.201976
0.19836
0.204934
0.199018
0.200825
0.202633
0.202305
0.197703
0.201483
0.200332
0.200497
0.202633
0.201483
0.203291
0.203455
0.201319
0.200825
0.202305
0.197867
0.201319
0.200004
0.198689
0.20099
0.200825
0.200825
0.201976
0.20099
0.201483
0.205592
0.203784
0.204606
0.199182
0.199346
0.198689
0.199346
0.198853
0.200168
0.19836
0.200661
0.200332
0.201154
0.195073
0.201976
0.200825
0.202305
0.201483
0.199675
0.201319
0.201154
0.202305
0.199839
0.200661
0.20099
0.200825
0.199511
0.201647
0.198689
0.199511
0.199675
0.199018
0.199018
0.203291
0.204441
0.202962
0.201976
0.200661
0.201976
0.199511
0.200332
0.197538
0.199018
0.197703
0.199346
0.205427
0.200168
0.200825
0.200661
0.200661
0.200661
0.20362
0.203126
0.203291
0.199018
0.199018
0.200332
0.200497
0.197703
0.199182
0.198031
0.199182
0.201812
0.197374
0.203126
0.201483
0.202469
0.202469
0.201812
0.201154
0.203784
0.199346
0.200661
0.198853
0.201483
0.199182
0.199839
0.202798
0.198853
0.200497
0.199675
0.201319
0.198196
0.20099
0.200168
0.199511
0.200332
0.203126
0.201154
0.199675
0.200332
0.19836
0.197703
0.198031
0.199018
0.199018
0.20099
0.199182
0.200825
0.200661
0.200661
0.196552
0.202305
0.193594
0.201319
0.198031
0.200332
0.199346
0.197867
0.197538
0.197045
0.200332
0.202798
0.199346
0.200168
0.20214
0.200332
0.201319
0.201319
0.201812
0.201647
0.199182
0.198689
0.199675
0.203126
0.204606
0.199839
0.200004
0.199675
0.200332
0.200661
0.199018
0.201154
0.199675
0.200004
0.199675
0.204934
0.199182
0.201319
0.200168
0.199182
0.201647
0.198853
0.201319
0.200332
0.201319
0.200825
0.202962
0.196388
0.199018
0.200825
0.199675
0.200004
0.196059
0.200168
0.199675
0.200497
0.203126
0.200004
0.196717
0.201976
0.199182
0.199839
0.198031
0.202305
0.201483
0.204113
0.199018
0.198689
0.201483
0.200168
0.199182
0.199018
0.199511
0.200168
0.200825
0.200497
0.201812
0.200661
0.201483
0.200661
0.200332
0.200497
0.200497
0.20214
0.199182
0.200497
0.200332
0.20099
0.198689
0.200825
0.199839
0.200825
0.199346
0.202305
0.201319
0.202469
0.200332
0.200825
0.201647
0.200825
0.199346
0.201154
0.199511
0.196881
0.199839
0.198853
0.197538
0.198524
0.202305
0.199182
0.204441
0.200004
0.202469
0.201976
0.199675
0.199839
0.197045
0.200332
0.198031
0.202798
0.199675
0.200332
0.199675
0.202469
0.199675
0.200004
0.201319
0.201812
0.200661
0.200168
0.202469
0.200661
0.200661
0.198196
0.198689
0.198196
0.199511
0.198524
0.200497
0.196881
0.199511
0.201483
0.19836
0.199675
0.201812
0.201483
0.200497
0.201812
0.198689
0.199511
0.199182
0.19721
0.19721
0.198853
0.196881
0.199675
0.199018
0.196717
0.200332
0.201647
0.201976
0.201976
0.198524
0.202305
0.202469
0.197374
0.197867
0.200661
0.199182
0.20099
0.201483
0.200497
0.20099
0.197703
0.20214
0.200661
0.199346
0.202962
0.201154
0.20099
0.199346
0.200661
0.198689
0.203291
0.199675
0.20099
0.200661
0.199511
0.199511
0.200004
0.198524
0.199675
0.198196
0.196717
0.201812
0.196881
0.200004
0.198689
0.201319
0.199511
0.20214
0.198689
0.200661
0.200332
0.197374
0.195566
0.20099
0.19836
0.201483
0.200004
0.200168
0.202469
0.197867
0.200004
0.198689
0.200661
0.199675
0.20099
0.200497
0.200661
0.203948
0.201319
0.201647
0.199182
0.200825
0.199018
0.199346
0.196059
0.19836
0.198689
0.200004
0.199018
0.201647
0.200661
0.203455
0.200661
0.20099
0.199182
0.200497
0.200497
0.200004
0.201319
0.199182
0.201647
0.199018
0.201319
0.197374
0.199346
0.199675
0.200332
0.202469
0.201812
0.201647
0.203291
0.200168
0.197538
0.201154
0.195402
0.198524
0.199346
0.200168
0.198196
0.200661
0.198853
0.199675
0.200168
0.201154
0.200332
0.200825
0.201812
0.199182
0.201812
0.200661
0.201647
0.199675
0.200004
0.19721
0.192115
0.182746
0.175515
0.171077
0.164174
0.166968
0.165653
0.168612
0.168118
0.167954
0.152505
0.066217
0.066875
0.073613
0.077886
0.081831
0.087748
0.093007
0.095637
0.100075
0.101225
0.106813
0.113223
0.113716
0.119633
0.121605
0.126207
0.129001
0.131302
0.134425
0.135576
0.139027
0.138205
0.143794
0.14478
0.144287
0.148724
0.152176
0.152669
0.157107
0.156285
0.160722
0.160558
0.162859
0.164831
0.166146
0.166146
0.168283
0.168283
0.173871
0.17157
0.173707
0.174857
0.174857
0.174528
0.177651
0.180281
0.178637
0.179459
0.181924
0.179952
0.181431
0.183239
0.182582
0.184554
0.184225
0.185869
0.186691
0.186526
0.187841
0.186033
0.18932
0.188006
0.188992
0.188499
0.188827
0.187841
0.18817
0.189814
0.190635
0.189156
0.19458
0.194416
0.193429
0.195073
0.194909
0.196223
0.192115
0.192443
0.194251
0.194909
0.190471
0.194909
0.193922
0.19721
0.193594
0.195237
0.19573
0.193594
0.194744
0.194909
0.195895
0.192443
0.197045
0.197045
0.198524
0.197538
0.197045
0.196717
0.197374
0.194744
0.193922
0.19721
0.198524
0.197867
0.196223
0.203948
0.198853
0.199346
0.199182
0.19573
0.197045
0.200004
0.201154
0.200004
0.198689
0.197867
0.196388
0.198196
0.19721
0.196552
0.188499
0.198196
0.200332
0.200661
0.200497
0.200004
0.201647
0.200332
0.20362
0.202633
0.201319
0.201647
0.199346
0.198524
0.198689
0.199182
0.197045
0.200332
0.201812
0.203455
0.20099
0.205921
0.205592
0.200168
0.200332
0.20214
0.200497
0.199839
0.198031
0.197703
0.198524
0.19836
0.19836
0.198853
0.198524
0.199018
0.200332
0.198853
0.200661
0.199675
0.199182
0.200332
0.199018
0.201483
0.201319
0.196552
0.197867
0.199346
0.199346
0.200825
0.198689
0.201319
0.197374
0.202633
0.200168
0.20362
0.199511
0.202469
0.201647
0.202305
0.201976
0.199346
0.201976
0.200497
0.200332
0.200004
0.200332
0.202633
0.201812
0.195895
0.200497
0.197045
0.196059
0.201812
0.201483
0.201483
0.201483
0.201319
0.200825
0.199511
0.19836
0.200497
0.199346
0.199018
0.19836
0.199839
0.200332
0.199839
0.197538
0.200497
0.200497
0.200825
0.197867
0.200004
0.19721
0.198196
0.197045
0.196717
0.19836
0.200004
0.201154
0.197374
0.200497
0.199182
0.20099
0.199182
0.199511
0.200332
0.199182
0.200168
0.201647
0.200497
0.198524
0.200332
0.196059
0.200661
0.19836
0.199839
0.197374
0.198853
0.199511
0.20099
0.201812
0.200497
0.200497
0.200004
0.201976
0.196717
0.201647
0.200004
0.200825
0.199839
0.200661
0.198853
0.201647
0.199018
0.201483
0.199182
0.198853
0.197867
0.198853
0.201647
0.198853
0.201976
0.199839
0.203455
0.201154
0.199675
0.19836
0.19836
0.197867
0.198031
0.19836
0.199675
0.201647
0.199346
0.19836
0.200168
0.200332
0.19836
0.199346
0.199346
0.200497
0.200168
0.202305
0.201483
0.201976
0.19836
0.201483
0.201647
0.199511
0.200168
0.200497
0.199182
0.196552
0.200825
0.196881
0.197703
0.200661
0.199182
0.199675
0.201319
0.20099
0.201319
0.202962
0.201483
0.201483
0.201976
0.199839
0.201319
0.199511
0.199018
0.200497
0.199839
0.197867
0.19836
0.199839
0.201319
0.202469
0.197867
0.198853
0.200168
0.200168
0.201154
0.199346
0.201483
0.20099
0.20099
0.199018
0.200497
0.199675
0.199182
0.199839
0.19836
0.202633
0.202469
0.199182
0.20214
0.202798
0.200004
0.200497
0.199182
0.197703
0.197703
0.198853
0.199018
0.200004
0.199839
0.198031
0.198524
0.198689
0.201154
0.198524
0.20099
0.199182
0.201812
0.198196
0.200497
0.200004
0.201812
0.199675
0.200004
0.200332
0.198196
0.200661
0.199018
0.196223
0.197703
0.201483
0.196552
0.197538
0.201154
0.19836
0.199182
0.200332
0.199346
0.201319
0.201154
0.201319
0.201319
0.199839
0.199018
0.199839
0.202305
0.199839
0.200497
0.200825
0.201647
0.199346
0.200661
0.200825
0.200004
0.201812
0.203126
0.204606
0.201154
0.199511
0.19836
0.199839
0.199018
0.199511
0.198689
0.20214
0.197538
0.197703
0.199182
0.200497
0.19836
0.198689
0.199182
0.199839
0.200825
0.199839
0.201976
0.19721
0.19836
0.199675
0.198196
0.195402
0.200825
0.198031
0.200168
0.198196
0.199511
0.199839
0.19836
0.199675
0.199346
0.202305
0.198853
0.200332
0.199346
0.199839
0.199018
0.201483
0.198689
0.202633
0.195402
0.198689
0.198031
0.199182
0.199839
0.200825
0.202633
0.197374
0.200661
0.198853
0.200825
0.197703
0.203291
0.198689
0.199511
0.197703
0.198689
0.197538
0.19836
0.199839
0.197867
0.200497
0.19836
0.200825
0.196388
0.198524
0.199018
0.199018
0.196881
0.199675
0.198524
0.196223
0.196388
0.200168
0.200661
0.196388
0.19721
0.19836
0.199182
0.199346
0.199182
0.200661
0.200004
0.198689
0.200004
0.199018
0.199839
0.197867
0.198031
0.199675
0.196881
0.196059
0.197867
0.198689
0.195402
0.201483
0.19836
0.196223
0.197374
0.201154
0.199511
0.200168
0.198524
0.200004
0.199018
0.197538
0.19836
0.193101
0.196223
0.200497
0.199018
0.196388
0.198031
0.196552
0.199511
0.196388
0.198689
0.198196
0.192115
0.19721
0.195895
0.197538
0.195402
0.198853
0.196881
0.196223
0.197374
0.197867
0.196717
0.19721
0.197045
0.19836
0.198689
0.198524
0.198031
0.198031
0.198853
0.197867
0.198031
0.200168
0.202798
0.195402
0.196552
0.196059
0.196388
0.195237
0.197374
0.198031
0.197703
0.201319
0.198853
0.197867
0.19573
0.196223
0.195237
0.196223
0.194744
0.195895
0.196223
0.196388
0.196059
0.196059
0.193758
0.195895
0.194909
0.193758
0.196388
0.194909
0.191293
0.193265
0.193922
0.19458
0.194087
0.19195
0.194744
0.192772
0.195402
0.193922
0.195073
0.19458
0.19573
0.195237
0.195237
0.194416
0.196717
0.195566
0.195073
0.192608
0.195566
0.197374
0.197703
0.19836
0.192936
0.194909
0.194744
0.19458
0.195895
0.19458
0.195566
0.195402
0.194416
0.19195
0.193758
0.194087
0.193758
0.193429
0.19573
0.190964
0.197045
0.194251
0.195073
0.195566
0.191786
0.196388
0.196552
0.194416
0.191293
0.1908
0.190307
0.191457
0.190142
0.193101
0.192115
0.192608
0.194087
0.192936
0.192443
0.193758
0.194251
0.192115
0.191786
0.190964
0.190307
0.192115
0.191128
0.188827
0.190964
0.188663
0.190964
0.190471
0.19458
0.191293
0.19195
0.192608
0.191457
0.189649
0.189485
0.189485
0.190964
0.189814
0.186362
0.187184
0.187019
0.188827
0.187841
0.189814
0.187348
0.191621
0.191621
0.191457
0.1908
0.190307
0.187184
0.187184
0.191293
0.188334
0.188499
0.187348
0.188992
0.188334
0.176665
0.166639
0.169269
0.158093
0.151354
0.154477
0.145437
0.147738
0.147245
0.151354
0.150368
0.153655
0.155627
0.155627
0.1576
0.158093
0.1576
0.161051
0.161873
0.161544
0.164831
0.168283
0.168612
0.16894
0.171077
0.168612
0.173378
0.170748
0.17272
0.173707
0.168283
0.166804
0.171734
0.168283
0.166311
0.161873
0.161873
0.15234
0.153655
0.155792
0.157107
0.1576
0.154477
0.160558
0.16138
0.152505
0.154806
0.136562
0.129659
0.128344
0.12818
0.130152
0.124235
0.12933
0.135411
0.132782
0.135411
0.134754
0.138534
0.126372
0.129823
0.125879
0.120784
0.011651
0.010171
0.018061
0.022334
0.028415
0.034661
0.036962
0.045672
0.050768
0.053069
0.05389
0.014609
0.000146
0.001954
0.003597
0.000146
0.001625
-0.000183
0.001296
0.006227
0.005569
0.000474
0.006556
0.000474
0.004583
0.003597
-0.000183
-1.9e-05
-0.000183
0.000146
0.002611
0.004583
0.005241
0.014609
0.016581
0.001296
-0.000183
0.000803
0.000639
0.000146
0.005076
-1.9e-05
0.00031
0.000146
-1.9e-05
-0.000183
-0.000347
-0.000347
-0.000512
-1.9e-05
0.00031
-1.9e-05
0.00031
0.000146
0.000474
-1.9e-05
-0.000183
-0.000512
-0.000183
-0.000512
-0.000183
0.00031
0.000146
0.000146
0.000146
0.000146
-1.9e-05
-0.000347
-0.000183
-0.000347
-0.000183
-0.000183
-1.9e-05
0.000146
0.00031
0.000474
0.000146
0.000146
-0.000347
-0.000347
-0.000347
-0.000347
-0.000183
0.000146
0.000146
0.00031
0.00031
0.00031
-1.9e-05
-0.000183
-0.000347
-0.000183
-0.000512
-0.000183
0.00031
0.00031
0.000146
0.00031
0.000146
-1.9e-05
-0.000183
-0.000347
-0.000347
-0.000347
-0.000183
-1.9e-05
-1.9e-05
0.00031
0.000146
0.00146
-1.9e-05
-0.000512
-0.000183
-0.000512
-0.000347
-0.000347
0.006391
0.013623
0.020197
0.025128
0.03351
0.039427
0.04107
0.056027
0.054383
0.063259
0.067203
0.071805
0.07953
0.082324
0.086269
0.091528
0.096788
0.09613
0.101718
0.106485
0.109772
0.109114
0.111908
0.114374
0.116017
0.11914
0.117825
0.121441
0.121605
0.127687
0.129166
0.13311
0.131302
0.137219
0.137877
0.141328
0.140835
0.142479
0.141821
0.143136
0.146752
0.149382
0.154641
0.151518
0.154641
0.15497
0.156778
0.152176
0.154148
0.155956
0.157107
0.156613
0.159079
0.157107
0.156285
0.160558
0.163188
0.166475
0.166639
0.169598
0.164831
0.174035
0.173378
0.171734
0.167132
0.172556
0.178144
0.174693
0.174693
0.175843
0.174693
0.176665
0.177815
0.176994
0.183075
0.174857
0.181596
0.184718
0.186198
0.185047
0.187184
0.184554
0.189485
0.187348
0.187841
0.188663
0.187841
0.188663
0.187513
0.190471
0.18932
0.191293
0.187841
0.193429
0.195073
0.194744
0.191621
0.200661
0.194909
0.195566
0.196223
0.194087
0.194087
0.194909
0.193922
0.195402
0.194744
0.197374
0.199182
0.193922
0.196388
0.196881
0.198031
0.195566
0.19721
0.198689
0.194087
0.201154
0.195895
0.193922
0.195237
0.191128
0.197045
0.197538
0.198031
0.197867
0.197538
0.196717
0.197867
0.19836
0.198524
0.199346
0.197538
0.19836
0.196717
0.197045
0.196388
0.196388
0.197045
0.195566
0.19721
0.199839
0.196059
0.195402
0.194744
0.196552
0.197703
0.196059
0.200168
0.198689
0.197703
0.198689
0.197374
0.195073
0.198031
0.197538
0.197374
0.20477
0.200168
0.201154
0.197867
0.200168
0.198853
0.195237
0.199182
0.20099
0.197867
0.196881
0.194416
0.193265
0.196717
0.197045
0.196552
0.195895
0.200168
0.198031
0.200661
0.198853
0.196552
0.202305
0.198524
0.199182
0.200497
0.198689
0.199182
0.201976
0.197374
0.200825
0.198689
0.199346
0.198689
0.196388
0.19836
0.200168
0.197538
0.198524
0.198196
0.201154
0.204113
0.19836
0.197538
0.196717
0.196717
0.198196
0.200497
0.195237
0.196223
0.19721
0.19836
0.197045
0.197703
0.196552
0.196881
0.194909
0.196388
0.197867
0.193758
0.195073
0.198853
0.19836
0.193758
0.197703
0.197538
0.200497
0.196552
0.19836
0.196717
0.196717
0.20099
0.19721
0.197538
0.193101
0.192115
0.190635
0.190964
0.187841
0.192279
0.188334
0.181103
0.181103
0.183239
0.182417
0.180938
0.182582
0.182089
0.183732
0.181596
0.183239
0.178309
0.181924
0.179952
0.182746
0.183404
0.183897

Kurve 2

0.00031
0.000146
0.000474
-0.001005
-0.000347
0.000146
-0.000183
0.000474
-0.000183
0.00031
0.00031
0.000639
-1.9e-05
-1.9e-05
-0.000676
-0.000676
-0.000512
-0.001169
0.00031
-1.9e-05
-0.000183
0.000474
0.000967
-0.000512
0.000146
-0.000512
0.000639
-0.001005
-0.000347
-1.9e-05
-0.000676
0.00031
-1.9e-05
0.00031
0.00031
0.00031
-0.000512
-1.9e-05
-0.001005
0.000967
-1.9e-05
0.000474
-1.9e-05
0.000474
0.000146
0.000639
-0.000183
-0.000347
-0.000512
-0.000183
-0.000512
-0.000347
-1.9e-05
-1.9e-05
-0.000183
-1.9e-05
0.000474
-1.9e-05
-0.000347
-0.000183
0.00031
-0.000183
0.00031
0.000639
-0.000512
0.000639
0.000146
-1.9e-05
-1.9e-05
0.00031
-0.000183
-0.000347
-0.000512
-0.000183
-1.9e-05
0.000474
0.000474
0.000967
-1.9e-05
0.00031
-0.000183
-0.000512
-0.000512
-0.000183
0.000474
-1.9e-05
0.00031
-0.000183
0.00031
-0.000347
0.000146
-0.000841
-0.000183
-0.000183
-0.000183
0.000146
0.00031
0.000474
-1.9e-05
0.000474
-0.000347
-1.9e-05
-0.000512
-0.000512
-0.000676
-0.000676
-0.000183
-0.000183
0.000146
0.00031
-1.9e-05
0.000803
0.000146
0.000146
-0.000347
-0.000183
-1.9e-05
-0.000347
0.00031
-0.000183
0.000146
0.000146
0.000639
-0.000183
-0.000676
-0.000512
-0.000347
0.000146
-1.9e-05
0.000146
0.000146
0.000639
-0.000512
0.000474
-0.000512
-1.9e-05
-0.000512
-0.000347
-0.000676
-0.000183
-0.000347
-0.000183
0.000146
0.00031
-1.9e-05
-1.9e-05
-0.000183
-0.000347
-0.000183
-0.000512
0.000146
0.000146
0.000146
0.000474
0.000803
-0.000512
-1.9e-05
-0.000512
-0.000676
-0.000512
-0.000512
0.00031
-1.9e-05
0.00031
-1.9e-05
0.000146
-1.9e-05
-0.000183
-1.9e-05
-0.000347
-0.000183
-0.000183
-1.9e-05
0.000639
0.000639
-0.000183
0.000146
-0.000512
-0.000347
0.000146
-0.000676
-1.9e-05
-0.000841
-0.000183
0.000474
0.000146
0.000146
0.000639
-0.000676
0.000146
-0.000183
-0.000347
-0.000183
-0.000512
-1.9e-05
0.000146
-1.9e-05
0.00031
0.000146
0.000146
-0.000183
-0.000183
-1.9e-05
-0.000347
-0.000183
0.000146
0.000146
-1.9e-05
0.000146
-0.000183
-1.9e-05
-0.000512
-0.000347
-0.000512
-0.000512
-0.000512
0.000146
0.000146
0.00031
-0.000183
0.000146
0.00031
-0.000676
-0.000676
-0.000512
-0.000183
-0.000676
0.000474
-0.000347
0.00031
-0.000183
-0.000512
-0.000183
0.000146
-1.9e-05
-0.000841
-0.00232
-0.000512
0.000146
-0.000347
0.000474
0.00031
0.000474
-0.000347
-0.000512
-0.000183
-0.000183
-0.002484
-0.000347
-0.000183
0.00031
0.00031
0.000146
-0.000183
-1.9e-05
-1.9e-05
-0.000183
-0.000183
0.003104
-0.000183
-1.9e-05
0.000146
-0.000347
0.000474
-0.000347
0.00031
-1.9e-05
-0.000512
-1.9e-05
0.002447
-1.9e-05
-0.000183
0.000146
0.000146
0.000474
0.00031
0.000146
-0.000183
-0.000183
-0.000512
-0.000841
-0.000347
-0.000183
-0.000512
0.000474
0.00031
0.000474
-0.000347
0.000146
-0.000512
-0.000676
-0.000676
0.000146
-1.9e-05
0.00031
0.000639
0.00031
-1.9e-05
-1.9e-05
-0.000512
-0.000347
-0.000841
0.00031
0.00031
0.000146
-0.000183
0.00031
0.000474
0.000146
0.000146
0.000146
-0.000183
-0.000676
-0.000347
-0.000183
0.000474
0.00031
0.00031
-1.9e-05
0.00031
-1.9e-05
0.000474
-0.000347
-0.000183
-0.000841
0.000146
0.00031
0.000146
0.000474
0.000146
0.00031
-0.000183
-0.000347
-0.000512
-0.000183
-0.000841
0.000146
-0.000183
-0.000183
0.000146
0.000146
0.00031
-1.9e-05
-0.000183
-0.000183
-1.9e-05
-0.000183
-0.000183
-0.000183
0.000639
-0.000183
0.00031
-1.9e-05
-0.000347
0.000146
-0.000512
0.000146
0.000146
-1.9e-05
0.000146
0.00031
0.000474
0.000146
-0.000183
0.000474
-1.9e-05
-0.000347
-0.000676
-0.000512
-0.000347
-1.9e-05
-1.9e-05
0.000146
0.000146
-1.9e-05
-0.000183
-0.000183
-0.000183
-1.9e-05
-0.000347
-1.9e-05
0.000967
0.00031
0.00031
0.000474
-1.9e-05
-0.000347
-0.000347
-0.000512
-0.000512
-1.9e-05
-0.000183
0.000474
0.000474
-0.000183
-1.9e-05
0.000146
-0.000183
-1.9e-05
-0.000676
-1.9e-05
-1.9e-05
-0.000183
-1.9e-05
0.000146
0.00031
0.00031
0.00031
-1.9e-05
-0.000183
-0.000347
-0.000512
-0.000676
0.000639
-0.000183
0.000639
0.000639
0.000639
0.000639
-1.9e-05
-0.000183
-0.000512
-0.000183
-0.000841
-0.000183
-0.000183
0.000474
-1.9e-05
0.000474
-0.000183
-1.9e-05
-0.000183
-0.000512
-0.000512
-1.9e-05
-1.9e-05
0.000146
0.000146
0.000146
0.00031
-1.9e-05
-1.9e-05
-0.000183
-0.000347
-0.000347
-0.000183
-1.9e-05
0.000146
0.00031
0.00031
0.00031
-1.9e-05
-0.000183
-0.000347
-0.000512
-0.000347
-0.000183
0.000146
-1.9e-05
0.000146
0.000474
0.000146
0.000146
-0.000183
-0.000347
-0.000183
-0.000512
-0.000183
-0.000183
0.00031
0.000146
0.00031
0.00031
0.000146
-0.000183
-0.000347
-0.000347
-0.000183
-0.000512
-1.9e-05
0.000146
0.000146
0.00031
0.000146
0.000146
-0.000183
-0.000512
-0.000512
-0.000347
-0.000347
-1.9e-05
-1.9e-05
-1.9e-05
0.00031
0.000474
-0.000183
-0.000183
-0.000347
-0.000183
-0.000347
-0.000183
-1.9e-05
0.00031
0.00031
0.000146
0.000146
0.000146
-0.000347
-0.000347
-0.000183
-0.000512
-0.000347
-1.9e-05
0.000146
0.00031
0.00031
0.000146
0.00031
-0.000347
-0.000347
-0.000347
-0.000347
-0.000183
0.000146
0.000146
0.000146
0.000146
0.00031
0.000146
-0.000347
-0.000347
-0.000512
-0.000347
-0.000183
-0.000183
0.000146
0.00031
0.00031
0.00031
-1.9e-05
-1.9e-05
-0.000347
-0.000347
-0.000347
-0.000183
0.000146
0.000146
0.000146
0.00031
0.000146
-0.000183
-0.000183
-1.9e-05
-0.000512
-0.000347
-0.000347
-1.9e-05
0.000146
0.000146
0.000146
0.00031
-1.9e-05
-0.000347
-0.000512
-0.000512
-0.000512
-0.000512
-1.9e-05
-1.9e-05
0.00031
0.000146
0.00031
-1.9e-05
-0.000347
-0.000512
-0.000347
-0.000512
-0.000183
0.000146
0.000146
0.000146
0.00031
0.00031
0.000146
-0.000512
-0.000347
-0.000512
-0.000512
-0.000347
-1.9e-05
0.000146
0.000146
0.000146
0.000146
-1.9e-05
-0.000183
-0.000347
-0.000183
-0.000347
-1.9e-05
0.000146
-1.9e-05
0.000474
0.000146
0.000146
0.000146
-0.000183
-0.000347
-0.000347
-0.000512
-0.000183
0.000146
0.000146
-1.9e-05
0.000146
0.000146
-0.000183
-0.000183
-0.000183
-0.000512
-0.000347
-0.000676
0.000146
0.000146
0.00031
0.00031
0.000146
-1.9e-05
-0.000512
-0.000512
-0.000347
-0.000512
-1.9e-05
0.000146
0.000146
0.000146
0.000146
0.000146
-1.9e-05
-0.000347
-0.000512
-0.000347
-0.000183
-1.9e-05
-1.9e-05
0.000146
0.00031
0.00031
0.000146
-0.000183
-0.000347
-0.000347
-0.000512
-1.9e-05
-0.000183
-1.9e-05
0.00031
0.000146
0.00031
0.000146
-1.9e-05
-0.000183
-0.000512
-0.000347
-0.000676
-1.9e-05
-1.9e-05
0.000146
0.00031
0.00031
0.00031
-0.000183
-0.000347
-0.000512
-0.000347
-0.000512
-0.000183
0.000146
0.00031
-1.9e-05
0.00031
0.000146
-1.9e-05
-0.000347
-0.000183
-0.000512
-0.000347
0.000146
-0.000183
0.000146
0.00031
0.00031
0.00031
-1.9e-05
-0.000347
-0.000347
-0.000347
-0.000347
-1.9e-05
-1.9e-05
0.000146
0.00031
0.000474
0.000146
-0.000183
-0.000183
-0.000347
-0.000512
-0.000183
-0.000183
0.00031
0.000146
0.00031
0.00031
0.000146
-0.000183
-0.000347
-0.000183
-0.000347
-0.000512
0.000146
-1.9e-05
0.00031
0.000146
0.000474
0.000146
-0.000183
-0.000183
-0.000512
-0.000347
-0.000183
0.000146
0.00031
0.000146
0.000146
0.000146
-1.9e-05
-0.000183
-0.000183
-0.000183
-0.000183
-0.000347
0.000146
-1.9e-05
0.00031
0.000146
0.000146
0.00031
-0.000183
-0.000347
-0.000183
-0.000347
-0.000347
-1.9e-05
0.000146
0.00031
0.00031
0.000474
0.000146
-0.000183
-0.000347
-0.000347
-0.000512
-0.000183
-1.9e-05
-1.9e-05
0.00031
0.00031
0.000474
0.000146
-1.9e-05
-0.000347
-0.000347
-0.000347
-0.000347
0.000146
-1.9e-05
0.000146
0.00031
0.000146
-1.9e-05
-0.000183
-1.9e-05
-0.000512
-0.000347
-0.000347
-1.9e-05
0.000146
0.000474
0.00031
0.00031
-1.9e-05
-0.000183
-0.000183
-0.000347
-0.000347
-0.000347
-1.9e-05
0.00031
0.00031
0.00031
0.00031
-1.9e-05
-1.9e-05
-1.9e-05
-0.000347
-0.000512
-0.000347
0.000146
0.000146
-1.9e-05
-1.9e-05
0.00031
-1.9e-05
-0.000183
-0.000183
-0.000512
-0.000347
-0.000183
-1.9e-05
0.000146
0.000146
0.00031
0.000146
0.000146
0.000146
-0.000347
-0.000512
-0.000512
-0.000183
-1.9e-05
0.000146
0.000146
0.000146
0.00031
0.000146
-0.000183
-0.000183
-0.000183
-0.000347
-0.000183
-1.9e-05
-1.9e-05
0.00031
0.00031
0.00031
0.000146
-0.000183
-0.000347
-0.000347
-0.000183
-0.000512
-1.9e-05
-1.9e-05
0.000146
0.000146
0.000146
0.000146
-0.000183
-0.000347
-0.000347
-0.000347
-0.000183
-1.9e-05
0.000146
0.000146
0.000146
0.00031
0.000146
-0.000183
-0.000183
-0.000183
-0.000512
-0.000347
0.000146
0.000146
0.000146
0.000146
0.000474
-1.9e-05
-0.000183
-0.000347
-0.000183
-0.000347
-0.000347
0.000146
0.000146
0.00031
0.000474
0.000146
-1.9e-05
-0.000183
-0.000347
-0.000347
-0.000347
-0.000183
0.000146
0.000146
0.00031
0.00031
0.00031
-1.9e-05
-0.000183
-0.000347
-0.000512
-0.000512
-0.000183
-1.9e-05
-1.9e-05
-1.9e-05
0.000146
0.000474
-0.000183
-0.000183
-0.000183
-0.000183
-0.000512
-0.000347
0.000146
0.00031
0.00031
0.000146
0.000146
-1.9e-05
-0.000347
-0.000183
-0.000347
-0.000347
-0.000183
-1.9e-05
0.00031
0.00031
0.00031
0.00031
-1.9e-05
-0.000347
-0.000347
-0.000512
-0.000512
-0.000183
-1.9e-05
-1.9e-05
0.00031
0.000474
0.00031
0.000146
-0.000183
-0.000347
-0.000347
-0.000512
-0.000183
-1.9e-05
0.000146
-1.9e-05
0.00031
0.000146
-1.9e-05
-0.000347
-0.000347
-0.000183
-0.000347
-0.000183
0.000146
0.000146
0.000146
0.000639
0.00031
-1.9e-05
-0.000183
-0.000347
-0.000183
-0.000183
-0.000183
-1.9e-05
0.00031
0.00031
0.000146
0.00031
-0.000183
-0.000183
-0.000347
-0.000512
-0.000183
-0.000183
0.000146
0.00031
0.000474
0.000146
0.00031
-1.9e-05
-0.000183
-0.000347
-0.000512
-0.000347
-1.9e-05
0.000146
-1.9e-05
0.000146
0.00031
0.000146
-0.000183
-0.000183
-0.000347
-0.000512
-0.000347
-0.000347
-0.000183
-1.9e-05
0.00031
0.00031
0.00031
-0.000183
-0.000183
-0.000512
-0.000512
-0.000512
-0.000183
0.000146
0.000146
0.00031
0.00031
0.000474
-1.9e-05
-0.000183
-0.000347
-0.000347
-0.000676
-0.000183
0.000146
0.000146
0.000474
-1.9e-05
0.00031
-0.000183
-0.000183
-0.000347
-0.000183
-0.000347
-1.9e-05
-1.9e-05
0.000146
0.00031
0.00031
0.00031
-0.000183
-0.000183
-0.000347
-0.000512
0.000146
-1.9e-05
0.00031
0.00031
0.00031
0.000146
0.00031
0.000146
-0.000183
-0.000347
-0.000347
-0.000512
-1.9e-05
-1.9e-05
-1.9e-05
0.00031
0.00031
0.00031
-1.9e-05
-0.000347
-0.000347
-0.000183
-0.000676
-1.9e-05
0.000146
0.00031
0.000146
0.000146
0.000146
-0.000183
-0.000183
-0.000512
-0.000512
-0.000512
-1.9e-05
0.000146
0.000146
0.000146
0.00031
0.00031
-0.000183
-0.000347
-0.000512
-0.000512
-0.000347
-0.000183
0.000146
0.000146
0.000474
0.00031
0.00031
-0.000183
-0.000183
-0.000512
-0.000512
-0.000512
-1.9e-05
0.000146
0.000146
0.000146
0.000474
0.000146
-1.9e-05
-0.000183
-0.000347
-0.000512
-0.000512
-0.000347
0.000639
0.00031
0.000146
0.00031
-1.9e-05
-0.000183
-0.000347
-0.000183
-0.000347
-0.000347
-1.9e-05
0.000146
0.000146
0.000146
0.00031
0.00031
-0.000183
-0.000347
-0.000347
-0.000512
-0.000347
-0.000183
-1.9e-05
0.00031
0.000146
0.000146
-1.9e-05
-1.9e-05
-0.000347
-0.000347
-0.000347
-0.000183
0.000146
-1.9e-05
-1.9e-05
0.000146
0.00031
0.00031
-0.000183
-0.000512
-0.000512
-0.000347
-0.000183
-0.001498
0.005898
0.007542
0.016088
0.009678
0.001625
-1.9e-05
-0.000512
-0.000347
0.000474
-0.001005
0.000474
0.000146
0.00031
0.000146
0.00031
0.000146
-1.9e-05
-0.000183
-0.000183
-0.000347
-0.000183
-0.000183
-1.9e-05
0.00031
0.000146
0.00031
-0.000183
0.000146
-0.000512
-0.000512
-0.000347
-0.000347
0.000146
0.000146
0.000146
0.00031
0.000146
0.000146
0.000474
-0.000512
-0.000512
-0.000512
-0.000347
-1.9e-05
0.00031
0.00031
0.002775
0.00146
0.00031
-1.9e-05
-0.000183
-0.000347
-0.000183
-0.000183
0.000146
-1.9e-05
0.000146
0.000474
0.000146
0.00031
-0.000183
-0.000183
-0.000347
-0.000347
-0.000347
-1.9e-05
0.000146
0.000146
0.000146
0.000639
0.000146
-1.9e-05
-0.000347
-0.000347
-0.000347
-0.000347
0.000146
0.000146
0.00031
0.00031
0.000146
-1.9e-05
-0.000183
-0.000347
-0.000347
-0.000347
-0.000347
0.000146
-1.9e-05
0.000146
0.000474
0.00031
0.000146
-0.000183
-0.000347
-0.000183
-0.000347
-0.000183
-1.9e-05
-1.9e-05
0.000146
0.00031
0.00031
0.000146
-0.000183
-0.000347
-0.000347
-0.000512
-0.000347
0.000146
0.000146
0.00031
0.00031
0.00031
0.00031
-0.000183
-0.000183
-0.000512
-0.000347
-0.000183
-1.9e-05
0.000146
0.000146
0.00031
0.000474
-1.9e-05
-0.000183
-0.000347
-0.000347
-0.000183
-0.000512
-1.9e-05
0.000146
0.000146
0.000146
0.000146
0.000146
-0.000183
-0.000347
-0.000347
-0.000347
-0.000347
0.000146
-1.9e-05
0.000146
0.00031
0.000146
0.000146
-0.000183
-0.000347
-0.000347
-0.000183
-0.000183
0.000146
0.000146
0.000146
0.000146
0.00031
-1.9e-05
-0.000347
-0.000183
-0.000347
-0.000347
-0.000183
-1.9e-05
0.000146
0.000146
0.000474
0.000639
-1.9e-05
-0.000347
-0.000347
-0.000347
-0.000347
-1.9e-05
0.000146
0.000146
0.00031
0.000474
0.00031
0.000146
-0.000183
-0.000512
-0.000512
-0.000512
-0.000183
-1.9e-05
-0.000183
0.00031
0.00031
0.00031
-1.9e-05
-0.000183
-0.000183
-0.000347
-0.000183
0.000803
0.000146
0.000474
0.000474
0.00031
0.001296
0.000146
-0.000183
-0.000347
0.000146
-0.001498
0.001132
-1.9e-05
0.001625
0.000803
0.00031
0.00031
0.00146
0.000639
0.000639
0.000967
0.00146
-0.001662
-1.9e-05
-1.9e-05
-0.000183
-1.9e-05
0.001954
0.000967
0.000474
-0.000676
-0.000841
0.002282
-0.001498
0.001625
0.001954
0.008363
0.001789
-1.9e-05
0.009843
0.010336
0.013294
0.017239
0.002118
0.007049
0.013952
0.01428
0.023156
0.025292
0.026771
0.028251
0.028908
0.032524
0.035975
0.039263
0.036633
0.039263
0.029894
0.015595
0.017074
0.010993
-0.000841
0.005241
0.01313
0.018225
0.025292
0.026936
0.035811
0.038276
0.044358
0.04896
0.053233
0.056191
0.059314
0.058492
0.069011
0.06293
0.070162
0.073942
0.077229
0.078544
0.081831
0.031373
0.000803
0.001296
-0.000183
0.000474
-0.001662
0.00146
0.000146
0.00935
0.011158
0.017567
0.023156
0.027922
0.032688
0.034003
0.040249
0.039756
0.04633
0.050932
0.059478
0.063752
0.068354
0.067696
0.078051
0.080187
0.084132
0.080681
0.084296
0.075092
0.081338
0.087255
0.089227
0.096459
0.095473
0.103033
0.104019
0.110758
0.110265
0.118483
0.116182
0.120455
0.123085
0.12933
0.123085
0.130152
0.134918
0.134425
0.138699
0.139027
0.140506
0.141
0.143465
0.140342
0.14478
0.140671
0.14478
0.147081
0.150861
0.153819
0.15497
0.155463
0.154641
0.154641
0.157764
0.157107
0.152669
0.149217
0.152669
0.154477
0.154148
0.157271
0.157271
0.157271
0.159408
0.159079
0.163188
0.163681
0.164831
0.164338
0.167461
0.166804
0.164667
0.163188
0.169269
0.167297
0.168776
0.168612
0.044029
0.00031
-1.9e-05
0.009021
0.012308
0.021348
0.03236
0.036797
0.041399
0.048795
0.051754
0.059314
0.06408
0.072134
0.0769
0.083803
0.084461
0.091364
0.093172
0.097116
0.100568
0.103362
0.108621
0.109279
0.115689
0.115853
0.119797
0.121277
0.124399
0.1267
0.129988
0.136069
0.135247
0.137055
0.137055
0.141164
0.131138
0.131302
0.131631
0.001132
0.000967
0.009021
0.015595
0.023813
0.024964
0.026278
0.025785
0.033346
0.03729
0.042385
0.051261
0.054876
0.059972
0.067039
0.07049
0.074764
0.081667
0.084296
0.087748
0.092186
0.095473
0.101061
0.104184
0.105827
0.109936
0.110429
0.114702
0.10895
0.120948
0.119633
0.123742
0.12555
0.126865
0.131302
0.128673
0.132453
0.134097
0.137877
0.137712
0.140342
0.141986
0.101554
-1.9e-05
0.006556
0.015102
0.020197
0.030387
0.036633
-0.000183
0.003104
0.01576
0.022663
0.028251
0.035482
0.04107
0.044193
0.052411
0.057177
0.06556
0.070326
0.072627
0.080187
0.082982
0.089391
0.090706
0.094487
0.093172
0.097445
0.097445
0.09991
0.09991
0.097938
0.104184
0.104019
0.101225
0.102047
0.102869
0.098924
0.103855
0.098924
0.100732
0.101718
0.102047
0.105005
0.104512
0.09613
0.093172
0.092021
0.093172
0.098102
0.09613
0.094158
0.095473
0.096623
0.097774
0.096623
0.09613
0.097116
0.094651
0.094487
0.094158
0.052411
0.006227
0.015102
0.025457
0.027429
0.03729
0.037783
0.043043
0.046659
0.051918
0.054055
0.059314
0.061944
0.064245
0.068847
0.06671
0.06934
0.071148
0.070819
0.075421
0.076079
0.076736
0.082817
0.081174
0.081995
0.078544
0.080681
0.077886
0.081338
0.077065
0.071148
0.042714
0.027593
0.0105
0.012308
0.015431
0.020855
0.029894
0.032853
0.038605
0.039098
0.045837
0.046659
0.052411
0.054548
0.05915
0.058657
0.041235
0.042221
0.045837
0.046166
0.021512
0.010993
0.01428
0.021512
0.029237
0.041399
0.04107
0.026443
0.028086
0.037619
0.03614
0.016581
0.017567
0.02069
0.029566
0.033346
0.034661
0.040249
0.048631
0.053233
0.057342
0.062437
0.07049
0.07197
0.079037
0.081667
0.089391
0.095308
0.096623
0.102376
0.103855
0.107964
0.107799
0.111251
0.115031
0.034496
0.001296
0.002611
0.008692
0.013952
0.017732
0.022991
0.01428
0.008692
0.013787
0.020855
0.028744
0.032031
0.039427
0.040413
0.041728
0.036962
0.008035
0.014938
0.02069
0.024142
0.035647
0.038605
0.043536
0.05011
0.056191
0.062437
0.068189
0.072298
0.006391
0.008692
0.012965
0.024635
0.027922
0.039427
0.042714
0.049453
0.050768
0.062601
0.065395
0.068025
0.077229
0.081009
0.080516
0.090049
0.091364
0.064902
0.044851
0.003597
0.011486
-1.9e-05
0.001296
-1.9e-05
-0.000347
-0.000347
-1.9e-05
0.000146
0.00031
0.000146
0.000146
-1.9e-05
-0.000183
-0.000512
-0.000347
-0.000347
-1.9e-05
0.000146
0.000146
0.000146
0.000474
0.000146
-1.9e-05
-0.000183
-0.000347
-0.000512
-0.000841
-0.000183
-0.000183
0.000146
0.00031
0.000146
0.00031
-0.000183
-0.000347
-0.000183
-0.000183
-0.000512
-0.000183
-1.9e-05
0.000146
0.000146
0.00031
0.000146
-1.9e-05
-1.9e-05
-0.000347
-0.000183
-1.9e-05
-1.9e-05
-1.9e-05
0.00031
0.000146
0.000146
0.00031
0.000146
-0.000347
-0.000347
-0.000347
-0.000183
-0.000183
-1.9e-05
0.000146
0.00031
0.000474
0.00031
-0.000183
-0.000183
-0.000347
-0.000183
-0.000512
-0.000183
0.000146
0.00031
0.000146
0.00031
0.00031
-1.9e-05
-0.000183
-0.000347
-0.000347
-0.000676
-0.000183
0.000146
0.00031
0.000146
0.000146
0.000474
-1.9e-05
-0.000183
-0.000512
-0.000347
-0.000183
-1.9e-05
-1.9e-05
0.000146
0.000146
0.00031
0.00031
-1.9e-05
-0.000183
-0.000512
-0.000183
-0.000183
-1.9e-05
-1.9e-05
0.00031
0.00031
0.00031
0.00031
-0.000183
0.000146
-0.000841
0.004419
0.005405
0.002282
-1.9e-05
0.00031
0.000146
0.00031
0.00031
-0.000183
-0.000183
-0.000512
-0.000347
-0.000347
-1.9e-05
-1.9e-05
0.00031
0.00031
0.00031
0.000146
-0.000183
-0.000512
-0.000347
-0.000183
-0.000347
0.000146
0.000146
0.00031
-1.9e-05
0.000146
0.000146
-0.000183
-0.000512
-0.000512
-0.000676
-0.000183
-1.9e-05
0.00031
0.00031
0.000146
0.00031
-1.9e-05
-0.000183
-0.000183
-0.000347
-0.000512
-0.000347
-0.000183
-1.9e-05
0.00031
0.000474
0.000146
0.000146
-0.000347
-0.000183
-0.000347
-0.000512
-0.000347
-0.000183
0.000146
0.000146
0.000146
0.00031
-1.9e-05
-0.000183
-0.000347
-0.000347
-0.000183
-0.000183
0.000146
0.000146
0.00031
0.00031
0.00031
0.00031
-1.9e-05
-0.000183
-0.000183
-0.000512
-0.000183
-1.9e-05
0.00031
-1.9e-05
0.000146
0.00031
-1.9e-05
-1.9e-05
-1.9e-05
-0.000183
-0.000512
-0.000183
-0.000183
0.000146
0.00031
0.000474
0.00031
0.000146
-0.000183
-0.000512
-0.000347
-0.000347
-0.000183
0.000146
0.000146
0.000146
0.000146
0.000146
0.000146
-0.000183
-0.000183
-0.000347
-0.000512
-0.000183
0.000146
0.000146
0.00031
0.00031
0.000146
0.000146
-0.000183
-0.000183
-0.000347
-0.000512
-0.000183
0.000146
0.000146
0.000146
0.000474
0.000474
0.00031
0.000146
-0.000183
-0.000183
-0.000512
-0.000183
-1.9e-05
0.000146
0.000474
0.00031
0.000146
-1.9e-05
-0.000183
-0.000347
-0.000347
-0.000512
-0.000347
0.000146
0.000474
0.000474
0.00031
0.00031
0.000146
-0.000183
-0.000512
-0.000347
-0.000347
-0.000183
-1.9e-05
0.000146
0.000146
0.00031
0.00031
-1.9e-05
0.00031
-1.9e-05
-0.000347
-0.000512
-0.000183
-1.9e-05
0.000146
0.000146
0.00031
0.00031
0.000146
-0.000183
-0.000347
-0.000347
-0.000347
-0.000347
0.000146
0.000146
0.00031
0.000146
-1.9e-05
0.000146
-1.9e-05
-0.000183
-0.000183
-0.000512
-0.000183
-1.9e-05
0.000146
0.000146
0.000474
0.000146
0.000146
-0.000183
-0.000347
-0.000347
-0.000512
-0.000183
-1.9e-05
0.00031
0.00031
0.00031
0.00031
0.000146
-1.9e-05
-0.000183
-0.000512
-0.000347
-0.000512
-1.9e-05
0.000146
0.00031
0.000146
0.00031
-1.9e-05
-1.9e-05
-0.000183
-0.000512
-0.000347
-0.000347
0.000146
0.000146
0.000474
0.00031
0.000474
-1.9e-05
-0.000183
-0.000183
-0.000183
-0.000183
-0.000183
-1.9e-05
0.000146
0.000474
0.00031
0.00031
-1.9e-05
-0.000183
-0.000347
-0.000512
-0.000512
-0.000347
0.000146
0.000146
0.00031
0.00031
0.00031
-1.9e-05
-0.000183
-0.000183
-0.000512
-0.000676
-0.000183
-0.000183
0.00031
0.000146
0.00031
0.000146
-1.9e-05
-0.000183
-0.000183
-0.000347
-0.000512
-0.000512
0.000146
0.00031
0.00031
0.000146
0.00031
-1.9e-05
-0.000183
-0.000183
-0.000512
-0.000183
-0.000183
0.000146
0.000146
0.000146
0.000146
0.00031
-1.9e-05
-0.000183
-0.000512
-0.000512
-0.000347
-0.000183
0.000146
0.000146
0.00031
0.00031
0.00031
-1.9e-05
-0.000183
-0.000347
-0.000512
-0.000512
-0.000183
0.00031
-1.9e-05
0.000146
0.000474
0.000146
0.000146
0.000146
0.00031
0.000474
-0.000183
-0.001005
0.004912
0.007049
0.005405
0.007049
0.005405
0.006227
0.00294
0.007213
0.009678
0.018225
0.02069
0.031538
0.033346
0.037455
0.040249
0.03992
0.046166
0.046823
0.0437
0.040906
0.025621
0.008857
0.001954
0.000146
0.000146
0.000146
0.000146
-0.000183
-0.000183
-0.000512
-1.9e-05
-0.001334
0.000803
0.00031
0.000639
-1.9e-05
0.000967
-0.000183
0.001625
0.009185
0.015102
0.023649
0.031209
0.035647
0.04107
0.04896
0.052082
0.057835
0.061122
0.06671
0.070326
0.071805
0.072956
0.082324
0.08331
0.087912
0.093336
0.09235
0.100732
0.102376
0.106485
0.111087
0.112237
0.114867
0.119304
0.116182
0.122427
0.128344
0.126372
0.12933
0.129166
0.134754
0.137877
0.13952
0.139027
0.146095
0.141986
0.152011
0.147245
0.150532
0.151518
0.154806
0.160558
0.156285
0.161051
0.162202
0.166804
0.165489
0.166475
0.168283
0.169926
0.170913
0.169762
0.172392
0.172885
0.171899
0.173378
0.173214
0.171241
0.175186
0.175679
0.177158
0.177487
0.177322
0.179952
0.180445
0.180281
0.181103
0.180281
0.181267
0.181596
0.179788
0.184225
0.181267
0.181431
0.187019
0.184225
0.182417
0.157928
-0.001005
0.002118
0.010336
0.019211
0.025292
0.03236
0.038934
0.043536
0.050603
0.050603
0.063587
0.06671
0.072956
0.078544
0.081831
0.088898
0.091035
0.093665
0.104019
0.102704
0.110922
0.111251
0.118976
0.118483
0.119633
0.125057
0.1267
0.131467
0.132453
0.137548
0.141164
0.14215
0.141986
0.147574
0.146095
0.14856
0.150697
0.152998
0.15497
0.154148
0.158257
0.157764
0.153326
0.147903
0.147409
0.147081
0.151518
0.153162
0.154477
0.002611
0.006391
0.008199
0.002611
0.004255
0.003761
0.007706
0.009514
0.01954
0.025128
0.030059
0.036633
0.045179
0.052575
0.057835
0.06556
0.065724
0.074435
0.0769
0.083146
0.087748
0.092514
0.09498
0.099582
0.104677
0.106978
0.109279
0.067368
-0.000183
-1.9e-05
-1.9e-05
0.000146
0.000146
0.000639
0.003104
0.00935
0.008035
0.010993
0.018389
0.016253
0.026278
0.031209
0.038605
0.043865
0.051589
0.056027
0.065724
0.067696
0.075092
0.079859
0.083968
0.088077
0.093172
0.092843
0.099089
0.104019
0.104841
0.109936
0.112073
0.113881
0.113716
0.120126
0.123906
0.129166
0.131796
0.13311
0.115689
0.117496
0.119797
0.124235
0.127358
0.128673
0.130645
0.131467
0.136891
0.137384
0.141821
0.143465
0.148231
0.146423
0.149053
0.152998
0.154312
0.15497
0.156285
0.159736
0.159243
0.159243
0.160394
0.163023
0.163023
0.160887
0.127687
0.131467
0.13574
0.137712
0.140835
0.143136
0.143794
0.147903
0.150368
0.150204
0.15497
0.153655
0.154806
0.155299
0.158093
0.158257

Kurve 3

0.195073
0.199182
0.199346
0.198031
0.200004
0.197374
0.201647
0.199018
0.199511
0.19836
0.199182
0.197538
0.199839
0.196717
0.193429
0.19458
0.197703
0.201319
0.198031
0.199346
0.198689
0.200332
0.197374
0.198853
0.199182
0.198196
0.199675
0.198524
0.198689
0.19721
0.200004
0.198524
0.19836
0.196059
0.201154
0.204441
0.202305
0.203784
0.201154
0.201976
0.201154
0.202633
0.20099
0.20099
0.196388
0.199511
0.200825
0.19836
0.197374
0.201319
0.197045
0.200332
0.199182
0.200332
0.199182
0.200004
0.200332
0.200825
0.199839
0.199182
0.200661
0.199018
0.199839
0.198689
0.198524
0.200004
0.198524
0.201319
0.199511
0.19836
0.200332
0.199018
0.200004
0.20099
0.200004
0.200332
0.19836
0.199182
0.197867
0.197374
0.19573
0.198524
0.197538
0.197374
0.196223
0.197867
0.201647
0.193922
0.198196
0.199675
0.199182
0.200497
0.200825
0.199018
0.200004
0.198689
0.200825
0.199839
0.200497
0.198031
0.200332
0.200825
0.198196
0.198853
0.200661
0.199511
0.197703
0.204441
0.199346
0.201647
0.199675
0.199839
0.199346
0.199675
0.199675
0.197374
0.201483
0.202305
0.199675
0.201154
0.200497
0.198524
0.199511
0.198524
0.201154
0.197045
0.201483
0.198853
0.196881
0.19721
0.199182
0.200332
0.197374
0.198031
0.200497
0.200497
0.201483
0.201976
0.199182
0.200004
0.198031
0.199182
0.202469
0.199675
0.19721
0.200661
0.198853
0.200661
0.200497
0.199839
0.200332
0.196881
0.199675
0.200168
0.199675
0.197045
0.199675
0.198524
0.197374
0.202469
0.200168
0.200004
0.199839
0.199675
0.202962
0.201319
0.19836
0.204441
0.20099
0.201647
0.202469
0.200004
0.199346
0.200168
0.199182
0.198689
0.199018
0.199182
0.199182
0.201154
0.198031
0.200168
0.196881
0.197867
0.199018
0.195895
0.199346
0.196059
0.195895
0.19721
0.199839
0.198031
0.200004
0.199839
0.200004
0.198689
0.199346
0.20099
0.199839
0.201812
0.197374
0.201647
0.199018
0.20099
0.199346
0.199346
0.197703
0.198196
0.192936
0.19836
0.196717
0.19573
0.197045
0.194909
0.197045
0.194416
0.196388
0.197374
0.196552
0.199346
0.196059
0.196552
0.198196
0.19573
0.197374
0.19721
0.196881
0.197703
0.194909
0.196388
0.19573
0.19836
0.195073
0.197045
0.195566
0.200661
0.200332
0.198524
0.199839
0.204113
0.196552
0.197867
0.197374
0.197538
0.198689
0.19721
0.200004
0.198853
0.199018
0.198853
0.199018
0.192772
0.199839
0.197867
0.201483
0.199182
0.197538
0.197867
0.198524
0.200168
0.197538
0.199018
0.190635
0.198524
0.19721
0.196388
0.199182
0.195895
0.193429
0.202798
0.197867
0.196717
0.202305
0.197374
0.197374
0.19721
0.199839
0.197374
0.199018
0.195566
0.197867
0.197703
0.196717
0.188663
0.058492
0.006391
0.013623
0.022334
0.028579
0.03614
0.037783
0.048467
0.054055
0.058657
0.066381
0.07197
0.073449
0.082488
0.08216
0.089885
0.093665
0.096788
0.101883
0.107799
0.109443
0.113059
0.118976
0.11799
0.124235
0.126536
0.131796
0.13196
0.133603
0.137548
0.14215
0.13952
0.145766
0.145273
0.147081
0.14971
0.152505
0.155134
0.154641
0.156778
0.159408
0.163352
0.162366
0.16253
0.164503
0.166146
0.163352
0.166804
0.168118
0.171241
0.175021
0.176336
0.173378
0.175679
0.176665
0.175679
0.178144
0.178144
0.181431
0.180281
0.182417
0.181924
0.181267
0.184061
0.182746
0.184061
0.183404
0.184883
0.185376
0.186691
0.186526
0.189814
0.185705
0.189814
0.189156
0.192279
0.189649
0.189814
0.189485
0.189485
0.190471
0.189485
0.192772
0.191786
0.194251
0.190635
0.193922
0.194251
0.194909
0.193101
0.195895
0.193265
0.194909
0.194251
0.191293
0.194087
0.197045
0.193101
0.194909
0.196717
0.196223
0.19573
0.194087
0.19721
0.195566
0.198853
0.198853
0.201319
0.199346
0.198689
0.198853
0.198031
0.199182
0.197867
0.197374
0.197374
0.196223
0.19721
0.196059
0.19836
0.199511
0.198031
0.198689
0.198524
0.198689
0.198853
0.201319
0.19836
0.18439
0.135576
0.08972
0.087584
0.091364
0.095144
0.10254
0.106978
0.10632
0.112894
0.113552
0.117168
0.122756
0.127029
0.129001
0.131796
0.133439
0.136726
0.138863
0.138534
0.142314
0.141821
0.147903
0.144451
0.150697
0.153162
0.155956
0.156285
0.15875
0.155956
0.160887
0.163352
0.165982
0.166804
0.168118
0.170255
0.167625
0.175515
0.171899
0.174035
0.175021
0.176008
0.176665
0.176665
0.17798
0.17913
0.180938
0.179295
0.184883
0.179952
0.184554
0.182911
0.185212
0.183732
0.187677
0.186526
0.186855
0.189814
0.188827
0.18932
0.190471
0.187184
0.189485
0.190471
0.188663
0.191293
0.186691
0.190471
0.18932
0.191293
0.191128
0.190471
0.188827
0.192443
0.194416
0.195566
0.192936
0.195895
0.194744
0.19195
0.197703
0.195402
0.197045
0.195237
0.195402
0.195237
0.196059
0.196552
0.198853
0.197045
0.198196
0.198031
0.19721
0.197045
0.196388
0.19836
0.196717
0.198524
0.194416
0.196059
0.195402
0.196388
0.197374
0.196552
0.193922
0.199675
0.197867
0.201154
0.200825
0.201647
0.20099
0.198689
0.199839
0.199018
0.198853
0.195402
0.198853
0.197703
0.196059
0.19836
0.201812
0.199346
0.197045
0.202305
0.201812
0.201976
0.200497
0.202633
0.198196
0.203784
0.202798
0.203455
0.199675
0.200661
0.199182
0.199675
0.202633
0.201483
0.200825
0.201976
0.201647
0.202305
0.203126
0.201483
0.203455
0.201483
0.200497
0.203291
0.201483
0.198196
0.200497
0.196223
0.202469
0.201647
0.200497
0.201976
0.200825
0.201154
0.203126
0.200004
0.202798
0.199018
0.199675
0.201647
0.197867
0.199018
0.198031
0.198853
0.198524
0.196881
0.199675
0.19721
0.199182
0.201319
0.201647
0.202305
0.202469
0.200332
0.202962
0.201976
0.202305
0.199346
0.197867
0.199346
0.200332
0.201812
0.200168
0.202469
0.201154
0.20214
0.201647
0.201976
0.200497
0.202305
0.20099
0.201647
0.202305
0.204113
0.203455
0.200332
0.200332
0.202798
0.200332
0.199511
0.201647
0.198196
0.201154
0.199675
0.201647
0.200004
0.20362
0.201319
0.201812
0.199839
0.201483
0.199675
0.198689
0.200825
0.201319
0.197703
0.199511
0.196552
0.197703
0.198524
0.200332
0.199346
0.199182
0.201319
0.199018
0.201319
0.201319
0.198196
0.200004
0.199511
0.196059
0.19836
0.202469
0.200332
0.200004
0.200661
0.200825
0.200004
0.200004
0.199839
0.20099
0.190635
0.199182
0.199511
0.20099
0.200825
0.199839
0.201319
0.199839
0.201154
0.201647
0.199675
0.197867
0.200004
0.198031
0.199839
0.200661
0.199675
0.199346
0.201319
0.202633
0.202305
0.200661
0.207564
0.201812
0.197867
0.199839
0.200004
0.196717
0.196717
0.199839
0.198853
0.19836
0.202305
0.202633
0.200332
0.20099
0.200661
0.202962
0.206414
0.200825
0.204113
0.201154
0.201483
0.202305
0.201647
0.19836
0.200004
0.199839
0.198689
0.199675
0.200004
0.201319
0.20099
0.201483
0.199675
0.203126
0.200004
0.202798
0.200004
0.201647
0.199346
0.197538
0.201154
0.201483
0.199675
0.201483
0.202305
0.198524
0.201976
0.197703
0.19836
0.199346
0.200332
0.199839
0.203126
0.200661
0.202962
0.20099
0.198196
0.199675
0.201647
0.199839
0.201319
0.201483
0.203948
0.199839
0.20099
0.20477
0.206085
0.201812
0.201319
0.203291
0.201647
0.201154
0.201154
0.201812
0.20099
0.201154
0.201976
0.202469
0.205099
0.201812
0.203291
0.199839
0.20362
0.201319
0.20099
0.202469
0.201976
0.200168
0.204606
0.200004
0.200497
0.201812
0.200497
0.201647
0.199346
0.203126
0.199182
0.199511
0.199511
0.203126
0.19836
0.198524
0.200825
0.20099
0.200168
0.202469
0.201319
0.200332
0.202305
0.200332
0.203455
0.200825
0.202305
0.200497
0.200825
0.201647
0.20099
0.19721
0.202962
0.200168
0.20099
0.203455
0.201976
0.202633
0.20099
0.203126
0.201483
0.202633
0.204441
0.204277
0.20099
0.203455
0.202962
0.200661
0.200332
0.200168
0.201647
0.200004
0.201647
0.203784
0.204934
0.202305
0.203948
0.203291
0.20214
0.201483
0.201483
0.202305
0.200004
0.198524
0.199346
0.198524
0.196223
0.200168
0.201647
0.202305
0.201154
0.201812
0.201154
0.201154
0.200661
0.202305
0.20099
0.200497
0.199839
0.201154
0.199511
0.196059
0.196881
0.197538
0.203126
0.196223
0.201483
0.199675
0.201647
0.200004
0.202469
0.199511
0.201647
0.20099
0.203455
0.201319
0.197538
0.20099
0.200332
0.20099
0.198196
0.202469
0.201319
0.202305
0.200661
0.203784
0.200497
0.20362
0.201647
0.204441
0.203455
0.202305
0.203784
0.196881
0.200332
0.198689
0.198196
0.197703
0.199675
0.201319
0.202633
0.202798
0.20362
0.204113
0.203291
0.20214
0.199839
0.204934
0.199018
0.200661
0.200168
0.200825
0.200004
0.202469
0.200497
0.200825
0.201483
0.200497
0.200825
0.199018
0.200004
0.201483
0.203455
0.201976
0.201812
0.199675
0.200004
0.200004
0.198524
0.199182
0.200332
0.19836
0.20214
0.198031
0.200168
0.201319
0.20099
0.201812
0.20214
0.200825
0.202469
0.202305
0.202469
0.201154
0.199675
0.199018
0.199839
0.201154
0.200004
0.201647
0.196388
0.199839
0.200661
0.202469
0.204277
0.202633
0.201812
0.201647
0.204441
0.20099
0.202305
0.199675
0.205921
0.203948
0.205592
0.202798
0.202798
0.200825
0.202469
0.204113
0.199346
0.203455
0.200661
0.199346
0.200661
0.200825
0.201319
0.202469
0.198689
0.203291
0.202962
0.199018
0.200825
0.202633
0.200661
0.202633
0.201483
0.201154
0.201483
0.199018
0.200004
0.199182
0.19836
0.199346
0.199839
0.19836
0.203291
0.20362
0.201483
0.203291
0.202633
0.202633
0.201154
0.200168
0.197703
0.200004
0.199182
0.201154
0.200825
0.201647
0.201154
0.202633
0.202305
0.201976
0.204606
0.199346
0.201812
0.201647
0.204606
0.202469
0.202305
0.199346
0.20099
0.197867
0.199346
0.197703
0.198689
0.200497
0.20099
0.200004
0.203784
0.202798
0.202798
0.202305
0.200661
0.200825
0.199839
0.20099
0.197867
0.197867
0.200661
0.199182
0.198524
0.19836
0.200004
0.199182
0.198524
0.200332
0.201319
0.198031
0.202633
0.204606
0.203291
0.199675
0.200332
0.199675
0.195237
0.198196
0.197045
0.201319
0.20099
0.201976
0.201319
0.201812
0.201976
0.198853
0.199839
0.192279
0.200168
0.20214
0.20099
0.201647
0.199346
0.198689
0.201154
0.199675
0.201647
0.199839
0.199346
0.200168
0.201483
0.199675
0.201483
0.200497
0.203455
0.199675
0.201319
0.201812
0.200661
0.205427
0.199511
0.200004
0.196223
0.196059
0.200332
0.198031
0.199346
0.202633
0.200497
0.203126
0.204606
0.201319
0.200661
0.201154
0.201483
0.197374
0.194909
0.20099
0.201483
0.200004
0.202305
0.200825
0.201647
0.200004
0.200661
0.202469
0.20099
0.19836
0.202798
0.200168
0.202633
0.201976
0.202962
0.200004
0.199675
0.199675
0.197374
0.203455
0.200661
0.202469
0.20099
0.200825
0.200825
0.201154
0.198689
0.200661
0.200332
0.201647
0.202633
0.186691
0.002611
-1.9e-05
0.005241
0.008035
0.00294
0.000474
0.000639
0.006556
0.015266
0.019047
0.029072
0.038276
0.038605
0.052247
0.056027
0.064574
0.068189
0.073613
0.077229
0.083803
0.086597
0.090213
0.095144
0.10139
0.101718
0.106813
0.110758
0.112894
0.118318
0.121441
0.124399
0.127851
0.129988
0.132946
0.137548
0.13952
0.143958
0.142972
0.14215
0.146095
0.149053
0.148067
0.15234
0.155627
0.154641
0.159901
0.158914
0.163023
0.164667
0.164831
0.166475
0.169762
0.166475
0.168118
0.169762
0.171241
0.170091
0.171406
0.172556
0.175843
0.177651
0.176008
0.180445
0.179459
0.180281
0.179459
0.185376
0.186855
0.183075
0.187019
0.185212
0.186033
0.187019
0.185869
0.186691
0.186526
0.186033
0.189978
0.188006
0.190635
0.189485
0.190964
0.188663
0.077886
0.000474
0.000474
-0.000347
0.003104
0.002775
0.00031
0.002447
0.003433
0.008528
0.004255
0.012308
0.015431
0.02447
0.029894
0.035975
0.044851
0.051754
0.052904
0.06293
0.066875
0.071805
0.077065
0.078051
0.085118
0.090871
0.094651
0.099417
0.103855
0.106485
0.112237
0.115689
0.118647
0.120455
0.124235
0.12933
0.131302
0.132289
0.135247
0.140178
0.13837
0.146752
0.145602
0.146588
0.151354
0.150861
0.152505
0.155956
0.155134
0.159901
0.161051
0.160229
0.162366
0.16516
0.163516
0.164174
0.168118
0.167461
0.170913
0.17272
0.174035
0.175843
0.175679
0.175021
0.180938
0.174693
0.177815
0.178637
0.180774
0.179295
0.17798
0.181431
0.18176
0.185376
0.183732
0.188006
0.185705
0.187184
0.186691
0.187513
0.187184
0.18817
0.187677
0.188992
0.188827
0.187348
0.192608
0.191457
0.191786
0.191128
0.192608
0.192115
0.194416
0.193758
0.19573
0.194744
0.194416
0.193429
0.195402
0.195895
0.192772
0.195237
0.196388
0.196059
0.196388
0.197374
0.198031
0.198031
0.197867
0.197538
0.195895
0.198524
0.199839
0.195073
0.199018
0.197538
0.197538
0.194744
0.197374
0.199182
0.193758
0.194744
0.197374
0.197703
0.200168
0.200497
0.201319
0.198853
0.199182
0.200825
0.203126
0.199839
0.201976
0.198689
0.201483
0.200661
0.19721
0.201319
0.19721
0.19836
0.19836
0.202305
0.198853
0.200332
0.201154
0.198524
0.202962
0.199018
0.200661
0.199511
0.198196
0.201976
0.201319
0.195237
0.20099
0.197045
0.196552
0.198524
0.199839
0.201647
0.200661
0.201319
0.201647
0.203126
0.199675
0.200497
0.198196
0.199182
0.197703
0.201154
0.197538
0.198853
0.198853
0.200497
0.203455
0.201976
0.200825
0.201976
0.201319
0.201812
0.20099
0.200661
0.200332
0.199018
0.204113
0.201319
0.201647
0.200825
0.201319
0.199839
0.20099
0.202962
0.20099
0.202305
0.201154
0.200004
0.202798
0.201976
0.199675
0.20099
0.198524
0.198689
0.198689
0.199511
0.199182
0.200497
0.198853
0.20099
0.20099
0.201319
0.202305
0.201483
0.201812
0.201812
0.201976
0.198031
0.201154
0.202633
0.199346
0.20099
0.200004
0.19836
0.199182
0.199675
0.199839
0.199346
0.201483
0.203455
0.199839
0.202469
0.201647
0.202798
0.200332
0.201483
0.201812
0.199182
0.202633
0.201812
0.199675
0.195237
0.201812
0.201976
0.201976
0.20099
0.201812
0.199511
0.198689
0.202469
0.202633
0.201647
0.195895
0.197538
0.202962
0.202798
0.202305
0.201319
0.201647
0.201647
0.200825
0.20099
0.200661
0.201812
0.197867
0.199839
0.198689
0.200004
0.200825
0.199675
0.199839
0.200004
0.201319
0.200168
0.203948
0.193922
0.202305
0.199675
0.201154
0.199182
0.198524
0.199675
0.200825
0.200332
0.199839
0.204277
0.199839
0.200168
0.200332
0.202798
0.199675
0.201154
0.201154
0.203126
0.201154
0.200825
0.200168
0.201647
0.197867
0.201319
0.201319
0.200825
0.201154
0.206249
0.202633
0.203455
0.201647
0.201976
0.199675
0.199182
0.200825
0.201319
0.200168
0.199511
0.202305
0.199346
0.20099
0.201319
0.201483
0.198031
0.198853
0.200332
0.198689
0.201483
0.199511
0.203126
0.202962
0.200332
0.200661
0.201154
0.199182
0.199182
0.196552
0.199018
0.20099
0.198196
0.203455
0.202633
0.199839
0.199511
0.201319
0.20099
0.199675
0.202469
0.199675
0.198689
0.197867
0.198689
0.201647
0.198853
0.198196
0.200168
0.201812
0.201483
0.19721
0.199182
0.201154
0.200004
0.199675
0.202633
0.206907
0.201812
0.202633
0.200825
0.200332
0.200004
0.201483
0.200332
0.199182
0.19836
0.200825
0.199839
0.198689
0.200004
0.201976
0.20099
0.201647
0.200661
0.202469
0.202305
0.20362
0.202633
0.201319
0.201647
0.201154
0.200825
0.200004
0.20362
0.202962
0.199839
0.199018
0.203291
0.199182
0.202305
0.199511
0.200661
0.202633
0.199346
0.202633
0.199018
0.201319
0.200332
0.200825
0.197538
0.200168
0.198196
0.201154
0.198524
0.199018
0.202798
0.198031
0.199182
0.198196
0.202305
0.200004
0.201154
0.20099
0.202962
0.199511
0.200004
0.196881
0.200661
0.199346
0.197538
0.197867
0.198689
0.20214
0.20099
0.200168
0.199346
0.201647
0.201483
0.202633
0.201319
0.201154
0.201812
0.202305
0.202633
0.20099
0.201647
0.199839
0.200497
0.199018
0.20099
0.20099
0.199839
0.200661
0.198853
0.201483
0.202962
0.202305
0.203784
0.197045
0.200332
0.196552
0.198196
0.197538
0.19836
0.199182
0.198689
0.198853
0.197703
0.196717
0.200004
0.201154
0.199839
0.202305
0.200825
0.201319
0.201483
0.200825
0.198524
0.198196
0.198853
0.195073
0.197703
0.196388
0.197538
0.196223
0.198853
0.199675
0.201154
0.198031
0.203784
0.200497
0.201812
0.200332
0.202798
0.202469
0.198689
0.199839
0.200332
0.199511
0.198689
0.201319
0.199018
0.200332
0.200332
0.201154
0.200332
0.20362
0.20362
0.200661
0.198524
0.197374
0.199182
0.198689
0.198524
0.19836
0.201976
0.198853
0.202469
0.202469
0.202633
0.201647
0.202305
0.203784
0.19721
0.200661
0.200004
0.199839
0.198031
0.199018
0.20099
0.200168
0.199675
0.202633
0.201812
0.20099
0.196388
0.200497
0.201319
0.199182
0.202469
0.202962
0.201319
0.201319
0.202633
0.202962
0.202305
0.198196
0.200497
0.198689
0.201483
0.201319
0.200168
0.200497
0.200332
0.201154
0.202305
0.199675
0.200497
0.20214
0.197867
0.200332
0.199346
0.20099
0.198853
0.20099
0.200332
0.202305
0.201483
0.203126
0.200497
0.20099
0.200825
0.202469
0.200332
0.19836
0.198524
0.200168
0.201319
0.196717
0.203291
0.199839
0.201319
0.203948
0.204441
0.203291
0.20099
0.200004
0.200497
0.201976
0.197703
0.20099
0.198689
0.199346
0.200661
0.203455
0.200004
0.202305
0.198689
0.202305
0.200004
0.198689
0.200332
0.201319
0.199018
0.199839
0.201319
0.197867
0.200825
0.20099
0.199346
0.197867
0.199182
0.197703
0.200004
0.200004
0.201483
0.201647
0.200332
0.201319
0.198689
0.198031
0.198031
0.197703
0.197703
0.199511
0.199018
0.199346
0.199675
0.199346
0.198853
0.199839
0.199839
0.199346
0.201319
0.198524
0.20214
0.200497
0.200661
0.199675
0.201647
0.200004
0.199511
0.191293
0.198524
0.199182
0.201647
0.199346
0.200825
0.202305
0.200661
0.202962
0.198689
0.202962
0.192936
0.199346
0.199182
0.200004
0.198524
0.200332
0.201319
0.199839
0.199346
0.199182
0.199346
0.200825
0.200004
0.200497
0.201319
0.199839
0.200497
0.195073
0.200497
0.200661
0.200004
0.199346
0.203291
0.196059
0.196223
0.19836
0.197703
0.19836
0.197045
0.199346
0.203455
0.199346
0.200168
0.203126
0.197374
0.200825
0.20099
0.199839
0.198689
0.200661
0.197045
0.201154
0.200497
0.198689
0.199675
0.200004
0.200661
0.199675
0.200661
0.199675
0.201647
0.200168
0.200825
0.200168
0.20214
0.200497
0.197538
0.20214
0.200004
0.200661
0.198524
0.201319
0.200497
0.203291
0.200004
0.200661
0.202305
0.200825
0.199675
0.201976
0.201647
0.200497
0.200332
0.197703
0.198196
0.198853
0.200004
0.199839
0.195895
0.199018
0.200497
0.197374
0.200825
0.198689
0.202469
0.204113
0.198689
0.202305
0.20099
0.198196
0.205756
0.199675
0.200661
0.202469
0.19836
0.20099
0.199675
0.200497
0.19836
0.199511
0.200661
0.201483
0.200332
0.201154
0.201483
0.196881
0.199511
0.197045
0.200497
0.19836
0.202962
0.199018
0.201976
0.198031
0.199675
0.200004
0.200004
0.200497
0.201647
0.205263
0.201647
0.20099
0.19836
0.200825
0.197538
0.201319
0.199839
0.20362
0.199675
0.201319
0.198524
0.199182
0.199018
0.200004
0.202633
0.200168
0.201319
0.200661
0.202305
0.203455
0.203455
0.20099
0.200661
0.200332
0.199182
0.198524
0.200661
0.20099
0.198031
0.201976
0.199675
0.20099
0.202305
0.200497
0.201483
0.200168
0.201647
0.200004
0.198853
0.199346
0.199346
0.199839
0.199511
0.199511
0.199182
0.200004
0.199182
0.198853
0.199018
0.203784
0.196388
0.197045
0.199839
0.198031
0.20099
0.19721
0.202305
0.200825
0.199346
0.199839
0.198853
0.198689
0.197867
0.19836
0.200332
0.20099
0.199346
0.200661
0.198524
0.200332
0.198853
0.201647
0.198524
0.199675
0.199182
0.200497
0.200004
0.199182
0.197867
0.197867
0.201647
0.198853
0.203126
0.198524
0.200497
0.200661
0.200497
0.205099
0.202305
0.200332
0.200168
0.200825
0.199511
0.200332
0.199675
0.198031
0.202633
0.201154
0.197538
0.201319
0.19836
0.197703
0.197374
0.198031
0.197374
0.197867
0.199675
0.19836
0.201647
0.200497
0.20099
0.199675
0.201319
0.199018
0.200661
0.198196
0.200825
0.199511
0.198524
0.200661
0.200825
0.199675
0.202305
0.199018
0.199675
0.200332
0.198689
0.20214
0.200004
0.201647
0.199346
0.200332
0.200497
0.200004
0.196717
0.199839
0.195566
0.197538
0.198853
0.200825
0.199839
0.196881
0.201812
0.201154
0.202962
0.198689
0.201319
0.200497
0.200825
0.199675
0.197045
0.195237
0.198031
0.196388
0.193922
0.200661
0.199511
0.199346
0.199675
0.201319
0.200497
0.205263
0.200332
0.20214
0.200497
0.201154
0.202305
0.201812
0.201483
0.199839
0.198853
0.199018
0.201812
0.198853
0.200661
0.201483
0.201154
0.201812
0.201976
0.201319
0.201647
0.201812
0.204113
0.200332
0.200168
0.198524
0.198689
0.202305
0.19721
0.199182
0.19721
0.200497
0.198524
0.202305
0.201812
0.203126
0.20099
0.201483
0.200825
0.200661
0.200497
0.198689
0.199182
0.202469
0.201976
0.199182
0.200004
0.198031
0.198524
0.20214
0.202469
0.199182
0.201976
0.198196
0.200004
0.199839
0.202305
0.198196
0.198853
0.199839
0.199511
0.200825
0.19721
0.202305
0.199346
0.199182
0.200168
0.20099
0.201483
0.203455
0.202962
0.198524
0.200497
0.19836
0.200497
0.198031
0.200004
0.198853
0.20099
0.19836
0.200332
0.199511
0.205756
0.202305
0.201647
0.200825
0.201483
0.202469
0.200332
0.202962
0.197374
0.199346
0.199346
0.199839
0.197538
0.198196
0.196552
0.200168
0.19836
0.199346
0.201319
0.200004
0.199182
0.20362
0.201976
0.198196
0.203784
0.198689
0.200332
0.199018
0.199346
0.204277
0.199675
0.19836
0.20099
0.19195
0.19836
0.199346
0.198196
0.202305
0.199018
0.19836
0.200332
0.200661
0.199511
0.201319
0.192115
0.200332
0.19836
0.200332
0.199182
0.200825
0.193594
0.19836
0.20099
0.198689
0.201154
0.200661
0.199182
0.200332
0.201154
0.200332
0.201319
0.199511
0.201647
0.200825
0.199018
0.200825
0.2074
0.201647
0.201154
0.204606
0.202798
0.20099
0.193429
0.202633
0.200332
0.201154
0.201647
0.204441
0.200825
0.201647
0.201812
0.202633
0.202305
0.197538
0.199182
0.203455
0.200168
0.199675
0.200661
0.196552
0.199675
0.198853
0.201483
0.199018
0.198196
0.200168
0.199182
0.200825
0.199511
0.203126
0.196717
0.202633
0.199182
0.197703
0.199511
0.197703
0.198031
0.198689
0.19721
0.199675
0.20099
0.19573
0.197538
0.199182
0.200825
0.200004
0.204441
0.200661
0.201154
0.200497
0.197045
0.20099
0.200661
0.200661
0.199018
0.200497
0.199675
0.200825
0.203126
0.199182
0.200332
0.201647
0.199182
0.20099
0.198524
0.199839
0.199511
0.197703
0.197703
0.201647
0.19573
0.197703
0.199675
0.198031
0.198524
0.197867
0.198031
0.199018
0.199675
0.199018
0.197703
0.196717
0.201483
0.199839
0.200332
0.196717
0.196717
0.196388
0.195895
0.196223
0.195566
0.197374
0.195895
0.198524
0.198031
0.200661
0.19836
0.200168
0.196881
0.19721
0.200332
0.19836
0.197045
0.198031
0.19836
0.198196
0.19836
0.198853
0.199839
0.198196
0.200004
0.198689
0.199018
0.197867
0.200332
0.201154
0.197374
0.201483
0.19836
0.199018
0.198196
0.199346
0.199182
0.19721
0.200661
0.19721
0.200332
0.19836
0.200332
0.198853
0.200497
0.198524
0.19721
0.200497
0.198031
0.198689
0.198524
0.199839
0.199018
0.199182
0.200332
0.196717
0.196223
0.197703
0.196388
0.195895
0.197045
0.198689
0.200332
0.200497
0.200661
0.199346
0.201812
0.201319
0.199839
0.198524
0.197867
0.199839
0.198524
0.20099
0.196059
0.198524
0.19721
0.197374
0.198689
0.198524
0.197867
0.198689
0.199346
0.19573
0.005569
-0.000512
-0.000347
0.000146
-1.9e-05
0.000146
0.00031
0.000474
0.000146
-0.000183
-0.000183
-0.000512
-0.000512
-0.000347
-1.9e-05
-1.9e-05
0.00031
0.000474
0.000146
0.000146
-0.000183
-0.000183
-0.000183
-0.000347
-0.000183
-1.9e-05
0.000146
0.000474
0.00031
0.000474
-1.9e-05
-0.000347
-0.000183
-0.000347
-0.000183
-0.000347
0.000146
0.000146
0.000146
0.000474
0.00031
0.000146
-1.9e-05
-0.000512
-0.000347

Kurve 4

0.000146
0.001789
0.000146
0.000639
0.000803
0.003597
0.000639
0.00031
-0.001498
0.004912
0.00031
-0.001498
-0.001991
-0.001498
0.00146
-0.001662
0.000803
-0.000183
0.000967
-0.000512
0.000146
-0.000512
0.00031
0.002118
-0.000183
-0.001827
-0.000512
-0.003306
-0.002484
-0.005443
-0.007908
-0.00347
0.001132
-0.001662
-0.000512
0.003268
0.000474
0.002118
0.000803
-0.002155
-1.9e-05
-0.000512
-0.002648
0.001789
-0.001169
-0.001169
0.00031
0.000967
0.00031
-0.000347
0.000639
0.000146
0.001625
-0.001334
0.00672
0.001789
0.00146
0.000474
0.00294
0.001789
-0.000841
-0.002648
-0.001005
0.003761
-0.003142
0.001625
0.002118
-0.000183
-0.000183
0.001789
0.000146
0.003104
0.00146
0.001789
0.00146
-1.9e-05
0.000639
-0.001827
0.000639
-0.001005
-0.001005
-0.004456
0.00146
-0.000841
0.000967
0.001132
0.000803
0.002447
0.000967
-0.004621
0.004419
-0.001991
-0.002813
0.002775
-0.00232
-1.9e-05
-0.000676
-0.000676
-1.9e-05
0.000146
-0.000183
-0.000676
0.000639
-1.9e-05
0.000146
0.001789
0.000146
-0.000183
0.001132
-0.000183
-1.9e-05
-0.001498
-0.001334
0.000639
-0.001827
-0.001991
-0.001498
-0.003142
-0.001005
-0.00347
0.002447
0.001296
0.000474
0.000146
0.000803
-0.000841
-0.000183
-0.002484
-0.000676
-0.000183
-0.001005
-0.001991
-0.001662
0.001625
-0.00232
0.002282
-0.000183
-0.000347
-0.000512
-0.001169
0.000803
0.001132
0.000803
0.000146
0.003926
-0.001662
0.000474
0.000146
-0.002484
-0.001334
0.000639
-0.000347
-1.9e-05
0.000639
-0.003799
0.001132
-0.001005
0.00031
-0.000347
0.000639
-0.001498
-0.001005
-0.001169
-0.000676
-0.003142
-0.004128
-0.001169
-0.001827
-0.000183
-0.001498
-1.9e-05
-0.00232
-0.00347
-0.000183
-0.001334
-0.000347
0.000803
-0.001991
-0.000347
0.001954
0.000967
-0.000841
-0.002155
-0.002648
0.000639
0.000639
-1.9e-05
-0.001169
-0.000676
0.002118
0.002118
-0.002813
-1.9e-05
0.000474
-0.001498
0.003926
0.001132
0.000967
0.000803
0.000803
-0.000347
-0.003635
0.002611
-0.004128
-0.002484
0.000803
0.000639
-0.001662
0.000146
0.000639
0.000967
-0.000512
0.002447
0.000146
-0.000841
-0.001827
0.000803
0.00146
0.000803
-1.9e-05
-0.001991
-0.000183
-0.004621
0.000803
-0.00347
-0.001991
-0.000841
-0.004292
-0.001005
-0.001169
-0.000347
0.002118
-0.000183
-0.001169
0.000803
-0.001334
-0.003635
-0.004292
0.001296
-0.001662
-0.001662
-0.003635
-0.001662
-0.000841
-0.001169
-0.000183
-0.000676
-0.000841
-0.001827
0.001296
0.00031
0.000967
-0.001005
-0.000183
-0.002155
-0.004128
-0.003635
-0.001005
-0.002648
-0.001169
-0.000183
-0.000512
0.000967
0.001625
-1.9e-05
-0.002155
0.004912
-0.000347
0.001132
-0.001169
0.000803
-0.001827
-0.001662
-0.001827
-0.001005
0.001132
0.00031
-0.001991
-0.001498
0.000803
-0.000841
0.000803
-0.000512
0.003104
-0.005278
0.002118
-0.002484
-0.000347
-0.004128
-0.004785
-0.000183
-0.000183
-0.001169
-0.000183
-0.000183
0.000474
0.000803
-1.9e-05
0.000967
-0.008237
-1.9e-05
-0.000676
0.00146
-0.002648
0.002447
-0.000183
-0.001334
-0.001334
0.000639
-0.000841
-0.003142
-0.000841
-0.000841
0.001789
-0.000676
-0.000347
0.002775
0.000967
0.000639
-0.002813
-1.9e-05
0.007706
-0.001334
0.000474
0.000803
0.002447
0.001954
-0.001334
0.002282
-0.001169
0.002282
-1.9e-05
0.002775
-0.001334
-0.003963
-0.002155
0.00031
-0.002648
-0.007086
0.00031
0.002611
0.000146
0.00031
0.001789
-0.001827
0.002118
0.000474
0.00031
-1.9e-05
-0.000183
0.00031
0.000474
0.000474
0.000967
0.002118
0.004255
0.003104
-0.000183
0.000967
0.00031
0.002118
0.000146
-0.000183
0.000146
0.001296
0.000967
0.000474
-0.001334
-0.003142
-0.00232
-0.000183
-0.001827
-0.000183
0.00146
0.001132
0.003926
0.000146
0.003104
0.003104
-0.001334
-0.000841
-0.000347
-0.001498
-0.000676
-0.000512
-0.001334
-0.001498
-0.00232
-0.000183
-0.001827
0.001296
0.000803
0.002611
-0.001169
0.003433
0.000803
0.000474
-0.000841
0.00146
-0.002155
-0.003306
-0.000676
0.00031
0.000803
-0.001662
-0.001991
0.001296
0.001625
0.00031
0.003761
0.001954
0.00031
0.000474
0.00031
-0.000183
-0.002484
0.002447
-0.003963
-0.001005
-0.002977
0.002775
-0.001334
-0.000183
-0.001991
-0.000183
0.00146
0.000639
0.000639
0.000639
0.001132
-1.9e-05
0.000803
-0.001498
-0.000512
0.000474
0.001132
0.000967
0.002611
-0.000183
-0.001827
0.000474
-0.000676
-0.001334
-0.001169
0.000639
0.00031
0.001296
-0.000347
-0.00347
0.001132
0.000146
-1.9e-05
0.00031
0.003268
0.002775
-0.001169
-0.000512
-0.001005
0.000967
-0.001005
0.00146
0.001132
0.000474
0.000474
0.000639
0.000967
0.00031
0.000146
0.000803
-0.001827
-0.001169
0.002447
-0.000183
-0.000183
0.00146
0.00031
0.000146
0.000474
0.00031
0.000639
0.001625
-0.000841
0.000967
-1.9e-05
-0.001169
-0.000676
0.000967
-0.004949
-0.001827
-0.001005
0.000474
0.00031
0.002611
0.00031
0.001132
0.001954
0.001296
0.00294
0.00031
0.001954
0.001296
0.001789
0.00146
0.001132
0.000803
0.002775
0.005898
0.000146
0.001132
0.001132
0.001625
0.001132
0.00146
0.002775
0.001132
0.001954
0.003597
0.00146
0.002282
0.001132
0.00409
0.000146
0.002447
0.000639
0.001954
0.000803
0.00031
0.001132
0.001789
-0.000347
0.000474
0.002118
-1.9e-05
0.002611
-0.000841
0.000146
-0.000183
0.000146
-0.001005
-0.00232
0.000803
0.001132
-0.000512
0.000146
0.002775
0.000967
0.001789
0.001954
0.001296
0.002118
0.003926
-0.000183
0.003268
0.001954
0.000967
0.003104
0.00031
0.002118
-1.9e-05
0.00146
-0.000841
0.001789
-0.000183
0.002611
0.000474
0.001625
0.00146
0.003597
0.000474
-0.000183
0.001625
-0.001662
-0.000183
-1.9e-05
0.002447
0.000803
0.001625
-0.001498
0.002118
-0.000841
0.002447
0.003597
0.005405
0.000474
0.001954
0.001132
-0.00232
0.000146
-1.9e-05
-0.002155
0.000639
0.000803
-1.9e-05
0.001954
-0.001169
0.000803
0.001625
0.000967
-0.000347
0.000967
0.000803
0.003104
0.002118
0.001954
0.001132
-0.001005
-0.002155
0.001625
-0.001005
-0.001169
0.001132
-0.004621
-0.000841
0.001296
-0.000183
0.001296
0.001132
0.000803
0.002611
0.000146
0.000146
0.000967
-0.001498
0.001132
-0.000183
0.000803
0.000474
0.000803
0.000146
0.002118
0.00031
-0.000512
-0.005278
-0.000183
0.00294
-0.002155
-1.9e-05
-0.000676
0.00031
-0.002484
0.00294
0.000803
0.001789
0.000146
0.00146
0.00294
0.003104
0.001954
0.001296
0.001625
0.002282
0.002611
0.000967
-0.000347
0.000803
-1.9e-05
-0.000841
0.003268
0.001954
0.001625
0.002611
0.005241
0.003104
-1.9e-05
0.002775
0.002611
0.00031
-0.000841
0.000474
0.000146
-0.000512
-0.000676
-0.000347
-0.001662
0.000967
0.000146
0.002282
0.001954
0.000146
0.00146
-0.001991
0.002118
0.003104
-0.000841
-0.004292
-0.000183
-0.004785
-0.003963
-0.000841
0.000639
-0.001005
0.003268
0.00031
0.002118
-0.004785
0.000474
0.001132
0.000639
0.003268
-0.001334
0.001625
-0.000512
0.002611
-0.000347
0.000967
-0.006757
0.00031
0.000967
0.002447
0.00146
-0.001334
-0.001827
-0.000512
0.002611
0.002611
0.003104
0.003433
-0.001498
-0.001498
0.00146
0.001625
0.000146
-0.002813
0.002447
0.001954
0.00409
0.003433
0.008035
0.000803
0.003104
0.005241
0.000803
0.000639
-0.005607
-0.002813
-0.002484
-0.002484
-0.001827
-0.000676
0.000474
0.000474
0.001954
0.002282
0.002118
0.000639
0.003104
0.000803
0.001954
0.000474
0.000967
0.003104
0.004255
0.0105
0.02069
0.025292
0.032524
0.041728
0.047316
0.055698
0.061122
0.068354
0.072134
0.076736
0.077886
0.086597
0.088077
0.092843
0.098102
0.101554
0.103855
0.109936
0.113716
0.114702
0.119633
0.123578
0.127851
0.129823
0.131467
0.138699
0.139192
0.137384
0.142807
0.142643
0.150532
0.148396
0.151354
0.151683
0.153326
0.154641
0.1576
0.160558
0.161544
0.164667
0.164996
0.167625
0.166146
0.169269
0.168776
0.172885
0.170584
0.173707
0.173707
0.174035
0.176008
0.176665
0.177322
0.17913
0.176829
0.177487
0.179459
0.178309
0.182417
0.184061
0.186691
0.183732
0.188006
0.185705
0.184883
0.186526
0.187841
0.186526
0.186526
0.188827
0.189649
0.189156
0.18932
0.194416
0.188992
0.19195
0.189978
0.192443
0.192936
0.193101
0.193594
0.193758
0.189978
0.193922
0.195237
0.191293
0.192936
0.194416
0.195895
0.193922
0.197374
0.195237
0.195402
0.196717
0.195402
0.197374
0.197045
0.196388
0.197045
0.199182
0.197538
0.196717
0.199675
0.199018
0.196717
0.202469
0.197867
0.197374
0.195237
0.196717
0.195566
0.198524
0.199182
0.199675
0.199511
0.199839
0.199839
0.198689
0.200825
0.19721
0.200497
0.198196
0.199346
0.19721
0.198689
0.196223
0.199511
0.198853
0.200004
0.197538
0.197867
0.195895
0.199839
0.20099
0.196388
0.20214
0.200497
0.202305
0.201154
0.20362
0.195566
0.201154
0.199018
0.200168
0.200004
0.201483
0.201812
0.203126
0.202633
0.20099
0.205099
0.200661
0.201812
0.201319
0.201812
0.201483
0.201812
0.200825
0.201812
0.19836
0.198853
0.197867
0.199182
0.20099
0.199675
0.201483
0.200004
0.20099
0.199675
0.202633
0.199511
0.200332
0.199675
0.198689
0.200004
0.201812
0.200825
0.200661
0.200004
0.198689
0.200332
0.19836
0.201812
0.198031
0.199182
0.198853
0.202305
0.199182
0.200825
0.202305
0.200004
0.199018
0.199675
0.201483
0.201319
0.20099
0.195566
0.202469
0.200661
0.199675
0.202798
0.206249
0.200332
0.20214
0.200332
0.200497
0.200497
0.200168
0.200168
0.202305
0.200661
0.199182
0.201319
0.201647
0.201812
0.200168
0.201154
0.200661
0.201647
0.20099
0.20099
0.202633
0.20214
0.202469
0.20099
0.204113
0.203291
0.203126
0.200497
0.199675
0.199346
0.19836
0.199182
0.19721
0.197703
0.197703
0.19721
0.200332
0.202798
0.20099
0.201976
0.199675
0.203291
0.201483
0.203291
0.200661
0.201647
0.200004
0.201154
0.201319
0.200332
0.199182
0.200825
0.199346
0.202469
0.201812
0.200497
0.204606
0.198524
0.203126
0.204441
0.199675
0.200497
0.20099
0.198853
0.201976
0.200004
0.200825
0.199182
0.199018
0.201319
0.201483
0.200332
0.200661
0.202469
0.202469
0.204113
0.201154
0.202469
0.201647
0.201483
0.198689
0.201976
0.197045
0.199018
0.200661
0.195566
0.201647
0.200661
0.20099
0.200661
0.20362
0.199675
0.20214
0.199839
0.203291
0.201319
0.201976
0.201319
0.200332
0.202305
0.198524
0.198031
0.199346
0.201319
0.199675
0.201319
0.200497
0.201647
0.200825
0.2074
0.201319
0.199839
0.204113
0.200825
0.19836
0.198031
0.198524
0.200004
0.199018
0.198031
0.201812
0.200004
0.201154
0.201319
0.20099
0.198853
0.199675
0.200168
0.197867
0.192115
0.187841
0.180116
0.173542
0.168447
0.165324
0.156613
0.152176
0.152998
0.144451
0.147574
0.147574
0.147245
0.146259
0.137219
0.131302
0.126536
0.115195
0.120619
0.124399
0.123578
0.122098
0.113881
0.097116
0.070326
0.035647
0.002282
0.001789
0.002775
0.000146
0.003433
0.002775
0.002282
0.002118
-1.9e-05
-1.9e-05
0.001296
-0.000347
0.00146
0.007049
-0.001005
0.000803
0.001625
-0.000676
0.000803
0.000803
-0.000183
-0.000512
0.000967
-0.000841
-0.000183
0.000639
-1.9e-05
0.000474
0.00031
0.00031
-1.9e-05
0.000146
-0.000512
0.00031
-0.000512
-0.000183
-0.000841
0.000639
0.000146
0.000639
0.000146
0.000474
0.000474
-1.9e-05
-0.000347
-0.000347
-0.000183
-1.9e-05
0.000146
0.000146
0.000146
-1.9e-05
0.00031
-0.000183
-0.000347
-0.000183
-0.000512
-0.000347
0.000146
-0.000183
0.000146
0.000474
0.00031
-1.9e-05
-0.000183
-0.000183
-0.000512
-0.000183
-0.000512
-0.000183
-1.9e-05
0.00031
0.00031
0.00031
0.00031
-0.000183
-1.9e-05
-0.000512
0.000146
-0.001498
0.002447
0.001625
0.001789
0.006227
0.012801
0.021183
0.027429
0.033839
0.036962
0.045837
0.051589
0.056027
0.064902
0.068682
0.074435
0.080845
0.08594
0.090542
0.094815
0.098102
0.102376
0.107471
0.108457
0.113223
0.116017
0.116839
0.121441
0.121934
0.1267
0.130152
0.134261
0.135411
0.141986
0.139849
0.143136
0.147409
0.146916
0.152176
0.150861
0.156613
0.155956
0.157764
0.157435
0.160887
0.160229
0.160558
0.163023
0.165324
0.167461
0.165489
0.170419
0.174693
0.177651
0.175515
0.178144
0.175021
0.176994
0.177487
0.17798
0.177158
0.17913
0.18061
0.181267
0.178802
0.181596
0.183568
0.185869
0.185705
0.183732
0.188499
0.183897
0.188499
0.186362
0.190142
0.188499
0.186362
0.187677
0.188499
0.188499
0.189485
0.190635
0.18932
0.1908
0.191293
0.192608
0.192608
0.195073
0.192443
0.193265
0.194909
0.196717
0.195895
0.193594
0.19195
0.192443
0.193429
0.192936
0.194251
0.194251
0.197867
0.197703
0.198031
0.19721
0.195073
0.197374
0.198524
0.198196
0.198031
0.197867
0.200168
0.197703
0.197374
0.199675
0.195895
0.196717
0.195402
0.200004
0.19836
0.197703
0.197867
0.197374
0.199182
0.200661
0.198031
0.197374
0.198689
0.196059
0.199346
0.198196
0.199346
0.198031
0.198853
0.196388
0.199018
0.198524
0.199018
0.197867
0.199346
0.199675
0.199511
0.202798
0.201976
0.201976
0.198031
0.199675
0.197703
0.197703
0.200004
0.198031
0.199511
0.20099
0.199346
0.19836
0.197867
0.199018
0.199346
0.199675
0.199182
0.199346
0.200004
0.201483
0.201647
0.201319
0.202633
0.201483
0.199182
0.199675
0.198853
0.19836
0.200332
0.199839
0.200004
0.201154
0.199018
0.200661
0.20099
0.199675
0.201154
0.201647
0.200004
0.201647
0.201812
0.197538
0.199182
0.200497
0.199182
0.200004
0.198853
0.198524
0.200661
0.198196
0.202469
0.202305
0.202633
0.198853
0.199346
0.200825
0.203784
0.197538
0.199675
0.199511
0.199182
0.199346
0.195895
0.200497
0.199182
0.20099
0.199346
0.203784
0.200004
0.200497
0.199346
0.205592
0.203291
0.201319
0.203126
0.198689
0.200332
0.199839
0.201319
0.197374
0.202469
0.200004
0.200661
0.201154
0.202305
0.201976
0.202469
0.200825
0.202469
0.20214
0.200332
0.201319
0.199346
0.200661
0.200661
0.200661
0.201154
0.199018
0.200332
0.201319
0.19458
0.200497
0.201483
0.199839
0.200004
0.20099
0.200825
0.199182
0.198689
0.198853
0.200497
0.197374
0.201154
0.201483
0.201483
0.198853
0.202962
0.201319
0.201154
0.19836
0.199346
0.20214
0.201483
0.200661
0.200332
0.201154
0.199018
0.201319
0.20099
0.20099
0.201319
0.200497
0.200332
0.203126
0.199511
0.201647
0.201647
0.201319
0.200661
0.20099
0.201319
0.200661
0.201319
0.199346
0.202633
0.20099
0.201812
0.201154
0.20099
0.199182
0.203455
0.197374
0.199018
0.197703
0.197045
0.19721
0.197374
0.200004
0.201154
0.201976
0.200825
0.203291
0.201976
0.203455
0.203291
0.195073
0.198196
0.201154
0.199346
0.196388
0.195895
0.197045
0.198524
0.198689
0.201154
0.199675
0.193429
0.197867
0.201154
0.200332
0.200332
0.200497
0.199511
0.198689
0.199839
0.201812
0.199346
0.201483
0.194744
0.199018
0.197374
0.19836
0.199018
0.199511
0.200332
0.202962
0.198853
0.201812
0.202633
0.199675
0.202469
0.200004
0.196223
0.197045
0.198031
0.196059
0.199018
0.199018
0.201154
0.198853
0.199511
0.201154
0.201483
0.201154
0.203126
0.199018
0.201483
0.200004
0.200825
0.196552
0.198689
0.199511
0.198031
0.200497
0.19836
0.198853
0.198689
0.202633
0.200825
0.200661
0.199839
0.206085
0.199511
0.197538
0.198524
0.196881
0.197374
0.198031
0.198689
0.197045
0.200497
0.196223
0.200004
0.197703
0.199346
0.198031
0.201154
0.200497
0.200332
0.199839
0.196717
0.200825
0.200332
0.198196
0.19573
0.199018
0.194744
0.19721
0.19721
0.199018
0.200497
0.199346
0.200004
0.200497
0.202305
0.197867
0.200825
0.200004
0.201647
0.198689
0.199511
0.200168
0.200497
0.200168
0.200825
0.199675
0.199839
0.199675
0.200332
0.201154
0.199839
0.200004
0.201319
0.203948
0.199018
0.202305
0.20214
0.200004
0.199675
0.200168
0.198689
0.201647
0.196223
0.200661
0.200332
0.201154
0.201976
0.201976
0.199839
0.199182
0.200332
0.197703
0.199675
0.196059
0.200004
0.197703
0.198853
0.197703
0.197703
0.199182
0.200497
0.199511
0.200004
0.201647
0.19836
0.199675
0.200497
0.200168
0.199839
0.202305
0.199675
0.203126
0.201976
0.199018
0.200661
0.197045
0.200825
0.200825
0.202798
0.200332
0.203948
0.201319
0.200661
0.201154
0.201647
0.201154
0.200497
0.20099
0.203126
0.202305
0.200332
0.204113
0.202305
0.200825
0.200661
0.202633
0.199182
0.199511
0.200332
0.199839
0.199675
0.199182
0.20099
0.200004
0.198031
0.20099
0.200332
0.199675
0.200168
0.201319
0.200168
0.200004
0.20099
0.199346
0.200168
0.197867
0.19836
0.200661
0.200497
0.199346
0.201647
0.20214
0.200825
0.201483
0.200825
0.20214
0.197703
0.200168
0.199018
0.199511
0.196552
0.200332
0.198853
0.199675
0.199182
0.200497
0.199839
0.198524
0.201319
0.200332
0.201154
0.200332
0.203784
0.200661
0.203455
0.200168
0.201812
0.19721
0.200004
0.198689
0.200168
0.199018
0.194744
0.201812
0.198689
0.197703
0.198853
0.199839
0.201154
0.202962
0.199346
0.202633
0.199839
0.200332
0.200497
0.200825
0.201319
0.199675
0.202798
0.199182
0.201319
0.200661
0.201647
0.200825
0.201319
0.202962
0.205263
0.203948
0.202469
0.202305
0.20099
0.198689
0.199346
0.200661
0.198524
0.201319
0.198689
0.201483
0.199346
0.199511
0.200825
0.200004
0.19836
0.201319
0.198689
0.200497
0.201812
0.199839
0.20099
0.197538
0.200004
0.201976
0.198524
0.198196
0.200661
0.199018
0.202633
0.20362
0.201812
0.198853
0.201319
0.200497
0.202305
0.20214
0.197867
0.200168
0.201647
0.199346
0.202798
0.201647
0.199675
0.200332
0.200825
0.20214
0.200661
0.199675
0.197538
0.19836
0.199018
0.200332
0.200497
0.202633
0.20099
0.202469
0.202798
0.199182
0.200497
0.199511
0.203948
0.199182
0.199511
0.199182
0.199675
0.200497
0.201976
0.201812
0.200168
0.200661
0.200004
0.202305
0.199346
0.201647
0.200168
0.198524
0.196059
0.200497
0.195566
0.198031
0.201154
0.200332
0.201154
0.201812
0.201647
0.200004
0.202469
0.19836
0.202469
0.200004
0.200661
0.199839
0.202962
0.19721
0.201647
0.19836
0.197867
0.19836
0.200004
0.200661
0.205756
0.20099
0.200825
0.203291
0.20099
0.201483
0.201319
0.20099
0.201976
0.199675
0.201319
0.196388
0.199182
0.198524
0.200661
0.200497
0.199511
0.201154
0.20214
0.200004
0.201647
0.200004
0.201154
0.197703
0.199182
0.199182
0.199018
0.195895
0.200004
0.196388
0.197703
0.200661
0.194087
0.200497
0.199511
0.200661
0.200661
0.200004
0.198524
0.205099
0.201319
0.201319
0.200332
0.193265
0.198031
0.199018
0.198853
0.201483
0.203455
0.19836
0.201483
0.198524
0.199511
0.200168
0.203784
0.197374
0.202962
0.202305
0.199346
0.199675
0.197703
0.200825
0.199018
0.201319
0.200661
0.207235
0.19573
0.199018
0.20099
0.19836
0.201154
0.200661
0.199182
0.200332
0.197703
0.200168
0.200661
0.197538
0.199675
0.200497
0.198031
0.197374
0.199675
0.199839
0.201319
0.200497
0.199511
0.201976
0.202469
0.200497
0.200004
0.200168
0.198853
0.199839
0.200168
0.203291
0.201483
0.202633
0.201319
0.199182
0.198689
0.198196
0.203126
0.200004
0.202305
0.200497
0.201319
0.200332
0.200497
0.200661
0.200004
0.198524
0.198524
0.201154
0.201812
0.200168
0.20099
0.199675
0.200332
0.199839
0.20214
0.199182
0.200004
0.199675
0.199018
0.198689
0.19836
0.197538
0.200825
0.201319
0.199839
0.198524
0.199511
0.201812
0.199182
0.200825
0.200004
0.200661
0.201319
0.199018
0.201647
0.199675
0.200825
0.199182
0.201319
0.202305
0.200497
0.198031
0.199675
0.20362
0.199839
0.203455
0.205263
0.200661
0.200168
0.199839
0.198853
0.201154
0.198196
0.199346
0.202305
0.200497
0.200168
0.204606
0.201319
0.201319
0.200661
0.200168
0.200004
0.201483
0.198853
0.19836
0.199182
0.200004
0.199839
0.19721
0.200168
0.199182
0.199346
0.201647
0.201976
0.20099
0.201647
0.203291
0.202469
0.199675
0.201319
0.198853
0.199182
0.199675
0.198689
0.200332
0.196717
0.200661
0.199182
0.200332
0.198524
0.200332
0.200168
0.200004
0.201812
0.199182
0.200004
0.197045
0.199675
0.19836
0.199511
0.199511
0.200497
0.197374
0.199346
0.199839
0.199675
0.20099
0.200004
0.200825
0.204606
0.201976
0.199839
0.201154
0.19836
0.201154
0.196552
0.19721
0.197867
0.201154
0.197867
0.197045
0.200825
0.199182
0.205263
0.202798
0.20214
0.201812
0.201154
0.201319
0.201154
0.200004
0.202305
0.200661
0.200497
0.202962
0.199018
0.198031
0.200168
0.198196
0.19836
0.200168
0.202798
0.199839
0.201812
0.200661
0.200332
0.202305
0.202469
0.201483
0.201483
0.200497
0.199346
0.198689
0.200004
0.199511
0.198031
0.199675
0.201319
0.199018
0.199675
0.199018
0.203126
0.199182
0.201647
0.200825
0.200004
0.19721
0.199018
0.198853
0.198031
0.198196
0.200332
0.199839
0.200168
0.202469
0.199346
0.201319
0.200332
0.202798
0.199675
0.201319
0.200661
0.200661
0.202633
0.199511
0.202305
0.201154
0.200004
0.200332
0.199675
0.199018
0.201154
0.200661
0.199018
0.199182
0.200825
0.203126
0.202305
0.200825
0.201483
0.202305
0.198853
0.199346
0.200004
0.201154
0.202633
0.200825
0.196388
0.20099
0.199182
0.199675
0.200825
0.199511
0.201154
0.202469
0.202305
0.202305
0.199675
0.200168
0.200661
0.198031
0.200661
0.20214
0.198689
0.198689
0.200497
0.199346
0.199511
0.201812
0.201483
0.200168
0.203455
0.200825
0.201976
0.202469
0.200004
0.202798
0.200332
0.20099
0.201483
0.201976
0.198853
0.200168
0.199346
0.199675
0.198196
0.198689
0.200497
0.197374
0.202962
0.19836
0.200497
0.198853
0.201154
0.200004
0.201154
0.199018
0.199675
0.198853
0.199182
0.201483
0.199018
0.199839
0.198689
0.200332
0.201812
0.202633
0.195895
0.200168
0.200661
0.199346
0.198853
0.199346
0.20099
0.199675
0.200497
0.202305
0.199182
0.199018
0.202469
0.199182
0.200497
0.200497
0.202962
0.201319
0.201812
0.201154
0.201319
0.197867
0.204606
0.201483
0.200661
0.200168
0.200661
0.20099
0.199511
0.201647
0.199839
0.200168
0.200497
0.199346
0.200825
0.199675
0.200332
0.200168
0.199839
0.200661
0.198853
0.19836
0.200497
0.197045
0.199018
0.198689
0.200168
0.195237
0.199018
0.19836
0.197045
0.198524
0.198853
0.194909
0.198853
0.199182
0.197867
0.198524
0.198853
0.201483
0.197703
0.202633
0.199839
0.199511
0.190635
0.200168
0.197703
0.200825
0.199839
0.201483
0.198689
0.200661
0.205099
0.20214
0.203948
0.19573
0.201154
0.200661
0.200497
0.201154
0.201319
0.201154
0.201154
0.198524
0.199675
0.199839
0.202798
0.198853
0.199018
0.200825
0.200332
0.201319
0.199675
0.201483
0.199511
0.201319
0.201812
0.204277
0.194744
0.197374
0.196717
0.194909
0.196059
0.19573
0.200332
0.198031
0.197703
0.199675
0.201812
0.198031
0.199839
0.197703
0.199182
0.199675
0.198196
0.199511
0.200661
0.197867
0.198196
0.199018
0.195895
0.199675
0.197867
0.199346
0.200168
0.198196
0.199182
0.200825
0.199346
0.200497
0.201483
0.199182
0.196881
0.196388
0.196717
0.19573
0.197045
0.197867
0.199511
0.199839
0.200004
0.200661
0.199675
0.198853
0.20214
0.200825
0.203291
0.201154
0.199018
0.198031
0.198524
0.199182
0.19573
0.196388
0.200168
0.198689
0.197703
0.201647
0.20099
0.20099
0.200825
0.20099
0.201483
0.200497
0.198196
0.198196
0.199346
0.197703
0.198031
0.197374
0.198853
0.198853
0.197867
0.198196
0.200661
0.198031
0.200004
0.200168
0.199511
0.199018
0.199182
0.198196
0.195895
0.194744
0.196717
0.200661
0.197703
0.198853
0.196717
0.200004
0.197538
0.195402
0.199675
0.199675
0.200661
0.200825
0.200332
0.198689
0.200497
0.196223
0.198524
0.19836
0.196717
0.199346
0.197045
0.198689
0.20214
0.199839
0.202469
0.200332
0.199182
0.202305
0.200332
0.19721
0.200168
0.200004
0.197867
0.200497
0.200497
0.199675
0.198689
0.199182
0.196552
0.199346
0.198031
0.198853
0.201319
0.201483
0.198196
0.200661
0.196717
0.198031
0.198196
0.198031
0.200497
0.198196
0.199511
0.199675
0.199346
0.19836
0.197703
0.196059
0.197538
0.198031
0.194909
0.198524
0.197374
0.195895
0.196552
0.198853
0.194087
0.198853
0.200168
0.199346
0.19836
0.200497
0.201483
0.199346
0.199839
0.200661
0.200004
0.197538
0.201483
0.198689
0.201976
0.198524
0.200661
0.199018
