Ladekurvenmessung

Zeit: 2018_05_03 14.06.28

Info: FVA3, v = 0.382, T = 40, F = 10, h =???

Ladewiderstand[Ohm]: 1012700

Störkapazität[pF]: 0.000000

Entladezeit[ms]: 200

Abtastrate[Hz]: 250000

Anzahl der Messwerte: 2500.000000

Verzögerung[ms]: 3

Ladespannung[V]: 0.200000


Kurve 1

-0.003142
-0.000512
-0.002484
-0.001334
-0.00232
0.002282
-0.004292
-0.005936
-0.003306
-0.003963
-0.001169
-0.004949
-0.001662
-0.002484
-0.002977
-0.006757
-0.001991
-0.006593
-0.00347
-0.005771
-0.002648
-0.003963
-0.006757
-0.003142
-0.004785
-0.003799
-0.0061
-0.002484
-0.008565
-0.003142
-0.008072
-0.005443
-0.010045
-0.008565
-0.006922
-0.002977
-0.007744
-0.004292
-0.00347
-0.010045
-0.01629
-0.010538
-0.008894
-0.009716
-0.008401
-0.007744
-0.004128
-0.010045
-0.008237
-0.010209
-0.006429
-0.009551
-0.0061
-0.009716
-0.006922
-0.008894
-0.010373
-0.009387
-0.008072
-0.007415
-0.006264
-0.007908
-0.012674
-0.006757
-0.011688
-0.008894
-0.009058
-0.005607
-0.005443
-0.010702
-0.009058
-0.004456
-0.008565
-0.00873
-0.006922
-0.00725
-0.008237
-0.008565
-0.004949
-0.009058
-0.006922
-0.00988
-0.0061
-0.010045
-0.011524
-0.004785
-0.003799
-0.007908
-0.00873
-0.001334
-0.002155
-0.005278
-0.008072
-0.004949
-0.009716
-0.007086
-0.010538
-0.008072
-0.010702
-0.010538
-0.009551
-0.009058
-0.010209
-0.003799
-0.00873
-0.006593
-0.008237
-0.010045
-0.009551
-0.00988
-0.005443
-0.009058
-0.006593
-0.010866
-0.003963
-0.008072
-0.010045
-0.008565
-0.005936
-0.0061
-0.001662
-0.004621
-0.003142
-0.002813
-0.008565
-0.004785
-0.001662
-0.009716
-0.009058
-0.007086
-0.008237
-0.004621
-0.008894
-0.004128
-0.005443
-0.005278
-0.00347
-0.005443
-0.007908
-0.002813
-0.014153
-0.004292
-0.005771
-0.004949
-0.004949
-0.005443
-0.004621
-0.007744
-0.009058
-0.010373
-0.005114
-0.005771
-0.005771
-0.005771
-0.003963
-0.006264
-0.005278
-0.003635
-0.005936
-0.007744
-0.00725
-0.0061
-0.006593
-0.004949
-0.00873
-0.002484
-0.00725
-0.004949
-0.005278
-0.010209
-0.00988
-0.004949
-0.004292
-0.002155
-0.002484
-0.0061
-0.001827
-0.007579
-0.004128
-0.003635
-0.005771
-0.007086
-0.003635
-0.005771
-0.005114
-0.007086
-0.005114
-0.005771
-0.007086
-0.009058
-0.001498
-0.003142
-0.008072
-0.002813
-0.009223
-0.002648
-0.007086
-0.004292
-0.005771
-0.008072
-0.006429
-0.004456
-0.008237
-0.005936
-0.00347
-0.006264
-0.007744
-0.008072
-0.004785
-0.006429
-0.005607
-0.006593
-0.006264
-0.0061
-0.004292
-0.008401
-0.004785
-0.00725
-0.005771
-0.003635
-0.005607
-0.00873
-0.009223
-0.004621
-0.00725
-0.0061
-0.006429
-0.009551
-0.007415
-0.00725
-0.006264
-0.007415
-0.010209
-0.007086
-0.007415
-0.010209
-0.005278
-0.008565
-0.005936
-0.004292
-0.007086
-0.00988
-0.008072
-0.008565
-0.006593
-0.006264
-0.005936
-0.007908
-0.004621
-0.012181
-0.004621
-0.010209
-0.009223
-0.008565
-0.004949
-0.007908
-0.007415
-0.00725
-0.005771
-0.003306
-0.005114
-0.002484
-0.006593
-0.004785
-0.004949
-0.005936
-0.005278
-0.005114
-0.009551
-0.0061
-0.000841
-0.001662
-0.004785
-0.004456
-0.003635
-0.003142
-0.004292
-0.004128
-0.001991
-0.004456
-0.001991
-0.00347
-0.003142
-0.005114
-0.002484
-0.005278
-0.003635
-0.004785
-0.002813
-0.004456
-0.004621
-0.001827
-0.002648
-0.001169
-0.005936
-0.001991
-0.004456
-0.002155
-0.006429
-0.004292
-0.004949
-0.004128
-0.005114
-0.004621
-0.00873
-0.004128
-0.005278
-0.0061
-0.004949
-0.003142
-0.00347
-0.005936
0.000146
-0.000512
0.004255
-0.00232
-0.000841
-0.000841
-1.9e-05
-0.004785
-0.005607
-0.002813
-1.9e-05
0.000639
0.000474
-0.010209
-0.001498
0.000967
-0.002813
0.002447
-0.001169
0.001296
0.000967
0.000474
0.000146
-0.000676
-0.000841
-0.005114
-0.008401
-0.003635
-0.001827
-0.001498
0.00031
-0.003142
0.000146
-0.000183
0.00146
-0.001169
0.002118
-0.000841
0.001132
0.000146
-0.001827
0.000474
-0.004785
-0.001498
-0.002648
-0.00232
0.00031
-0.001827
-0.000512
0.001789
-0.000183
0.004255
-0.001334
0.001132
0.000639
-0.004128
-0.001169
-0.001827
-0.002155
-0.004128
-0.002648
-0.001169
-0.001169
0.001132
-0.001334
0.000146
0.005405
0.001132
0.003433
0.003597
0.002282
-0.001334
-0.001169
-0.001498
0.002447
-0.006593
-0.002484
0.000639
0.00294
0.003761
0.00146
0.004748
0.006062
0.006556
0.001625
0.004912
0.003433
0.003268
0.001954
0.001625
-0.000512
0.002775
0.000639
-0.000183
0.003268
0.00031
0.006227
0.002282
0.004748
0.005076
0.008528
0.003761
0.006884
0.008035
0.006227
0.003268
0.004583
0.001954
0.003926
0.001625
0.00031
0.004912
-0.000841
0.006884
0.00409
0.005569
0.005405
0.006556
0.005569
0.005405
0.004419
0.00935
0.006884
0.004748
0.006062
0.001789
0.005076
0.005734
0.006062
0.007706
0.005569
0.008363
0.010993
0.005569
0.007213
0.006062
0.006227
0.004583
0.00935
0.00787
0.00409
0.005076
0.008857
0.006391
0.005076
0.006556
0.00787
0.009514
0.008857
0.008363
0.008199
0.007542
0.003268
0.0105
0.007213
0.01313
0.008035
0.010664
0.005405
0.009185
0.005405
0.005898
0.006391
0.003761
0.009678
0.007377
0.009843
0.006391
0.010336
0.004419
0.00672
0.005405
0.007213
0.006884
0.003433
0.004748
0.009021
0.004748
0.005076
0.011322
0.002447
0.005405
0.003597
0.00031
0.003597
0.001954
0.001625
0.006556
0.003761
0.005569
-0.004456
0.002775
0.00146
0.002775
0.00146
0.000146
0.004255
0.005734
0.006227
-0.001662
0.002118
-0.000183
-0.000512
-0.000841
0.00409
0.002447
0.003926
0.005569
0.003926
0.008035
0.003268
0.001132
0.000967
0.000474
-0.001498
0.002447
0.001296
-0.001334
0.002611
0.002775
0.001954
0.003104
0.000803
0.002611
-0.002977
-0.001005
0.001625
0.001296
-0.00232
-0.001991
-0.00347
-0.001662
-0.001662
-0.00232
0.000967
0.00031
-0.001991
-0.003142
-0.001169
-0.003799
-0.003799
-0.007086
-0.007579
-0.004292
-0.005443
-0.00873
-0.00347
-0.007908
-0.003963
-0.00725
-0.007415
-0.003306
-0.008072
-0.004949
-0.005936
-0.007086
-0.006922
-0.003306
-0.005443
-0.003799
-0.003142
-0.008237
-0.007908
-0.010209
-0.008401
-0.010373
-0.004128
-0.007579
-0.006757
-0.010373
-0.0061
-0.007086
-0.00725
-0.00725
-0.011195
-0.005607
-0.004785
-0.008237
-0.008401
-0.008072
-0.011031
-0.00725
-0.011359
-0.007744
-0.006922
-0.007415
-0.008894
-0.007086
-0.008072
-0.00873
-0.010866
-0.008072
-0.009058
-0.011359
-0.00873
-0.008894
-0.011031
-0.008565
-0.008401
-0.011852
-0.005114
-0.00725
-0.008237
-0.007908
-0.011031
-0.009716
-0.00873
-0.010045
-0.005278
-0.005443
-0.007086
-0.010045
-0.010702
-0.010209
-0.011359
-0.013825
-0.011688
-0.00725
-0.011852
-0.007086
-0.00988
-0.005771
-0.009058
-0.002155
-0.013825
-0.009058
-0.006593
-0.012181
-0.00988
-0.012346
-0.007908
-0.010866
-0.006922
-0.007579
-0.00988
-0.014811
-0.009551
-0.011524
-0.008401
-0.011031
-0.008401
-0.008565
-0.006429
-0.009058
-0.011195
-0.00725
-0.00873
-0.007415
-0.008072
-0.009387
-0.011852
-0.0061
-0.00873
-0.005936
-0.007086
-0.007579
-0.001991
-0.008237
-0.006922
-0.005114
-0.005443
-0.006429
-0.008894
-0.005607
-0.006429
-0.007086
-0.00347
-0.015633
-0.005278
-0.007086
-0.0061
-0.004621
-0.005607
-0.006757
-0.002977
-0.006922
-0.001827
-0.003306
-0.006429
-0.004128
-0.003635
-0.005114
-0.002813
-0.00873
-0.004785
-0.002813
-0.004621
-0.002813
-0.002813
0.000639
-0.003142
-0.005114
-0.006593
-0.002813
-0.005443
-0.004292
0.000146
-0.001005
-0.000512
-0.002813
-0.002813
-0.004456
-0.001498
-0.00347
-0.001662
-0.002155
0.002775
-0.00347
-0.001827
0.000803
-0.000512
-0.000183
-0.000676
-0.001334
-0.000512
0.00146
-0.002155
0.000803
-0.002155
0.002775
-0.001827
0.002775
0.000803
0.003926
-0.001827
-0.003635
-0.000512
-0.000841
-0.000841
-0.001991
0.001296
0.000146
0.00031
-0.000347
0.003926
-0.002484
0.004912
0.000146
0.00294
0.005076
0.008528
0.020197
0.025128
0.037948
0.042714
0.051096
0.050603
0.061779
0.068847
0.074599
0.076407
0.082488
0.085611
0.092186
0.09498
0.098102
0.103526
0.104512
0.113059
0.118318
0.115031
0.121441
0.125386
0.128015
0.133768
0.132289
0.13837
0.139192
0.141328
0.143629
0.146259
0.14856
0.148067
0.149217
0.153984
0.154148
0.153819
0.156942
0.162859
0.16138
0.16253
0.166311
0.16516
0.167297
0.16779
0.171734
0.170419
0.177158
0.166968
0.170913
0.170255
0.174035
0.169762
0.176829
0.178144
0.176994
0.182417
0.182911
0.186033
0.181596
0.185705
0.184225
0.184225
0.179459
0.184061
0.181103
0.181924
0.18439
0.185705
0.185212
0.186033
0.188334
0.185212
0.188663
0.187019
0.188663
0.188006
0.18817
0.18932
0.18817
0.185705
0.189156
0.18932
0.187513
0.18554
0.189978
0.187677
0.190471
0.188499
0.191128
0.193594
0.191621
0.193101
0.193594
0.192772
0.189485
0.192443
0.187184
0.190964
0.183897
0.19195
0.1908
0.188663
0.192443
0.190635
0.191457
0.191786
0.190964
0.19195
0.193594
0.188992
0.194744
0.191621
0.194416
0.18554
0.18817
0.18817
0.189978
0.190307
0.188499
0.189814
0.192608
0.193265
0.193101
0.193758
0.190307
0.193101
0.188334
0.190635
0.189978
0.191293
0.1908
0.193101
0.190964
0.189814
0.192772
0.19573
0.188663
0.191786
0.193265
0.189649
0.192279
0.192279
0.193758
0.187348
0.190307
0.190964
0.192936
0.188663
0.191293
0.186855
0.191457
0.191293
0.19195
0.193101
0.191457
0.189485
0.192608
0.196388
0.190307
0.196223
0.191786
0.19458
0.193101
0.194251
0.191786
0.192443
0.192115
0.195402
0.193101
0.197045
0.201154
0.191786
0.19458
0.19721
0.195073
0.193594
0.193594
0.194909
0.195566
0.194416
0.196717
0.194087
0.19573
0.193922
0.194251
0.197045
0.197538
0.194744
0.19721
0.196059
0.194251
0.196552
0.19458
0.19836
0.196388
0.19458
0.194909
0.192772
0.196059
0.201976
0.194087
0.194087
0.196717
0.19458
0.196552
0.19836
0.195895
0.195566
0.196717
0.196059
0.200004
0.196881
0.198196
0.199511
0.198524
0.196059
0.198689
0.197538
0.201319
0.197867
0.198196
0.199346
0.198524
0.193758
0.198196
0.199018
0.193758
0.199511
0.195402
0.197867
0.198524
0.198853
0.195566
0.197045
0.195237
0.193265
0.199839
0.196223
0.196388
0.195566
0.196223
0.195566
0.196717
0.196059
0.196059
0.19573
0.197045
0.193265
0.193594
0.196388
0.196552
0.190307
0.193101
0.195073
0.198853
0.196059
0.196881
0.194416
0.196717
0.193265
0.19458
0.196059
0.195237
0.19573
0.193758
0.196059
0.193758
0.199346
0.190142
0.195237
0.19195
0.191786
0.19458
0.196552
0.197045
0.194087
0.199018
0.195895
0.199346
0.199182
0.201483
0.194251
0.194909
0.194087
0.195237
0.193758
0.186198
0.195073
0.192279
0.196223
0.195237
0.186033
0.19458
0.197538
0.19458
0.196552
0.194744
0.196388
0.196388
0.193758
0.19836
0.1908
0.190964
0.193101
0.195402
0.198689
0.193429
0.197045
0.197867
0.19721
0.197703
0.193101
0.196717
0.193265
0.192772
0.192936
0.189156
0.190307
0.192608
0.192443
0.192608
0.192279
0.192443
0.193758
0.19195
0.197045
0.193429
0.194744
0.192772
0.196388
0.19458
0.193101
0.19458
0.195073
0.191786
0.194251
0.195237
0.19458
0.191457
0.193594
0.19721
0.195073
0.192279
0.194744
0.198196
0.195073
0.19573
0.19836
0.197045
0.192115
0.195402
0.19195
0.189814
0.188663
0.195073
0.197045
0.193758
0.194744
0.201976
0.194909
0.196223
0.197538
0.194416
0.197374
0.195073
0.199182
0.197045
0.197867
0.193758
0.192608
0.191128
0.192936
0.194087
0.193594
0.195402
0.196223
0.191786
0.199346
0.199675
0.19573
0.200661
0.19458
0.194416
0.190964
0.195895
0.194909
0.195237
0.195895
0.196223
0.195073
0.19573
0.198853
0.196881
0.198031
0.196881
0.198524
0.19836
0.197703
0.196717
0.197538
0.191128
0.199346
0.196388
0.193594
0.196388
0.198196
0.198031
0.196059
0.200168
0.199346
0.20099
0.199511
0.201154
0.202962
0.199018
0.198031
0.198196
0.198196
0.196881
0.198689
0.199018
0.198689
0.198031
0.199346
0.196717
0.200168
0.197374
0.199511
0.198853
0.201154
0.19721
0.201812
0.197703
0.197538
0.197045
0.200661
0.194251
0.194744
0.196388
0.194087
0.196881
0.191293
0.200825
0.194744
0.196388
0.197045
0.196388
0.193594
0.197045
0.196223
0.196388
0.195895
0.195237
0.197867
0.198689
0.200332
0.199839
0.20214
0.195895
0.200825
0.197703
0.195895
0.196717
0.197045
0.198689
0.201812
0.200332
0.199182
0.190142
0.199346
0.198689
0.199346
0.199018
0.198853
0.198031
0.201976
0.202633
0.201647
0.200004
0.199675
0.20214
0.197867
0.201812
0.201483
0.203291
0.200661
0.206249
0.201319
0.20099
0.20099
0.20362
0.203948
0.20214
0.200497
0.200004
0.195402
0.20099
0.199182
0.199018
0.201483
0.199346
0.199675
0.201483
0.199839
0.200825
0.199839
0.199511
0.200825
0.199018
0.200825
0.200661
0.197045
0.205427
0.205099
0.200497
0.197538
0.201319
0.199511
0.20099
0.198524
0.20099
0.199839
0.197703
0.199182
0.200661
0.198689
0.194251
0.197703
0.196223
0.197374
0.193758
0.202962
0.200004
0.200497
0.199675
0.202469
0.200004
0.200004
0.20099
0.199675
0.197045
0.199511
0.202305
0.200332
0.204277
0.200825
0.202469
0.201154
0.200004
0.201647
0.203291
0.199346
0.201812
0.202469
0.204277
0.205263
0.203291
0.204277
0.20099
0.200497
0.205099
0.201976
0.19836
0.199675
0.202305
0.205263
0.204113
0.208222
0.203455
0.204113
0.206085
0.206742
0.201976
0.204934
0.201647
0.205263
0.203126
0.200825
0.205263
0.203784
0.202798
0.200661
0.20362
0.202962
0.204113
0.201483
0.206414
0.206085
0.204277
0.207564
0.204934
0.205099
0.198524
0.199675
0.200168
0.205263
0.202305
0.206578
0.20477
0.204277
0.205756
0.205921
0.201812
0.203455
0.205921
0.204934
0.204113
0.206085
0.204441
0.203455
0.203126
0.200497
0.208386
0.203291
0.207728
0.205921
0.206578
0.205427
0.206742
0.205263
0.206578
0.206742
0.204113
0.204934
0.202305
0.206249
0.202798
0.205756
0.203455
0.206249
0.203784
0.205592
0.204441
0.205756
0.21118
0.203784
0.206578
0.20477
0.203455
0.200004
0.20214
0.206249
0.202633
0.204277
0.203291
0.190964
0.201483
0.201976
0.203948
0.203291
0.205427
0.199018
0.209208
0.207071
0.206085
0.206742
0.204113
0.203455
0.204113
0.207235
0.201483
0.207893
0.206249
0.213645
0.20362
0.205099
0.206085
0.207728
0.202633
0.209701
0.207893
0.20477
0.207564
0.205427
0.208386
0.209043
0.207728
0.207564
0.209208
0.2074
0.213152
0.208222
0.207071
0.205592
0.211344
0.207893
0.206742
0.210851
0.209208
0.207071
0.207893
0.210523
0.211673
0.209208
0.203784
0.210358
0.2074
0.206742
0.207071
0.206907
0.207564
0.210687
0.207893
0.210851
0.2074
0.210194
0.209865
0.209372
0.210523
0.209865
0.215289
0.211016
0.212824
0.210358
0.212659
0.207235
0.209701
0.210851
0.208222
0.209865
0.211344
0.207728
0.209865
0.211837
0.205427
0.210851
0.209372
0.209536
0.20855
0.210194
0.211673
0.206414
0.205921
0.210194
0.207893
0.207728
0.204113
0.21233
0.209536
0.211837
0.210029
0.209208
0.212495
0.208715
0.21118
0.20855
0.207893
0.205427
0.211344
0.203126
0.20477
0.203455
0.204934
0.205592
0.204441
0.20477
0.208386
0.206249
0.204606
0.208222
0.21118
0.205921
0.205263
0.207071
0.202962
0.208386
0.200332
0.204934
0.201812
0.200661
0.202305
0.204441
0.205263
0.201647
0.20477
0.204934
0.20477
0.20214
0.202962
0.204441
0.199346
0.198853
0.198689
0.19573
0.19721
0.199511
0.197045
0.198853
0.201319
0.203291
0.201319
0.20099
0.196223
0.203455
0.20362
0.199839
0.199018
0.201483
0.195566
0.198853
0.196881
0.195073
0.196717
0.197867
0.196059
0.203455
0.196059
0.198196
0.199346
0.201483
0.199511
0.201976
0.195402
0.195073
0.194744
0.192608
0.192115
0.18932
0.19573
0.193265
0.197045
0.196059
0.186691
0.193922
0.194251
0.197538
0.194909
0.196388
0.1908
0.199675
0.192772
0.195566
0.190964
0.191128
0.188827
0.195402
0.194251
0.193429
0.194416
0.19458
0.196059
0.198031
0.194251
0.193429
0.196388
0.194416
0.191457
0.188499
0.189156
0.189485
0.193594
0.191293
0.195073
0.193265
0.195237
0.194744
0.19458
0.197045
0.191621
0.197374
0.190635
0.19721
0.189649
0.194909
0.193429
0.192608
0.194087
0.198853
0.192772
0.192936
0.194909
0.191621
0.192443
0.191457
0.192443
0.193429
0.19458
0.192279
0.197374
0.190142
0.193594
0.188663
0.191128
0.188827
0.191128
0.190635
0.194087
0.193265
0.192115
0.192772
0.195895
0.192443
0.192772
0.192608
0.190964
0.193101
0.191621
0.19195
0.190471
0.191786
0.190471
0.192115
0.1908
0.192608
0.192608
0.196717
0.192443
0.19573
0.195073
0.192115
0.190964
0.191457
0.190964
0.189485
0.194416
0.195237
0.195237
0.195237
0.197703
0.19195
0.19458
0.195237
0.19458
0.193758
0.19458
0.196388
0.194909
0.19721
0.195566
0.196223
0.19721
0.197045
0.196881
0.196881
0.193265
0.193758
0.192443
0.195895
0.195566
0.196223
0.197538
0.197703
0.194416
0.192443
0.201319
0.194087
0.195402
0.196552
0.196223
0.195237
0.196881
0.194909
0.195895
0.196223
0.197374
0.198689
0.196388
0.198031
0.197045
0.195895
0.194909
0.198031
0.196223
0.201319
0.199839
0.201154
0.203455
0.197374
0.19573
0.19836
0.198853
0.19836
0.196881
0.203455
0.199511
0.194744
0.202633
0.20099
0.20099
0.200497
0.206085
0.201483
0.20214
0.200332
0.203291
0.200332
0.201812
0.199675
0.206742
0.201319
0.201647
0.203126
0.201812
0.198853
0.197538
0.205756
0.202798
0.206085
0.20362
0.195895
0.200661
0.201483
0.200332
0.202798
0.200332
0.197538
0.201319
0.202305
0.204606
0.199346
0.200004
0.202305
0.204441
0.201812
0.205099
0.204113
0.206249
0.205756
0.206742
0.200332
0.209208
0.205427
0.203291
0.204277
0.201319
0.205756
0.204441
0.205921
0.2074
0.208715
0.206414
0.207728
0.206907
0.208222
0.208057
0.205756
0.20362
0.206742
0.204934
0.202469
0.205592
0.205263
0.206742
0.204606
0.208879
0.206578
0.20477
0.206249
0.20855
0.206085
0.206085
0.207564
0.208057
0.207893
0.206907
0.210194
0.205427
0.2074
0.206742
0.207235
0.204606
0.205427
0.206907
0.209536
0.206742
0.21118
0.209865
0.208386
0.206414
0.209043
0.210029
0.205756
0.203291
0.204606
0.204934
0.206249
0.208057
0.205756
0.207728
0.205592
0.207564
0.204441
0.206249
0.205099
0.20855
0.206249
0.203291
0.205099
0.206907
0.201647
0.205756
0.201976
0.205427
0.203948
0.206085
0.207071
0.20477
0.207564
0.201812
0.205592
0.200661
0.205263
0.202798
0.201812
0.20214
0.20362
0.203948
0.20477
0.207728
0.204113
0.205427
0.205099
0.202469
0.205427
0.20477
0.204934
0.206085
0.205427
0.205756
0.207564
0.203455
0.201976
0.202962
0.204441
0.202305
0.203291
0.203784
0.20362
0.2074
0.206249
0.202962
0.205099
0.200004
0.206085
0.202633
0.204277
0.203455
0.202962
0.203126
0.203291
0.203291
0.202962
0.203948
0.206249
0.205427
0.204277
0.202798
0.205099
0.200825
0.201647
0.205592
0.199839
0.20099
0.203455
0.204113
0.201976
0.202469
0.201319
0.201154
0.206578
0.201647
0.204441
0.202798
0.205427
0.201483
0.210194
0.199182
0.202469
0.200168
0.20362
0.201812
0.197703
0.203455
0.203948
0.204113
0.203291
0.193265
0.201647
0.206742
0.202633
0.205921
0.204113
0.20214
0.200825
0.203784
0.200332
0.205756
0.204934
0.202305
0.202469
0.204113
0.203455
0.203948
0.205427
0.203126
0.205427
0.202633
0.205263
0.199675
0.201483
0.199182
0.201154
0.200168
0.202798
0.205427
0.206249
0.200661
0.202633
0.202469
0.202798
0.208057
0.200004
0.201812
0.200168
0.19836
0.199182
0.200004
0.199511
0.202305
0.200332
0.199182
0.202633
0.197867
0.201812
0.200497
0.200661
0.200004
0.200497
0.200825
0.203455
0.199182
0.200168
0.200168
0.200004
0.198689
0.202305
0.199018
0.202469
0.200497
0.20099
0.200168
0.199018
0.196717
0.197538
0.195402
0.193922
0.195073
0.191457
0.190964
0.185212
0.188827
0.190964
0.192936
0.189485
0.190635
0.193922
0.190964
0.193922
0.192772
0.193101
0.1908
0.196388
0.189156
0.196881
0.192608
0.195073
0.191457
0.193594
0.192279
0.194251
0.193265
0.193594
0.19721
0.194909
0.193758
0.194416
0.193594
0.191621
0.194416
0.192772
0.196059
0.192443
0.193101
0.194909
0.193429
0.196717
0.197538
0.198853
0.196059
0.196881
0.197045
0.197374
0.194251
0.197538
0.194744
0.199675
0.193429
0.199018
0.197374
0.193101
0.197045
0.199018
0.199675
0.204113
0.199839
0.202962
0.201647
0.20214
0.199675
0.202962
0.196223
0.197374
0.200168
0.199018
0.201976
0.007213
0.015102
0.024142
0.032853
0.037126
0.048631
0.053726
0.059643
0.06934
0.069176
0.077229
0.050932
0.05652
0.061779
0.072791
0.073613
0.08331
0.084461
0.090871
0.09498
0.101225
0.104677
0.109772
0.114702
0.118811
0.122756
0.125386
0.134097
0.131631
0.135904
0.138699
0.140013
0.137055
0.144615
0.146916
0.149382
0.151354
0.155627
0.153491
0.160558
0.163845
0.165817
0.167461
0.165982
0.167297
0.17535
0.173707
0.174528
0.173707
0.171406
0.177158
0.175021
0.181431
0.18061
0.183732
0.184225
0.187348
0.187019
0.1908
0.188334
0.185047
0.189814
0.185212
0.187184
0.188827
0.190964
0.190635
0.193429
0.193101
0.193265
0.194251
0.19573
0.193265
0.197374
0.195895
0.196223
0.196388
0.195073
0.195566
0.195566
0.197538
0.19573
0.198031
0.193101
0.196388
0.195073
0.194416
0.193758
0.201483
0.19836
0.200497
0.199346
0.197703
0.200332
0.200497
0.200332
0.196717
0.200825
0.198031
0.202633
0.196223
0.200497
0.198689
0.198524
0.201154
0.199511
0.20099
0.196059
0.199346
0.197703
0.197703
0.19721
0.200497
0.200004
0.201319
0.200497
0.201319
0.195073
0.20099
0.196552
0.197045
0.198031
0.197867
0.19836
0.198853
0.19836
0.196059
0.201976
0.195566
0.197867
0.193265
0.194909
0.196059
0.194744
0.194251
0.196881
0.194744
0.196388
0.199839
0.195073
0.19721
0.195566
0.196552
0.196717
0.197374
0.19721
0.204441
0.197703
0.196717
0.197867
0.197374
0.191457
0.19573
0.194087
0.193758
0.194251
0.194744
0.194909
0.19573
0.198031
0.19195
0.191621
0.1908
0.194087
0.194087
0.193922
0.192443
0.195237
0.19195
0.195402
0.193265
0.18932
0.192936
0.197867
0.195566
0.196388
0.194251
0.196059
0.195237
0.193758
0.196717
0.197045
0.195237
0.189485
0.191786
0.191293
0.19195
0.188663
0.192936
0.195073
0.193429
0.195895
0.194416
0.197538
0.193922
0.196223
0.194416
0.196552
0.195073
0.192443
0.19721
0.192115
0.189156
0.192279
0.191457
0.192115
0.194087
0.19195
0.194744
0.193101
0.192115
0.195237
0.197374
0.194416
0.196552
0.193922
0.193758
0.191786
0.194416
0.191457
0.195895
0.1908
0.197867
0.196223
0.193594
0.194251
0.181924
0.195566
0.192443
0.194744
0.192443
0.193429
0.191621
0.192443
0.193594
0.18932
0.187184
0.190964
0.189649
0.192443
0.195073
0.192608
0.194909
0.195237
0.195566
0.195237
0.196388
0.193758
0.196881
0.192608
0.197045
0.193429
0.198031
0.192936
0.194909
0.193101
0.193265
0.194416
0.193758
0.195566
0.196881
0.194087
0.198196
0.197374
0.193265
0.199675
0.193101
0.196388
0.195895
0.196059
0.199675
0.190142
0.19458
0.187184
0.191621
0.196881
0.196223
0.194416
0.198524
0.195402
0.198524
0.196223
0.201483
0.191128
0.197374
0.193265
0.194416
0.194087
0.195566
0.196881
0.194087
0.197374
0.196881
0.200168
0.199839
0.197045
0.199346
0.198031
0.196881
0.197045
0.196717
0.19573
0.195566
0.200497
0.199346
0.198689
0.197045
0.198524
0.198689
0.196881
0.199839
0.199675
0.202305
0.199511
0.201483
0.199346
0.199511
0.197703
0.200332
0.199182
0.19573
0.199511
0.199839
0.200661
0.202305
0.199511
0.203126
0.199346
0.200661
0.199346
0.197867
0.198524
0.197867
0.203455
0.196059
0.202469
0.201647
0.204606
0.200168
0.203784
0.200332
0.19836
0.201647
0.200825
0.203455
0.203291
0.204441
0.20099
0.203455
0.201976
0.197867
0.20362
0.201319
0.197374
0.199346
0.201483
0.202798
0.20099
0.201976
0.204277
0.201647
0.203126
0.204441
0.201154
0.20099
0.202633
0.202798
0.205592
0.203291
0.20477
0.205921
0.205592
0.202469
0.204277
0.201154
0.200004
0.204606
0.202633
0.205263
0.203126
0.205921
0.200004
0.203291
0.202633
0.204441
0.20099
0.205099
0.204113
0.205756
0.20362
0.204934
0.203291
0.202962
0.203948
0.20362
0.208057
0.201976
0.204934
0.202633
0.208879
0.204606
0.206907
0.20855
0.20855
0.203948
0.201976
0.20477
0.203948
0.20477
0.201976
0.206414
0.20362
0.207071
0.204277
0.19573
0.202305
0.204934
0.202633
0.206414
0.204934
0.209208
0.205099
0.206085
0.203291
0.202798
0.208715
0.203948
0.201812
0.202962
0.205099
0.205099
0.206742

Kurve 2

0.003597
0.006227
0.006227
0.005569
0.007542
0.004255
0.010171
0.004748
0.005076
0.006062
0.008035
0.00935
0.0105
0.006062
0.008528
0.010336
0.005734
0.008857
0.011158
0.011158
0.007377
0.009185
0.006391
0.007377
0.003926
0.003597
0.007706
0.006391
0.007213
0.009021
0.009185
0.011158
0.00935
0.00409
0.003597
0.008363
0.004748
0.006556
0.003926
0.006062
0.008363
0.006227
0.00672
0.008692
0.008528
0.00787
0.008363
0.006391
0.009021
0.008528
0.008035
0.008035
0.007049
0.005898
0.009021
0.008363
0.001296
0.004419
0.003268
0.003926
0.005076
0.006884
0.006556
0.006062
0.007377
0.008035
0.010336
0.002611
0.005734
0.003104
0.006391
0.001296
0.003433
0.00031
0.002447
0.003104
0.004748
-0.000347
0.005734
0.003433
0.006556
0.006227
0.005076
0.011322
0.008363
0.001789
0.002775
0.004255
0.001625
0.000639
0.000146
0.00409
-1.9e-05
0.001789
0.002775
0.003104
0.002447
0.003597
0.000474
-0.00232
-0.003306
-0.004949
-0.002977
-0.004292
-0.008072
-0.007086
-0.000183
-0.005114
-0.001498
-0.004128
-0.003963
-0.004621
-0.002648
-0.002977
-1.9e-05
-0.003142
0.000967
-0.003963
-0.003142
-0.002155
-0.000183
-0.002155
-0.008894
-0.002813
-0.008237
-0.003963
-0.010702
-0.003963
-0.003306
-0.003799
-0.002648
-0.010702
-0.006429
-0.007908
-0.0061
-0.002484
-0.005114
-0.008072
-0.003142
-0.002977
-0.004949
-0.005443
-0.005607
-0.007744
-0.004949
-0.001334
-0.002977
-0.00347
-0.001498
-0.004621
-0.00347
-0.003306
-0.004949
-0.005278
-0.00347
-0.004949
-0.009387
-0.00873
-0.009058
-0.00725
-0.007415
-0.007744
-0.0061
-0.005443
-0.007415
-0.007415
-0.009716
-0.00873
-0.007744
-0.008894
-0.0061
-0.008401
-0.008072
-0.009058
-0.011852
-0.009716
-0.005443
-0.01251
-0.011359
-0.010702
-0.007744
-0.00725
-0.006593
-0.005443
-0.009551
-0.009058
-0.010373
-0.004785
-0.009058
-0.008072
-0.008894
-0.007744
-0.00988
-0.007579
-0.007415
-0.008401
-0.008072
-0.008401
-0.007086
-0.007415
-0.010866
-0.009551
-0.005771
-0.005278
-0.009551
-0.008072
-0.005607
-0.007086
-0.008072
-0.008072
-0.006264
-0.011688
-0.008565
-0.00725
-0.007908
-0.009223
-0.006922
-0.007744
-0.006593
-0.005936
-0.007415
-0.007744
-0.009223
-0.006922
-0.008894
-0.009058
-0.010538
-0.00725
-0.011359
-0.010373
-0.010209
-0.008072
-0.010866
-0.009058
-0.003635
-0.004456
-0.005278
-0.007908
-0.005278
-0.006757
-0.005607
-0.009223
-0.004128
-0.007744
-0.005771
-0.009058
-0.008401
-0.008401
-0.007744
-0.005936
-0.006429
-0.005278
-0.008565
-0.005936
-0.00873
-0.004785
-0.008565
-0.010538
-0.00988
-0.010045
-0.011688
-0.005114
-0.010373
-0.006429
-0.006757
-0.008894
-0.008565
-0.008072
-0.007908
-0.008894
-0.007908
-0.009387
-0.008401
-0.010702
-0.00725
-0.009058
-0.009551
-0.014318
-0.008072
-0.011195
-0.009387
-0.00725
-0.0061
-0.006757
-0.009223
-0.005278
-0.006593
-0.002977
-0.008401
-0.003142
-0.010045
-0.005771
-0.009387
-0.004456
-0.010538
-0.006922
-0.00988
-0.005443
-0.009716
-0.009058
-0.003963
-0.0061
-0.003635
-0.004128
-0.000841
-0.002977
-0.004456
-0.005607
0.003104
-0.0061
-0.005443
-0.007086
-0.002813
-0.004621
-0.007579
-0.003799
-0.003799
-0.003142
-0.00232
-0.011524
-0.004128
-0.001662
-0.004621
-0.002155
-0.003963
-0.002155
-0.003306
-0.003142
-0.003635
-0.003306
-0.004785
-0.010045
-0.003799
-0.002977
-0.001827
-0.003963
-0.002977
0.000803
0.000639
-0.002155
0.00146
-0.00347
-0.000841
0.000474
-0.002813
-0.000676
-0.001334
-0.001005
0.00031
-0.001334
-1.9e-05
0.00146
0.004912
0.002118
0.000967
0.005241
-0.001005
0.000639
-0.002648
-0.001991
0.000146
0.00294
0.001625
0.002282
0.001132
0.001954
0.002611
0.002611
0.005898
0.000639
0.002775
0.004419
0.007706
0.002118
-1.9e-05
0.003104
0.003433
-0.001334
0.000803
0.002118
0.007542
0.001296
0.003761
0.005076
0.003761
0.005241
0.003597
0.003433
0.004583
0.004748
0.001954
0.00672
0.00294
0.005569
0.00409
0.00409
0.002447
0.006391
0.002775
0.00146
0.001625
0.00787
0.003926
0.00146
0.003761
0.003433
0.005076
0.000967
0.005569
0.004255
0.004748
0.003761
0.003761
0.008528
0.002447
0.001132
0.004419
0.002775
0.003597
0.003433
0.005076
0.002447
0.003268
0.007213
0.000639
0.006062
0.003597
0.003597
0.00409
0.002118
0.007049
0.005241
0.00294
0.003104
0.004255
0.004912
0.005734
0.001625
0.003597
0.002118
0.003926
0.003104
0.005241
0.003104
0.003597
0.003104
0.003761
-1.9e-05
0.003926
0.001954
0.005076
0.000639
0.001132
0.001132
-0.001169
0.001954
-0.000676
0.000639
0.00031
0.008035
0.002282
0.002447
-0.000512
-0.000841
-0.001005
0.002282
-0.000347
-0.000347
0.000803
-0.005114
-0.002484
0.001789
-0.001498
-0.003142
0.001132
-0.006757
0.000146
-0.002977
-0.001169
-0.001662
-0.000347
0.000474
-0.000183
-0.000676
-0.001498
0.004912
-0.002813
0.00146
-0.002155
-1.9e-05
-0.001498
-0.001662
0.00146
0.004419
-0.000841
0.001132
0.002775
-0.000841
-1.9e-05
0.000967
-0.000676
-0.004785
-0.003306
-0.000183
0.006227
-0.000676
0.001625
-0.006264
0.001296
-0.004128
-0.001005
-0.003142
-0.001169
0.000639
0.000639
-0.001005
-0.000512
-0.001827
-0.001827
-0.001334
-0.00347
-0.003142
-0.005771
-0.004128
0.000474
-0.00347
-0.003799
0.004912
0.000639
-0.000183
0.00031
-0.001005
-0.000512
-0.001991
-0.002155
-1.9e-05
0.000474
-0.001169
0.001296
-0.001662
-0.000676
-1.9e-05
-1.9e-05
-0.000183
0.000639
-0.000347
0.001625
-0.001334
0.002775
-0.001169
-0.002155
-0.001827
-0.00347
0.000803
-0.000676
0.002447
-0.001334
-0.000347
-0.001334
-0.003963
-0.004621
0.003761
0.000474
0.004583
0.00031
-0.001498
-0.002155
-0.001334
-0.003635
-0.001991
-0.000183
-0.004621
0.000146
-0.001991
0.000474
-0.002977
-0.001991
-0.003306
0.003433
0.000967
0.000474
0.003597
-0.000841
0.003433
-1.9e-05
-0.003635
0.001132
0.002447
0.000146
0.001132
-0.002484
-0.001334
0.001132
0.001954
0.000967
0.002447
0.002775
-0.000676
0.00146
-0.000841
-0.000347
-0.003306
-0.001991
0.002775
0.002118
-0.000512
0.002611
-0.001169
-0.000183
-0.000347
0.002447
0.006556
0.002775
0.001625
-0.001827
0.004583
-0.001005
0.002118
0.002775
-0.000347
-0.000183
0.001132
-0.001662
0.002611
-0.002484
0.003104
0.00146
-0.003306
0.000967
0.004419
0.00294
0.00409
0.003597
0.00146
0.001789
0.003268
0.005898
0.003597
0.00294
0.001954
0.002282
0.002282
0.005076
0.001132
0.003433
0.005076
-1.9e-05
0.004583
0.003761
0.005405
0.003761
0.004419
-0.001827
0.003433
0.00294
0.003268
0.001625
0.001132
0.001132
0.004748
0.002118
0.005898
0.000803
0.004583
0.00031
0.001954
0.004419
0.003433
0.00294
0.003433
0.004255
0.000803
0.000474
0.005734
0.002775
-0.003142
0.004912
0.001132
0.002611
0.004912
0.008199
0.007049
0.005734
0.004748
-0.004785
0.007377
0.006227
0.00409
0.005076
0.006556
0.004912
0.009021
0.005734
0.006884
0.005076
0.005898
0.005569
0.005898
0.009185
0.007377
0.009678
0.008363
0.008692
0.00935
0.00787
0.007213
0.008692
0.006556
0.006391
0.004583
0.006062
0.007213
0.006556
0.004419
0.008528
0.008528
0.009678
0.0105
0.009678
0.00935
0.008857
0.006556
0.004419
0.008035
0.005076
0.010336
0.006884
0.009678
0.008692
0.010171
0.011486
0.010171
0.009021
0.011158
0.009514
0.004255
0.010007
0.006391
0.011486
0.008528
0.013952
0.008035
0.008035
0.009021
0.007377
0.009514
0.007542
0.0105
0.010829
0.011486
0.009514
0.020526
0.018554
0.028251
0.035975
0.044522
0.048795
0.055205
0.060465
0.067203
0.073778
0.080681
0.083475
0.090542
0.096294
0.102869
0.105663
0.109772
0.115031
0.117332
0.121277
0.124235
0.127358
0.127687
0.130809
0.134097
0.140013
0.136726
0.144451
0.145108
0.14971
0.153491
0.152505
0.1576
0.159408
0.159243
0.160394
0.163845
0.16401
0.16516
0.165653
0.169433
0.16779
0.17157
0.172063
0.173871
0.174528
0.176008
0.177158
0.180938
0.178309
0.180938
0.186362
0.181431
0.183075
0.181267
0.182089
0.182582
0.183568
0.183075
0.185705
0.185705
0.184554
0.189814
0.193265
0.190142
0.189156
0.186855
0.193758
0.1908
0.189156
0.191786
0.188992
0.191457
0.18554
0.190635
0.190142
0.18932
0.1908
0.19195
0.193101
0.190471
0.195402
0.194416
0.193101
0.196717
0.198196
0.193758
0.19573
0.195073
0.19573
0.194744
0.193101
0.192279
0.194416
0.191128
0.195073
0.195073
0.195566
0.195237
0.200825
0.195402
0.19458
0.200004
0.193594
0.19573
0.190635
0.194909
0.192279
0.193922
0.19195
0.187513
0.191457
0.192443
0.192279
0.190142
0.193265
0.194744
0.196552
0.188499
0.193594
0.192608
0.185869
0.191293
0.18554
0.192279
0.191293
0.191128
0.195402
0.193758
0.193758
0.193758
0.193758
0.195402
0.193101
0.196059
0.195402
0.19573
0.194909
0.196552
0.192772
0.192443
0.195073
0.196059
0.192608
0.194251
0.191621
0.193758
0.194087
0.193922
0.195237
0.192115
0.193922
0.196059
0.198853
0.194087
0.198524
0.192772
0.194251
0.193922
0.194251
0.192115
0.190635
0.195073
0.193758
0.191293
0.1908
0.197703
0.192279
0.193429
0.194251
0.19573
0.192443
0.19458
0.192115
0.19458
0.192772
0.195566
0.194251
0.195402
0.193429
0.193594
0.192772
0.195073
0.192279
0.197045
0.194251
0.193594
0.197703
0.191293
0.19721
0.195073
0.197374
0.197374
0.194251
0.195073
0.196388
0.192279
0.195237
0.194251
0.195073
0.196223
0.189978
0.197867
0.192443
0.197374
0.194744
0.197374
0.196388
0.19721
0.197374
0.198524
0.194087
0.195073
0.195073
0.19195
0.192608
0.196881
0.198689
0.195237
0.195237
0.199018
0.199511
0.192443
0.197538
0.195895
0.195073
0.194087
0.196059
0.19721
0.198524
0.191457
0.194251
0.194416
0.192279
0.192772
0.19573
0.196223
0.19573
0.192608
0.197703
0.200332
0.194744
0.197703
0.198689
0.195073
0.195237
0.194744
0.193922
0.193265
0.196223
0.195237
0.197867
0.199182
0.195073
0.195237
0.197374
0.193758
0.198031
0.196881
0.197538
0.196059
0.198031
0.196223
0.19573
0.195073
0.196059
0.200497
0.195566
0.199182
0.193922
0.19836
0.195237
0.19836
0.195402
0.197374
0.192608
0.200332
0.194744
0.19458
0.194744
0.19573
0.19458
0.191786
0.19573
0.195895
0.19836
0.190964
0.194087
0.194416
0.195237
0.195895
0.197374
0.196223
0.19573
0.196717
0.193101
0.193429
0.19721
0.190142
0.193101
0.194909
0.193265
0.199511
0.199346
0.202305
0.196881
0.199675
0.196552
0.202469
0.196717
0.197867
0.196388
0.197045
0.197374
0.197538
0.201812
0.198689
0.206085
0.200332
0.200332
0.197867
0.196059
0.198196
0.199182
0.19836
0.201976
0.200661
0.200004
0.201812
0.201319
0.200825
0.201154
0.204441
0.201483
0.20099
0.200168
0.202798
0.200332
0.198196
0.201483
0.203455
0.203455
0.202962
0.202798
0.201647
0.202469
0.199675
0.203455
0.201154
0.196881
0.198853
0.201812
0.199346
0.197703
0.205099
0.199182
0.199018
0.201812
0.196881
0.199346
0.199346
0.19836
0.202305
0.199839
0.20099
0.199675
0.200825
0.196552
0.195402
0.201319
0.199839
0.196388
0.203784
0.200004
0.199346
0.197374
0.202962
0.198031
0.201976
0.206414
0.20099
0.201154
0.20214
0.200168
0.200004
0.201647
0.200332
0.202962
0.198853
0.200168
0.199511
0.201483
0.20099
0.199182
0.201647
0.202305
0.200004
0.199182
0.202962
0.201154
0.198524
0.199675
0.204441
0.198031
0.199675
0.199346
0.194909
0.198031
0.20099
0.199675
0.197045
0.19836
0.201154
0.19836
0.200004
0.198689
0.009514
0.020362
0.026278
0.033346
0.043207
0.043865
0.050274
0.057013
0.062437
0.068847
0.070655
0.083146
0.083475
0.086762
0.096294
0.09613
0.10254
0.105663
0.110429
0.112894
0.118647
0.120784
0.124728
0.124728
0.130316
0.131138
0.13837
0.136069
0.140671
0.142643
0.148067
0.149053
0.146916
0.152176
0.153162
0.154641
0.157764
0.159572
0.156449
0.162695
0.156778
0.160887
0.162859
0.162037
0.166475
0.169598
0.169433
0.170584
0.176994
0.171899
0.173542
0.178637
0.17272
0.177815
0.1742
0.173871
0.17798
0.175679
0.17535
0.168283
0.176008
0.178473
0.178802
0.18554
0.186855
0.184883
0.186362
0.186033
0.183897
0.186691
0.184061
0.186198
0.183568
0.186362
0.185047
0.187841
0.1908
0.189649
0.189156
0.191786
0.190471
0.190471
0.190471
0.191128
0.190964
0.189649
0.193594
0.191621
0.191128
0.189485
0.192772
0.197538
0.192608
0.194251
0.192772
0.192936
0.195402
0.195402
0.195073
0.193922
0.196717
0.197045
0.196388
0.195237
0.195402
0.193922
0.193429
0.194087
0.192115
0.195073
0.192608
0.200497
0.200825
0.198689
0.195402
0.196059
0.202469
0.192608
0.198524
0.197045
0.198196
0.199511
0.200004
0.198524
0.200825
0.199511
0.200825
0.199511
0.200497
0.200825
0.199675
0.202469
0.199511
0.204441
0.198689
0.200661
0.200825
0.201976
0.198853
0.200168
0.196223
0.198031
0.19721
0.202798
0.203948
0.200661
0.203784
0.202469
0.203455
0.202962
0.203784
0.199018
0.204277
0.200168
0.201976
0.202305
0.204441
0.202798
0.204606
0.203455
0.205592
0.207564
0.203455
0.20477
0.207728
0.212824
0.209372
0.206578
0.206414
0.211016
0.204934
0.208222
0.21118
0.204934
0.206414
0.206742
0.203784
0.206085
0.205756
0.2074
0.208715
0.209208
0.205756
0.207071
0.207564
0.20477
0.207071
0.205921
0.2074
0.205921
0.20855
0.204277
0.20362
0.201154
0.204606
0.203948
0.206249
0.206578
0.20477
0.205099
0.205263
0.207893
0.202305
0.210523
0.205921
0.203126
0.202962
0.205263
0.20099
0.201319
0.204606
0.201154
0.205099
0.205427
0.206085
0.204277
0.202305
0.202962
0.208222
0.201976
0.205592
0.206249
0.209865
0.207235
0.205921
0.207564
0.20477
0.205263
0.204441
0.207071
0.205263
0.204934
0.207235
0.207071
0.205099
0.207235
0.195895
0.204934
0.201812
0.204934
0.203948
0.203948
0.204277
0.20477
0.200168
0.201154
0.203455
0.201319
0.204113
0.203455
0.203291
0.20362
0.203948
0.204606
0.20855
0.200004
0.202305
0.202798
0.201812
0.196717
0.19573
0.201483
0.200004
0.201483
0.202469
0.201483
0.205099
0.204277
0.202469
0.204606
0.202469
0.20214
0.201154
0.201483
0.203784
0.197867
0.19836
0.202305
0.201812
0.197867
0.200332
0.204113
0.196223
0.202633
0.195237
0.203291
0.201483
0.196552
0.204441
0.198524
0.200332
0.20099
0.200825
0.200168
0.197703
0.195237
0.196881
0.196059
0.196223
0.200661
0.19836
0.19836
0.198524
0.199018
0.195073
0.197374
0.193758
0.196223
0.194087
0.19721
0.193922
0.199018
0.198031
0.194416
0.196881
0.199675
0.196717
0.195895
0.196552
0.196223
0.195895
0.195237
0.198689
0.195895
0.196717
0.196388
0.196059
0.192115
0.193594
0.193758
0.194909
0.195402
0.19458
0.194909
0.193265
0.194744
0.200004
0.194416
0.19458
0.200661
0.193758
0.199511
0.193594
0.196223
0.200168
0.196388
0.194251
0.192936
0.196717
0.193758
0.196388
0.19573
0.196717
0.192608
0.196552
0.196223
0.197867
0.196717
0.19836
0.194416
0.199839
0.200168
0.198853
0.19836
0.197867
0.199346
0.198196
0.19573
0.198524
0.199018
0.196059
0.201647
0.199839
0.20214
0.200332
0.199346
0.202633
0.20099
0.200661
0.202633
0.202469
0.199018
0.20099
0.200168
0.202633
0.199182
0.20214
0.200168
0.202962
0.201812
0.203455
0.202305
0.202469
0.203784
0.206578
0.205921
0.197538
0.205592
0.204441
0.204277
0.204934
0.208222
0.208386
0.202305
0.205592
0.205427
0.202633
0.202633
0.20099
0.207071
0.209865
0.212166
0.205921
0.19573
0.207564
0.205427
0.207071
0.201976
0.208879
0.206414
0.211837
0.207071
0.209865
0.2074
0.210194
0.205921
0.210687
0.210851
0.205263
0.206742
0.207564
0.212495
0.205592
0.208386
0.206907
0.209701
0.211509
0.2074
0.205921
0.208879
0.207564
0.212988
0.209536
0.21118
0.209536
0.210851
0.210358
0.21118
0.208386
0.207728
0.206414
0.208222
0.213974
0.205592
0.211673
0.205099
0.2074
0.210523
0.210194
0.209043
0.210851
0.214138
0.209043
0.210851
0.206414
0.209043
0.209701
0.210851
0.214303
0.215618
0.207564
0.210358
0.209536
0.209372
0.209372
0.209865
0.208386
0.21118
0.21118
0.210029
0.212002
0.209865
0.209372
0.208386
0.213152
0.209043
0.214138
0.209372
0.209372
0.210523
0.210687
0.210687
0.209043
0.208715
0.214467
0.212495
0.210194
0.210194
0.210194
0.208879
0.209865
0.21118
0.208879
0.208057
0.208057
0.209372
0.209536
0.209536
0.206085
0.215453
0.212824
0.216932
0.211837
0.207893
0.210851
0.208057
0.211673
0.210687
0.209208
0.203948
0.210194
0.206249
0.209536
0.210358
0.212659
0.206907
0.21118
0.210851
0.210358
0.211837
0.209536
0.210851
0.211344
0.211344
0.207564
0.206742
0.205427
0.208222
0.206085
0.211509
0.208879
0.209043
0.209865
0.210687
0.210194
0.212824
0.211837
0.208715
0.210029
0.209208
0.207564
0.207071
0.205263
0.205263
0.20855
0.206085
0.202305
0.202962
0.204113
0.205099
0.207893
0.209208
0.205099
0.201319
0.208386
0.206742
0.205427
0.202633
0.203784
0.203784
0.201319
0.207071
0.202798
0.203784
0.202962
0.207071
0.206085
0.206578
0.204113
0.212002
0.204606
0.204606
0.207071
0.202305
0.206085
0.19836
0.206907
0.203948
0.204277
0.201647
0.19458
0.202798
0.203455
0.204113
0.2074
0.204441
0.206742
0.209536
0.206249
0.205099
0.202633
0.205921
0.202962
0.203948
0.200497
0.201319
0.202798
0.20362
0.204606
0.205263
0.208222
0.210851
0.208222
0.2074
0.207728
0.20477
0.206085
0.204606
0.209536
0.209208
0.207235
0.206742
0.207564
0.206249
0.206907
0.203126
0.204934
0.207564
0.206742
0.210851
0.204277
0.208715
0.210194
0.208222
0.211837
0.209536
0.204934
0.205592
0.201647
0.206414
0.205263
0.204441
0.205592
0.208222
0.21118
0.209701
0.209372
0.2074
0.206414
0.204934
0.206578
0.20855
0.205099
0.206085
0.206907
0.204441
0.209701
0.207564
0.204277
0.202798
0.209372
0.214303
0.210029
0.206578
0.211837
0.210358
0.210851
0.211344
0.209701
0.209536
0.210523
0.213317
0.206742
0.210523
0.207728
0.210687
0.210194
0.21118
0.211016
0.213481
0.209208
0.212002
0.212495
0.2074
0.214138
0.210194
0.214138
0.211344
0.211673
0.209865
0.210523
0.208879
0.211509
0.212166
0.217261
0.210358
0.210851
0.212495
0.212166
0.213317
0.208222
0.211016
0.206578
0.210029
0.211344
0.207071
0.208057
0.208386
0.212002
0.211016
0.208222
0.213974
0.213645
0.210194
0.211673
0.211344
0.210851
0.210194
0.211509
0.211509
0.21118
0.211016
0.207893
0.20855
0.213152
0.209043
0.206742
0.210358
0.211344
0.211016
0.212988
0.214467
0.211509
0.212824
0.215289
0.213481
0.210851
0.212824
0.210523
0.213152
0.21118
0.212495
0.210358
0.212659
0.212824
0.21233
0.212659
0.21233
0.211509
0.213481
0.210194
0.210194
0.213317
0.208879
0.212824
0.211509
0.216932
0.203126
0.209208
0.209701
0.207235
0.209536
0.209865
0.213152
0.210358
0.210358
0.210358
0.20099
0.205921
0.210194
0.206907
0.209208
0.205921
0.209865
0.208879
0.207893
0.206414
0.207893
0.205263
0.205263
0.206907
0.208715
0.208057
0.204934
0.209865
0.206249
0.207564
0.206085
0.205921
0.206085
0.201154
0.202633
0.205099
0.202469
0.201154
0.204606
0.206578
0.205921
0.202305
0.205263
0.202633
0.205921
0.202633
0.201812
0.201319
0.20362
0.203455
0.197045
0.199675
0.202305
0.199182
0.197045
0.201976
0.19836
0.200825
0.197538
0.199839
0.199839
0.200661
0.200332
0.201483
0.196717
0.199511
0.200825
0.201647
0.195073
0.197045
0.194087
0.193758
0.193922
0.195402
0.200168
0.195402
0.194416
0.197538
0.195073
0.193429
0.192772
0.192936
0.19195
0.188827
0.1908
0.193265
0.18932
0.188499
0.187019
0.188334
0.190635
0.191457
0.190471
0.189649
0.189156
0.191621
0.188992
0.189649
0.184225
0.189156
0.184883
0.185869
0.187841
0.188992
0.188663
0.187019
0.190307
0.187677
0.187348
0.187184
0.187513
0.186855
0.186526
0.184554
0.187513
0.184883
0.188334
0.189156
0.185047
0.183239
0.184883
0.184225
0.007377
0.015595
0.025292
0.033674
0.037455
0.045837
0.048631
0.056684
0.057671
0.066053
0.070819
0.074271
0.077229
0.081174
0.085611
0.092186
0.091035
0.097938
0.101061
0.100896
0.108457
0.107635
0.110922
0.112237
0.115853
0.117332
0.120948
0.121112
0.128015
0.128837
0.128673
0.127687
0.138205
0.139849
0.136069
0.139849
0.141493
0.143629
0.142807
0.145766
0.143958
0.149053
0.148724
0.152176
0.151025
0.154312
0.147903
0.152669
0.154806
0.150861
0.155463
0.156778
0.160229
0.155956
0.167132
0.160394
0.161051
0.16138
0.16253
0.161215
0.163845
0.162859
0.166639
0.168776
0.167625
0.15497
0.164338
0.164174
0.166968
0.168283
0.166475
0.166475
0.167132
0.168118
0.167461
0.170748
0.167461
0.169433
0.168776
0.172885
0.17272
0.170419
0.16894
0.171241
0.173542
0.173378
0.173542
0.172392
0.17535
0.173378
0.171734
0.173707
0.177322
0.176008
0.181103
0.175186
0.178473
0.172556
0.176665
0.177815
0.174857
0.177651
0.176829
0.17913
0.177158
0.185869
0.179952
0.183239
0.181596
0.184225
0.184883
0.184554
0.185705
0.184225
0.183897
0.187019
0.185376
0.187184
0.186855
0.186526
0.188992
0.188499
0.189649
0.189156
0.18817
0.189485
0.190635
0.188827
0.194087
0.18817
0.197867
0.194416
0.192279
0.193265
0.19573
0.194744
0.196717
0.197703
0.192772
0.19721
0.196059
0.197867
0.198031
0.200332
0.197867
0.202469
0.196717
0.197538
0.198031
0.197703
0.199511
0.199018
0.203126
0.204113
0.20362
0.201647
0.203784
0.206414
0.203455
0.20099
0.202469
0.202305
0.207564
0.206578
-0.001498
0.009021
0.015924
0.026443
0.032524
0.041399
0.04748
0.055205
0.063752
0.074435
0.072791
0.079201
0.085447
0.091857
0.094158
0.102376
0.104184
0.113716
0.118647
0.120455
0.124564
0.129001
0.132782
0.134918
0.133275
0.138041
0.147409
0.145766
0.150697
0.154148
0.158586
0.160394
0.164174
0.165489
0.167625
0.169105
0.170255
0.173542
0.175186
0.175515
0.174035
0.182582
0.179295
0.182746
0.180445
0.178802
0.184225
0.185047
0.186198
0.192443
0.191457
0.192115
0.194909
0.195566
0.197045
0.199511
0.200168
0.197045
0.200004
0.188663
0.197374
0.194087
0.194416
0.196223
0.20099
0.197538
0.204934
0.202469
0.195895
0.197538
0.193429
0.19836
0.197703
0.201319
0.201319
0.200497
0.196552
0.206578
0.066381
0.080516
0.088077
0.094815
0.09876
0.105498
0.108621
0.11651
0.120291
0.121441
0.127522
0.130645
0.132946
0.135904
0.140506
0.141164
0.147245
0.149053
0.15875
0.155299
0.1576
0.162859
0.163188
0.163188
0.163516
0.170584
0.171241
0.174364
0.173214
0.176336
0.176336
0.174857
0.178144
0.181267
0.179623
0.180445
0.183404
0.185705
0.187513
0.18932
0.18932
0.191457
0.192279
0.188334
0.191457
0.193758
0.195895
0.196552
0.198196
0.194087
0.200497
0.19573
0.19721
0.199018
0.193265
0.201483
0.199346
0.199511
0.200661
0.200497
0.199182
0.201976
0.19721
0.202305
0.199839
0.204277
0.20362
0.205427
0.196552
0.198196
0.199182
0.200661
0.199839
0.200825
0.203291
0.201154
0.202962
0.206907
0.202305
0.19836
0.204934
0.197867
0.198031
0.198031
0.198689
0.193922
0.200661
0.196223
0.19836
0.201483
0.199018
0.19836
0.197045
0.198524
0.194744
0.191293
0.189649
0.189649
0.191621
0.188827
0.187841
0.189156
0.183075
0.184718
0.182746
0.182911
0.18176
0.181267
0.179459
0.178802
0.180774
0.174035
0.172227
0.171077
0.175021
0.170419
0.167625
0.164174
0.169762
0.168612
0.169598
0.171406
0.173542
0.170748
0.169269
0.170419
0.171734
0.171241
0.16894
0.172392
0.168612
0.171406
0.168612
0.169105
0.169762
0.166804
0.166804
0.164996
0.172885
0.168776
0.172885
0.170419
0.175186
0.170255
0.177651
0.171077
0.168776
0.161873
0.164338
0.161051
0.159736
0.159572
0.156942
0.151025
0.14971
0.153162
0.148396
0.149546
0.148396
0.145602
0.143794
0.139192
0.136398
0.134754
0.124399
0.119797
0.119633
0.113223
0.115031
0.114538
0.111415
0.109443
0.108293
0.106813
0.104348
0.103033
0.098431
0.085447
0.092843
0.090049
0.090049
0.084954
0.086104
0.083475
0.085611
0.083803
0.085283
0.080681
0.081502
0.075257
0.0769
0.072791
0.068682
0.068682
0.069176
0.074106
0.072791
0.067696
0.06556
0.063587
0.064574
0.067532
0.067368
0.071477
0.070819
0.074435
0.079201
0.079037
0.083639
0.084789
0.093172
0.094158

Kurve 3

-0.004292
-0.001334
-0.002484
-0.000676
-0.007744
-0.005278
-0.003963
-0.005114
-0.000183
-0.000676
0.000146
0.000474
-0.000676
0.003104
0.00146
-1.9e-05
-0.000841
0.00031
-0.002155
0.000146
-0.002813
0.003268
0.00031
-0.002155
0.002447
0.000967
0.002282
0.000146
0.003104
0.001132
0.001954
0.002611
0.00031
0.00031
-0.000676
-0.001827
0.000474
-0.000512
-0.000183
0.002447
-0.000347
-0.002155
0.00031
0.002447
0.000474
-0.003799
-1.9e-05
-0.000183
-0.001169
0.000146
0.00146
-0.000183
0.00031
0.00146
0.002611
-0.003635
-0.001827
-0.004292
-0.002813
-0.001662
-0.003799
0.001954
0.00294
0.00146
0.001625
0.003268
-0.000347
0.000803
-0.00347
-0.00232
0.002282
-0.001827
-0.001991
0.004912
0.000146
0.002282
0.003597
0.003433
0.003104
0.002447
0.003268
0.002611
0.002282
0.003104
0.004748
0.003926
0.006884
0.002775
0.004419
0.000803
0.00294
0.000146
0.001296
0.002282
0.003597
0.003597
0.001954
0.002775
0.008363
-0.000347
0.003104
0.003597
0.002282
0.002775
-0.002813
0.004255
0.000474
-1.9e-05
-0.000347
0.001132
-0.003306
-0.001991
-0.001498
0.002447
0.003597
-0.001827
0.004255
-0.000183
0.000146
0.002775
0.010336
-0.002484
-0.001498
-0.002648
0.000639
0.000146
-0.000183
-1.9e-05
0.00146
0.000474
0.00146
-0.00873
0.001789
-0.001169
0.000639
0.002447
-0.003142
0.002118
0.00146
0.000146
-0.001991
0.000474
-0.003306
-0.003306
-0.00232
-0.000676
0.002118
-0.001169
0.003104
0.003761
0.002118
-0.000512
0.001132
-0.002484
0.000146
0.001132
-1.9e-05
-0.003306
-0.002648
-0.00232
-0.002813
-0.003635
-0.007086
0.001132
0.002611
0.000474
0.000803
0.000474
-0.001827
-0.000841
-0.006264
-0.005771
-0.000512
0.000803
-0.001498
-0.000512
-0.002155
-0.003635
-0.002155
-0.002484
-0.00232
-0.003142
-0.002813
0.000146
0.000639
0.001789
-0.001334
-0.000347
0.001132
-0.003963
-0.00232
-0.004949
-0.000841
-0.004456
-0.001498
-0.001005
-0.002484
-0.003142
0.00146
-0.002648
0.00031
0.001296
-0.001169
0.001296
-0.000512
0.002611
-0.000512
-1.9e-05
-0.002813
-0.002155
-0.009551
-0.008401
-0.001005
-0.005278
0.001296
0.001954
0.000803
0.001132
0.005898
-0.001334
0.004583
0.000803
0.001296
-0.000676
-0.001498
-0.002484
0.002282
-0.001991
0.002118
-0.001334
0.000803
0.007542
0.003268
0.001132
0.001132
0.003433
0.000639
0.001625
0.002775
0.000803
-0.000676
0.00031
-0.000512
-0.001991
-0.001991
-0.001169
-0.003142
-0.001169
0.000967
0.002447
0.00146
0.001789
0.003268
0.002282
0.001789
-0.002813
-0.000841
-0.001662
0.00146
-0.000512
0.002447
-0.003963
-0.000676
0.000146
0.000146
-0.000347
0.001625
0.003597
0.000803
0.003926
-0.000676
0.000639
0.001296
0.001954
0.001132
0.006556
-0.002813
0.000474
0.000474
-0.001991
0.008199
0.006556
0.004255
0.003597
0.003268
0.001954
0.004255
0.00031
0.003433
0.00031
0.001132
0.001625
0.000967
0.002611
0.004912
0.000146
0.000474
0.008528
0.001625
-0.000183
0.002118
0.003433
0.00146
0.001625
0.001625
0.004583
0.002118
0.000639
-0.009716
-0.000841
0.001132
0.003597
0.002611
0.001789
0.002118
0.003597
0.004583
0.003104
0.00409
0.000967
0.003104
0.001132
0.005076
0.002447
0.004419
0.003104
0.007377
0.002118
0.003597
0.001296
0.00146
-0.001991
-0.004292
0.002775
-0.000347
0.001625
0.006227
0.004255
0.003268
0.006062
0.002282
0.004419
0.004419
0.003926
0.001296
0.002447
0.001789
0.000803
0.000639
0.002282
0.00409
0.002282
0.003597
0.003926
0.003926
0.000146
0.007542
0.001625
0.003433
-0.001498
0.000146
-0.002813
0.000803
0.003104
0.005734
0.003926
0.001789
0.002775
0.00294
0.003597
0.001954
0.006227
0.004255
0.007049
0.004748
0.005898
0.004583
0.003268
0.001625
-0.000183
0.002775
0.003597
0.008035
0.004419
0.006391
0.005076
0.002282
0.001954
0.003926
0.004419
0.003104
0.001132
0.003268
0.004748
0.00409
0.002775
0.00294
0.004419
0.00294
0.003268
-0.000183
0.005076
0.001789
0.002611
0.003597
0.003433
0.000967
0.005569
0.005076
0.003597
0.004583
0.00294
0.001296
0.003433
0.000967
0.003104
0.004419
0.000803
0.006227
0.004583
0.005076
0.003104
0.007542
0.004583
0.006391
0.002118
0.006227
0.003761
0.005734
0.004583
0.009514
0.005734
-1.9e-05
0.001296
0.002611
0.00409
0.001132
0.005898
0.003104
0.005569
0.003104
0.005734
0.004419
0.005898
0.000146
0.008363
0.002775
0.002282
0.003433
0.002775
0.004419
0.003104
0.00935
-0.001662
0.004419
0.00294
0.007213
0.003268
0.001625
0.000639
0.004419
0.005405
0.009843
0.002118
0.003926
0.002282
0.003433
0.003433
0.00409
0.003104
0.004748
0.005569
0.003433
0.006884
0.008857
0.005569
0.002775
0.005405
0.009021
0.004583
0.002118
0.005569
0.004255
0.006391
0.010007
-0.007744
0.004912
0.00409
0.003433
0.002611
0.003433
0.003433
0.006556
0.006391
0.004912
0.004419
0.003268
0.002447
0.003104
0.005569
0.003268
0.004419
0.003433
0.00672
0.004419
0.00294
0.002775
0.007213
0.003433
0.003268
0.001625
0.003761
0.005734
0.008199
0.007049
0.004583
0.005734
0.002611
0.005241
0.000146
0.007377
0.002447
0.004419
0.001789
0.006062
0.002611
0.00935
0.006062
0.003433
0.002611
0.004912
0.004255
0.00409
0.003761
0.001625
0.001789
0.00146
0.004583
0.00409
0.005569
0.002447
0.006884
0.002775
0.004912
0.002775
0.005076
0.00409
0.002282
0.005898
0.004748
0.002775
0.003104
0.004255
0.000967
0.000474
0.001625
-0.002484
-0.004621
0.004419
0.002447
0.003104
-1.9e-05
-0.001827
0.003104
0.001789
0.003926
0.003104
0.002282
0.002118
0.004748
0.00146
0.003761
0.00146
0.005076
0.004583
0.001789
0.003597
0.00031
-0.000183
0.002611
0.006884
-0.000183
0.006227
0.000474
0.002447
0.005076
0.003761
0.001954
0.005734
0.000803
0.001954
0.00146
0.002447
0.003104
0.00409
0.004419
0.004255
0.00294
0.002118
0.002611
0.001789
0.003268
0.000474
0.004583
0.001296
0.003268
-0.000347
0.000639
-0.004949
0.002447
0.000474
0.003926
0.004583
0.002118
0.002447
-0.000676
0.003597
-1.9e-05
0.001132
-1.9e-05
0.00031
0.000803
0.000146
-0.003963
-0.001169
0.000639
-0.000841
-0.001169
0.003104
0.003926
-1.9e-05
0.002611
0.001954
0.000639
0.003268
0.003926
0.000474
0.000639
0.000146
-0.001498
-0.002155
-0.002977
-0.002155
-0.000676
-0.000183
-0.001005
0.000803
0.001132
0.002611
0.000803
0.002447
0.001789
-0.000512
-0.000347
-0.002155
-0.004128
0.000146
-0.005278
-0.002484
-0.001827
-1.9e-05
0.002118
-0.002813
-0.003799
0.001132
0.002447
-0.001005
0.000803
-0.000183
0.001296
0.000474
0.001132
-0.003635
0.000474
-0.002977
-0.001334
0.002611
-0.004949
0.003761
0.00146
0.000967
0.002611
-0.001334
-0.001662
0.001625
-0.004621
-0.005771
-0.004949
-0.005936
-0.005114
-0.001662
-0.000347
-0.004128
-0.00232
-0.00232
-0.002484
0.000967
-0.002813
-0.002155
-0.001169
-0.00232
0.001132
-0.004128
-0.002813
-0.007579
-0.003635
-0.004128
-0.00232
-0.005771
-0.010373
-0.004949
-0.001169
-0.001005
-0.004128
-0.002155
-0.000512
-0.000183
-0.005278
0.003597
-0.004621
-0.003799
-0.002813
-0.003306
-0.005607
-0.005443
-0.005607
0.000146
-0.003799
-0.002648
-0.001991
-0.005771
-0.00347
-0.004621
-0.004292
-0.001005
-0.00873
-0.009387
-0.000676
-0.006429
-0.006429
-0.005278
-0.005936
-0.009387
-0.006264
-0.007744
-0.009551
-0.0061
-0.005114
-0.004785
-0.005443
-0.005278
-0.001991
0.005734
0.013459
0.021512
0.026443
0.031867
0.035482
0.047973
0.050603
0.056027
0.063094
0.072134
0.076243
0.080352
0.085283
0.089885
0.09613
0.092186
0.10254
0.105334
0.110265
0.110758
0.113716
0.119962
0.119962
0.125057
0.129001
0.13311
0.130645
0.13574
0.140835
0.139685
0.142314
0.147081
0.147574
0.151847
0.15234
0.153819
0.15119
0.153326
0.156942
0.158421
0.159736
0.160558
0.161873
0.16253
0.165817
0.166804
0.167954
0.168118
0.169105
0.170419
0.177158
0.171734
0.17157
0.176994
0.172556
0.170748
0.17535
0.174364
0.179459
0.17913
0.179623
0.179952
0.180281
0.181267
0.183897
0.182746
0.181267
0.184554
0.180938
0.18554
0.185212
0.185869
0.185212
0.189649
0.186691
0.191128
0.187841
0.187184
0.185869
0.186033
0.189814
0.188334
0.192279
0.19458
0.188663
0.190635
0.183404
0.18817
0.191457
0.186691
0.195073
0.190635
0.18932
0.190635
0.19573
0.192936
0.193265
0.195895
0.192608
0.192115
0.193101
0.194416
0.191786
0.196388
0.196717
0.193758
0.19195
0.196552
0.196223
0.195237
0.192772
0.19195
0.194909
0.194744
0.196552
0.200168
0.200004
0.194909
0.198853
0.194744
0.199675
0.196059
0.19573
0.196717
0.196388
0.199675
0.199182
0.194909
0.19721
0.193101
0.194909
0.199675
0.194744
0.199346
0.192279
0.197045
0.196059
0.195402
0.197045
0.197045
0.194744
0.196388
0.195402
0.194416
0.195073
0.195237
0.197374
0.195073
0.193594
0.195237
0.198853
0.192115
0.197538
0.198689
0.194744
0.196223
0.194416
0.195073
0.194744
0.190142
0.194744
0.194909
0.193429
0.197374
0.197045
0.196881
0.195402
0.199675
0.193922
0.197374
0.195402
0.197867
0.197703
0.196717
0.194744
0.197867
0.194909
0.194744
0.19721
0.19458
0.195237
0.196223
0.19458
0.196059
0.196388
0.194744
0.200661
0.195402
0.195895
0.194251
0.195073
0.190964
0.192443
0.193758
0.19195
0.193758
0.195073
0.196059
0.191621
0.192279
0.193265
0.19458
0.192772
0.195566
0.193429
0.193429
0.191128
0.1908
0.193101
0.183732
0.189156
0.189814
0.189485
0.193594
0.18932
0.194909
0.194087
0.192608
0.194744
0.193101
0.194744
0.192115
0.195073
0.191128
0.18932
0.188663
0.192772
0.192772
0.192279
0.192115
0.195402
0.193758
0.190142
0.195237
0.190142
0.195073
0.191128
0.199839
0.193758
0.19195
0.192608
0.196552
0.189649
0.194087
0.189978
0.192115
0.192936
0.191786
0.197867
0.191786
0.193922
0.190635
0.189485
0.190964
0.191786
0.189485
0.192115
0.192608
0.1908
0.078708
0.081995
0.082982
0.092021
0.091528
0.096623
0.108786
0.103855
0.112566
0.115031
0.116839
0.121112
0.12555
0.127029
0.129988
0.13311
0.13311
0.131631
0.139849
0.141164
0.141328
0.148067
0.147903
0.15234
0.154641
0.155627
0.156449
0.157764
0.15612
0.160229
0.158257
0.161544
0.166968
0.167132
0.166311
0.169762
0.16894
0.17157
0.172556
0.171241
0.175515
0.173049
0.17272
0.173871
0.177815
0.174035
0.178637
0.178966
0.183732
0.187513
0.183075
0.182253
0.182746
0.182253
0.184061
0.18439
0.181924
0.186198
0.181596
0.186691
0.18554
0.188006
0.18554
0.190142
0.187184
0.186526
0.191786
0.188827
0.187184
0.188992
0.188499
0.188499
0.188827
0.18932
0.186198
0.188334
0.189814
0.186033
0.190307
0.187184
0.192115
0.186526
0.193265
0.190471
0.193594
0.190635
0.187184
0.19195
0.1908
0.192279
0.194909
0.193101
0.191293
0.18932
0.1908
0.192443
0.191293
0.192443
0.19195
0.194087
0.194416
0.194909
0.19458
0.193429
0.196552
0.193101
0.195566
0.191786
0.19458
0.192608
0.192115
0.194251
0.197045
0.195073
0.196388
0.195895
0.198031
0.197538
0.197045
0.196223
0.194744
0.199675
0.193758
0.195237
0.195073
0.19458
0.192772
0.193429
0.192772
0.19458
0.193101
0.195566
0.197045
0.198689
0.198689
0.195237
0.195566
0.196388
0.194251
0.193758
0.19458
0.193101
0.197045
0.192115
0.194744
0.193101
0.193594
0.19195
0.196552
0.195237
0.196881
0.19836
0.196388
0.198031
0.19573
0.19721
0.195895
0.196717
0.19458
0.203126
0.194909
0.198524
0.197703
0.197374
0.198196
0.197538
0.196223
0.196717
0.197703
0.198689
0.191621
0.19721
0.19573
0.195402
0.19836
0.194251
0.198524
0.196059
0.199346
0.196717
0.197374
0.196552
0.198853
0.197538
0.203291
0.201812
0.196388
0.196552
0.197374
0.198031
0.196388
0.198853
0.196388
0.197867
0.195073
0.195073
0.195237
0.197374
0.199018
0.202798
0.199346
0.199018
0.201154
0.196059
0.196717
0.196059
0.198031
0.196388
0.198524
0.193265
0.200004
0.193758
0.196717
0.196552
0.19836
0.197703
0.19836
0.201976
0.197374
0.19836
0.196881
0.197867
0.197374
0.198853
0.197045
0.199675
0.19836
0.197703
0.197703
0.197867
0.196717
0.20214
0.201647
0.200825
0.198853
0.197045
0.19721
0.197867
0.200825
0.195895
0.199511
0.198196
0.198853
0.194251
0.199675
0.195237
0.196059
0.196717
0.197867
0.19836
0.199346
0.198196
0.19836
0.200497
0.198196
0.20099
0.200825
0.200661
0.200332
0.200497
0.197703
0.201647
0.19836
0.199511
0.200168
0.199346
0.200661
0.201647
0.200168
0.203455
0.203455
0.200004
0.202962
0.19721
0.201976
0.198689
0.200004
0.19836
0.201483
0.201647
0.199839
0.201483
0.203455
0.20214
0.2074
0.204441
0.203455
0.202962
0.201319
0.203291
0.201319
0.202962
0.200168
0.203126
0.209536
0.20362
0.199018
0.202633
0.201319
0.202798
0.201976
0.203455
0.202962
0.204606
0.206742
0.203291
0.205263
0.202798
0.20362
0.20214
0.203455
0.205592
0.204277
0.196881
0.203126
0.201812
0.201647
0.204277
0.202798
0.205099
0.202469
0.21118
0.199839
0.201812
0.203784
0.206414
0.200661
0.205263
0.20214
0.206085
0.203126
0.204277
0.204606
0.204441
0.207235
0.207893
0.20855
0.203455
0.208715
0.205921
0.207564
0.208057
0.205756
0.20477
0.203784
0.205921
0.209536
0.211016
0.205263
0.205427
0.210851
0.207893
0.208715
0.209701
0.211837
0.211837
0.209701
0.212495
0.200661
0.209701
0.208879
0.210358
0.207728
0.209372
0.204441
0.208222
0.208879
0.210194
0.209043
0.211016
0.207564
0.208386
0.208057
0.207235
0.205099
0.207728
0.210358
0.208057
0.209208
0.206414
0.208222
0.204441
0.206578
0.209208
0.209043
0.211673
0.209865
0.212166
0.209865
0.212988
0.208879
0.210523
0.209865
0.213317
0.208386
0.210029
0.207235
0.210687
0.208057
0.211509
0.210523
0.20855
0.212659
0.208879
0.213974
0.209865
0.211344
0.211016
0.216439
0.208715
0.212988
0.209865
0.210358
0.20855
0.213317
0.207728
0.209865
0.210194
0.209865
0.210194
0.208222
0.21496
0.208222
0.216768
0.209208
0.208222
0.206742
0.207728
0.20477
0.206742
0.205427
0.205756
0.207893
0.205921
0.206414
0.205427
0.209865
0.206578
0.206085
0.206085
0.206742
0.20362
0.204113
0.203291
0.19836
0.197374
0.203455
0.20099
0.202962
0.203126
0.203126
0.201647
0.204113
0.203455
0.204441
0.202798
0.203126
0.204113
0.204277
0.202633
0.199018
0.202469
0.200497
0.203291
0.198853
0.197867
0.201483
0.197703
0.201976
0.201483
0.199839
0.19836
0.20099
0.202305
0.202798
0.198689
0.201812
0.197867
0.200661
0.200004
0.196552
0.194909
0.194909
0.19721
0.198031
0.198031
0.19573
0.197703
0.197374
0.197867
0.195402
0.19458
0.192772
0.195073
0.19573
0.198031
0.195237
0.193265
0.192936
0.196388
0.192115
0.193265
0.192936
0.1908
0.195073
0.192772
0.194087
0.190964
0.19195
0.189649
0.194416
0.192115
0.19195
0.192608
0.191457
0.188827
0.1908
0.190307
0.188992
0.189978
0.192608
0.194416
0.187184
0.188499
0.188663
0.190635
0.187019
0.188499
0.188992
0.186526
0.18817
0.18932
0.191786
0.189156
0.188992
0.19458
0.187841
0.191786
0.188827
0.184225
0.185869
0.189156
0.195895
0.185869
0.188663
0.187019
0.173707
0.184225
0.186691
0.187348
0.187841
0.186033
0.187513
0.188827
0.187677
0.187513
0.185869
0.187677
0.184718
0.188499
0.186526
0.186691
0.186855
0.189156
0.18817
0.184718
0.185869
0.189978
0.186362
0.184225
0.184554
0.186033
0.186198
0.18554
0.189649
0.184554
0.185705
0.185047
0.186855
0.185869
0.186526
0.182417
0.183897
0.190307
0.18439
0.186691
0.183239
0.187513
0.182911
0.184718
0.181596
0.180116
0.170255
0.176336
0.174035
0.168118
0.178802
0.178966
0.178473
0.177651
0.176994
0.176829
0.177158
0.173378
0.17535
0.1742
0.176501
0.176665
0.174364
0.178144
0.178144
0.177158
0.17913
0.179788
0.181103
0.176665
0.178637
0.178473
0.178802
0.172063
0.1742
0.174693
0.17535
0.181103
0.179952
0.182089
0.175679
0.180774
0.178309
0.180281
0.177651
0.18061
0.180774
0.182582
0.177487
0.181924
0.176829
0.176829
0.178802
0.179295
0.18176
0.173214
0.17798
0.182089
0.181103
0.181267
0.185376
0.184225
0.184061
0.186362
0.186198
0.182746
0.185212
0.185869
0.188827
0.187184
0.188006
0.189156
0.187184
0.188992
0.190471
0.192279
0.191128
0.193594
0.193758
0.193265
0.195073
0.193265
0.195895
0.19573
0.193101
0.193758
0.196881
0.195402
0.196881
0.200004
0.197867
0.195073
0.201647
0.198524
0.198689
0.197703
0.200332
0.198524
0.196717
0.196388
0.198524
0.199182
0.199675
0.200004
0.200825
0.195402
0.194744
0.201154
0.200825
0.200497
0.197867
0.201483
0.198196
0.201647
0.200825
0.200497
0.201812
0.20099
0.203126
0.202633
0.205263
0.199675
0.205263
0.203784
0.205099
0.20477
0.211509
0.203455
0.202962
0.203291
0.204441
0.202633
0.20099
0.205756
0.204606
0.203455
0.205592
0.197867
0.205099
0.202469
0.205756
0.205263
0.204934
0.209865
0.205263
0.207564
0.208057
0.207728
0.202633
0.205099
0.206249
0.204934
0.204934
0.204441
0.204113
0.201154
0.206414
0.201319
0.20477
0.202305
0.201483
0.197538
0.204277
0.20477
0.204113
0.20477
0.20362
0.202469
0.200004
0.201154
0.19721
0.200004
0.195402
0.197374
0.192443
0.196223
0.195895
0.189814
0.193101
0.192115
0.192608
0.191457
0.190635
0.188334
0.191621
0.191621
0.191293
0.193101
0.187841
0.18932
0.194087
0.191457
0.192443
0.194909
0.190307
0.194744
0.195073
0.192443
0.194909
0.189978
0.196388
0.194416
0.194251
0.194909
0.193594
0.188334
0.193429
0.193101
0.190307
0.191293
0.191293
0.196881
0.197045
0.199839
0.193758
0.197374
0.197703
0.195073
0.196388
0.194416
0.195402
0.194251
0.19573
0.194416
0.196552
0.192608
0.191786
0.188827
0.193265
0.189978
0.194087
0.194909
0.191786
0.189814
0.186855
0.188006
0.18554
0.186691
0.182089
0.178637
0.180938
0.183239
0.180281
0.182582
0.181924
0.182746
0.184061
0.186033
0.187348
0.184718
0.186033
0.181431
0.184883
0.18554
0.182089
0.178637
0.182417
0.181267
0.181103
0.179623
0.183897
0.184718
0.187019
0.183404
0.183404
0.184225
0.189978
0.18817
0.189485
0.1908
0.189156
0.190635
0.18817
0.189649
0.187513
0.190471
0.187513
0.190964
0.192443
0.191786
0.193101
0.200661
0.193429
0.193594
0.194909
0.192608
0.193429
0.189978
0.190471
0.19195
0.194087
0.191293
0.194251
0.189485
0.198031
0.192608
0.195237
0.19458
0.194744
0.197867
0.197045
0.196552
0.192279
0.199839
0.192608
0.189814
0.191293
0.1908
0.1908
0.190964
0.192115
0.197045
0.197045
0.196388
0.19573
0.199346
0.199675
0.197703
0.198196
0.196552
0.195566
0.19721
0.19721
0.197374
0.19721
0.18817
0.199018
0.191293
0.195895
0.193429
0.196717
0.197867
0.200168
0.199346
0.198524
0.199182
0.197703
0.19836
0.198853
0.198031
0.195566
0.199182
0.199675
0.198031
0.198853
0.196388
0.199675
0.200332
0.199675
0.202962
0.198031
0.198031
0.201319
0.198031
0.19836
0.199675
0.198689
0.197045
0.201483
0.199675
0.196717
0.199018
0.193429
0.200168
0.200332
0.200661
0.203784
0.201319
0.201647
0.201319
0.201319
0.201154
0.197374
0.201154
0.199675
0.201647
0.195566
0.200825
0.200497
0.197538
0.200004
0.201976
0.199018
0.199346
0.199839
0.199675
0.20099
0.197374
0.20099
0.202962
0.202469
0.197538
0.204113
0.198031
0.197867
0.197045
0.202962
0.19836
0.199839
0.20214
0.202469
0.196552
0.200332
0.200497
0.200004
0.202305
0.194416
0.200332
0.196552
0.196059
0.198524
0.200004
0.199839
0.199839
0.201319
0.198031
0.202469
0.196881
0.200332
0.19458
0.197374
0.203455
0.201812
0.20214
0.201812
0.200661
0.200168
0.198196
0.20477
0.19836
0.199839
0.197374
0.199839
0.200168
0.200332
0.200004
0.199675
0.201647
0.19836
0.201647
0.197867
0.201319
0.198524
0.200661
0.200168
0.199346
0.200497
0.199675
0.200004
0.197703
0.197867
0.199346
0.197867
0.203455
0.202305
0.200661
0.203784
0.199511
0.199675
0.195237
0.202633
0.195895
0.203291
0.197374
0.198689
0.201319
0.197867
0.195073
0.198853
0.204606
0.195895
0.200661
0.199675
0.201812
0.201483
0.201483
0.201483
0.201483
0.200825
0.202305
0.200825
0.196388
0.199182
0.197538
0.200332
0.201647
0.200497
0.201812
0.204277
0.197703
0.200497
0.206249
0.198853
0.197703
0.200661
0.19836
0.200168
0.195073
0.199346
0.201483
0.200332
0.203126
0.189156
0.19836
0.198689
0.201154
0.199675
0.200497
0.20099
0.200661
0.199511
0.20099
0.199675
0.202305
0.195895
0.196552
0.200825
0.199018
0.20214
0.199018
0.205099
0.200661
0.203455
0.201647
0.20362
0.194744
0.200168
0.200497
0.202305
0.200004
0.202798
0.199346
0.195073
0.203291
0.200168
0.202305
0.201976
0.20099
0.197374
0.199675
0.198031
0.201647
0.199839
0.203126
0.200661
0.200661
0.200497
0.202469
0.198524
0.201319
0.20099
0.199182
0.20099
0.196717
0.203784
0.19836
0.198689
0.196717
0.207564
0.19721
0.200168
0.200661
0.199511
0.200332
0.198853
0.203291
0.20099
0.196388
0.205756
0.205427
0.205756
0.202305
0.202633
0.204441
0.201812
0.201319
0.197374
0.201483
0.200661
0.201647
0.200661
0.203948
0.200661
0.198853
0.20362
0.20099
0.205427
0.199839
0.201976
0.201319
0.206414
0.20362
0.204113
0.202962
0.201647
0.202962
0.20214
0.20362
0.203455
0.203948
0.202633
0.203784
0.202305
0.203126
0.203291
0.200497
0.200004
0.200332
0.198524
0.202469
0.201976
0.200661
0.20214
0.209865
0.200661
0.203126
0.199839
0.201812
0.204113
0.201154
0.202962
0.200661
0.202469
0.199675
0.204934
0.200825
0.203455
0.196717
0.203291
0.203126
0.199675
0.201976
0.200661
0.202469
0.20099
0.203291
0.201154
0.202798
0.204113
0.202633
0.203126
0.202633
0.20099
0.205099
0.200332
0.203291
0.20855
0.19721
0.204113
0.201154
0.202469
0.202633
0.202962
0.202798
0.201647
0.202633
0.206249
0.201483
0.20099
0.201647
0.204934
0.199018
0.20362
0.20362
0.204934
0.205756
0.204934
0.203291
0.210194
0.201647
0.198853
0.204277
0.203291
0.202798
0.203784
0.206085
0.203948
0.205263
0.208879
0.194416
0.203291
0.203455
0.201483
0.20362
0.201812
0.200661
0.205427
0.202305
0.200825
0.199018
0.200825
0.199018
0.201976
0.20099
0.204277
0.200332
0.206742
0.204934
0.204606
0.201976
0.201483
0.204606
0.200661
0.202633
0.200661
0.199511
0.197867
0.205921
0.201483
0.201812
0.203948
0.202798
0.203455
0.204113
0.203784
0.201976
0.204606
0.202633
0.204441
0.200825
0.201319
0.199018
0.199839
0.201154
0.207071
0.202962
0.203948
0.202962
0.206414
0.203126
0.201483
0.204934
0.201647
0.204934
0.203948
0.205756
0.20099
0.198524
0.198853
0.202469
0.200825
0.200168
0.202633
0.204606
0.202469
0.201976
0.204113
0.199346
0.202469
0.201319
0.201154
0.202798
0.199018
0.202305
0.203291
0.198853
0.200661
0.198524
0.204113
0.200332
0.201812
0.197703
0.203291
0.202798
0.203291
0.204277
0.203455
0.203948
0.203784
0.201483
0.200661
0.20362
0.200168
0.203784
0.201647
0.20214
0.204113
0.20099
0.201483
0.205099
0.202633
0.201976
0.206578
0.204606
0.20477
0.20362
0.205427
0.201483
0.202798
0.202469
0.205427
0.201154
0.202633
0.202469
0.204441
0.202798
0.204113
0.205756
0.206742
0.205263
0.202962
0.2074
0.201976
0.202305
0.199839
0.201154
0.199839
0.203784
0.200332
0.20477
0.200825
0.207235
0.205592
0.206578
0.203784
0.20477
0.207071
0.201647
0.202633
0.202962
0.202962
0.202962
0.203126
0.201976
0.203948
0.201154
0.203126
0.201154
0.204441
0.202798
0.201483
0.200168
0.201647
0.201812
0.199346
0.202469
0.200168
0.203291
0.200497
0.199018
0.197703
0.204113
0.198196
0.201154
0.200332
0.203126
0.199346
0.200332
0.20099
0.200661
0.201154
0.196388
0.201812
0.198031
0.202633
0.199018
0.193101
0.196717
0.19573
0.199018
0.199675
0.193265
0.195073
0.201812
0.202469
0.200332
0.202962
0.198196
0.19721
0.200004
0.197703
0.203126
0.194744
0.201154
0.196223
0.199182
0.19573
0.195895
0.19721
0.199018
0.194909
0.194251
0.195566
0.203455
0.20214
0.199675
0.201647
0.195073
0.196552
0.197045
0.195402
0.193922
0.19836
0.194416
0.195402
0.199182
0.195237
0.196388
0.197867
0.197045
0.196059
0.199675

Kurve 4

-0.000347
-0.000841
0.000639
-0.00232
-0.006264
-0.001334
0.000803
-0.002813
-0.002155
-0.000841
0.000967
0.000967
-1.9e-05
-0.001498
-0.000512
-1.9e-05
-0.002155
-0.002977
-0.00232
0.000639
-0.005278
0.000146
-0.002977
-0.001498
-0.00232
-1.9e-05
-0.000841
-0.000841
-0.001334
0.001132
-0.00347
-0.001662
-0.004292
-0.004128
-0.003306
-0.005771
-0.00232
-0.005278
-0.004128
-0.008401
-0.00347
-0.003963
0.000639
-0.001991
-0.002155
-0.005114
-0.005771
-1.9e-05
-0.004949
-0.004621
-0.005771
-0.004128
-0.011031
-0.00232
-0.007579
-0.004621
-0.00347
-0.003635
-0.002484
0.00031
-0.002484
-0.00232
-0.001662
-0.003799
-0.002155
-0.001827
-0.000183
-0.003963
-0.00347
-0.00347
-0.001334
-0.001991
-0.001662
0.000967
-1.9e-05
-0.001169
0.001132
0.002118
0.004583
0.003597
0.002611
0.003433
-0.000183
-0.000183
-0.000676
-0.001005
-0.004785
-0.001991
-0.003635
-0.002155
-0.00232
0.002118
-0.000512
0.004748
0.002447
0.001789
0.000967
-0.001498
-0.000841
-0.003799
-0.005443
-0.002813
-0.002648
-0.002977
0.001789
-0.000841
0.005076
-0.003963
0.007213
0.000639
0.001296
0.001625
0.000146
0.003268
0.000639
0.006062
0.001789
0.00294
-0.001498
0.001625
-0.002648
0.001789
-0.001498
0.004419
0.004255
-0.000183
0.003433
0.00294
-0.003635
0.00409
0.002611
0.002611
0.002447
0.000474
0.003597
0.003761
0.001789
0.000146
0.00409
0.001625
0.002447
0.003926
0.003597
-0.003306
0.006227
0.003433
0.005076
0.00787
0.001625
0.002775
-0.001005
0.003104
0.000639
0.003433
0.000967
0.007377
0.00672
-0.001005
0.003597
0.006062
0.003926
0.006062
0.003268
0.00409
0.005898
0.003597
0.006556
0.005898
0.001132
0.003926
0.005405
-0.001662
0.00146
0.000803
-0.000183
-0.000676
0.004419
0.00146
0.002282
0.000803
0.001296
0.003597
0.001296
0.003761
0.003597
0.002775
0.002282
0.002282
0.000803
0.003597
0.001132
0.004583
0.002118
0.006227
-1.9e-05
0.004912
0.005241
0.00294
0.005898
0.00409
0.002775
0.004912
0.005076
0.003761
0.004419
0.001132
0.007542
-0.000183
0.002118
0.005569
0.005241
0.006391
0.003926
0.003597
0.005734
0.00672
0.005076
0.008528
0.005405
0.006556
0.001954
0.008363
0.003104
0.005076
0.005405
0.004912
0.005241
0.004748
0.005898
0.005734
0.004583
0.005569
0.005241
0.003597
0.006391
0.004748
0.005076
0.002447
0.006556
0.004583
0.00409
0.005076
0.003761
0.009843
0.007049
0.002775
0.008528
0.006391
0.005241
0.00935
0.00672
0.005734
0.002447
0.004583
0.003433
0.005569
0.001625
0.004419
-0.001662
0.005898
0.003433
0.005734
0.005405
0.001789
0.003761
0.005569
0.005898
0.003433
0.007213
0.005569
0.004912
0.005569
0.006391
0.001625
0.003926
0.003268
0.00409
0.005076
0.004255
0.006227
0.005734
0.004419
0.004419
0.007049
0.00294
0.004419
0.00031
0.002775
0.001132
0.00031
0.001132
0.005405
-0.001005
0.00031
0.006227
0.000474
0.001954
0.003597
-0.001334
0.000967
0.002118
0.001789
0.002447
-1.9e-05
0.00294
-0.011031
0.004255
-0.002813
0.003104
0.00294
0.00146
0.006391
0.003433
0.004419
0.003268
0.003761
0.001132
0.001132
0.001132
0.002447
0.001296
0.003926
0.002611
0.00146
-0.001991
0.005734
-0.003142
-0.001005
-1.9e-05
0.000639
0.000967
0.002118
0.001296
0.001296
0.000146
-0.000183
0.001132
0.000803
0.000639
0.002447
0.000146
-0.001334
0.000639
-0.00232
-0.001169
-0.004292
-0.001827
0.001296
-0.000347
-0.001991
0.000967
0.000639
-0.000841
0.000474
-0.000841
0.001132
-0.001662
0.000146
-0.001827
-0.000183
-0.002155
0.001954
-0.002977
-0.002648
-0.000347
-0.00232
-0.001498
-0.000676
0.001789
-0.003142
0.001132
-0.000512
0.00031
-0.003306
-0.003799
-0.007744
-0.002484
-0.003306
-0.001827
0.001954
-0.003799
-0.003306
-0.002155
-0.000347
0.003104
0.002118
-0.008401
-0.001334
-0.0061
-0.00347
-0.00347
0.001789
-0.006593
-0.00232
-0.002648
-0.006429
-0.005278
-0.005771
-0.003306
-0.007415
-0.011524
-0.004621
-0.004292
-0.007908
-0.005936
-0.005278
-0.004949
-0.004292
-0.003306
-0.007415
-0.005771
-0.005771
-0.004785
-0.005114
-0.005936
-0.00347
-0.003799
-0.006757
-0.005771
-0.004621
-0.013825
-0.004621
-0.011195
-0.003963
-0.008072
-0.004456
-0.0061
-0.005114
-0.008401
-0.00725
-0.005936
-0.009223
-0.006264
-0.008237
-0.004456
-0.005278
-0.008401
-0.009551
-0.006429
-0.010045
-0.007744
-0.008237
-0.007908
-0.009058
-0.011031
-0.008565
-0.008072
-0.00873
-0.005278
-0.003963
-0.012346
-0.011688
-0.009716
-0.012017
-0.01251
-0.011688
-0.007744
-0.005443
-0.008237
-0.008072
-0.007086
-0.008072
-0.010373
-0.009223
-0.009387
-0.009058
-0.008565
-0.00725
-0.009551
-0.010702
-0.012346
-0.004621
-0.006922
-0.008894
-0.00725
-0.004949
-0.007415
-0.01366
-0.004621
-0.009387
-0.010373
-0.008565
-0.021714
-0.008894
-0.010538
-0.010538
-0.004785
-0.007744
-0.00873
-0.002648
-0.009387
-0.005936
-0.008894
-0.010866
-0.010373
-0.008401
-0.009716
-0.009716
-0.009716
-0.00988
-0.004785
-0.006922
-0.007086
-0.008401
-0.009716
-0.009551
-0.006429
-0.007744
-0.006264
-0.007744
-0.006593
-0.007415
-0.006429
-0.006429
-0.007086
-0.004785
-0.008401
-0.007908
-0.00873
-0.00725
-0.003635
-0.006757
-0.013989
-0.005278
-0.008401
-0.0061
-0.006264
-0.004456
-0.007415
-0.006922
-0.005607
-0.00988
-0.007908
-0.010209
-0.006264
-0.009716
-0.009387
-0.006593
-0.003142
-0.005607
-0.004456
-0.005607
-0.003963
-0.005278
-0.007579
-0.007579
-0.006429
-0.005114
-0.008401
-0.010045
-0.010538
-0.008565
-0.007744
-0.009223
-0.007086
-0.004456
-0.004456
-0.003306
-0.005114
-0.002977
-0.005278
-0.004128
-0.007908
-0.004292
-0.005936
-0.007744
-0.008401
-0.00873
-0.001005
-0.007415
-0.007908
-0.005114
-0.000183
-0.006264
-0.002977
-0.002155
-0.001827
-0.004621
-0.003306
-0.003963
-0.004128
-0.006593
-0.006757
-0.005443
-0.00725
-0.004621
-0.001662
-0.007086
-0.005443
-0.003306
-0.003799
-0.001498
-0.004621
-0.001334
-0.003963
-0.004785
-0.005278
-0.007086
-0.00725
-0.00725
-0.008072
-0.003635
-0.005936
-0.006429
-0.006264
-0.008401
-0.000841
-0.004292
-0.003142
-0.00347
-0.004128
-0.001827
-0.005443
-0.004621
-0.004621
-0.003142
-0.005278
-0.007086
-0.008401
-0.004621
-0.005443
-0.000841
-0.004621
-0.007086
-0.003799
-0.004456
-0.003142
-0.002813
-0.002813
-0.003963
-0.002648
-0.003635
-0.006757
-0.002813
-0.003142
-0.005936
-0.003142
-0.001169
-0.003635
-0.003963
-0.002813
0.001132
-0.001991
-0.003635
-0.003306
-0.002155
-0.001334
-0.001005
-0.000183
-0.0061
-0.005771
-0.002155
-0.00725
-0.004456
-0.0061
-0.002484
-0.002648
-0.001334
-0.00347
-0.003963
-0.005607
-0.003306
-0.001334
-0.004292
-0.001991
-0.002648
-0.001334
-0.002155
-0.001498
0.001625
-0.003635
-0.00725
-0.001991
0.00031
-0.001005
-0.003306
0.002775
-0.001334
-0.001827
-0.001827
-0.001498
-0.004292
-0.005443
-0.004128
-0.004949
-0.003635
-0.004621
-0.003963
-0.005114
-0.001991
-0.002977
-0.000347
-0.004949
-0.001169
-0.003142
0.000146
-0.005443
-0.006264
-0.003306
-0.005771
-0.000841
-0.007908
-0.000347
-0.00232
0.001625
-0.001005
-0.000512
-0.001334
-0.001498
-0.000347
-0.003142
0.002447
-0.000512
0.00146
0.001132
0.003104
-0.001662
-0.001662
0.00146
-0.002813
-0.001662
-0.000676
-0.000512
-0.002155
-0.005114
-0.002648
-0.000676
0.000474
-0.001991
-0.000512
0.000967
0.00031
-0.000347
0.000146
-0.000347
-0.001662
-0.000676
-0.003635
0.001625
-0.00347
-0.002977
-0.001991
-0.002484
-0.001498
0.00031
0.000474
0.000639
-0.000676
-0.001827
-0.001169
-0.002484
-0.001169
0.004419
0.016088
0.020362
0.031702
0.038441
0.047645
0.051096
0.059972
0.063916
0.071641
0.0769
0.081995
0.087748
0.088734
0.094322
0.09876
0.102704
0.101883
0.114702
0.111251
0.117496
0.119304
0.12292
0.129659
0.129495
0.134754
0.139685
0.139192
0.143136
0.145273
0.144615
0.148067
0.149382
0.150532
0.152998
0.155299
0.155463
0.160887
0.159901
0.16253
0.165324
0.165489
0.167625
0.171077
0.173378
0.1742
0.167625
0.16894
0.173378
0.172885
0.173707
0.170913
0.173049
0.173707
0.180116
0.175679
0.178802
0.178637
0.181431
0.180938
0.18439
0.181596
0.184718
0.183897
0.183404
0.181431
0.181431
0.187348
0.183075
0.1908
0.18439
0.185047
0.190635
0.190964
0.185212
0.18932
0.187677
0.189485
0.190471
0.189649
0.195402
0.190142
0.193265
0.190307
0.186526
0.188992
0.191457
0.189978
0.192443
0.190635
0.193101
0.192608
0.193265
0.1908
0.195895
0.192772
0.192608
0.196059
0.193594
0.197703
0.192115
0.193758
0.191621
0.19573
0.19195
0.196552
0.192936
0.200332
0.192443
0.196059
0.193758
0.196388
0.196059
0.196059
0.197867
0.196552
0.196717
0.196388
0.196388
0.195566
0.196552
0.191786
0.193922
0.192115
0.192279
0.196223
0.197867
0.19721
0.198689
0.199839
0.195237
0.19836
0.193429
0.196223
0.19573
0.193594
0.198196
0.198524
0.194744
0.199182
0.19836
0.197374
0.199346
0.196388
0.198853
0.198196
0.196717
0.200332
0.194416
0.19836
0.201647
0.199839
0.199182
0.199839
0.199675
0.196717
0.20362
0.196059
0.196223
0.199018
0.201154
0.203126
0.200004
0.200825
0.201647
0.20099
0.201976
0.201976
0.198853
0.202469
0.200004
0.201812
0.198196
0.203455
0.197538
0.20214
0.199182
0.201319
0.200497
0.200332
0.19721
0.200497
0.199346
0.200497
0.200004
0.19836
0.200004
0.199182
0.20099
0.199675
0.199675
0.199182
0.20362
0.200661
0.201319
0.203126
0.196388
0.197703
0.199018
0.204113
0.201976
0.201976
0.20099
0.202469
0.202633
0.202305
0.199675
0.203455
0.199346
0.199346
0.202798
0.200497
0.201976
0.205427
0.205263
0.201976
0.209701
0.204606
0.204113
0.203291
0.202962
0.203126
0.201154
0.200332
0.206414
0.203291
0.202469
0.203291
0.201812
0.201154
0.202305
0.201319
0.202469
0.201647
0.201154
0.207728
0.201812
0.205921
0.20099
0.202633
0.197374
0.198196
0.199182
0.201154
0.199346
0.200004
0.201976
0.202305
0.202305
0.203126
0.208879
0.199346
0.20362
0.199675
0.200004
0.198524
0.200661
0.202798
0.199675
0.202798
0.200004
0.191128
0.200168
0.200497
0.202633
0.203291
0.205592
0.204934
0.205427
0.206085
0.203291
0.204606
0.201319
0.201812
0.20099
0.203126
0.19458
0.200497
0.202305
0.203126
0.202469
0.201483
0.202305
0.201812
0.20214
0.200332
0.203948
0.202633
0.20362
0.204606
0.203948
0.199675
0.20099
0.198689
0.198524
0.201976
0.198031
0.199346
0.197703
0.205263
0.202305
0.199511
0.19573
0.202962
0.200661
0.20362
0.203455
0.199346
0.198031
0.199839
0.198689
0.199346
0.199182
0.199346
0.201483
0.200661
0.202305
0.205921
0.202469
0.202305
0.201647
0.199675
0.202962
0.196388
0.199018
0.200004
0.19836
0.198853
0.203126
0.197703
0.19836
0.199675
0.199182
0.197703
0.199511
0.201647
0.199675
0.202962
0.202305
0.204441
0.198689
0.198196
0.197867
0.19836
0.19836
0.195073
0.195895
0.198031
0.199511
0.19836
0.202633
0.196223
0.201319
0.197538
0.200332
0.199346
0.199839
0.202962
0.199346
0.199675
0.197538
0.198689
0.194087
0.200332
0.197045
0.193922
0.195402
0.197867
0.197045
0.199182
0.196059
0.199182
0.194416
0.195237
0.195237
0.196717
0.194087
0.201976
0.194087
0.195237
0.194744
0.192443
0.195073
0.193101
0.191786
0.190964
0.193594
0.189485
0.193922
0.191457
0.192279
0.189814
0.191457
0.18932
0.190142
0.186526
0.186033
0.187348
0.187841
0.18932
0.182253
0.189156
0.19195
0.194251
0.189978
0.19458
0.189978
0.190635
0.192115
0.192772
0.191457
0.191621
0.192279
0.194251
0.193429
0.190471
0.193758
0.1908
0.195566
0.194416
0.19458
0.191293
0.195073
0.195895
0.195566
0.196059
0.194087
0.205921
0.196059
0.195402
0.193758
0.194416
0.193101
0.194416
0.200004
0.193922
0.194909
0.196223
0.184225
0.196717
0.194251
0.196717
0.196717
0.200004
0.194087
0.197538
0.196717
0.194909
0.198031
0.19458
0.197374
0.196552
0.198196
0.197538
0.200497
0.198524
0.203455
0.199511
0.201647
0.20362
0.197867
0.200497
0.200004
0.199346
0.201976
0.200825
0.200661
0.203291
0.198689
0.201647
0.20099
0.202962
0.200497
0.202962
0.202305
0.203291
0.200661
0.207893
0.197703
0.199182
0.199511
0.201154
0.202962
0.201647
0.202305
0.200661
0.201976
0.198689
0.202305
0.199018
0.201976
0.206907
0.205427
0.20477
0.207235
0.201483
0.202962
0.201812
0.202469
0.206578
0.194909
0.201976
0.202962
0.200004
0.200825
0.204441
0.202305
0.207728
0.203126
0.204606
0.20477
0.20099
0.204606
0.203455
0.204606
0.201812
0.202962
0.205099
0.203455
0.199839
0.201483
0.199346
0.203784
0.203126
0.203126
0.203126
0.202798
0.206085
0.201812
0.199018
0.200825
0.199839
0.20099
0.200332
0.199675
0.205099
0.202633
0.201154
0.199511
0.202305
0.200825
0.202798
0.20214
0.202962
0.200825
0.202633
0.199182
0.199839
0.197374
0.20099
0.19573
0.198031
0.200332
0.197867
0.201812
0.20099
0.204113
0.198031
0.203455
0.201319
0.202305
0.202633
0.201812
0.197867
0.196552
0.199511
0.195402
0.198031
0.199511
0.199346
0.197045
0.196552
0.193594
0.196223
0.196552
0.197374
0.196059
0.198031
0.197045
0.197374
0.197374
0.196552
0.197703
0.193429
0.197867
0.194744
0.196552
0.196881
0.194416
0.194416
0.197703
0.194744
0.198031
0.196717
0.195566
0.194087
0.189978
0.193265
0.18932
0.188334
0.192279
0.192772
0.164338
0.164503
0.171899
0.169269
0.164831
0.172227
0.168118
0.174528
0.170419
0.174364
0.17272
0.174035
0.172392
0.167625
0.174528
0.17272
0.177815
0.176994
0.177487
0.176665
0.180938
0.179295
0.181267
0.181431
0.181596
0.181431
0.181431
0.183404
0.181103
0.187841
0.182582
0.183404
0.183897
0.187019
0.182582
0.185047
0.181431
0.184061
0.182746
0.189649
0.184554
0.187348
0.186691
0.185705
0.185376
0.183075
0.186198
0.187513
0.184061
0.184061
0.186033
0.183732
0.188992
0.184883
0.18554
0.187348
0.187677
0.186362
0.188827
0.187348
0.184718
0.18932
0.184225
0.189156
0.185047
0.191621
0.184061
0.185212
0.185869
0.188006
0.182746
0.185047
0.18061
0.186855
0.180445
0.179459
0.183075
0.183404
0.182746
0.184225
0.183568
0.181267
0.178802
0.17913
0.177651
0.18061
0.178144
0.179952
0.180445
0.179459
0.182746
0.181267
0.181596
0.180281
0.17798
0.183404
0.178144
0.179623
0.179788
0.179623
0.180281
0.183732
0.183568
0.184718
0.180938
0.183404
0.180938
0.184225
0.18176
0.188992
0.184718
0.185212
0.187513
0.18439
0.187348
0.181267
0.186691
0.187513
0.186198
0.184061
0.188334
0.185212
0.186362
0.185869
0.187513
0.186362
0.189156
0.18817
0.187184
0.188992
0.184554
0.188499
0.19195
0.191293
0.190142
0.192279
0.185047
0.190635
0.185869
0.185869
0.187019
0.188499
0.186526
0.190142
0.188663
0.189485
0.190142
0.187841
0.189156
0.183404
0.188334
0.186526
0.191293
0.189156
0.189978
0.188334
0.186691
0.191293
0.187513
0.189156
0.191457
0.188663
0.1908
0.191293
0.188992
0.19195
0.188499
0.189978
0.192936
0.188499
0.189156
0.188334
0.190471
0.188663
0.187513
0.19195
0.192608
0.195073
0.191457
0.19721
0.194251
0.192115
0.19458
0.194087
0.195237
0.193429
0.19458
0.193429
0.192115
0.194744
0.183568
0.187184
0.188006
0.191621
0.193922
0.194909
0.190964
0.197045
0.195073
0.197703
0.196059
0.19836
0.195402
0.19458
0.192772
0.197867
0.194744
0.199018
0.201483
0.197045
0.200332
0.199018
0.197867
0.196552
0.196881
0.197703
0.19836
0.197374
0.197703
0.19836
0.195566
0.191786
0.197045
0.195895
0.197045
0.197374
0.196223
0.199182
0.201483
0.198853
0.199182
0.201319
0.199346
0.202633
0.199511
0.202962
0.199018
0.201319
0.198853
0.201483
0.205099
0.206907
0.204934
0.200497
0.201647
0.204113
0.204277
0.20362
0.202633
0.202469
0.206249
0.203455
0.204113
0.20477
0.20477
0.204606
0.20477
0.206085
0.202469
0.206907
0.204113
0.205427
0.206578
0.204277
0.207728
0.208879
0.204441
0.207564
0.205756
0.207564
0.20855
0.210851
0.205756
0.209536
0.205099
0.208057
0.206907
0.208222
0.206249
0.20855
0.206414
0.206249
0.206249
0.208386
0.207235
0.205099
0.208879
0.205921
0.207564
0.207728
0.210851
0.202798
0.202469
0.205263
0.20362
0.205592
0.207235
0.208386
0.205099
0.207071
0.2074
0.210687
0.20855
0.21118
0.205592
0.207728
0.205592
0.207728
0.207564
0.207728
0.209701
0.208386
0.21118
0.209536
0.207071
0.209372
0.208222
0.2074
0.209043
0.207564
0.206742
0.207728
0.211344
0.210194
0.210029
0.207728
0.208222
0.207235
0.206742
0.207728
0.207728
0.203948
0.209043
0.2074
0.2074
0.207071
0.206578
0.209043
0.208222
0.207728
0.201483
0.205099
0.203784
0.206578
0.207564
0.205921
0.20362
0.20477
0.205427
0.206085
0.207893
0.204441
0.209536
0.206414
0.207728
0.2074
0.212166
0.204113
0.206742
0.205921
0.207728
0.205592
0.203291
0.207564
0.206742
0.207728
0.206578
0.19721
0.204277
0.211837
0.206249
0.206578
0.204934
0.201976
0.207071
0.208715
0.205099
0.207564
0.203948
0.20362
0.206907
0.205427
0.206414
0.204441
0.205921
0.204113
0.20855
0.204934
0.2074
0.204113
0.206907
0.203784
0.204606
0.204113
0.195895
0.201319
0.202305
0.203455
0.204441
0.201976
0.204277
0.208222
0.205427
0.2074
0.202962
0.206578
0.204277
0.20477
0.204934
0.206249
0.20214
0.202305
0.204606
0.20214
0.203948
0.201154
0.203291
0.208222
0.199346
0.201483
0.206578
0.203948
0.205263
0.204606
0.201647
0.20099
0.201154
0.200497
0.201154
0.199511
0.20214
0.202633
0.202962
0.204113
0.203784
0.202798
0.203455
0.206578
0.202633
0.207564
0.205756
0.203948
0.202469
0.198853
0.203126
0.205592
0.200004
0.199018
0.203291
0.200497
0.203455
0.201812
0.205592
0.202633
0.204277
0.202469
0.204441
0.201976
0.200825
0.201812
0.202469
0.19836
0.200661
0.20099
0.20214
0.205427
0.201976
0.204606
0.197538
0.170913
0.170584
0.169598
0.176829
0.176172
0.178309
0.176829
0.17535
0.178966
0.178802
0.176994
0.179788
0.179459
0.183897
0.182089
0.180774
0.183568
0.185705
0.186526
0.189485
0.18817
0.185705
0.185869
0.18554
0.185047
0.183897
0.18439
0.185047
0.185212
0.18439
0.188334
0.192115
0.190635
0.1908
0.193265
0.191786
0.19458
0.19195
0.195237
0.193594
0.193758
0.19195
0.194909
0.192443
0.192936
0.194087
0.190635
0.194251
0.190471
0.19721
0.194909
0.198196
0.194087
0.198689
0.198853
0.196881
0.197045
0.196223
0.195895
0.194416
0.196552
0.196059
0.195237
0.19573
0.197703
0.192936
0.19573
0.19458
0.197538
0.194909
0.196059
0.191621
0.194909
0.192608
0.193101
0.192115
0.189649
0.191128
0.195566
0.195895
0.193429
0.196881
0.195237
0.195566
0.194251
0.196717
0.189978
0.193594
0.19458
0.197703
0.19573
0.194087
0.194744
0.195895
0.193101
0.194087
0.19573
0.190142
0.192936
0.192443
0.194744
0.195402
0.194087
0.195566
0.198524
0.199018
0.198031
0.196881
0.196552
0.192608
0.194416
0.193429
0.192115
0.196059
0.192443
0.196223
0.195895
0.193429
0.194416
0.194909
0.196223
0.193594
0.191128
0.192608
0.193101
0.195895
0.192608
0.195073
0.19721
0.193429
0.19573
0.195402
0.195566
0.193101
0.194744
0.191457
0.195566
0.193594
0.196717
0.192443
0.195402
0.19573
0.195895
0.193594
0.191786
0.191457
0.19573
0.193429
0.190964
0.193922
0.194251
0.192279
0.193429
0.196059
0.189978
0.197374
0.191457
0.195566
0.192936
0.192443
0.193594
0.194087
0.191128
0.193101
0.196717
0.190471
0.193758
0.191293
0.193265
0.196881
0.190142
0.193101
0.194087
0.193429
0.195895
0.19721
0.191128
0.189156
0.194744
0.189814
0.190964
0.190142
0.190471
0.195073
0.193429
0.19458
0.195566
0.19458
0.193758
0.197867
0.196717
0.196059
0.19458
0.195073
0.19458
0.194087
0.200004
0.196388
0.194744
0.193758
0.196881
0.194744
0.195073
0.192936
0.193594
0.196388
0.198031
0.195566
0.199018
0.195237
0.194251
0.19836
0.198031
0.194416
0.194909
0.197374
0.195566
0.199018
0.195566
0.197374
0.190142
0.194744
0.197045
0.19836
0.196388
0.193758
0.198853
0.198196
0.196223
0.191621
0.195073
0.196059
0.198524
0.197045
0.197867
0.19836
0.196059
0.198031
0.200332
0.199675
0.199839
0.199346
0.19836
0.199839
0.197703
0.195895
0.199675
0.196717
0.20099
0.197703
0.198031
0.200661
0.202633
0.197045
0.19721
0.200332
0.199346
0.200497
0.196552
0.201647
0.199018
0.199018
0.199839
0.193101
0.197703
0.19836
0.202305
0.196717
0.198524
0.196552
0.197045
0.197045
0.196881
0.196388
0.195237
0.197538
0.198689
0.197703
0.196388
0.198524
0.201154
0.199675
0.199511
0.201483
0.199839
0.196059
0.196552
0.196552
0.19836
0.199675
0.198524
0.204441
0.199675
0.199839
0.202798
0.196059
0.199839
0.196388
0.198524
0.19721
0.198853
0.196223
0.202469
0.194416
0.199018
0.205756
0.199511
0.202305
0.201647
0.196552
0.198689
0.199675
0.197045
0.200825
0.198524
0.19836
0.201647
0.199346
0.19836
0.202798
0.197867
0.193922
0.196388
0.196552
0.195073
0.196223
0.199018
0.198524
0.199182
0.201319
0.20477
0.194087
0.195237
0.191457
0.192443
0.189485
0.190635
0.191457
0.190142
0.194087
0.188827
0.193101
0.190307
0.192115
0.196881
0.193265
0.192115
0.189156
0.195073
0.18932
0.187019
0.193429
0.188663
0.19458
0.190964
0.197867
0.189156
0.191293
0.191621
0.192279
0.192608
0.19195
0.192443
0.188663
0.193101
0.19195
0.193101
0.191786
0.193429
0.195073
0.196717
0.197703
0.194744
0.194416
0.196223
0.193922
0.196881
0.194416
0.195895
0.195402
0.196881
0.199182
0.199346
0.198196
0.199346
0.199346
0.197867
0.203291
0.19721
0.200332
0.198853
0.199839
0.202305
0.201154
0.204441
0.201647
0.207564
0.201976
0.204277
0.202305
0.204113
0.202798
0.202962
0.207564
0.210851
0.199018
0.205099
0.202962
0.203784
0.205592
0.205263
0.201976
0.205592
0.204113
0.204441
0.206907
0.204606
0.204606
0.206907
0.210523
0.205756
0.207564
0.20477
0.206414
0.203948
0.206414
0.210029
0.201154
0.20477
0.208222
0.204113
0.197867
0.202962
0.202798
0.207564
0.206742
0.208386
0.204277
0.205592
0.204441
0.211509
0.204277
0.202962
0.200825
0.208879
0.206249
0.207893
0.207728
0.205592
0.205427
0.200168
0.201483
0.203455
0.206249
0.204934
0.205263
0.203784
0.205263
0.206907
0.200004
0.206414
0.204441
0.206907
0.202798
0.209536
0.202305
0.202305
0.206742
0.206742
0.202305
0.204606
0.204934
0.204113
0.200332
0.201647
0.196717
0.200497
0.202633
0.204277
0.205099
0.200004
0.204277
0.200825
0.211016
0.203784
0.201483
0.200661
0.203291
0.200497
0.203455
0.199839
0.196552
0.199018
0.198524
0.201647
0.200168
0.202469
0.199018
0.199839
0.202305
0.200332
0.197867
0.199346
0.199675
0.201319
0.194909
0.200004
0.196059
0.197374
0.198524
0.197045
0.196223
0.196552
0.195073
0.195895
0.201647
0.196059
0.198689
0.199675
0.193429
0.192608
0.19721
0.188827
0.189649
0.194087
0.193429
0.19573
0.193265
0.197045
0.195073
0.194416
0.198853
0.195402
0.19573
0.197867
0.192443
0.197374
0.195237
0.195237
0.191457
0.195895
0.192936
0.191457
0.193265
0.193101
0.195237
0.191786
0.196881
0.193101
0.196059
0.193101
0.196388
0.1908
0.191457
0.193922
0.192115
0.191621
0.192115
0.193758
0.188499
0.193101
0.194087
0.193265
0.191293
0.192608
0.191621
0.192608
0.190635
0.193265
0.192443
0.19195
0.188663
0.189978
0.187184
0.188992
0.187184
0.187841
0.183404
0.183239
0.185869
0.187513
0.190635
0.186855
0.19195
0.193758
0.187019
0.185869
0.187184
0.187348
0.188334
0.188663
0.190307
0.187184
0.188499
0.18932
0.186362
0.189485
0.186526
0.188992
0.187677
0.18932
0.185705
0.191621
0.189156
0.190964
0.187348
0.189814
0.186198
0.188827
0.187677
0.186855
0.187348
0.185869
0.190635
0.187019
0.191128
0.18817
0.195237
0.186033
0.190307
0.192115
0.190307
0.188663
0.183897
0.187019
0.185869
0.18554
0.185212
0.180938
0.183732
0.188663
0.187677
0.186855
0.187677
0.189485
0.183568
0.189649
0.182253
0.187019
0.179788
0.183732
0.184883
0.184718
0.184061
0.185705
0.186033
0.186033
0.184718
0.183568
0.185705
0.183239
0.18176
0.182582
0.186855
0.182911
0.182911
0.186033
0.179295
0.181267
0.182746
0.179623
0.180774
0.18061
0.181103
0.183568
0.180938
0.181431
0.181431
0.18061
0.180774
0.181267
0.181596
0.183732
0.185705
0.180774
0.178144
0.18176

Kurve 5

0.000474
0.000146
-0.001334
-0.001498
-0.001334
-0.000183
-0.003306
-0.001827
-0.001169
0.001954
0.000474
0.000146
0.004583
0.000146
-0.000676
-0.00347
0.002118
-0.001827
-0.004292
-0.002484
-0.000676
-0.004949
-0.002155
-0.005443
-0.003306
-0.003306
-0.002155
-0.005278
-0.000841
-0.001498
-0.001498
-0.001827
-0.003799
-0.003963
-0.012346
-0.004785
-0.009058
-0.007744
-0.005771
-0.005114
-0.004949
0.000967
-0.003306
-0.003142
-0.004621
-0.002484
-0.004621
-0.001991
-0.004128
-0.002648
-0.003963
-0.004949
-0.004785
-0.002484
-0.004456
-0.004456
-0.002648
-0.00873
-0.00347
-0.004621
-0.004949
-0.00347
-0.001662
-0.002977
0.002775
-0.001991
-0.006429
-0.00347
-0.004621
-0.00347
-0.003799
-0.005936
-0.005607
-0.004292
-0.006757
-0.001991
-0.004949
-0.002813
-0.003306
0.000146
-0.002813
-0.002977
-0.005114
-0.005936
-0.005607
-0.005114
-0.001662
-0.00725
-0.005771
-0.004292
-0.000841
-0.008401
-0.002484
-0.004785
-0.004456
-0.004128
-0.003799
-0.003142
-0.002813
-0.005443
-0.00347
-0.002484
-0.006757
-0.003799
-0.005936
-0.003963
-0.005443
-0.003799
-0.004949
-0.00232
-0.006264
-0.001662
-0.004456
-0.004128
-0.001169
-0.005278
-0.000841
-0.004128
-0.004785
-0.006922
-0.002648
-0.003963
-0.004785
-0.000347
-0.004949
-0.00347
-0.00347
0.00031
-0.005607
-0.0061
-0.002155
-0.003963
-0.001991
-0.00232
-0.005936
-0.005771
-0.006922
-0.008072
-0.005771
-0.005607
-0.002648
0.000146
-0.001991
-0.001005
-0.003142
-0.001334
-0.004128
-0.001498
-0.003142
-0.001662
-0.001991
-0.00347
0.00031
-0.001827
-0.000347
-0.002977
0.000146
-0.001498
-0.002155
-0.002648
-0.000347
-0.004949
-0.004292
-0.002813
-0.001498
-0.003963
-0.007415
0.000146
-0.000841
-0.004785
-0.001827
-0.001827
-0.000183
-0.001498
0.000146
0.001132
-0.003306
-0.001334
-0.001498
-0.002484
-0.002155
-0.002648
-0.003635
-0.004621
-0.000183
0.003597
0.001296
0.004419
0.004583
0.001789
0.002611
0.000639
0.001296
-0.002484
0.00146
-0.004128
0.000474
0.000803
0.000639
0.003104
0.009021
0.00146
0.003597
0.005734
0.002447
0.006227
0.003926
0.006884
0.004419
0.002775
0.002118
-0.005771
0.00031
0.001954
-0.000512
0.002775
0.000474
0.000474
0.002775
-0.000841
0.005405
0.00146
0.002775
0.000967
0.003926
0.000146
0.002118
-0.000183
0.001625
0.001625
0.00031
0.004748
-0.000183
0.003268
0.002447
0.002447
0.00146
0.003104
-0.005936
0.001296
0.002282
0.004255
0.001625
0.005241
0.00031
0.004583
0.000967
0.002611
0.002447
0.002447
0.003268
0.001789
0.003597
0.006391
0.006391
0.002775
0.007049
0.002447
0.003597
0.002282
0.003926
0.001296
0.000474
0.004255
0.003926
0.003104
0.005898
0.014773
0.002611
0.002447
0.005241
0.003761
0.003597
0.00409
0.003104
0.003104
0.003104
0.001296
0.00294
0.001625
-0.001169
0.003597
-0.001169
-0.001662
-0.004128
0.006884
-0.00232
-0.005114
0.007049
0.004255
0.003104
0.00031
0.00294
0.000639
0.001132
-0.000676
0.000639
-1.9e-05
-1.9e-05
0.001296
0.000146
0.001296
0.00031
0.001954
0.001954
0.003433
-0.002155
0.00409
0.001132
0.000803
0.002447
0.001132
-0.003799
-0.002484
-0.004292
-0.001334
0.00031
0.00031
0.003268
0.000639
0.002775
0.001625
0.004748
-0.001334
0.00146
0.000803
0.004255
-0.001662
0.001296
0.000474
0.001296
-0.001991
-0.002648
-0.004785
-0.005607
0.001296
-0.004128
-0.004292
-0.001662
-0.000183
-0.00347
0.004912
-0.005278
0.000803
0.000803
-0.000347
-0.001662
-0.002813
-0.000841
-0.002648
-0.00232
-0.000676
0.000474
-0.000841
-0.002484
-0.00232
-0.000183
-0.003963
-0.000183
-0.002484
-0.000183
-0.00232
0.002447
-0.002484
-0.001498
-0.003963
-0.002155
-0.005607
-0.002813
-0.002813
-0.003635
-0.00347
-0.004785
0.001132
-0.003635
-1.9e-05
-0.003963
0.002282
-0.005114
-0.000347
-0.004621
-0.003306
-0.006429
-0.00873
0.001132
-0.003635
-0.001991
-0.00232
-0.000512
-0.006757
-0.002648
0.000474
0.000474
-0.003963
0.000639
0.003104
-0.002813
0.00146
-0.005278
-0.005278
-0.00232
-0.004949
-0.00347
-1.9e-05
-0.002648
-0.000183
0.000146
0.000474
-0.002155
0.000639
0.00031
-0.005443
-0.001169
-0.002484
-0.002484
-0.002484
-0.004456
-0.006757
-0.004292
-0.004785
-0.00232
-0.003799
-0.003306
-0.002977
-0.001991
-0.004456
-0.001169
-0.002977
-0.002484
-0.001169
-0.001827
-0.00347
-0.005607
-0.002155
-0.005936
-0.00232
-0.004456
-0.000347
-0.005114
-0.0061
0.003104
0.003268
-0.001827
0.002118
0.001296
-1.9e-05
-0.000841
-0.002484
0.00146
-0.001662
-0.004456
-0.001498
-0.006922
-0.001662
-0.000347
-0.001005
-0.002648
-0.001991
0.002447
-0.002648
0.000803
-0.005278
0.00146
-1.9e-05
0.000146
-0.001334
-0.001169
-0.007744
-0.005607
-0.003799
-0.005278
-0.001498
-0.002155
0.000146
-0.002155
-0.000841
-0.001005
0.001296
0.000639
-1.9e-05
-0.000183
-0.003306
-0.005771
-0.002484
-0.000347
-0.002813
-0.001498
-0.003799
-0.001498
-0.010209
-0.001334
0.000639
-0.003963
-0.00232
-0.003963
-1.9e-05
-0.000183
-1.9e-05
-0.00232
-0.001662
-0.00347
-0.00347
-0.003799
-0.001991
-0.001991
-0.002155
-0.002813
-0.002155
-0.003635
0.003597
0.000803
0.000474
-0.001662
0.003104
-0.006593
-0.002648
-0.002484
-0.005607
-0.005443
-0.005114
-0.00347
-0.001827
-0.001991
-0.003306
-0.00347
-0.001334
-0.000512
-0.004292
0.001296
-0.001662
-0.001169
-0.002484
-0.007415
-0.002155
-1.9e-05
-0.003306
-0.006922
-0.001991
-0.006757
-0.001334
-0.002648
-0.003799
-0.007415
0.001132
-0.002155
-0.000841
-0.005771
-0.001005
-0.002648
-0.005278
-0.001827
-0.001169
-0.004128
-0.003142
-0.001991
-0.005443
-0.002648
-0.005936
-0.004128
-0.005114
-0.00232
-0.00232
0.005405
-0.005771
-0.002648
0.001625
-0.004128
-0.007415
-0.007908
-0.006264
-0.005936
0.00031
-0.005936
-0.000512
-0.005771
-0.001827
-0.014647
-0.003963
-0.00725
-0.004456
-0.005114
-0.006264
-0.002813
-0.001662
-0.002813
-0.001662
-0.002484
-0.002648
-0.004785
-0.006429
-0.00232
-0.007086
-0.004128
0.000146
-0.002155
-0.004621
-0.001991
-0.002977
-0.003142
-0.005607
-0.003963
-0.002484
-0.005607
-0.004949
-0.005771
-0.006593
-0.005607
-0.005278
-0.006757
-0.005607
-0.004128
-0.005607
-0.004292
-0.002813
-0.003635
-0.003799
-0.001991
-0.011852
-0.003306
-0.008237
-0.004292
-0.002813
-0.004456
-0.005607
-0.004292
-0.004949
-0.005278
-0.008565
0.001625
-0.005114
-0.0061
-0.0061
-0.004621
-0.002648
-0.003799
-0.002484
-0.003799
-0.001334
-0.004292
-0.004292
-0.00347
-0.00232
-0.004456
-0.00232
-0.006593
-0.003635
-0.004621
-0.003963
-0.005114
-0.003306
-0.001662
-0.004621
-0.003963
-0.00347
-0.004292
-0.005771
-0.00347
-0.004621
-0.002813
-0.007086
-0.005278
-0.006429
-0.004785
-0.003142
-0.002484
-0.001334
-0.002813
-0.006757
-0.007744
-0.003799
-0.004621
-0.006429
-0.005278
0.002118
-0.00873
-0.003799
-0.006429
-0.005443
-0.004292
-0.004128
-0.003799
-0.005607
-0.005771
-0.005607
-0.002813
-0.004949
-0.001498
-0.000841
-0.001827
-0.005771
-0.00232
-0.00347
-0.005114
-0.006922
-0.00873
-0.005114
-0.003142
-0.003799
-0.001498
-0.004785
-0.003142
-0.002155
-0.004128
-1.9e-05
-0.004292
0.000474
-0.002977
-0.000347
-0.004292
-0.002648
-0.004456
-0.005114
-0.004456
-0.002155
-0.002977
-0.003306
-0.001662
-0.003799
-0.002155
-0.00347
0.001296
-0.00347
-0.002813
-0.003635
-0.003963
-0.005443
-0.005114
-0.002155
-0.003963
-0.002813
-0.000841
-0.004128
-0.003142
-0.005771
-0.002648
-0.000347
-0.003306
-0.003635
-0.004456
-0.00873
-0.001827
-0.001334
-0.002648
-0.000841
-0.007086
-0.003306
-0.001827
-0.000676
-0.000512
-0.000347
-0.001005
0.003597
0.01313
0.006227
0.023813
0.028086
0.035975
0.042878
0.052411
0.058492
0.067203
0.068847
0.072134
0.079366
0.083639
0.088734
0.090871
0.095144
0.101225
0.107964
0.1101
0.116017
0.115853
0.120619
0.121605
0.1267
0.124071
0.131138
0.13196
0.134754
0.135576
0.137055
0.142972
0.143794
0.143958
0.152669
0.151683
0.153162
0.1576
0.153984
0.159901
0.160722
0.162037
0.159408
0.165817
0.164338
0.169926
0.169762
0.172556
0.170584
0.17272
0.1742
0.171077
0.175843
0.174035
0.17535
0.173049
0.17798
0.177815
0.183404
0.178144
0.181596
0.180116
0.180938
0.181596
0.181431
0.185212
0.183897
0.186526
0.187184
0.18932
0.184883
0.187019
0.188006
0.188992
0.189978
0.188663
0.189814
0.192115
0.189485
0.188663
0.188992
0.189156
0.191128
0.187513
0.187513
0.192772
0.19458
0.193101
0.197374
0.198031
0.196388
0.196059
0.192608
0.194416
0.199675
0.196717
0.194909
0.196223
0.197703
0.197867
0.193594
0.198524
0.197045
0.200004
0.193101
0.198853
0.193594
0.197538
0.197867
0.199839
0.195073
0.198524
0.196059
0.19721
0.197538
0.19721
0.200497
0.197045
0.197538
0.198853
0.201154
0.196881
0.198031
0.199346
0.201812
0.196552
0.201154
0.197045
0.198196
0.196717
0.194416
0.19721
0.199346
0.199346
0.195073
0.197703
0.198196
0.201319
0.198689
0.196717
0.199839
0.202962
0.200661
0.201319
0.200825
0.200332
0.200004
0.193922
0.196717
0.198196
0.199018
0.200332
0.20099
0.204934
0.203455
0.201154
0.201812
0.20214
0.201976
0.200497
0.201483
0.197703
0.201483
0.192936
0.198853
0.201319
0.200332
0.199346
0.205099
0.199675
0.199839
0.201483
0.198689
0.201483
0.197867
0.203291
0.201647
0.20099
0.197045
0.18817
0.192608
0.194744
0.195895
0.199675
0.200825
0.200004
0.200661
0.200004
0.201154
0.200168
0.20099
0.196223
0.199839
0.199675
0.198853
0.195402
0.196881
0.196552
0.196223
0.199675
0.196881
0.198524
0.195237
0.198853
0.199675
0.199839
0.199675
0.202798
0.199182
0.201319
0.200004
0.19721
0.197538
0.200168
0.195895
0.195402
0.196059
0.195073
0.197703
0.195566
0.201154
0.196223
0.202633
0.195566
0.202633
0.198196
0.199346
0.19836
0.195237
0.19458
0.192772
0.196388
0.195073
0.194087
0.19573
0.20099
0.193594
0.200004
0.197703
0.198196
0.196223
0.19836
0.19836
0.196881
0.196059
0.199675
0.195895
0.194909
0.200168
0.196552
0.194251
0.192443
0.194909
0.194251
0.196223
0.195895
0.19836
0.19721
0.199511
0.19573
0.196552
0.195895
0.195895
0.194087
0.195566
0.193429
0.193758
0.194416
0.196881
0.196059
0.196059
0.19721
0.196717
0.197703
0.195237
0.198196
0.195566
0.199839
0.193922
0.193101
0.192772
0.192772
0.191786
0.193758
0.19721
0.189156
0.197045
0.19458
0.19836
0.197045
0.19836
0.191293
0.196059
0.193101
0.195895
0.196059
0.192772
0.193265
0.198689
0.19836
0.191128
0.191293
0.187184
0.192443
0.191128
0.191786
0.191786
0.190307
0.194251
0.192936
0.195895
0.193758
0.193922
0.191128
0.193594
0.194416
0.191457
0.191621
0.191128
0.193594
0.194744
0.192936
0.194744
0.193758
0.114374
0.00787
0.017567
0.023977
0.03088
0.035318
0.041728
0.05011
0.055205
0.060136
0.063423
0.069669
0.076572
0.082324
0.088734
0.094487
0.092021
0.103691
0.105827
0.106649
0.110429
0.120784
0.113552
0.120455
0.120455
0.125714
0.130974
0.1267
0.137548
0.136726
0.141328
0.137877
0.131796
0.143629
0.149875
0.148396
0.149053
0.149217
0.156942
0.155299
0.154477
0.157271
0.154148
0.157107
0.158093
0.161544
0.159736
0.162859
0.162366
0.166968
0.168118
0.169926
0.170091
0.173049
0.170748
0.172556
0.172885
0.173378
0.176665
0.175186
0.177815
0.178802
0.181267
0.179295
0.178144
0.178144
0.182417
0.179788
0.181924
0.180116
0.184061
0.186691
0.185705
0.184554
0.187677
0.187841
0.187841
0.190471
0.18554
0.187348
0.186691
0.191621
0.187513
0.188827
0.193758
0.198031
0.19573
0.195895
0.196552
0.193922
0.193594
0.192115
0.195073
0.192115
0.190964
0.193101
0.194087
0.193265
0.194744
0.193429
0.193265
0.192936
0.195402
0.19458
0.192279
0.184718
0.188499
0.187184
0.185376
0.188827
0.190964
0.187348
0.184718
0.189156
0.191457
0.196059
0.18932
0.191786
0.192936
0.19195
0.188992
0.19721
0.191293
0.191293
0.191293
0.196552
0.192279
0.189649
0.193594
0.188992
0.192936
0.190635
0.194744
0.193265
0.194744
0.189156
0.189814
0.189649
0.193265
0.193594
0.195566
0.196881
0.192608
0.196223
0.191457
0.193594
0.193429
0.192608
0.192772
0.194744
0.194416
0.19573
0.19458
0.194251
0.194416
0.194416
0.194251
0.194251
0.195895
0.192608
0.19458
0.195073
0.195237
0.194416
0.193101
0.194416
0.194744
0.190307
0.194416
0.193101
0.196552
0.194416
0.199018
0.197045
0.198031
0.197538
0.196717
0.19721
0.192772
0.194251
0.19573
0.195566
0.194087
0.202305
0.198689
0.196552
0.196552
0.202798
0.196388
0.195895
0.19836
0.195895
0.193758
0.194416
0.198689
0.19721
0.197703
0.197867
0.202469
0.193265
0.19721
0.196059
0.196059
0.197703
0.194416
0.197703
0.197374
0.195895
0.197538
0.186855
0.19573
0.198853
0.196223
0.201154
0.198689
0.197867
0.203948
0.202305
0.197867
0.199346
0.198196
0.196881
0.19721
0.199182
0.197867
0.19458
0.201154
0.199839
0.198853
0.197703
0.199839
0.197703
0.195566
0.197045
0.198689
0.193265
0.196388
0.19721
0.195237
0.19573
0.196552
0.195237
0.19836
0.200004
0.195402
0.200497
0.196717
0.196552
0.19836
0.195895
0.195237
0.196881
0.194416
0.197374
0.198853
0.193265
0.192936
0.19573
0.195402
0.195073
0.193429
0.195237
0.196388
0.192443
0.197374
0.199839
0.194744
0.195895
0.19836
0.194744
0.196881
0.193101
0.195566
0.196059
0.196223
0.197867
0.19836
0.197538
0.197703
0.196881
0.196223
0.196223
0.194416
0.19573
0.19195
0.192115
0.189156
0.187348
0.190964
0.189649
0.192443
0.188827
0.189485
0.190307
0.189814
0.191293
0.191293
0.190307
0.193922
0.186691
0.1908
0.189978
0.190471
0.186362
0.185047
0.187677
0.189814
0.189156
0.191128
0.019704
0.027429
0.04107
0.040906
0.050603
0.053397
0.060629
0.065395
0.067532
0.07575
0.080516
0.084132
0.089391
0.093993
0.097445
0.102211
0.108621
0.109607
0.114374
0.120291
0.120784
0.124728
0.128673
0.128673
0.135411
0.138699
0.136562
0.140342
0.137548
0.140342
0.131302
0.120619
0.112401
0.100568
0.0935
0.090213
0.090871
0.084789
0.089885
0.084789
0.075914
0.068025
0.062766
0.054548
-0.003306
-0.000676
0.002447
-0.000512
0.008035
0.022005
0.025457
0.034825
0.039591
0.050768
0.053233
0.063094
0.061615
0.067203
0.073942
0.076079
0.081009
0.084625
0.091035
0.093336
0.099417
0.102047
0.112566
0.109772
0.113059
0.116675
0.119304
0.121934
0.12555
0.127687
0.135083
0.135576
0.139356
0.129001
0.137877
0.136398
0.137548
0.141164
0.142479
0.138205
0.141493
0.137384
0.136891
0.136562
0.133603
0.137219
0.135247
0.140178
0.139027
0.140013
0.128344
0.128673
0.120291
0.112073
0.107635
0.101061
0.099253
0.09613
0.096459
0.098595
0.105663
0.108786
0.114867
0.113223
0.118647
0.120784
0.119962
0.123413
0.1267
0.128837
0.130316
0.131302
0.139356
0.141821
0.141986
0.14593
0.146752
0.150368
0.152669
0.153984
0.158093
0.155299
0.156449
0.160229
0.158914
0.161709
0.16401
0.169762
0.168776
0.168447
0.170913
0.170584
0.171734
0.171406
0.174364
0.170255
0.17798
0.174528
0.179952
0.178309
0.181596
0.178144
0.178144
0.177487
0.180774
0.182582
0.182417
0.183732
0.185705
0.186033
0.186033
0.188006
0.185212
0.18817
0.189156
0.192936
0.189156
0.189814
0.191621
0.190307
0.188334
0.189978
0.191128
0.188499
0.192772
0.192936
0.191293
0.190964
0.193101
0.194087
0.194087
0.18932
0.193594
0.195895
0.192279
0.1908
0.195566
0.192279
0.189649
0.191786
0.194087
0.195237
0.194909
0.195237
0.195566
0.197045
0.194416
0.196388
0.195402
0.194909
0.195073
0.193429
0.194416
0.193594
0.192936
0.197045
0.192608
0.194251
0.19721
0.196717
0.197703
0.194416
0.200661
0.199018
0.20099
0.200825
0.199675
0.198689
0.201483
0.195402
0.198524
0.196059
0.195895
0.200825
0.19573
0.197867
0.19836
0.20099
0.199675
0.197374
0.197703
0.198196
0.200004
0.200497
0.199511
0.201319
0.197703
0.198853
0.200497
0.198689
0.199018
0.196717
0.201319
0.199018
0.198524
0.200661
0.201812
0.199675
0.201319
0.198853
0.200332
0.197538
0.197045
0.199675
0.198196
0.19458
0.198689
0.197538
0.19721
0.199839
0.194909
0.198853
0.198689
0.20214
0.198524
0.205592
0.197703
0.203948
0.202469
0.202469
0.199018
0.201976
0.198031
0.195073
0.200825
0.198031
0.200168
0.198689
0.202798
0.199346
0.201154
0.200825
0.205099
0.20099
0.203126
0.201976
0.201154
0.199839
0.204441
0.203126
0.200497
0.201319
0.200168
0.203291
0.198524
0.202633
0.197538
0.197045
0.188334
0.185869
0.181596
0.180281
0.176829
0.179459
0.180774
0.182911
0.17913
0.182089
0.186691
0.182911
0.191293
0.184225
0.189649
0.185376
0.187513
0.190964
0.194251
0.1908
0.193429
0.194251
0.189485
0.189485
0.192115
0.193101
0.191786
0.193429
0.193101
0.198031
0.194416
0.192936
0.194909
0.199018
0.195402
0.19836
0.199182
0.198689
0.197045
0.196881
0.196881
0.195073
0.192443
0.197045
0.19721
0.196223
0.196388
0.201483
0.199018
0.200168
0.200825
0.201154
0.201483
0.200004
0.19836
0.197703
0.198524
0.201483
0.200168
0.198196
0.201976
0.199346
0.198853
0.202798
0.197867
0.200497
0.198853
0.20477
0.202469
0.200661
0.201319
0.200661
0.200168
0.199675
0.197045
0.198031
0.199839
0.198853
0.199018
0.194744
0.20099
0.196059
0.199182
0.200332
0.202305
0.197045
0.198853
0.197045
0.197538
0.198689
0.195566
0.193922
0.195566
0.197867
0.198524
0.199675
0.195073
0.199018
0.196717
0.195566
0.197045
0.197867
0.194416
0.197045
0.194416
0.193265
0.192936
0.194251
0.197045
0.19721
0.19573
0.19573
0.19836
0.196881
0.199839
0.194909
0.200497
0.205427
0.196881
0.195073
0.200661
0.196059
0.197374
0.197045
0.19836
0.196881
0.197538
0.195895
0.187841
0.18439
0.177158
0.165653
0.15612
0.139356
0.122263
0.119962
0.114867
0.106978
0.08331
0.059807
0.041892
0.025457
0.012308
-0.00347
-0.010373
-0.020235
-0.018755
-0.025001
-0.024672
-0.030918
-0.028124
-0.030754
-0.028288
-0.028453
-0.023029
-0.019084
-0.021056
-0.014811
-0.010702
-0.007415
-0.005607
-0.001662
0.003104
0.004912
0.000803
0.000639
-0.001827
-0.000841
-0.005278
-0.005114
-0.00873
-0.001662
0.00031
0.004255
0.008857
0.011651
0.019868
0.022663
0.032524
0.035811
0.04255
0.04633
0.052904
0.051589
0.066053
0.062108
0.06671
0.065231
0.061944
0.067861
0.069833
0.076243
0.079859
0.090542
0.089227
0.093665
0.096623
0.10254
0.103197
0.109936
0.104348
0.106485
0.11651
0.116839
0.12177
0.120948
0.069833
0.059972
0.061122
0.067039
0.074599
0.078708
0.081009
0.086597
0.084296
0.075421
0.077886
0.078873
0.082324
0.088898
0.094322
0.098431
0.104184
0.103526
0.113881
0.116017
0.117168
0.124071
0.124893
0.127358
0.130316
0.134261
0.133768
0.13574
0.136069
0.144615
0.145437
0.150697
0.151683
0.157271
0.153491
0.1576
0.159572
0.16138
0.160229
0.161051
0.164174
0.164996
0.167297
0.168283
0.173871
0.168283
0.173707
0.175186
0.174693
0.176501
0.177815
0.179459
0.17798
0.18061
0.181924
0.183732
0.178802
0.17913
0.176172
0.177487
0.170913
0.166968
0.156942
0.149053
0.133603
0.108786
0.092514
0.067039
0.048795
0.035975
0.035811
0.031209
0.032031
0.029401
0.028908
0.028744
0.029894
0.026771
0.024964
0.022005
0.024306
0.028579
0.035154
0.03729
0.0437
0.046659
0.05011
0.05537
0.002611
0.006884
0.016581
0.026771
0.030552
0.042221
0.043536
0.054548
0.051589
0.063587
0.06934
0.06934
0.077722
0.085447
0.089227
0.093993
0.097609
0.099417
0.109279
0.105827
0.114538
0.114209
0.116839
0.122427
0.127851
0.128673
0.132782
0.134097
0.136069
0.14215
0.144944
0.147738
0.147409
0.152011
0.147738
0.151518
0.153655
0.158914
0.155792
0.161215
0.166968
0.162202
0.163516
0.164831
0.166311
0.164996
0.169926
0.17157
0.17157
0.171077
0.1742
0.179295
0.176336
0.17798
0.17913
0.178637
0.181596
0.175186
0.174364
0.176501
0.178473
0.17798
0.18176
0.184718
0.183897
0.18439
0.18554
0.188992
0.18439
0.187019
0.185705
0.190635
0.187841
0.190964
0.187184
0.185376
0.187348
0.188992
0.189978
0.188827
0.189485
0.18932
0.188827
0.191128
0.189649
0.188992
0.1908
0.190471
0.190635
0.184554
0.18932
0.186855
0.189649
0.189649
0.190635
0.184883
0.193594
0.186855
0.192443
0.193594
0.193594
0.190471
0.190635
0.046166
0.00294
0.006391
0.012472
0.022991
0.026114
0.020362
0.022663
0.015924
0.010171
0.015431
0.021019
0.024306
0.030059
0.03351
0.041399
0.040413
0.047809
0.04107
0.043043
0.043371
0.049781
0.050603
0.055863
0.056356
0.059972
0.058985
0.059807
0.064245
0.071641
0.065724
0.067203
0.073613
0.076079
0.084132
0.084954
0.092843
0.093829
0.093829
0.093993
0.099746
0.097938
0.106649
0.109114
0.110922
0.11651
0.116017
0.123906
0.124564
0.130481
0.129659
0.136398
0.134918
0.138041
0.142643
0.141657
0.142314
0.141821
0.142479
0.146588
0.152176
0.14856
0.153326
0.154641
0.150368
0.153326
0.153326
0.150368
0.153162
0.153162
0.156778
0.155299
0.15497
0.149382
0.097116
-0.000183
0.000639
0.002447
0.004583
0.011322
0.017896
0.027265
0.030059
0.034989
0.041564
0.041399
0.050768
0.061122
0.059478
0.06293
0.065724
0.067039
0.071805
0.076572
0.075585
0.075914
0.078873
0.075421
0.084132
0.079366
0.084954
0.081502
0.092021
0.094815
0.093007
0.095308
0.094815
0.096294
0.096459
0.097445
0.101883
0.103033
0.101554
0.104512
0.108621
0.109772
0.107635
0.116017
0.113223
0.117168
0.117332
0.118318
0.120291
0.123906
0.124399
0.12933
0.129001
0.130974
0.134754
0.13311
0.138041
0.138699
0.141
0.140835
0.143629
0.143958
0.145108
0.14215
0.143465
0.141821
0.136891
0.12933
0.130974
0.123578
0.11536
0.113388
0.105334
0.101718
0.097609
0.099089
0.099582
0.10254
0.09991
0.101883
0.096459
0.095473
0.090049
0.074106
0.063916
0.048631
0.038605
0.022169
0.018389
0.014116
0.01954
0.018225
0.020033
0.018554
0.02447
0.028086
0.032688
0.035482
0.042221
0.046987
0.056027
0.056849
0.068847
0.068847
0.075257
0.080352
0.083968
0.091364
0.09498
0.099582
0.099582
0.108128
0.108786
0.114209
0.115853
0.120291
0.122756
0.12555
0.128837
0.129166
0.130974
0.135083
0.130481
0.131631
0.137055
0.135083
0.13459
0.141328
0.141986
0.142643
0.137548
0.135247
0.136562
0.139849
0.143136
0.140671
0.144122
0.140342
0.146752
0.150697
0.15612
0.159408
0.152505
0.159572
0.023813
0.035647
0.03992
0.04896
0.053726
0.058985
0.066875
0.067039
0.070162
0.073778
0.077393
0.07953
0.084625
0.087748
0.090378
0.093993
0.100896
0.101061
0.10895
0.108786
0.113881
0.112894
0.118811
0.115195
0.119469
0.120948
0.11799
0.117661
0.116182
0.117825
0.114538
0.118318
0.118811
0.120455
0.121112
0.123578
0.122098
0.11914
0.119797
0.120455
0.121277
0.120291
0.112237
0.112894
0.112401
0.120455
0.11914
0.120948
0.129988
0.128015
0.128673
0.134754
0.13311
0.130152
0.136562
0.132617
0.130645
0.133275
0.134097
0.132946
0.134261
0.138534
0.13574
0.14215
0.142314
0.148067
0.148231
0.150697
0.152998
0.152998
0.15875
0.158914
0.159901
0.162037
0.164174
0.163845
0.168118
0.170584
0.166475
0.168776
0.170584
0.169762
0.174693
0.173871
0.177815
0.17535
0.178637
0.177815
0.178144
0.180281
0.179623
0.178966
0.184554
0.187841
0.184718
0.186362
0.185376
0.190142
0.187019
0.18932
0.187348
0.186526
0.191293
0.191457
0.186855
0.193101
0.192115
0.1908
0.194416
0.192608
0.192608
0.1908
0.192115
0.191457
0.193922
0.192443
0.194744
0.192115
0.196717
0.198031
0.196059
0.193922
0.197538
0.196881
0.198524
0.195402
0.192608
0.197374
0.194909
0.197374
0.197703
0.197374
0.19721
0.200004
0.199346
0.19836
0.196552
0.200332
0.199182
0.199675
0.201154
0.202305
0.20099
0.200825
0.201154
0.200332
0.200497
0.203455
0.199346
0.196717
0.202305
0.20099
0.202962
0.201812
0.202305
0.202798
0.203126
0.202962
0.202633
0.200332
0.201976
0.199839
0.205099
0.202633
0.200497
0.201154
0.203126
0.204113
0.202469
0.199346
0.203126
0.202633
0.19836
0.204441
0.197538
0.198524
0.201812
0.195402
0.196552
0.194087
0.192772
0.194251
0.19573
0.1908
0.195895
0.193265
0.194744
0.193594
0.197374
0.194909
0.192608
0.193265
0.193429
0.192443
0.193594
0.198196
0.195402
0.193265
0.199018
0.198524
0.194909
0.198524
0.198524
0.196881
0.199346
0.199675
0.197867
0.200825
0.200661

Kurve 6

0.006391
0.008035
0.006391
0.007049
0.009678
0.004583
0.005241
0.007706
0.003761
0.006062
0.00672
0.009185
0.000803
0.006227
0.004912
0.005405
0.004583
0.000639
0.003104
0.001625
0.00146
-0.001169
0.003926
0.004419
0.004748
0.003597
0.004912
0.005076
0.002775
0.002282
0.005569
0.002447
0.00409
0.005241
0.006884
0.00935
0.012308
0.00787
0.006062
0.007213
0.002118
0.008199
0.00294
0.008363
0.002118
0.006062
0.003104
0.003926
0.002282
0.003926
0.002775
0.00031
0.007542
0.004748
0.005241
0.00294
0.001296
0.003104
0.008035
0.002282
0.002447
0.003268
0.00294
-0.002155
0.003761
0.002775
0.001789
-0.000676
0.001954
0.00146
0.002118
0.002282
-0.001498
0.002118
0.000803
0.002447
0.000639
0.003104
0.001789
0.001789
0.003433
-0.000347
-0.000512
0.001132
0.003433
0.00146
0.001296
0.000474
0.002775
0.000803
0.001789
0.002611
0.000146
-0.000512
0.00146
-0.000512
-0.001169
-0.000347
0.002118
0.004912
-1.9e-05
0.003104
0.003597
0.001296
0.001132
0.00146
-0.000841
-0.001498
0.001625
0.005076
0.000474
0.002775
-0.000183
-0.005771
-0.001334
0.003104
-0.000676
0.001132
-0.001334
-0.000676
0.006556
-0.00232
-0.000183
-0.001827
0.00294
-0.002813
0.002282
-1.9e-05
0.002611
0.00146
0.002447
0.000474
0.00294
-0.000183
0.001296
-0.000183
-0.00347
-0.001991
-0.003799
-0.001169
-0.00232
0.003597
-0.003306
0.001954
0.001954
-0.000183
-0.000676
0.000146
-0.002155
0.000146
-0.00232
-0.000183
0.000639
-0.005771
-0.000512
0.001132
0.00294
0.001132
0.005898
-0.000347
0.001789
0.000474
0.000474
0.000146
-0.001827
-1.9e-05
0.000967
0.001132
-0.001334
-1.9e-05
-0.004128
0.00146
-0.003142
-0.001005
-0.001005
0.000146
0.001954
0.005734
0.000474
0.004419
0.004583
-0.000183
-0.001169
0.003761
0.003761
-0.000183
0.003597
0.004748
0.002282
0.001296
0.001132
0.001132
0.000967
0.000639
0.002282
-0.004949
0.003926
-0.001169
0.000967
-0.001169
-0.000512
-0.001169
-0.000841
-0.001662
-0.00347
-0.003799
-0.005443
-0.004292
-0.003963
-0.000183
0.000474
0.000967
-0.000512
0.000639
-0.000183
0.000639
-0.001662
-0.003799
-0.002484
-0.005936
-0.004128
-0.001991
-0.000512
-0.001005
0.001625
-0.001169
0.002775
0.002611
0.000474
0.001296
0.001296
0.002447
0.000803
-0.000841
-0.000347
-0.004785
-0.004456
-0.002155
-0.001662
-1.9e-05
-0.000676
0.001132
-0.000347
0.002447
-0.000841
0.002282
0.00146
0.000146
0.000474
-0.003799
-0.001334
0.000803
-0.005771
-0.002977
-0.001005
-0.003142
0.002447
-0.000512
0.005241
-0.000512
0.00031
0.001625
0.00031
-0.002484
0.001789
-0.000347
-1.9e-05
-0.003799
-0.001498
-0.002977
-0.004621
0.001789
-0.004785
0.001625
-0.003306
0.000803
-0.000183
0.00294
-0.000676
0.006556
-0.001334
-0.000183
0.000803
0.002611
-0.000512
-0.002648
-0.000841
-0.005443
-0.002813
-0.001498
-0.007908
0.002282
-0.002484
0.002611
0.000639
-0.002484
0.005569
-0.000183
0.00146
0.002447
0.000474
-0.001498
-0.001991
-0.001005
0.001789
0.002118
-0.000676
0.003761
0.00146
-0.002648
-0.000347
0.000639
-0.000841
-0.000183
-0.000512
-0.000183
0.000146
-0.001498
-0.004785
-0.003799
-0.002484
-0.002648
-0.002484
-0.004949
0.000639
-0.002813
-0.002155
-0.001827
0.000146
-0.004785
-0.001498
0.000474
-0.000841
0.00031
0.000639
-0.000347
0.000639
0.00146
-0.001498
-0.001169
-0.004785
-0.002977
-0.003142
-1.9e-05
-0.003799
-0.002977
0.002611
-0.001662
-0.00232
-0.000347
-0.002155
-0.001334
-0.00347
-0.001169
-0.004128
-0.001827
-0.003963
-0.000512
-1.9e-05
-0.002484
0.00031
-0.001169
-0.000347
0.000639
0.00146
-0.000676
0.00146
0.000146
-0.001827
-0.00347
-0.001827
-0.001005
-0.005114
-0.003799
-0.001334
0.000967
-0.002484
-0.001005
-0.001662
0.000146
-0.00232
0.000474
-0.001005
0.000146
-0.001498
-0.002155
0.003268
-0.000512
0.004583
-1.9e-05
0.003597
-0.003635
-0.001334
-0.002813
-0.002155
-0.004292
-0.000512
-0.001991
0.003104
-0.001662
-0.000183
0.000967
-0.004128
-0.001498
-0.005278
-0.004785
-0.004292
-0.002648
0.000803
0.001789
-0.004128
-0.002648
-0.002155
-0.001498
-0.001498
-0.000512
-0.003635
-0.00232
-0.004621
0.001789
-0.002484
-0.001005
-0.000841
0.002118
-0.001169
-0.003799
0.000474
-0.002484
-0.001991
-0.002813
0.000474
0.005241
0.001954
0.000146
0.001625
0.000639
-0.003142
-0.002484
0.003433
0.003761
-0.002977
0.001789
-0.001334
0.00146
-0.00347
0.000803
-0.002155
-1.9e-05
0.00031
-0.000183
0.002282
-0.00232
-0.000512
-0.003963
-0.001991
-0.001498
0.000803
-0.002977
-0.001334
-0.005936
-0.00347
-0.003142
-0.00347
-0.000347
0.000474
0.000967
-0.002648
0.003104
-0.00232
-0.000347
-0.002813
-0.000183
-0.002648
0.000474
-0.000512
-0.000347
-0.002484
0.000146
-0.013825
-0.002813
-0.003142
-0.002484
-0.000676
0.003926
0.001296
0.00294
0.000639
-0.002813
0.00409
0.000967
-0.002648
-0.000676
-0.004621
-0.001662
0.002118
-0.004456
-0.002155
-0.001005
0.000474
0.001625
0.000474
-0.001169
-0.001334
0.001954
-0.005278
0.002611
-0.001827
-0.000347
0.002447
-0.000841
-0.001498
0.006227
-0.000183
-0.000512
0.001132
-0.001662
0.000146
-0.001662
-0.002813
0.000639
0.000474
-0.003635
-0.001169
0.002447
-0.000183
-0.001169
-1.9e-05
-0.002813
-0.000347
-0.003963
0.002118
-0.002484
-0.000512
-0.002155
0.00409
-0.000183
0.001132
-0.001169
-0.001005
0.001954
-0.00232
0.00146
-0.001005
0.00031
0.00031
0.00146
-0.000183
-0.004128
0.001132
0.001132
-0.000512
0.00146
0.000803
0.000639
0.00294
-0.000347
0.003104
0.004255
0.003104
-0.000841
0.000967
0.002282
-0.002155
-0.001169
-1.9e-05
0.000146
0.000639
0.003104
-0.001498
-0.002648
-0.000676
0.00031
-0.002977
0.001132
0.000146
0.000967
0.00146
0.000639
-0.000512
0.002611
0.003104
0.000146
0.000803
0.001625
-0.001334
-0.001662
0.003926
-0.004128
0.000639
0.001132
-1.9e-05
-0.001169
0.000639
-0.001005
0.00146
-0.002813
0.001954
-0.00232
0.000639
0.000146
-0.000183
-0.003142
0.001132
-0.00347
0.001954
0.000803
-0.001991
0.00146
0.000639
0.000803
-0.002484
0.00146
-0.009058
-0.001005
-0.00347
-0.004292
-0.000676
-0.003799
-0.002648
-0.000676
-0.001991
-0.000183
0.003104
-0.001662
0.00294
-0.001005
0.001625
0.001132
-0.002484
0.001954
0.002611
0.00031
0.001789
0.001954
-0.000676
0.00031
0.000967
-0.004456
0.002447
-0.000841
0.003433
0.005734
0.003104
0.001132
0.008363
-0.001334
0.000146
0.00146
0.00031
-0.000183
0.001132
0.000967
0.001132
0.000803
0.002118
-0.007415
0.002447
-0.002155
0.005241
-0.002648
0.00031
0.002775
0.005569
-0.001005
0.001954
-0.001991
-0.004292
-0.004621
-0.002484
-0.001827
-0.003963
-0.001169
0.002118
0.001132
-0.000841
0.004255
-0.002155
0.000803
-0.003142
-0.001334
-0.00347
-0.001498
-0.004128
-0.001991
-0.003635
-0.003963
0.000803
-0.002648
0.002611
0.000803
-0.000841
-0.001498
0.00146
-0.001005
-0.001169
0.000474
0.003597
-0.004456
0.002282
-0.002484
0.001132
-0.001498
-0.001827
0.000803
-0.000676
0.003104
0.000639
0.007049
0.00146
0.004912
0.00294
0.007377
0.003268
0.004583
0.000474
0.000803
0.000474
-0.002813
0.000967
0.002775
0.001789
-0.000512
0.003761
0.002447
0.005405
0.003268
0.007706
0.006884
0.003926
0.003926
0.004748
0.001789
0.003433
0.001789
0.001954
0.002611
0.001132
0.004912
0.006556
0.005076
0.002611
0.00787
0.002447
0.006556
0.003104
0.00294
0.001954
0.004255
0.002118
0.002611
0.001296
0.005241
0.011815
0.019704
0.029401
0.035318
0.045179
0.049288
0.058657
0.061451
0.069176
0.07197
0.080352
0.086104
0.087255
0.087912
0.098595
0.100239
0.10254
0.107471
0.111908
0.116017
0.117168
0.125057
0.127358
0.131467
0.134918
0.139849
0.137712
0.14215
0.144122
0.145437
0.146259
0.148231
0.150697
0.15234
0.155463
0.158093
0.161709
0.160722
0.16138
0.081995
0.067039
0.070983
0.078873
0.082488
0.087584
0.091528
0.096623
0.100075
0.101718
0.106485
0.111415
0.114374
0.114045
0.120784
0.124235
0.130481
0.130152
0.135576
0.139192
0.140835
0.141657
0.14593
0.146588
0.144615
0.146916
0.15234
0.15497
0.154148
0.156942
0.164996
0.162037
0.161544
0.16516
0.163188
0.164503
0.163681
0.149875
0.151025
0.151354
0.153984
0.147574
0.153491
0.071805
0.047316
0.054219
0.061615
0.066381
0.004912
0.009843
0.004748
0.000474
0.002775
0.007706
0.021841
0.024635
0.034496
0.040084
0.049781
0.053233
0.058328
0.060958
0.067696
0.07049
0.071312
0.081009
0.083639
0.091528
0.093336
0.098924
0.102704
0.109443
0.108786
0.117003
0.116675
0.128508
0.119633
0.126865
0.128015
0.128837
0.135247
0.133439
0.139356
0.137877
0.141
0.146752
0.147409
0.14856
0.154477
0.151518
0.155792
0.160229
0.156778
0.159243
0.158914
0.162037
0.162859
0.16516
0.16138
0.164831
0.164503
0.166639
0.168118
0.170255
0.171406
0.174857
0.173214
0.175021
0.176994
0.173542
0.173049
0.176172
0.176336
0.176994
0.173707
0.174528
0.179952
0.178144
0.182089
0.178966
0.18061
0.181924
0.183239
0.181431
0.183732
0.186855
0.180445
0.182089
0.185376
0.181267
0.182089
0.18439
0.185047
0.192608
0.185047
0.18817
0.186855
0.188827
0.18817
0.191457
0.189814
0.19195
0.191457
0.190471
0.190635
0.187184
0.185047
0.18932
0.189649
0.189156
0.192936
0.189156
0.193758
0.191621
0.194909
0.19195
0.19458
0.193429
0.193922
0.196881
0.191786
0.193594
0.191457
0.194087
0.195402
0.194744
0.190142
0.191786
0.193101
0.190471
0.19458
0.193922
0.194251
0.195237
0.195073
0.194744
0.190142
0.187513
0.189814
0.190471
0.190471
0.187841
0.194087
0.19573
0.194909
0.193265
0.193594
0.192279
0.193429
0.191457
0.195237
0.190964
0.192279
0.192608
0.191786
0.187513
0.192443
0.189485
0.18932
0.189649
0.190307
0.1908
0.185376
0.193758
0.190471
0.183897
0.186855
0.187513
0.184718
0.18554
0.18439
0.182089
0.185047
0.182417
0.18554
0.189156
0.185212
0.182911
0.183897
0.180116
0.182253
0.183075
0.182582
0.180938
0.181924
0.183239
0.178802
0.178637
0.181596
0.176336
0.180281
0.182089
0.182417
0.140178
0.094487
0.106978
0.105498
0.113552
0.112566
0.117661
0.120291
0.123578
0.124728
0.126536
0.133768
0.134754
0.138699
0.137877
0.011979
0.013623
0.02069
0.025292
-0.011195
0.002118
0.008035
0.014116
0.008363
0.00409
0.009514
0.010171
0.017732
0.015924
0.008363
0.016088
0.017074
0.02973
0.03614
0.040742
0.049288
0.05274
0.065067
0.067696
0.068847
0.077558
0.080352
0.082653
0.087419
0.092679
0.100896
0.099417
0.106485
0.105827
0.11158
0.113059
0.116839
0.119469
0.122427
0.122263
0.127358
0.130152
0.13196
0.133275
0.144451
0.138863
0.139356
0.143958
0.144122
0.147245
0.145273
0.149053
0.150204
0.151354
0.150368
0.15612
0.15497
0.155627
0.157928
0.158914
0.154477
0.16516
0.160722
0.163023
0.163516
0.162366
0.170584
0.166146
0.167461
0.168283
0.168447
0.164503
0.165817
0.167297
0.169105
0.169105
0.170091
0.170748
0.170748
0.17272
0.176994
0.179952
0.174693
0.17535
0.178144
0.17535
0.177487
0.176008
0.17798
0.180116
0.17913
0.181924
0.181267
0.178802
0.183897
0.177651
0.180116
0.179459
0.181924
0.180774
0.182417
0.181267
0.183239
0.18439
0.182582
0.183568
0.181103
0.181431
0.181431
0.180774
0.184061
0.182582
0.182417
0.183239
0.180938
0.183239
0.182417
0.181103
0.181924
0.178966
0.176829
0.176829
0.171241
0.173214
0.173542
0.176665
0.175186
0.175679
0.172885
0.176994
0.178144
0.174364
0.176665
0.174364
0.179459
0.1742
0.178637
0.169598
0.164338
0.142643
0.109936
0.067861
0.01954
0.015431
0.008035
0.004419
0.002611
-1.9e-05
0.003268
-0.000841
0.004255
0.002447
0.001789
0.002447
0.00409
0.006391
0.001789
0.004583
0.003926
0.003761
0.010171
0.008692
0.012965
0.015266
0.022991
0.030387
0.035647
0.04255
0.050603
0.043371
0.055041
0.064245
0.06934
0.069669
0.078708
0.078873
0.084461
0.08857
0.091692
0.096294
0.098102
0.105005
0.106978
0.113552
0.111251
0.120619
0.118647
0.122756
0.124728
0.127194
0.12933
0.132782
0.137712
0.132124
0.137712
0.13952
0.140342
0.147903
0.144287
0.149875
0.150697
0.14971
0.154312
0.157271
0.154641
0.15875
0.156942
0.155134
0.159901
0.156449
0.160065
0.160887
0.166311
0.164831
0.168447
0.166311
0.168118
0.172063
0.166968
0.172063
0.171734
0.1742
0.170913
0.177158
0.172556
0.175021
0.170748
0.172063
0.174528
0.173871
0.177487
0.172392
0.182089
0.178309
0.179295
0.178637
0.178637
0.175021
0.175843
0.17272
0.178473
0.180116
0.179295
0.181924
0.180774
0.181103
0.178637
0.182582
0.182417
0.179623
0.180774
0.182746
0.179788
0.183732
0.184061
0.184883
0.184061
0.186526
0.186033
0.184061
0.181431
0.186526
0.186526
0.18439
0.187348
0.186855
0.189485
0.189156
0.190471
0.186855
0.188499
0.186855
0.185705
0.179623
0.180938
0.178966
0.184554
0.175515
0.180774
0.180774
0.182582
0.178966
0.181924
0.184225
0.183404
0.186033
0.183239
0.188499
0.185376
0.186855
0.18932
0.188006
0.185212
0.18817
0.182253
0.186691
0.188663
0.187513
0.192608
0.188006
0.1908
0.190307
0.194416
0.189485
0.192936
0.192443
0.192772
0.192443
0.190142
0.193265
0.190964
0.193429
0.190635
0.196059
0.188006
0.193265
0.192443
0.193429
0.194251
0.194909
0.194416
0.195402
0.195895
0.192115
0.185376
0.192936
0.193429
0.192772
0.19195
0.194251
0.19573
0.190471
0.194909
0.194744
0.196059
0.195073
0.195237
0.195566
0.197374
0.194909
0.198853
0.193594
0.199675
0.193594
0.194909
0.200004
0.192936
0.196552
0.196388
0.196552
0.196223
0.197045
0.198853
0.202305
0.196717
0.201647
0.197374
0.199018
0.198524
0.19721
0.196552
0.195566
0.195073
0.196881
0.195402
0.195895
0.200168
0.195073
0.198689
0.19836
0.202798
0.198196
0.201812
0.205427
0.200168
0.194416
0.197703
0.19458
0.194416
0.194416
0.197867
0.196223
0.196552
0.197538
0.196388
0.197045
0.196388
0.199182
0.198853
0.201483
0.196059
0.203126
0.201647
0.197703
0.199182
0.200004
0.195895
0.193101
0.200004
0.196717
0.199346
0.196059
0.200168
0.196388
0.201483
0.200497
0.200825
0.19836
0.199182
0.199346
0.199839
0.197538
0.196388
0.200004
0.197045
0.198524
0.19721
0.201483
0.197374
0.195895
0.200332
0.200825
0.200825
0.200168
0.20362
0.200332
0.196388
0.198196
0.198031
0.197703
0.198689
0.198524
0.201154
0.197703
0.201647
0.201483
0.198196
0.201319
0.201319
0.199346
0.205099
0.201812
0.202305
0.203126
0.201154
0.197374
0.199675
0.199346
0.198524
0.199182
0.19836
0.200825
0.197045
0.199839
0.200497
0.20214
0.199346
0.202962
0.198853
0.199182
0.199346
0.19573
0.200497
0.199182
0.198853
0.199675
0.200168
0.199018
0.209208
0.197045
0.201483
0.19836
0.199018
0.197374
0.200168
0.200661
0.200661
0.198689
0.198524
0.198689
0.198196
0.192936
0.198853
0.199675
0.198524
0.200332
0.201483
0.200661
0.199346
0.20477
0.2074
0.201319
0.200168
0.201154
0.200004
0.201976
0.202962
0.207235
0.200004
0.204277
0.199839
0.1908
0.200168
0.198853
0.201319
0.200661
0.201647
0.199182
0.202962
0.201647
0.202469
0.20099
0.200497
0.200004
0.198853
0.200497
0.198524
0.198853
0.199511
0.204277
0.200825
0.202798
0.20099
0.199346
0.196223
0.202305
0.199346
0.199675
0.199511
0.20099
0.203455
0.199675
0.202633
0.199182
0.204606
0.199839
0.201483
0.200661
0.199675
0.200661
0.206578
0.197867
0.202962
0.200661
0.201319
0.203784
0.202798
0.199182
0.200168
0.201154
0.200332
0.203784
0.202962
0.20362
0.200497
0.202305
0.200332
0.205592
0.20099
0.202962
0.201812
0.202305
0.204441
0.201812
0.201812
0.203455
0.204934
0.201154
0.204934
0.20099
0.201647
0.200332
0.203455
0.197703
0.196717
0.197703
0.20362
0.202798
0.202798
0.204113
0.20214
0.203948
0.203291
0.20362
0.203948
0.203948
0.201812
0.205756
0.202305
0.204113
0.199675
0.204441
0.205592
0.204606
0.205592
0.206578
0.208879
0.202305
0.207071
0.204277
0.208222
0.206085
0.206414
0.202469
0.205756
0.203784
0.20362
0.202305
0.207728
0.206742
0.20855
0.206085
0.209208
0.206578
0.206578
0.20855
0.208222
0.208879
0.205099
0.207235
0.206578
0.208222
0.20477
0.211016
0.204113
0.202798
0.20362
0.207893
0.203291
0.206414
0.208879
0.205099
0.2074
0.207564
0.206249
0.204113
0.205427
0.20362
0.206414
0.202798
0.199346
0.205592
0.206907
0.205921
0.205099
0.20855
0.205921
0.209372
0.210851
0.20855
0.204441
0.204934
0.20362
0.205921
0.200661
0.209043
0.204606
0.204606
0.203948
0.204934
0.207893
0.204934
0.203455
0.207235
0.205263
0.201976
0.20477
0.201647
0.202633
0.20362
0.203126
0.201483
0.203784
0.20362
0.206249
0.202633
0.199675
0.202633
0.199675
0.199018
0.200332
0.201647
0.199182
0.203126
0.19836
0.201319
0.200332
0.201647
0.198524
0.200168
0.190964
0.200497
0.200004
0.199675
0.201976
0.200825
0.201647
0.201647
0.200004
0.194416
0.198196
0.197703
0.199839
0.198853
0.199675
0.195895
0.197538
0.202633
0.199675
0.197538
0.199346
0.197374
0.200497
0.197374
0.199675
0.197045
0.196223
0.201812
0.196881
0.197045
0.199182
0.198689
0.196059
0.201812
0.201319
0.195073
0.197374
0.194744
0.19836
0.195566
0.195237
0.194744
0.197045
0.196388
0.199346
0.195895
0.196881
0.196717
0.19836
0.193922
0.192279
0.196717
0.196717
0.196717
0.197374
0.197538
0.196552
0.194416
0.194744
0.194744
0.196059
0.196388
0.194416
0.198524
0.196059
0.194251
0.193758
0.196223
0.193594
0.194416
0.192443
0.191293
0.190142
0.193429
0.195073
0.193101
0.19721
0.193429
0.19458
0.191786
0.193101
0.192936
0.191621
0.193101
0.19721
0.190142
0.191293
0.192443
0.192115
0.190471
0.191786
0.193101
0.192936
0.195566
0.191786
0.196881
0.193922
0.195237
0.193758
0.194909
0.189978
0.192936
0.191293
0.195073
0.193594
0.190635
0.193594
0.196223
0.195073
0.193758
0.201319
0.196552
0.195895
0.194087
0.197045
0.192772
0.192608
0.194744
0.194087
0.193758
0.189485
0.194251
0.191621
0.189814
0.195402
0.195073
0.194416
0.196223
0.193922
0.198031
0.192936
0.195237
0.196717
0.196059
0.192772
0.191621
0.188827
0.19458
0.188006
0.1908
0.194909
0.194744
0.195402
0.199675
0.195402
0.193594
0.195566
0.193922
0.19836
0.192443
0.193922
0.193429
0.19458
0.19458
0.184225
0.19458
0.194416
0.197374
0.196059
0.196059
0.197703
0.199346
0.197538
0.19721
0.199346
0.195073
0.197374
0.199511
0.195402
0.196717
0.194416
0.195566
0.191621
0.195237
0.199839
0.197867
0.200825
0.197045
0.200825
0.195566
0.201483
0.198031
0.198196
0.202305
0.196223
0.19721
0.196552
0.194416
0.198031
0.195402
0.195237
0.198524
0.198853
0.200332
0.200332
0.201647
0.19836
0.201154
0.198853
0.201976
0.199018
0.196717
0.196552
0.199839
0.196388
0.199346
0.197703
0.197867
0.200497
0.199346
0.201976
0.19836
0.197374
0.200168
0.201976
0.200004
0.201647
0.20214
0.202798
0.19721
0.203455
0.20099
0.201319
0.200497
0.201483
0.202798
0.205592
0.20099
0.201812
0.202798
0.20477
0.208386
0.197867
0.199182
0.199839
0.201976
0.199839
0.200497
0.198524
0.201319
0.19836
0.200004
0.202962
0.202633
0.202633
0.202798
0.204277
0.201319
0.203784
0.200497
0.207235
0.205756
0.204277
0.201812
0.203784
0.199182
0.199675
0.202469
0.196223
0.201319
0.199182
0.201483
0.19836
0.204934
0.200332
0.202633
0.198524
0.199018
0.20214
0.199018
0.198689
0.196223
0.202633
0.200497
0.199839
0.197374
0.200004
0.200497
0.199346
0.19836
0.201154
0.197538
0.199182
0.197374
0.20099
0.196552
0.194251
0.201154
0.194744
0.196223
0.198031
0.19721
0.198689
0.198524
0.200004
0.201812
0.19721
0.200004
0.201154
0.202469
0.193758
0.200004
0.201319
0.199839
0.19836
0.200661
0.198031
0.198689
0.200004
0.196881
0.199511
0.196881
0.19721
0.198853
0.203126
0.197867
0.200825
0.197867
0.198031
0.19573
0.196717
0.196059
0.193429
0.195895
0.195895
0.19836
0.195073
0.198853
0.194416
0.196881
0.196059
0.195895
0.200497
0.198853
0.194909
0.195566
0.193594
0.193429
0.19458
0.19195
0.194744
0.196223
0.198689
0.190471
0.195895
0.195566
0.191621
0.191457
0.190471
0.189156
0.191786
0.183239
0.187348
0.179788
0.174364
0.156449
0.14856
0.141493
0.138534
0.135576
0.121605
0.098267
0.087255
0.087912
0.083475
0.076243
0.067532
0.061286
0.061779
0.063916
0.064574
0.058328
0.055863
0.050768
0.0437
0.041892
0.047152
0.045344
0.043371
0.029401
0.009843
0.003926
0.004583
-0.001498
0.005076
0.005241
0.006391
0.013294
0.020526
0.021019
0.023649
0.026114
0.02069
0.013623
0.010336
0.010336
0.007049
0.010664
0.013623
0.012144
0.014116
0.01691
0.014609
0.017732
0.01576
0.018882
0.018225
0.017074
0.01954
0.019047
0.031045
0.035154
0.043207
0.049288
0.056191
0.060629
0.06556
0.071312
0.081174
0.075585
0.08709
0.087748
0.095144
0.098102
0.103691
0.105992
0.110265
0.114045
0.117332
0.123085
0.123578
0.128673
0.126865
0.135576
0.134754
0.140835
0.141493
0.143958
0.147738
0.147574
0.149382
0.149382
0.152011
0.159079
0.158914
0.156778
0.163681
0.163023
0.166311
0.166968
0.170913
0.166475
0.173378
0.173871
0.175515
0.176172
0.176336
0.175679
0.176501
0.175843
0.177651
0.182582
0.17913
0.184225
0.183568
0.184225
0.184225
0.186526
0.187184
0.187841
0.186855
0.188499
0.189156
0.188334
0.188992
0.191457
0.190635
0.187184
0.191293
0.189978
0.192772
0.191293
0.198853
0.194251
0.198031
0.19195
0.198196
0.192772
0.193594
0.193758
0.196223
0.192936
0.188499
0.193922
0.192443
0.194744
0.189978
0.18932
0.18554
0.187513
0.182417
0.185705
0.178802
0.175186
0.176665
0.174857
0.172227
0.164996
0.161051
0.1576
0.152011
0.148067
0.148889
0.146916
0.146588
0.149546
0.14856
0.145602
0.142972
0.137384
0.12818
0.111251
0.09876
0.079859
0.06934
0.061779
0.058164
0.05389
0.053069
0.049781
0.04107
0.031702
0.007049
0.008528
0.007213
0.011322
0.013294
0.021676
0.022827
0.021841
0.027922
0.021512
0.020855
0.011979
0.011979
0.008857
0.005898
0.006556
0.018718
0.024964
0.030716
0.038769
0.046166
0.052411
0.061122
0.059972
0.066875
0.077065
0.080845
0.087419
0.092843
0.096623
0.099089
0.107799
0.108621
0.11273
0.114702
0.11914
0.122263
0.126207
0.131467
0.130809
0.136891
0.13837
0.139849
0.143958
0.147738
0.152998
0.150532
0.155299
0.155463
0.155956
0.160558
0.160558
0.16253
0.164174
0.162366
0.163188
0.170255
0.16894
0.171077
0.173542
0.176008
0.175679
0.175515
0.181103
0.180281
0.177651
0.179788
0.182417
0.181431
0.182911
0.184554
0.184718
0.18554
0.192279
0.18817
0.185212
0.188663
0.185376
0.188827
0.18817
0.192772
0.183732
0.190471
0.184061
0.188499
0.183568
0.184554
0.178144
0.182911
0.180281
0.181267
0.176336
0.175679
0.177651
0.176008
0.179623
0.175843
0.177651
0.176665
0.181267
0.175186
0.180774
0.178309
0.175515
0.176829
0.178309
0.178309
0.178637
0.178966
0.179623
0.18061
0.184061
0.183568
0.183404
0.185705
0.185869
0.185212
0.18554
0.188006
0.181431
0.186526
0.186855
0.18439
0.18817
0.190471
0.189814
0.187348
0.193429
0.191621
0.190635
0.190307
0.192115
0.190635
0.192608
0.191293
0.191621
0.192608
0.1908
0.194416
0.194087
0.193101
0.195073
0.193265
0.19836
0.193101
0.192608
0.194909
0.1908
0.195073
0.194416
0.196223
0.189649
0.195073
0.193101
0.195566
0.193101
0.193101
0.195566
0.19721
0.202798
0.198689
0.199839
0.197538
0.199675
0.19721
0.197867
0.198853
0.196223
0.196881
0.200332
0.197045
0.198196
0.199511
0.203291
0.197045
0.206578
0.204113
0.200661
0.200168
0.201154
0.20099
0.200497
0.201647
0.196223
0.202798
0.196388
0.200497
0.19721
0.198853
0.197538
0.198853
0.203455
0.199346
0.20362
0.19836
0.205263
0.202962
0.202305
0.204113
0.198853
0.20099
0.200497
0.195073
0.19836
0.198524
0.200004
0.199182
0.203948
0.204606
0.201483
0.202469
0.202962
0.198853
0.201976
0.206907
0.197703
0.203948
0.202305
0.204113
0.199018
0.202305
0.199018
0.198689
0.204606
0.201483
0.200004
0.199675
0.203126
0.201483
0.203784
0.203784
0.202305
0.202469
0.203126
0.202962
0.204277
0.19836
0.202469
0.200168

Kurve 7

-0.005443
-0.001005
-0.005607
0.000803
-0.003306
-0.002648
0.000639
-0.004128
0.000146
-0.005771
0.00031
-0.004456
-0.004292
-0.00347
-0.003963
-0.005114
-0.002977
-0.002813
-0.007086
-0.003963
-0.005771
-0.003963
-0.005936
-0.004128
-0.000512
-0.005114
-0.000676
-0.003799
-0.003306
-0.005114
-0.003799
-0.004456
-0.005607
-0.001827
-0.009551
-0.007579
-0.004785
-0.005771
-0.002813
-0.001827
-0.005936
-0.007579
-0.004785
-0.00347
-0.006593
-0.007908
-0.006264
-0.005278
-0.004456
-0.004456
-0.002155
-0.004949
-0.003963
-0.002648
-0.005936
-0.002813
-0.001005
-0.001169
0.006227
0.001954
-0.004949
0.003926
-0.004621
-0.001498
-0.002484
-0.001005
-0.004785
-0.006757
-0.004949
-0.002648
-0.001334
-0.001991
-0.001827
-0.004456
-0.001827
-0.001005
-0.001169
-0.005936
0.001296
-0.002648
-0.000347
0.002447
-0.003963
0.005734
-1.9e-05
-0.003635
-0.002813
-0.001169
-0.001334
-0.005607
-1.9e-05
-0.003799
-0.00347
-0.000512
-0.014318
-0.004785
-0.004292
0.000474
0.000639
-0.004785
0.002118
-0.000183
-0.001005
-0.000676
-0.001334
-0.004292
-0.000347
0.002118
-0.000183
-0.003799
0.004583
-0.00232
0.005241
0.000146
0.002611
-1.9e-05
-1.9e-05
-0.004949
-0.00232
-0.001005
-0.000512
0.000803
0.001789
0.004419
-0.001498
0.000803
0.000474
0.001296
0.00031
0.000474
0.001132
0.000474
0.002775
0.003104
-0.000183
0.00672
0.001954
-0.000841
0.00409
0.000967
-0.000676
-0.003142
-0.000841
-1.9e-05
0.00031
-0.004785
0.003104
0.006062
0.005734
0.001132
0.003761
0.002611
-1.9e-05
-0.000183
-0.001827
0.000146
-0.004621
0.000967
-1.9e-05
-0.000512
0.000639
0.002282
-0.000347
0.000803
-0.000512
0.001296
-0.002484
0.002447
0.003104
0.001296
0.003104
-0.000347
-0.000512
-0.001662
-0.001334
-0.002977
-0.000183
-0.002155
-0.000676
-0.001498
0.002447
-1.9e-05
0.001132
0.00409
0.00031
-0.001991
0.001625
0.002282
-1.9e-05
-0.003963
-0.004621
0.001625
-0.001827
-0.001498
0.000146
-0.001169
0.000639
0.00294
-0.000183
0.002282
0.000639
0.000474
0.000967
0.003597
0.001954
-1.9e-05
-0.000676
-0.002977
0.004748
-0.001334
0.001625
-0.000347
0.002118
0.002775
0.003761
0.002118
0.003597
0.002282
0.001296
0.002447
0.001132
-0.004949
0.001132
0.00294
-0.001498
0.002775
0.002118
-0.00232
0.001296
0.002118
0.002282
0.004583
0.001789
0.003268
0.003433
0.000474
-1.9e-05
0.000639
0.00409
-0.000512
0.002611
-0.001005
-0.001005
0.002118
0.000639
0.002775
0.00409
0.004912
0.006227
0.000803
0.004255
0.004255
0.001132
0.006062
0.003761
0.001789
0.005076
0.004912
0.002447
0.003761
0.009021
0.001296
0.005734
0.00409
0.002447
0.004912
0.002282
0.003433
0.00294
0.004748
0.007706
-0.006757
0.004255
0.005241
0.006062
0.002282
0.008528
0.006062
0.007049
0.005241
0.007706
0.007377
0.009185
0.006062
0.008857
0.011815
0.005734
0.008363
0.010336
0.010171
0.006556
0.00935
0.005734
0.010007
0.005241
0.007213
0.005405
0.00935
0.005241
0.011158
0.012472
0.009021
0.011158
0.012308
0.014116
0.010829
0.010171
0.008528
0.010171
0.008199
0.011651
0.007213
0.010336
0.0105
0.011815
0.012965
0.009021
0.009021
0.012308
0.010007
0.010007
0.011815
0.007049
0.010336
0.009021
0.008035
0.006884
0.012965
0.006556
0.008528
0.010007
0.010171
0.006391
0.007706
0.008692
0.011979
0.012965
0.010664
0.011486
0.006227
0.008857
0.006391
0.008035
0.005569
0.004419
0.008035
0.010171
0.010336
0.010664
0.012637
0.011651
0.011158
0.017403
0.014116
0.010829
0.011815
0.011979
0.011486
0.010336
0.0105
0.011322
0.010336
0.007706
0.012308
0.008035
0.010171
0.007377
0.007213
0.010171
0.009514
0.011322
0.00787
0.012965
0.006556
0.010171
0.009185
0.009678
0.007706
0.011486
0.008363
0.008528
0.003433
0.010829
0.008363
0.008199
0.010171
0.005076
0.007706
0.002447
0.005076
0.005405
0.006227
0.003104
0.011651
0.003433
0.007049
0.005569
0.005734
0.005076
0.001296
0.003268
0.007377
0.008692
0.007377
0.008857
0.004583
0.010171
0.004583
0.003104
0.004912
0.00672
0.008199
0.009843
0.006391
0.005405
0.0105
0.003926
0.004419
0.007213
0.004912
0.006391
0.005076
0.004255
0.004583
0.003268
0.004912
0.003761
0.004912
-0.001169
0.002282
0.000146
0.002118
-0.000841
0.003597
0.001954
0.002775
0.001954
0.008035
0.002775
-0.006264
-0.000512
-0.004128
-0.002155
0.000146
-0.000347
-0.001662
-0.000183
-0.003306
-0.011359
-0.003635
-0.000183
-0.000183
-0.003306
-1.9e-05
-0.004292
0.000474
-0.001991
-1.9e-05
-0.003142
-1.9e-05
-0.004621
-0.007908
-0.004456
-0.006264
-0.006922
-0.002648
-0.002648
-0.002648
-0.000183
-0.00232
-0.003635
-0.004785
-0.00347
-0.004292
-0.002155
-0.003306
0.001789
-0.001991
-0.002977
-0.003799
-0.003142
-0.004621
-0.004292
-0.004292
-0.004785
-0.002155
-0.003963
-0.001827
-0.004621
-0.002813
-0.008072
-0.002648
-0.007579
-0.002648
-0.005771
-0.005443
-0.005936
-0.004292
-0.005936
-0.006757
-0.001662
-0.005607
-0.00232
-0.004456
0.000474
-0.002648
-0.001827
-0.006757
-0.003142
-0.005114
-0.011031
-0.003963
0.000639
0.000146
-0.004456
-0.004128
-0.00232
-0.002813
-0.00347
-0.001991
-0.004456
-0.002484
-0.00347
-0.001662
-0.005443
-0.001991
-0.006429
-0.002813
-0.0061
-0.005771
-0.005443
-0.004456
-0.006922
-0.005771
-0.004949
-0.005443
-0.005278
-0.002813
-0.002977
-0.003799
-0.001662
-0.002648
-0.000676
-0.005936
-0.003306
-0.004128
-0.005278
-0.002155
-0.00347
-0.000676
-0.004128
-0.004128
-0.004785
-0.001169
-0.002648
-0.001169
-0.004456
-0.001005
-0.004621
0.001296
-0.001827
-0.001169
-0.003142
-0.000347
-0.014153
-0.006757
-0.003306
-0.005278
-0.00232
-0.004785
-0.003306
-0.005114
-0.006922
-0.006757
-0.004128
-0.005771
-0.004456
-0.007908
-0.005114
-0.005114
-0.004621
-0.004785
-0.009058
-0.006757
-0.007415
-0.005936
-0.007415
-0.008565
-0.00725
-0.007744
-0.012674
-0.010045
-0.009716
-0.005607
-0.006429
-0.005607
-0.005771
-0.004292
-0.008894
-0.004785
-0.007415
-0.0061
-0.0061
-0.003142
-0.005936
-0.004785
-0.004785
-0.006429
-0.004456
-0.011195
0.003268
-0.006593
-0.003799
-0.007415
-0.000183
-0.006922
-0.004621
-0.005771
-0.005114
-0.004949
-0.009058
-0.00232
-0.013003
-0.003142
-0.003963
-0.007908
-0.008565
-0.004128
-0.006593
-0.004621
-0.005114
-0.007086
-0.002155
-0.004785
-0.0061
-0.006429
-0.009223
-0.013003
-0.005443
-0.006593
-0.008894
-0.007086
-0.007086
-0.007086
-0.005114
-0.006593
-0.005443
-0.006757
-0.006922
-0.0061
-0.006757
-0.007415
-0.009551
-0.004292
-0.006264
-0.007086
-0.008237
-0.007908
-0.007086
-0.009058
-0.013825
-0.001827
-0.010373
-0.003635
-0.005278
-0.012346
-0.006429
-0.006922
-0.008894
-0.010373
-0.007415
-0.011031
-0.009223
-0.009551
-0.011031
-0.008237
-0.009551
-0.011195
-0.010045
-0.007415
-0.005936
-0.004128
-0.011195
-0.009716
-0.011359
-0.010866
-0.011688
-0.015797
-0.01629
-0.010702
-0.01251
-0.013496
-0.009223
-0.009223
-0.011524
-0.010045
-0.00873
-0.009387
-0.011359
-0.009716
-0.013167
-0.012181
-0.013167
-0.012181
-0.012181
-0.014811
-0.011031
-0.013167
-0.012181
-0.017605
-0.010702
-0.011195
-0.010866
-0.011524
-0.011688
-0.016126
-0.016619
-0.010373
-0.013167
-0.015961
-0.017112
-0.010866
-0.015797
-0.006922
-0.013332
-0.01251
-0.014975
-0.010702
-0.014811
-0.013332
-0.010045
-0.011031
-0.011195
-0.012674
-0.013496
-0.012017
-0.012346
-0.013003
-0.013496
-0.01629
-0.013167
-0.014482
-0.01514
-0.009551
-0.00988
-0.010702
-0.008894
-0.011524
-0.010866
-0.011031
-0.013332
-0.0061
-0.003142
0.008035
0.014609
0.024306
0.026771
0.036469
0.040577
0.04633
0.056356
0.062273
0.063587
0.072298
0.070983
0.079201
0.085283
0.087748
0.092514
0.093993
0.098267
0.100403
0.104348
0.111415
0.114045
0.109443
0.120126
0.120948
0.126536
0.127358
0.134097
0.13196
0.134754
0.139192
0.136891
0.140506
0.141986
0.148724
0.14856
0.148724
0.14593
0.152505
0.149382
0.152998
0.155463
0.161544
0.160558
0.160558
0.16516
0.164996
0.167625
0.166804
0.174528
0.167625
0.170091
0.170255
0.174035
0.168776
0.173378
0.177322
0.178966
0.178637
0.179952
0.16894
0.17798
0.181267
0.186691
0.182089
0.182089
0.185376
0.185376
0.18554
0.184883
0.187513
0.185705
0.187019
0.186691
0.189156
0.187348
0.189485
0.196059
0.193922
0.191457
0.194416
0.19458
0.193758
0.190142
0.189814
0.193594
0.192115
0.192772
0.194744
0.194087
0.194416
0.197538
0.198196
0.200168
0.198853
0.201319
0.198689
0.20099
0.201647
0.199018
0.204441
0.200332
0.20214
0.202962
0.201483
0.204934
0.203948
0.203126
0.202962
0.202798
0.203784
0.20099
0.207564
0.206249
0.201976
0.2074
0.208386
0.206578
0.206578
0.207893
0.20855
0.206907
0.205263
0.208057
0.205263
0.207728
0.206578
0.210687
0.208386
0.20855
0.210194
0.213152
0.207564
0.209208
0.211837
0.206742
0.207893
0.208386
0.210523
0.202798
0.206907
0.208386
0.209865
0.211016
0.209208
0.213317
0.213481
0.21233
0.212002
0.213481
0.207235
0.212988
0.209043
0.21118
0.209536
0.210851
0.21118
0.211673
0.210358
0.208715
0.209536
0.210029
0.21233
0.210523
0.211509
0.215453
0.211837
0.211509
0.21233
0.210523
0.210194
0.209536
0.209208
0.205756
0.209372
0.206249
0.207564
0.207564
0.209865
0.209372
0.210523
0.209043
0.212824
0.211673
0.20855
0.208386
0.208057
0.207728
0.206249
0.205921
0.203291
0.208386
0.207235
0.210194
0.207728
0.208879
0.207893
0.208386
0.207564
0.208715
0.209701
0.206085
0.209372
0.204934
0.207728
0.207235
0.210358
0.201647
0.207071
0.203948
0.203455
0.205592
0.207728
0.206414
0.206907
0.213481
0.205592
0.206249
0.203455
0.205099
0.201812
0.201976
0.20362
0.202798
0.201812
0.204606
0.205427
0.200661
0.203126
0.201154
0.201319
0.203126
0.200004
0.200825
0.201483
0.201483
0.200004
0.197703
0.200825
0.198196
0.198031
0.203291
0.200497
0.198196
0.199839
0.203948
0.201319
0.201319
0.197538
0.198689
0.200825
0.200332
0.199675
0.201976
0.200661
0.20477
0.202633
0.202305
0.199182
0.20099
0.197867
0.198196
0.19721
0.20099
0.201483
0.20099
0.19836
0.196059
0.199182
0.195895
0.200825
0.196059
0.199346
0.199839
0.196717
0.197703
0.201483
0.194416
0.199511
0.199018
0.19721
0.197703
0.19836
0.197374
0.195402
0.198689
0.194251
0.196223
0.193101
0.197045
0.196223
0.19836
0.19721
0.202962
0.19721
0.199018
0.199018
0.197538
0.20099
0.19573
0.197538
0.120126
0.010336
0.001132
0.004748
0.009514
0.021183
0.027922
0.034003
0.038605
0.046987
0.050932
0.057177
0.06408
0.069176
0.076736
0.075585
0.084954
0.089885
0.09498
0.094815
0.105005
0.106813
0.111415
0.113881
0.118154
0.118811
0.124235
0.125221
0.12555
0.136562
0.132453
0.135904
0.13952
0.140178
0.142972
0.145602
0.147574
0.150039
0.147574
0.153491
0.156449
0.157435
0.159079
0.162037
0.162859
0.163023
0.164831
0.165982
0.167132
0.167625
0.169433
0.172227
0.173214
0.172063
0.178473
0.178637
0.180774
0.178966
0.181431
0.177158
0.179295
0.177487
0.179952
0.179623
0.179952
0.185047
0.185705
0.18817
0.184883
0.192936
0.18439
0.187677
0.186855
0.18817
0.188992
0.187513
0.188334
0.190307
0.184883
0.190635
0.190142
0.188827
0.192279
0.190307
0.189978
0.188827
0.19458
0.190307
0.19195
0.191786
0.196717
0.198524
0.193758
0.192772
0.192608
0.193429
0.192772
0.190307
0.192936
0.195895
0.193429
0.19573
0.194909
0.195237
0.194909
0.195402
0.198524
0.199018
0.195237
0.199346
0.196223
0.196881
0.193922
0.202633
0.194087
0.193429
0.198853
0.197538
0.194251
0.197374
0.19836
0.196388
0.200497
0.196881
0.187019
0.196388
0.197045
0.193429
0.195073
0.196388
0.19836
0.199182
0.195237
0.19573
0.197703
0.194416
0.19458
0.200168
0.198524
0.204277
0.199675
0.201319
0.20099
0.196059
0.197538
0.19721
0.196223
0.195566
0.196717
0.195895
0.199182
0.195895
0.19721
0.19458
0.201812
0.193101
0.197374
0.198689
0.192772
0.196881
0.19721
0.195073
0.194416
0.193594
0.192772
0.195566
0.192115
0.196717
0.189814
0.194909
0.192443
0.19573
0.195566
0.19573
0.194087
0.195566
0.196881
0.192115
0.192608
0.193265
0.195566
0.192772
0.191786
0.188663
0.19458
0.191293
0.192608
0.193429
0.200332
0.193758
0.196881
0.194416
0.195237
0.192443
0.194087
0.19458
0.193922
0.192279
0.191786
0.195566
0.194744
0.193758
0.194416
0.192608
0.192772
0.193101
0.187841
0.193594
0.190964
0.194087
0.193429
0.196059
0.195566
0.192772
0.194416
0.190471
0.192608
0.191457
0.191293
0.187348
0.194087
0.190635
0.195237
0.190635
0.193922
0.193429
0.193758
0.193758
0.191621
0.193101
0.190307
0.193594
0.193429
0.193265
0.191128
0.194909
0.189156
0.190964
0.189814
0.187513
0.187513
0.189485
0.192936
0.196717
0.194744
0.193758
0.19573
0.191457
0.193265
0.192279
0.195073
0.192608
0.193758
0.193429
0.194087
0.19458
0.197538
0.196881
0.196059
0.192936
0.195566
0.19573
0.195566
0.193265
0.194251
0.193922
0.192443
0.194909
0.190471
0.195402
0.193922
0.194416
0.193265
0.195566
0.195237
0.202469
0.195073
0.197045
0.196223
0.195895
0.19573
0.194416
0.196223
0.190142
0.189978
0.188827
0.195566
0.188827
0.189156
0.193265
0.19836
0.192772
0.196388
0.19573
0.196388
0.196223
0.196881
0.200004
0.193429
0.197045
0.19573
0.192443
0.191786
0.19458
0.193265
0.190964
0.193594
0.200825
0.200661
0.19721
0.19836
0.199018
0.19573
0.193922
0.201154
0.194416
0.197374
0.195895
0.201647
0.197867
0.20099
0.19573
0.197703
0.196717
0.196059
0.198689
0.198524
0.199182
0.200004
0.199675
0.196059
0.199018
0.19836
0.199346
0.194416
0.196717
0.195237
0.200168
0.198853
0.200332
0.198196
0.196223
0.199675
0.20099
0.20099
0.201647
0.202305
0.198853
0.199346
0.198524
0.198031
0.197703
0.19721
0.195566
0.201154
0.197538
0.196717
0.197703
0.195073
0.200332
0.197867
0.20099
0.200497
0.200168
0.200168
0.202633
0.195402
0.199018
0.198031
0.198196
0.198031
0.201319
0.193594
0.196223
0.19573
0.202633
0.195402
0.200825
0.201647
0.201647
0.201319
0.200332
0.19721
0.196881
0.197703
0.196717
0.200004
0.199675
0.199839
0.198853
0.200168
0.199182
0.200661
0.201483
0.201483
0.201154
0.202798
0.205756
0.199182
0.200497
0.200168
0.201319
0.198689
0.200168
0.198689
0.200497
0.19836
0.198689
0.200497
0.201319
0.200497
0.203948
0.19721
0.198853
0.198853
0.19573
0.200004
0.201154
0.200497
0.197703
0.20099
0.196717
0.198524
0.198031
0.198689
0.198689
0.198524
0.201154
0.199346
0.194416
0.199511
0.198689
0.194251
0.19458
0.199675
0.19836
0.197374
0.198031
0.195895
0.201154
0.196059
0.198853
0.201319
0.19836
0.202962
0.199018
0.198853
0.198196
0.198031
0.19721
0.201154
0.195566
0.201812
0.199182
0.200168
0.197867
0.204277
0.196717
0.196552
0.198689
0.197374
0.201319
0.199182
0.199839
0.199675
0.200497
0.197374
0.198689
0.198031
0.198031
0.199018
0.198524
0.195073
0.193101
0.201154
0.196223
0.198853
0.197374
0.200497
0.196388
0.197045
0.193265
0.200332
0.196059
0.201483
0.194087
0.197703
0.197045
0.196059
0.186033
0.193594
0.191457
0.197538
0.19721
0.194909
0.198196
0.198524
0.198196
0.196717
0.202633
0.197703
0.199346
0.196388
0.198853
0.197867
0.197374
0.196717
0.196717
0.19721
0.19573
0.19836
0.198853
0.195566
0.198524
0.199675
0.196717
0.199511
0.197374
0.196059
0.198524
0.199182
0.197703
0.200004
0.198689
0.198524
0.19836
0.195237
0.195895
0.199675
0.197867
0.197045
0.199182
0.198524
0.196223
0.199675
0.200332
0.19721
0.199018
0.198524
0.197703
0.197374
0.198853
0.194909
0.198196
0.20099
0.199511
0.196388
0.199675
0.199675
0.197045
0.200661
0.200332
0.201154
0.198196
0.200497
0.199182
0.199839
0.19721
0.196717
0.196388
0.194744
0.199511
0.196552
0.196223
0.197703
0.198853
0.197538
0.199182
0.197374
0.200497
0.196552
0.198689
0.200004
0.198524
0.198524
0.198524
0.19721
0.19721
0.199346
0.196552
0.199346
0.19721
0.193101
0.197374
0.200168
0.193101
0.200004
0.198689
0.200168
0.197703
0.198689
0.196223
0.196388
0.196223
0.197703
0.196552
0.195237
0.19836
0.196223
0.196552
0.198689
0.195895
0.199346
0.196881
0.194087
0.200004
0.192608
0.195237
0.193101
0.19573
0.193101
0.191621
0.191128
0.194251
0.191128
0.191293
0.191128
0.189649
0.196388
0.192443
0.194251
0.192279
0.192279
0.190964
0.191128
0.189814
0.190142
0.189814
0.18554
0.191621
0.189156
0.188499
0.185376
0.187348
0.184225
0.186855
0.186526
0.190635
0.187019
0.189156
0.189485
0.187841
0.189156
0.187348
0.186198
0.184883
0.187184
0.185047
0.189156
0.186855
0.184718
0.188334
0.189485
0.186691
0.188499
0.19195
0.188006
0.185705
0.185376
0.184554
0.187348
0.187677
0.186691
0.192443
0.186362
0.188334
0.17535
0.184718
0.183568
0.187841
0.184061
0.187184
0.188992
0.188334
0.187841
0.185705
0.18554
0.183897
0.183075
0.184225
0.184225
0.180774
0.188663
0.183404
0.185047
0.188827
0.186198
0.183239
0.18554
0.18554
0.18817
0.188992
0.188006
0.188334
0.190635
0.183239
0.18932
0.190471
0.189978
0.192608
0.192115
0.188663
0.189814
0.193429
0.190964
0.194744
0.18932
0.194087
0.192772
0.192443
0.1908
0.197703
0.191621
0.190471
0.198853
0.194251
0.196059
0.194087
0.195237
0.19195
0.199018
0.195073
0.200661
0.200004
0.198196
0.199346
0.195073
0.19836
0.196717
0.200168
0.200004
0.202962
0.199182
0.201483
0.194744
0.193265
0.194087
0.195895
0.195073
0.200661
0.20099
0.202469
0.202633
0.200004
0.203948
0.201319
0.20362
0.201483
0.20214
0.200168
0.202798
0.200661
0.202469
0.201812
0.206249
0.205427
0.20477
0.202633
0.205921
0.206907
0.204934
0.204934
0.205099
0.201647
0.20099
0.201976
0.199839
0.203948
0.199675
0.203126
0.200004
0.204113
0.202469
0.205592
0.204113
0.20362
0.206578
0.205592
0.201976
0.205756
0.205592
0.199182
0.199675
0.197374
0.202798
0.200661
0.204606
0.203948
0.206414
0.20477
0.206085
0.203291
0.204934
0.204606
0.20362
0.204441
0.204606
0.204934
0.204606
0.202469
0.201647
0.20362
0.199839
0.201976
0.203784
0.200661
0.201154
0.206414
0.200004
0.204441
0.208715
0.201812
0.204277
0.203291
0.199839
0.199346
0.199675
0.20099
0.202305
0.201483
0.19836
0.202469
0.20214
0.201483
0.205756
0.201483
0.204441
0.202798
0.20362
0.204441
0.198196
0.198524
0.204441
0.197703
0.20099
0.201647
0.19721
0.196388
0.198031
0.204277
0.202305
0.203291
0.203291
0.192279
0.202633
0.201647
0.202305
0.200168
0.20099
0.203455
0.203455
0.200004
0.202469
0.199675
0.201319
0.200497
0.204113
0.198031
0.203784
0.199018
0.205921
0.205263
0.199839
0.204441
0.20099
0.199018
0.197374
0.200004
0.196717
0.20214
0.198524
0.200497
0.198853
0.202798
0.201483
0.202305
0.203291
0.203291
0.20099
0.197374
0.200332
0.199018
0.199182
0.194744
0.200661
0.199675
0.199839
0.197538
0.204113
0.20099
0.202305
0.206742
0.204606
0.202305
0.200332
0.203948
0.201154
0.205592
0.20214
0.206249
0.202469
0.201812
0.201647
0.204277
0.201483
0.201483
0.20477
0.210194
0.203784
0.203784
0.204113
0.203291
0.202633
0.203291
0.205263
0.203784
0.203126
0.203784
0.204934
0.200168
0.205263
0.202305
0.202962
0.200825
0.204606
0.204113
0.20214
0.201483
0.202469
0.203784
0.19573
0.203784
0.203455
0.201647
0.20099
0.199839
0.201647
0.203784
0.206085
0.203784
0.204606
0.202469
0.203291
0.203126
0.20362
0.20099
0.202962
0.20099
0.20362
0.203291
0.201483
0.203126
0.202633
0.201483
0.205427
0.200004
0.197703
0.200168
0.200661
0.203126
0.201647
0.203291
0.202305
0.202305
0.203126
0.209536
0.19573
0.203291
0.197867
0.201319
0.198524
0.198031
0.202469
0.198853
0.199346
0.198524
0.197867
0.19836
0.197045
0.197867
0.201483
0.200168
0.199675
0.197867
0.198196
0.195895
0.199182
0.197538
0.193594
0.192115
0.194909
0.19458
0.19573
0.19573
0.199839
0.195402
0.197703
0.200168
0.19721
0.197703
0.196059
0.198689
0.197867
0.19573
0.197867
0.197538
0.196223
0.19721
0.195895
0.202469
0.197045
0.200168
0.200004
0.193922
0.201976
0.199511
0.199675
0.19836
0.201319
0.19458
0.190964
0.194744
0.197867
0.197045
0.196717
0.199675
0.200168
0.202633
0.198031
0.202798
0.203948
0.201154
0.197703
0.202305
0.199675
0.198689
0.199511
0.203784
0.199346
0.198853
0.20099
0.201647
0.200332
0.199675
0.201154
0.199018
0.200497
0.200661
0.202798
0.199675
0.203784
0.200168
0.20477
0.199182
0.205427
0.201812
0.202305
0.200661
0.199018
0.20099
0.19836
0.200497
0.200661
0.201154
0.205592
0.205263
0.199018
0.20362
0.20099
0.203126
0.199018
0.199346
0.200168
0.200332
0.199018
0.202305
0.201483
0.198689
0.201647
0.201483
0.204113
0.204441
0.203948
0.197867
0.205263
0.199511
0.200004
0.199839
0.199675
0.201154
0.207235
0.199182
0.202469
0.200497
0.20214
0.202633
0.203784
0.203784
0.201483
0.203126
0.20099
0.203784
0.201154
0.195895
0.200825
0.20477
0.199182
0.20214
0.200497
0.201812
0.200661
0.199182
0.202305
0.196059
0.201976
0.200004
0.20362
0.198524
0.202305
0.197045
0.200168
0.196552
0.199182
0.196717
0.197045
0.19836
0.195073
0.199346
0.195895
0.200168
0.19458
0.201154
0.198196
0.198031
0.198853
0.201319
0.199018
0.201483
0.201154
0.201647
0.20362
0.201647
0.20099
0.198689
0.199346
0.198853
0.201483
0.198853
0.201154
0.199346
0.202798
0.200661
0.203126
0.196717
0.201154
0.201483
0.200497
0.200661
0.200661
0.200004
0.202798
0.201154
0.202962
0.203948
0.205263
0.199182
0.197703
0.200825
0.198031
0.206085
0.197703
0.203291
0.204113
0.204113
0.200825
0.201319
0.197867
0.201483
0.20099
0.194087
0.201154
0.197703
0.198031
0.199182
0.201976
0.197703
0.207728
0.200332
0.199346
0.200332
0.202633
0.196881
0.195073
0.197045
0.202633
0.199839
0.199346
0.192443
0.196223
0.200168
0.199511
0.202962
0.201647
0.20099
0.201483
0.202962
0.200661
0.200825
0.199018
0.199511
0.200168
0.198031
0.202469
0.196881
0.200332
0.199675
0.201647
0.199346
0.200004
0.199346
0.202798
0.200168
0.201154
0.199182
0.196552
0.203948
0.198689
0.20099
0.199839
0.201319
0.195895
0.198689
0.196881
0.194416
0.197867
0.201154
0.197867
0.197045
0.196717
0.199182
0.199346
0.19721
0.201319
0.198196
0.19836
0.197538
0.199675
0.196388
0.196881
0.195895
0.199511
0.199839
0.203126
0.199182
0.200661
0.197045
0.199346
0.198689
0.196881
0.195895
0.20214
0.200332
0.196717
0.19458
0.196552
0.197538
0.195402
0.198031
0.196552
0.199018
0.195237
0.200004
0.200168
0.201812
0.200332
0.196388
0.196223
0.196223
0.19458
0.199182
0.201647
0.192772
0.19721
0.194416
0.197703
0.196223
0.198853
0.195566
0.199018
0.199182
0.201319
0.20099
0.196552
0.201812
0.20362
0.198524
0.197867
0.200168
0.19573
0.198689
0.19573
0.199346
0.19836
0.196388
0.198524
0.19836
0.198031
0.196223
0.200004
0.195073
0.195402
0.195566
0.197867
0.198031
0.19836
0.197538
0.199018
0.196552
0.196388
0.197867
0.198196
0.194744
0.200004
0.196388
0.195895
0.198689
0.196388
0.198524
0.196059
0.196881
0.195073
0.200168
0.194744
0.196223
0.194909
0.194087
0.199018
0.198853
0.195566
0.197703
0.197867
0.200497
0.19721
0.197867
0.201483
0.196223
0.196223
0.19458
0.198196
0.193758
0.196717
0.194416
0.195402
0.195402
0.196717
0.196059
0.197538
0.196881
0.19573
0.199346
0.19721
0.195566
0.197867
0.200497
0.191457
0.192936
0.191786
0.194909
0.192279
0.191621
0.196552
0.194416
0.197045
0.197045
0.186362
0.191621
0.19573
0.193429
0.194909
0.195566
0.18817
0.190142
0.193101
0.190142
0.193101
0.191621
0.195402
0.191786
0.194416
0.19573
0.195566
0.195895
0.200004
0.196717
0.195402
0.195073
0.190635
0.193758
0.191128
0.1908
0.191457
0.194416
0.192608
0.192772
0.195237
0.195566
0.196223
0.193758
0.19836
0.196717
0.197374
0.195566
0.192608
0.194087
0.19458
0.194744
0.19721
0.192936
0.195566
0.192443
0.195402
0.193922
0.19573
0.195237
0.19573
0.195237
0.19573
0.198524
0.192443
0.19721
0.196388
0.196223
0.191621
0.193265
0.193922
0.192772
0.192115
0.196223
0.197045
0.196223
0.197538
0.199182
0.197867
0.197045
0.195895
0.193265

Kurve 8

0.007213
0.005734
0.004583
0.004255
0.004419
0.002447
0.00409
0.004419
0.008692
0.004583
0.001954
0.004748
0.00409
0.002282
0.001625
0.005405
0.001132
0.008692
0.00031
-0.004292
0.000146
0.001954
0.000474
0.000639
0.001132
0.000803
0.002447
0.000803
0.005405
0.00409
0.002775
0.002282
0.005076
0.000474
0.003104
0.004583
0.007542
0.00672
0.007377
0.004912
0.001954
0.00294
0.001625
0.003433
0.001954
0.005405
0.004583
0.008857
0.010993
0.002118
0.005569
0.009185
0.00146
0.009514
0.007377
0.004912
0.004419
0.007706
0.006062
0.005076
0.004912
0.004748
0.006391
0.006227
0.010664
0.004748
0.005898
0.005076
0.010829
0.007049
0.004748
0.00787
0.005405
0.004912
0.010664
0.007049
0.00294
0.00672
0.005076
0.008035
0.006062
0.000803
0.005898
0.007377
0.005898
0.010664
0.008857
0.00409
0.005405
0.006391
0.005898
0.005076
0.001789
0.006884
0.008035
0.005076
0.008363
0.003268
0.004748
0.002611
0.004912
0.005898
0.006884
0.006062
0.007049
0.00787
0.005405
0.009678
0.004912
0.004255
-0.000512
0.002775
0.005569
0.004583
0.003268
0.005734
0.005241
0.005734
0.006062
0.010171
0.004583
0.00672
0.005405
0.006227
0.008528
0.002775
0.005898
0.004255
0.006062
0.003104
0.003597
0.003104
0.005241
0.002611
0.007542
0.002611
0.006062
0.004912
0.003761
0.00146
0.003597
0.004912
-0.001991
-0.000347
0.00031
0.002282
-0.001169
0.000474
0.000639
0.000474
-0.00232
0.000967
0.00031
0.00031
0.000146
0.001625
0.001296
-0.001334
-0.000512
-0.003306
-0.000841
0.002775
-0.001334
-0.001991
0.000146
-0.005771
-0.001827
-0.00347
0.002118
-0.004949
0.000146
-0.001662
-0.004621
-0.004128
-0.001827
-0.002977
-0.005771
-0.004949
-0.004292
-0.005278
-0.007415
-0.004785
-0.004785
-0.001662
-0.000512
0.000474
-0.005607
-0.004621
-0.007908
-0.003142
-0.006757
-0.00873
-0.007908
-0.005771
-0.006757
-0.006922
-0.015468
-0.009223
-0.005771
-0.008237
-0.000512
-0.010373
-0.009058
-0.004128
-0.003635
-0.004785
-0.003799
-0.003635
-0.008565
-0.005443
-0.005114
-0.005114
-0.007415
-0.005278
-0.004785
-0.004128
-0.005443
-0.010045
-0.003799
-0.006757
-0.006757
-0.003799
-0.008237
-0.003799
-0.007086
-0.006922
-0.004949
-0.007908
-0.005443
-0.008072
-0.0061
-0.009387
-0.002155
-0.007579
-0.007908
-0.006757
-0.005114
-0.007086
-0.007908
-0.003142
-0.007908
-0.003306
-0.007908
-0.005278
-0.006429
-0.006429
-0.007579
-0.006429
-0.002977
-0.00232
-0.002648
-0.004128
-0.00232
-0.004292
-0.005607
-0.001498
-0.005936
-0.001991
-0.005936
-0.004292
-0.004621
-0.004785
-0.002813
-0.0061
-0.001827
-0.008894
-0.004456
-0.004949
-0.002813
-0.004785
-0.001334
0.002775
-0.007415
-0.005771
-0.003963
-0.004949
-0.004949
-0.004949
-0.004785
-0.00347
-0.002155
-0.001827
-0.003963
-0.002977
-0.005607
-0.002648
-0.004949
-0.00347
-0.005278
-0.003799
-0.004785
-0.004292
-0.003635
-0.004292
-0.001169
-0.0061
0.001132
-0.005443
-0.002155
-0.006593
0.000474
-0.002155
0.000146
-0.002977
-0.003635
-0.001827
-0.003142
-0.003963
-0.003799
-0.001991
-0.004785
-0.003306
-0.003306
-0.00988
-0.004949
-0.001991
-0.004621
-0.002977
-0.001827
-0.00232
-0.004949
-0.001005
-0.001991
-0.004621
-0.005278
-0.005278
0.000146
-0.00725
0.000146
-0.004949
-0.0061
-0.003306
-0.004292
-0.008072
-0.002484
-0.005443
-0.004949
-0.004292
-0.005607
-0.006593
-0.002813
-0.008565
-0.008072
-0.006264
-0.001662
-0.002813
-0.005443
-0.001827
-0.004128
-0.003142
-0.008072
0.000474
-0.011031
-0.003635
-0.005114
-0.004292
-1.9e-05
-0.005771
-0.004128
-0.004785
0.002447
-0.005443
0.000803
-0.007579
-0.001662
-0.003635
-0.002155
-0.004621
-0.005936
-0.003306
-0.004785
-0.002484
-0.004785
-0.013003
-0.003963
-0.005771
-0.000841
-0.002648
-0.002155
-0.004949
-0.003142
-0.002155
0.000146
0.002118
-0.005278
-0.002813
-0.004949
-0.004456
-0.007415
-0.006593
-0.002484
-0.001498
-0.001827
-0.003142
-0.001498
-0.001827
-0.001991
-0.002484
-0.001005
-0.00232
-0.003799
-0.002155
-0.001662
-0.004785
-0.00347
-0.003306
-0.004128
-0.002484
0.003433
-0.000512
0.00031
-0.000676
0.000803
-0.000676
0.000639
0.001954
0.000967
-0.00347
-0.000841
-0.001827
-0.00347
-0.000841
-0.001827
-0.001827
-0.001334
0.000146
0.000967
0.00031
0.002447
0.000146
0.00146
-0.000841
0.002611
0.000803
-0.002648
-0.002813
-0.002813
-0.004621
-0.001827
-0.000841
-0.001005
-0.002484
-0.000183
-0.001334
-0.000841
0.001625
-0.002155
0.001954
0.000474
-1.9e-05
0.000967
0.002447
-0.003799
-0.002155
-0.003963
-0.000841
-0.002648
-0.001498
-0.001498
-0.001991
-1.9e-05
-0.001498
0.001296
-0.00232
0.005241
-0.003963
-0.003142
-0.002484
-0.003142
-0.006429
-0.002648
-0.003306
-0.002648
-0.000841
-0.000512
-0.001662
-0.003306
-0.000676
0.000474
-0.005278
-0.000183
-0.002484
-0.002648
-0.002977
-0.002648
-0.002648
-0.006429
-0.004456
-0.003142
-0.005607
-0.004456
-0.001662
-0.000512
0.001132
-0.001334
0.002282
0.001296
-0.003799
0.000639
-0.004128
-0.001991
-0.002977
0.002775
0.001296
-0.000183
-0.002648
-0.001662
-0.002484
-0.001662
-0.001827
-0.000183
-0.001991
-0.00347
0.000639
-0.001991
-0.001169
-0.004292
-0.001991
-0.002813
-0.002648
-0.005936
-0.004949
-0.004128
-0.004785
-0.002813
-0.004949
-0.001827
-0.00232
0.00031
-0.005607
-0.003963
-0.002155
-0.004128
-0.001991
-0.002155
-0.005114
-0.000841
-0.005443
-0.001827
-0.001827
-0.007086
-0.005278
-0.010209
-0.005443
-0.005771
-0.007086
-0.001991
-0.000841
-0.00347
0.000146
-0.007908
-0.003306
-0.002155
-0.002648
-0.004949
-0.00347
-0.012017
-0.003963
0.000146
-0.001827
0.002118
-0.001991
-0.001662
-0.001991
-0.000512
-0.00347
-0.000512
-0.003963
0.003104
0.000146
-0.000676
-0.002155
-0.003799
-0.00347
-0.003306
-0.00347
-0.001005
0.00409
0.00146
0.001789
-0.001991
0.000474
-0.008401
-0.001498
-0.006429
-0.005443
-0.006922
-0.004785
-0.006429
-0.007086
-0.009551
-0.007744
-0.009716
-0.007415
-0.003142
-0.00347
-0.004949
-0.004949
-0.003635
-0.005114
0.000639
-0.004949
-1.9e-05
-0.001169
0.000639
-0.001005
-0.000183
-0.001991
-0.00232
-0.002977
-0.00347
-0.000841
-0.003142
0.002118
-0.000183
0.001625
-0.000841
0.003597
0.000967
0.001789
0.000967
0.000803
-0.000841
-0.000347
0.001296
-0.00347
-0.001005
-0.00347
-0.000347
0.001789
-0.001662
0.000639
0.002611
0.00031
0.003268
0.001132
-0.000347
0.000967
0.000146
-0.002977
-0.002813
-0.001498
-0.002813
-0.001498
-0.000347
0.001296
-0.001991
0.000967
-0.00347
0.002447
0.001132
0.000967
0.000146
0.000967
-1.9e-05
-0.001662
-0.001498
-0.000183
-0.000512
-0.002484
-0.002813
-0.001005
-0.000512
-0.003142
-0.001498
0.00031
0.000146
-0.001827
0.003104
0.001954
0.000803
-1.9e-05
0.002611
-0.002484
-0.001334
-0.001169
0.000803
-1.9e-05
0.00031
0.003761
-0.000183
0.002282
0.00146
0.003433
-0.000183
0.003268
-0.003799
0.000967
0.001954
-0.001498
0.000146
-0.001334
0.000967
0.004748
0.00294
-0.000183
0.001296
-0.001005
0.002282
-0.000676
0.002611
0.001625
0.004255
0.002447
0.005898
0.006391
-0.001334
-0.003142
-0.002813
-0.000512
-0.001827
0.000474
0.000967
0.001296
-0.001169
0.001789
-0.001662
0.001625
0.000474
0.007049
0.001296
-0.000183
-0.001334
0.000639
0.000639
0.00031
0.002775
-0.002977
-0.003306
-0.002813
0.00146
-0.002155
-0.000347
-0.001498
0.003104
-0.000347
0.003761
-0.002813
0.000803
-1.9e-05
-0.000676
-0.001334
-0.00232
-0.00232
0.001789
0.001789
-0.000183
0.002447
-0.005114
0.00409
-0.000512
0.006391
0.011651
0.021676
0.026443
0.037455
0.045344
0.046166
0.053069
0.057835
0.064245
0.072134
0.069669
0.079366
0.08857
0.087255
0.096294
0.099253
0.104841
0.106485
0.110758
0.114374
0.118318
0.118976
0.121112
0.128015
0.127194
0.132782
0.132782
0.140342
0.138205
0.144287
0.142643
0.147738
0.147081
0.149053
0.150861
0.153491
0.155956
0.157271
0.158914
0.1576
0.161215
0.163516
0.163845
0.162037
0.166968
0.165653
0.171406
0.168283
0.169433
0.173707
0.173378
0.174528
0.179788
0.171406
0.179788
0.181431
0.182746
0.179952
0.179952
0.18061
0.182253
0.185705
0.182746
0.185376
0.183897
0.180116
0.184883
0.186198
0.182253
0.186691
0.187019
0.187841
0.190471
0.187841
0.18554
0.188827
0.189485
0.190471
0.187841
0.187019
0.191128
0.187348
0.189156
0.189814
0.18932
0.188663
0.192279
0.188827
0.1908
0.194251
0.190635
0.194087
0.19195
0.193429
0.192443
0.194087
0.192279
0.196552
0.1908
0.193101
0.191621
0.193594
0.197538
0.19458
0.196717
0.196388
0.194251
0.200497
0.197374
0.195073
0.196717
0.193922
0.195895
0.192608
0.195073
0.192443
0.196059
0.19573
0.195402
0.197045
0.195402
0.198031
0.192115
0.195566
0.19721
0.196059
0.196223
0.198196
0.194416
0.202305
0.198853
0.19573
0.195237
0.194416
0.193758
0.194744
0.195073
0.197867
0.195895
0.197538
0.199675
0.195073
0.19836
0.19573
0.199346
0.197703
0.196059
0.19458
0.198524
0.195402
0.196223
0.193265
0.191457
0.194251
0.197374
0.198031
0.196717
0.201483
0.196717
0.201154
0.195566
0.201319
0.195073
0.200497
0.193758
0.197374
0.195566
0.19836
0.197045
0.196881
0.198689
0.198689
0.197867
0.200168
0.202798
0.196717
0.200497
0.198196
0.203126
0.201154
0.198689
0.197867
0.199511
0.199018
0.197538
0.194416
0.197538
0.200004
0.196552
0.198524
0.199182
0.202469
0.201976
0.20099
0.200332
0.200168
0.200004
0.203291
0.198853
0.203126
0.200168
0.199675
0.201319
0.199182
0.202305
0.202798
0.199839
0.201812
0.205263
0.201483
0.200168
0.200497
0.203948
0.202469
0.202305
0.202633
0.200004
0.201319
0.201154
0.203784
0.201812
0.20214
0.202962
0.205263
0.205921
0.202305
0.202962
0.20362
0.202633
0.201976
0.199675
0.20099
0.199346
0.202633
0.199839
0.201647
0.199182
0.202962
0.203291
0.199346
0.203455
0.206414
0.202469
0.201976
0.205427
0.201976
0.205263
0.204441
0.203948
0.203948
0.205921
0.204441
0.20477
0.201976
0.204934
0.203784
0.203455
0.201154
0.202469
0.206085
0.203948
0.205592
0.204606
0.207564
0.203784
0.205263
0.203126
0.205921
0.202305
0.202305
0.201976
0.206085
0.208879
0.209043
0.208879
0.203291
0.207235
0.203455
0.206578
0.202469
0.201483
0.207564
0.207071
0.203948
0.206414
0.203784
0.201976
0.20099
0.203455
0.201319
0.20214
0.202962
0.205592
0.207071
0.204441
0.207564
0.209043
0.20477
0.205592
0.202305
0.203455
0.205756
0.203291
0.204606
0.207235
0.201154
0.206085
0.201483
0.203455
0.204934
0.205427
0.204934
0.204277
0.202633
0.207728
0.207071
0.206414
0.204606
0.209208
0.20362
0.203291
0.203784
0.205921
0.206742
0.205099
0.207893
0.20362
0.208715
0.204277
0.199511
0.205263
0.21118
0.208222
0.203126
0.200825
0.202633
0.204606
0.203126
0.203126
0.20362
0.205592
0.203948
0.204441
0.203126
0.207564
0.203948
0.207071
0.205756
0.20855
0.204441
0.205099
0.202305
0.004912
0.009843
0.018882
0.026936
0.033346
0.040413
0.051261
0.057177
0.063423
0.072627
0.076736
0.080681
0.084132
0.091857
0.094651
0.097938
0.101225
0.104677
0.108786
0.11273
0.121934
0.120948
0.12555
0.126372
0.133603
0.134425
0.138534
0.142479
0.143794
0.140671
0.145273
0.145108
0.144944
0.15119
0.152176
0.152011
0.153491
0.15612
0.160394
0.163188
0.164503
0.165653
0.167954
0.171406
0.169926
0.176008
0.174364
0.176665
0.176336
0.1742
0.173049
0.178637
0.178473
0.177487
0.180774
0.175515
0.181103
0.182582
0.183568
0.184883
0.186526
0.182746
0.191128
0.187184
0.191457
0.187513
0.188827
0.186691
0.186691
0.188006
0.191786
0.192279
0.188992
0.192279
0.191128
0.190635
0.194251
0.193594
0.192443
0.192772
0.191786
0.195566
0.192443
0.193265
0.193922
0.195402
0.189649
0.192115
0.19836
0.192115
0.19836
0.196388
0.198689
0.196552
0.196717
0.197703
0.199675
0.198524
0.199182
0.198196
0.198031
0.196552
0.200332
0.196059
0.195402
0.193429
0.196717
0.200332
0.199346
0.199182
0.201319
0.196552
0.199182
0.200168
0.19573
0.200168
0.194251
0.201483
0.196552
0.198031
0.199839
0.198689
0.197374
0.195073
0.198031
0.196388
0.198031
0.194416
0.20099
0.195237
0.201319
0.200332
0.199839
0.196881
0.196388
0.19458
0.197374
0.197703
0.194087
0.200004
0.197703
0.199839
0.198689
0.197703
0.195895
0.197538
0.196388
0.199839
0.197703
0.199839
0.199346
0.199182
0.199346
0.198524
0.19836
0.195237
0.198524
0.195402
0.200825
0.19836
0.199346
0.199675
0.201154
0.196717
0.20099
0.192115
0.195566
0.19836
0.195073
0.197045
0.199675
0.201647
0.199511
0.198689
0.194744
0.200661
0.19721
0.196881
0.194744
0.195895
0.195566
0.197045
0.197703
0.200004
0.194087
0.191621
0.193594
0.194909
0.191128
0.194251
0.196717
0.190635
0.202633
0.196223
0.195073
0.194251
0.195566
0.193265
0.197045
0.195566
0.197538
0.195237
0.194416
0.196388
0.192936
0.195566
0.194416
0.194087
0.193265
0.195895
0.195237
0.192443
0.193101
0.193429
0.195402
0.196717
0.193429
0.196881
0.196223
0.195237
0.197374
0.200004
0.197703
0.192279
0.199018
0.192279
0.194416
0.190142
0.194251
0.194416
0.19573
0.191128
0.195402
0.190471
0.192608
0.192608
0.186362
0.200168
0.190964
0.193265
0.196881
0.192772
0.191786
0.198689
0.190471
0.192443
0.190635
0.194909
0.190471
0.193594
0.194087
0.194416
0.195895
0.193101
0.193922
0.195566
0.193758
0.191786
0.192608
0.189978
0.193265
0.1908
0.192608
0.19195
0.193265
0.192772
0.193265
0.193594
0.19195
0.194251
0.193594
0.189649
0.194744
0.192443
0.19458
0.19195
0.193758
0.193265
0.189814
0.191457
0.193594
0.192608
0.189649
0.191621
0.194909
0.193922
0.192608
0.192772
0.194251
0.193265
0.1908
0.191621
0.190142
0.193429
0.194909
0.195402
0.196388
0.192772
0.19721
0.193922
0.195895
0.194909
0.196552
0.198524
0.197703
0.200497
0.191621
0.19458
0.190964
0.19573
0.193265
0.194416
0.193265
0.192115
0.196059
0.195073
0.195566
0.197374
0.195895
0.196717
0.196881
0.192279
0.195073
0.192936
0.194416
0.195073
0.189485
0.190471
0.192279
0.190471
0.186033
0.196223
0.18932
0.191621
0.196717
0.190471
0.193101
0.191457
0.193429
0.195566
0.193101
0.192772
0.190471
0.193594
0.193922
0.19836
0.194416
0.194909
0.194251
0.199182
0.198689
0.198689
0.19836
0.1908
0.194744
0.193101
0.195237
0.195073
0.144451
0.013294
0.022991
0.020362
0.031209
0.033181
0.027429
0.035482
0.041399
0.050603
0.058985
0.059478
0.07197
0.074599
0.073613
0.081995
0.086926
0.092843
0.094487
0.100239
0.102376
0.108293
0.108128
0.112566
0.102211
0.064409
0.074106
0.080681
0.081502
0.08972
0.092843
0.097281
0.102704
0.102047
0.109279
0.109443
0.115853
0.119797
0.123906
0.122263
0.128344
0.127522
0.13311
0.13196
0.13952
0.139192
0.137384
0.147574
0.147738
0.14856
0.148067
0.154148
0.151354
0.153819
0.153162
0.155792
0.150039
0.147903
0.151354
0.022663
0.032195
0.041728
0.04633
0.052575
0.063094
0.059972
0.061615
0.061615
0.068847
0.068189
0.07049
0.070983
0.075092
0.072956
0.077722
0.076407
0.070819
0.072627
0.068189
0.062437
0.065395
0.066217
0.064574
0.058657
0.052082
0.041564
0.037783
0.029894
0.031045
0.033181
0.025128
0.016088
0.015266
0.016746
0.017239
0.017239
0.01428
0.013623
0.012965
0.010993
0.011979
0.010664
0.014609
0.012308
0.01313
0.00672
0.013952
0.01428
0.014116
0.016581
0.013459
0.014116
0.015595
0.016746
0.021019
0.028251
0.029401
0.040084
0.036633
0.04107
0.043043
0.045672
0.046823
0.049946
0.048467
0.051096
0.056027
0.05652
0.056849
0.062108
0.066217
0.066217
0.073942
0.073778
0.077393
0.080681
0.083146
0.081667
0.080845
0.080681
0.077886
0.079859
0.081009
0.082817
0.081338
0.081174
0.084789
0.084625
0.088077
0.094651
0.091199
0.097281
0.096623
0.103691
0.108621
0.108786
0.105663
0.11536
0.118976
0.119304
0.122592
0.130316
0.130152
0.128015
0.13311
0.139356
0.143629
0.144122
0.148396
0.14593
0.148231
0.147574
0.137219
0.148724
0.153984
0.151683
0.153984
0.157764
0.163023
0.165653
0.165653
0.165817
0.163516
0.167132
0.165817
0.169433
0.169762
0.171734
0.171077
0.170584
0.167461
0.176501
0.175021
0.173542
0.176336
0.173871
0.176994
0.177487
0.178309
0.176501
0.179459
0.178637
0.183897
0.180938
0.183239
0.180445
0.181924
0.178966
0.179952
0.17798
0.180938
0.182746
0.180116
0.185047
0.18439
0.184554
0.184718
0.191457
0.185047
0.189978
0.186033
0.185212
0.186691
0.17913
0.184718
0.180774
0.181596
0.186691
0.188827
0.184225
0.187841
0.186033
0.187513
0.185047
0.189156
0.186033
0.188992
0.187348
0.187019
0.188006
0.1908
0.191457
0.189814
0.189814
0.188663
0.187513
0.188334
0.190307
0.18932
0.189978
0.190307
0.188827
0.187019
0.189978
0.188992
0.188827
0.188006
0.188006
0.190964
0.190307
0.189156
0.188827
0.189156
0.188334
0.189649
0.190471
0.192443
0.188992
0.189814
0.19195
0.192608
0.192443
0.192936
0.191293
0.190635
0.189156
0.188992
0.188663
0.185047
0.192279
0.191786
0.192279
0.192279
0.191786
0.191786
0.193265
0.194251
0.193594
0.193265
0.195402
0.193758
0.192443
0.190964
0.192772
0.191293
0.192279
0.194087
0.191457
0.194416
0.193101
0.193594
0.19573
0.196388
0.194909
0.198196
0.197867
0.196717
0.196223
0.197045
0.195402
0.195566
0.192443
0.200168
0.196223
0.196059
0.198524
0.196388
0.19721
0.194744
0.196388
0.193594
0.197045
0.19573
0.201319
0.200497
0.20099
0.197703
0.200004
0.199018
0.198853
0.198524
0.196717
0.201319
0.199018
0.200168
0.197703
0.205099
0.203948
0.206742
0.197045
0.200168
0.205099
0.206249
0.20362
0.202305
0.204277
0.203291
0.203126
0.201976
0.205592
0.201154
0.20362
0.202305
0.204934
0.20477
0.207564
0.205427
0.206742
0.205921
0.205756
0.197867
0.201319
0.203784
0.202469
0.205756
0.202305
0.208222
0.201647
0.202962
0.210523
0.209043
0.205099
0.203291
0.203126
0.205921
0.205756
0.205099
0.207564
0.205263
0.206907
0.205263
0.206085
0.204606
0.206578
0.205427
0.206742
0.205921
0.20855
0.206414
0.20855
0.207235
0.208057
0.20855
0.205921
0.210029
0.202798
0.204934
0.204934
0.205263
0.204113
0.203784
0.207071
0.206249
0.205592
0.209043
0.209372
0.206907
0.205921
0.206742
0.206414
0.204934
0.207235
0.205592
0.204441
0.204277
0.205756
0.205756
0.203948
0.202633
0.204606
0.203948
0.208715
0.204113
0.205756
0.204277
0.19836
0.203126
0.204277
0.202469
0.203455
0.203455
0.202469
0.203126
0.200497
0.20477
0.202305
0.202469
0.197703
0.022005
0.030387
0.036633
0.042714
0.048302
0.053726
0.061286
0.067039
0.069504
0.076572
0.081502
0.088241
0.086926
0.099253
0.097938
0.103362
0.107306
0.112073
0.114209
0.120291
0.122756
0.126536
0.128344
0.128837
0.132617
0.13459
0.137219
0.139192
0.143629
0.149546
0.149875
0.14856
0.14971
0.151354
0.15612
0.153819
0.1576
0.157435
0.15875
0.157435
0.160887
0.165489
0.165324
0.166475
0.167625
0.168612
0.168283
0.172063
0.170255
0.175021
0.1742
0.17272
0.172885
0.176501
0.17913
0.179952
0.180281
0.17535
0.178637
0.178637
0.180774
0.177487
0.183075
0.179952
0.182582
0.179952
0.18554
0.181924
0.184061
0.179788
0.183239
0.18554
0.183568
0.186362
0.184883
0.186855
0.185869
0.184718
0.182417
0.185376
0.183897
0.187348
0.18554
0.181924
0.18554
0.184554
0.183404
0.186691
0.193101
0.183568
0.187019
0.187677
0.187348
0.185212
0.18817
0.188992
0.189814
0.186855
0.18932
0.175843
0.181267
0.184883
0.187019
0.185869
0.187513
0.188663
0.186198
0.188663
0.188663
0.188334
0.188499
0.188827
0.188663
0.189485
0.185376
0.189485
0.189649
0.186033
0.18817
0.189485
0.185705
0.191621
0.188006
0.189649
0.193758
0.188334
0.18932
0.193429
0.187513
0.188663
0.1908
0.188006
0.191457
0.192772
0.188334
0.187513
0.18817
0.187513
0.189978
0.185212
0.188499
0.192936
0.190471
0.191786
0.192772
0.191128
0.189814
0.190635
0.192608
0.187513
0.184225
0.191128
0.191293
0.190471
0.191621
0.193265
0.192772
0.193594
0.192608
0.190964
0.192443
0.18932
0.1908
0.192772
0.192608
0.189156
0.191621
0.188663
0.186855
0.189485
0.190471
0.192115
0.191293
0.191786
0.19195
0.196059
0.192608
0.192772
0.195402
0.19458
0.193429
0.194251
0.19458
0.194087
0.192443
0.194909
0.195237
0.194416
0.198196
0.196059
0.197867
0.198196
0.198853
0.19721
0.198524
0.198031
0.201154
0.197703
0.197867
0.196388
0.201154
0.198196
0.196881
0.200661
0.200661
0.19836
0.20477
0.200661
0.195566
0.202469
0.202633
0.201976
0.200332
0.20099
0.199675
0.200661
0.197374
0.201812
0.198031
0.199675
0.200004
0.202305
0.19573
0.202633
0.201976
0.201647
0.20099
0.196552
0.203784
0.199346
0.200332
0.199346
0.201483
0.199346
0.203126
0.198031
0.201976
0.200168
0.199839
0.20099
0.20477
0.203784
0.202469
0.205921
0.199511
0.202305
0.201647
0.202469
0.201812
0.204934
0.206414
0.205921
0.202798
0.204113
0.204441
0.201976
0.204277
0.200825
0.203784
0.206085
0.203126
0.205099
0.205263
0.199018
0.205263
0.20855
0.202305
0.201154
0.203126
0.202305
0.201812
0.203291
0.205099
0.203455
0.20477
0.207071
0.205263
0.202962
0.204277
0.203291
0.201319
0.202798
0.204113
0.204113
0.199839
0.202633
0.199839
0.199018
0.195402
0.198689
0.201647
0.202469
0.202305
0.202798
0.202962
0.201154
0.202305
0.199346
0.205756
0.204277
0.202305
0.204113
0.202305
0.200497
0.199346
0.199182
0.201647
0.201319
0.201483
0.204113
0.201647
0.204277
0.200168
0.20214
0.200661
0.20362
0.194909
0.200332
0.19836
0.203455
0.197703
0.202798
0.200332
0.199346
0.20099
0.199511
0.202633
0.198524
0.199511
0.200332
0.201154
0.199675
0.20362
0.194087
0.196059
0.198031
0.198031
0.195237
0.197045
0.200168
0.201483
0.200004
0.197703
0.197703
0.197703
0.198524
0.196223
0.199346
0.199018
0.202798
0.199675
0.198853
0.196223
0.196388
0.197538
0.196388
0.196717
0.193101
0.197538
0.201647
0.191457
0.193101
0.195237
0.19458
0.197045
0.197538
0.195895
0.196717
0.19721
0.194744
0.194416
0.194251
0.194251
0.192608
0.191786
0.190964
0.196717
0.194251
0.194087
0.197538
0.19458
0.197703
0.194087
0.196223
0.196717
0.198853
0.194909
0.196223
0.195237
0.194251
0.194744
0.195402
0.196881
0.197703
0.19836
0.198524
0.200332
0.196059
0.19836
0.19573
0.202962
0.200825
0.198853
0.197703
0.197867
0.194251
0.197374
0.195566
0.194744
0.199511
0.190635
0.192443
0.192443
0.199511
0.192608
0.199839
0.198853
0.198031
0.197867
0.196223
0.195895
0.196223
0.195895
0.195237
0.194087
0.193594
0.196223
0.196552
0.198853
0.19721
0.19836
0.198853
0.197867
0.198524
0.197538
0.197867
0.19721
0.19195
0.196388
0.194744
0.196552
0.199182
0.199511
0.197538
0.197867
0.198031
0.198853
0.201154
0.196552
0.200661
0.20099
0.203784
0.200661
0.203948
0.198689
0.198524
0.198196
0.197045
0.198031
0.200332
0.19573
0.199511
0.200661
0.196881
0.192608
0.197374
0.200168
0.200004
0.200332
0.198524
0.199511
0.196223
0.199182
0.203784
0.195895
0.199511
0.196388
0.198689
0.198031
0.199511
0.199018
0.199018
0.197703
0.200332
0.20362
0.199346
0.198031
0.19836
0.194744
0.196223
0.196552
0.197703
0.197867
0.193429
0.200825
0.198524
0.199018
0.199346
0.201647
0.195237
0.194087
0.197045
0.199346
0.198689
0.197867
0.198196
0.199018
0.198853
0.19721
0.200497
0.199182
0.203291
0.201647
0.200168
0.200332
0.20214
0.201154
0.200168
0.200004
0.198196
0.200168
0.196717
0.196059
0.200004
0.198524
0.198196
0.199839
0.199182
0.199675
0.202305
0.198524
0.200332
0.200004
0.199182
0.198689
0.195566
0.196552
0.197703
0.19836
0.199511
0.198524
0.199839
0.199018
0.202633
0.197867
0.199839
0.199839
0.200332
0.198031
0.199346
0.199675
0.199839
0.198031
0.201483
0.200168
0.199839
0.199346
0.198853
0.200004
0.198524
0.201483
0.202633
0.20477
0.198524
0.202305
0.196552
0.199511
0.200497
0.200497
0.201483
0.199182
0.195895
0.199182
0.20099
0.199346
0.200661
0.199675
0.200825
0.199675
0.201976
0.199346
0.198689
0.199018
0.197045
0.198524
0.198196
0.197703
0.199675
0.199018
0.200661
0.200497
0.200825
0.200661
0.200004
0.202305
0.199839
0.203784
0.197538
0.198196
0.203126
