Ladekurvenmessung

Zeit: 2018_05_04 09.02.46

Info: FVA3, v = 0.749, T = 23, F = 20, h = 374.2

Ladewiderstand[Ohm]: 1012700

Störkapazität[pF]: 0.000000

Entladezeit[ms]: 200

Abtastrate[Hz]: 250000

Anzahl der Messwerte: 2500.000000

Verzögerung[ms]: 3

Ladespannung[V]: 0.200000


Kurve 1

-0.000676
0.001625
0.000639
0.001789
0.003104
0.002118
0.004912
0.00031
0.000967
0.000474
0.003268
0.001296
0.003104
0.004583
0.002775
0.002118
0.002447
0.001789
0.000803
-0.000183
-0.001169
0.00146
-0.00347
0.001954
0.00146
0.001132
-0.001169
0.003597
0.002118
0.00294
0.003761
0.001625
0.000967
-0.001005
0.00294
0.002611
0.003761
0.001954
0.005241
0.000967
0.002447
0.000967
0.001789
0.002118
0.002447
0.001954
0.000146
0.003268
0.004583
0.004419
-0.000512
0.00409
-1.9e-05
0.005076
0.002447
-0.001827
0.002775
0.001625
-0.000183
0.000967
0.003926
-1.9e-05
-0.000676
0.001954
0.003761
0.003761
0.002447
0.001789
0.003926
-0.001827
-0.000512
0.003433
0.000146
-0.000347
0.000639
-0.000347
0.000803
-1.9e-05
0.001296
0.005076
-0.001005
0.005241
0.005076
0.002118
0.000803
0.005076
0.002447
0.001296
0.000639
0.002447
0.000967
0.002447
0.001132
0.001132
0.000639
-0.000347
0.001625
0.000474
0.00031
0.000474
0.002118
0.002447
0.004748
0.002775
0.005076
0.001296
0.002282
0.000474
0.000967
0.001132
-0.001169
-0.000512
-0.000183
0.001954
0.005241
0.005898
-1.9e-05
0.002775
0.001625
0.003761
-0.000347
0.001132
0.001789
0.001132
0.000146
-0.000676
0.002118
-0.001334
0.00031
-0.004456
-0.001334
-0.001334
-1.9e-05
0.000967
0.004255
0.002447
0.006556
0.002447
0.002282
0.005405
0.005569
0.001954
-0.001005
0.004255
-0.000841
0.000639
0.001132
0.002447
-0.000512
0.000967
0.001625
0.003926
0.001625
0.002775
0.001789
0.001789
0.002118
0.000146
0.00031
-0.001005
0.001132
0.000639
0.000146
-0.001827
0.002118
0.000474
-0.000841
0.00031
0.006391
0.000639
0.002447
-0.002155
0.000967
-0.000512
-0.001827
0.000803
-0.000512
0.001296
0.00031
0.002775
-1.9e-05
0.002118
0.000803
0.00294
0.00294
0.00146
0.004748
0.00146
0.002447
0.003926
0.003597
0.00146
0.000474
-0.000183
0.000639
-1.9e-05
0.002447
0.001132
0.002118
0.001954
0.001132
0.00146
0.002118
-0.000841
0.001625
0.000146
-0.000347
0.000967
-0.002813
0.002118
0.00031
0.002118
0.000967
0.000803
-0.002155
-0.000512
0.000146
0.000639
-0.000841
0.00146
0.003268
-0.000183
-0.001169
-0.002155
0.00031
-0.002977
0.003104
-0.000676
0.001625
0.000474
0.00146
0.000474
0.00031
-1.9e-05
0.000146
-0.000183
-0.001334
-0.000347
-0.003306
-0.005114
0.001789
0.003926
0.000639
0.001954
0.001789
0.001954
0.001625
-0.000347
-1.9e-05
-0.000676
-0.000347
-0.000512
0.002282
-0.002484
0.000474
-0.001498
0.001132
-0.00232
0.00031
-0.000676
0.000967
0.000803
0.000967
0.002447
0.000146
0.002775
-1.9e-05
-0.000347
-0.00347
-0.006429
-0.007744
0.000474
-0.004785
-0.002484
-0.001169
0.001954
0.00146
0.002118
0.00146
0.002118
0.000639
-0.001662
0.000639
0.000639
0.001296
-0.000183
0.000639
-0.003306
0.003268
0.002447
-0.003635
-0.000183
-0.001334
0.000967
0.001132
0.00031
0.004748
0.002118
0.005076
0.001954
0.001132
-0.005114
-0.001827
-0.000676
-0.002155
-1.9e-05
-0.001662
0.001954
-0.001662
0.00146
0.001296
0.001789
-0.006593
0.001296
0.001954
-0.000183
0.00146
0.003597
0.004255
0.002118
-0.000841
-0.003799
-0.002155
-0.010702
-0.004292
-1.9e-05
0.00031
0.001296
0.001132
0.002282
0.000474
0.001625
-0.000183
0.00146
-0.003963
-0.000841
0.000803
0.002118
0.00031
0.00031
0.00031
-0.001334
0.00031
0.000639
0.001954
0.001789
0.000639
0.000639
0.003761
-0.001334
0.002282
0.001132
0.001296
-0.001169
0.00146
-0.000841
0.005076
-0.001334
-0.001662
0.000474
-0.000676
0.001789
0.000967
0.004255
-0.000183
0.00031
-0.002155
0.005405
-0.000183
0.003104
0.001132
-0.001005
-0.002484
0.000146
0.000146
-0.001334
0.003268
-0.001827
0.004912
-0.000183
0.001625
0.000146
0.001296
-0.000183
0.003597
0.000146
0.00146
0.001625
0.000146
-0.000347
-0.000512
0.002447
0.002447
0.001625
-0.001005
0.003433
-0.000512
-0.000347
0.000474
0.000967
0.002118
0.00146
0.000967
0.000474
0.001132
-0.001005
0.002118
0.00031
0.000639
0.001625
0.000474
-1.9e-05
0.00146
-0.001827
-1.9e-05
-0.000841
0.002118
-0.000512
-0.001334
-0.001334
0.001954
0.002611
0.000639
0.001132
0.001132
0.003433
0.000639
0.004583
-0.001498
0.001625
-0.000512
0.001132
0.00031
0.000146
0.000803
-0.000347
0.002775
-0.000512
-0.001827
0.000474
0.002611
0.002447
0.001789
-0.004292
0.002611
-0.001169
-0.001991
-0.001334
0.000474
-0.001169
0.001296
0.003268
0.00031
0.000146
0.001132
0.002611
0.000474
0.000967
-0.000183
0.00294
0.000967
0.001132
0.00146
0.000967
0.00031
-0.000347
0.002611
0.001132
-0.001005
0.000474
0.001296
-0.003635
0.001625
0.002282
0.004255
0.00294
0.004912
-0.001498
-0.000347
-1.9e-05
0.00031
0.000803
0.000639
0.001625
-0.000183
0.002611
0.001954
-0.000347
0.002447
0.001625
0.001132
0.002118
-0.000676
0.00294
0.005076
0.002611
0.000967
0.000803
0.000967
0.000474
0.000803
-1.9e-05
-0.001005
0.001296
0.002118
0.000803
0.002611
0.000146
0.002775
0.002282
0.000803
0.000146
0.000474
-0.000347
0.002118
-0.00232
-0.001498
0.000803
-0.001169
-0.000512
-0.003635
0.000803
-0.002484
-0.001334
-0.000841
0.00146
0.001132
0.000967
0.002282
0.00031
0.000967
0.000803
0.001789
0.000146
0.002118
-0.001991
0.000146
0.001296
0.001296
0.00409
0.001296
0.001296
0.002282
0.001789
0.004748
-0.003306
-0.000347
0.000639
-0.000512
0.001789
0.001296
0.002282
-0.000183
0.001789
0.001132
-0.001498
0.00031
-0.000183
-1.9e-05
-0.000841
0.000803
0.00294
0.001296
-0.000512
0.00672
0.001625
0.000146
0.00146
0.000967
-0.002813
0.00031
-0.003799
-0.001498
-0.001991
0.00031
-0.001005
0.000639
0.001625
0.000967
0.00294
-0.001005
0.00294
0.00031
0.001789
0.001132
0.00146
0.00031
0.004255
0.000803
0.002775
0.00031
-0.001005
0.001625
-0.001662
0.001789
-0.004621
0.001954
-1.9e-05
0.002775
-1.9e-05
0.005241
-0.000347
-0.000347
-0.000512
-0.000183
-0.000676
-0.000512
-0.000512
-0.001991
0.003597
-0.001662
0.000803
-0.000183
0.000967
-0.000183
0.003104
0.003104
0.003433
0.001132
-0.00232
-0.000841
-0.00232
-0.005607
-0.003635
0.000639
-0.001662
-0.000512
0.000474
0.001296
0.001132
0.004583
0.002118
0.003104
-0.000512
0.003268
0.001789
0.002775
0.000639
0.002775
0.000967
0.001132
0.001132
-0.000183
0.00146
-0.002813
0.000639
0.000803
0.003433
-0.000676
0.004912
0.000967
0.002118
0.001625
-0.000841
0.00031
-0.001662
0.000639
-0.001169
-0.000841
-0.001662
0.000967
0.000474
0.000474
-0.002484
-0.000347
-0.001169
0.002282
-0.003142
-1.9e-05
-0.001991
-0.003799
-0.002155
-0.003963
-0.004128
0.001625
0.00031
-0.002648
0.000967
-0.003635
0.001296
-0.000347
-0.000512
0.001789
0.000967
0.000967
-1.9e-05
0.004255
-0.000347
0.000967
-0.000512
0.00146
0.001132
-0.001005
-0.001334
0.001789
0.000639
0.001954
0.00146
-1.9e-05
0.001625
-0.000183
-1.9e-05
0.000146
-0.004292
-1.9e-05
0.001954
-0.000347
0.00031
0.000803
0.001625
-0.001005
0.000967
0.001132
0.000967
-0.001169
0.001789
0.002447
-0.000676
0.000967
-0.000347
-0.000512
0.001132
-0.003963
-0.003142
0.001296
-0.00232
0.001954
0.001132
-0.000841
0.000146
0.000474
0.000803
0.00031
-0.000512
0.000474
0.001789
0.000474
0.003268
0.001954
0.002611
0.002118
0.003433
0.000803
0.000474
0.001132
-0.000512
0.00031
-0.005443
0.000639
-0.000183
-0.000512
0.004583
0.014609
0.018389
0.028251
0.03351
0.043043
0.049288
0.055205
0.060793
0.068025
0.072791
0.078215
0.085776
0.087419
0.0935
0.095637
0.102376
0.100568
0.107635
0.110593
0.119797
0.116017
0.12177
0.1267
0.128673
0.133275
0.136726
0.140013
0.140178
0.141986
0.146588
0.147738
0.146916
0.152011
0.152505
0.156449
0.157764
0.163188
0.161215
0.164667
0.16401
0.168283
0.170091
0.167954
0.171406
0.171734
0.169762
0.173871
0.176665
0.171241
0.178144
0.175515
0.178144
0.178309
0.181267
0.18061
0.183568
0.182417
0.184718
0.184718
0.183568
0.183075
0.184061
0.188663
0.188334
0.187513
0.184225
0.187184
0.186855
0.186526
0.187184
0.187841
0.190142
0.190471
0.191457
0.193758
0.194251
0.192936
0.193758
0.19195
0.19458
0.193594
0.193758
0.193922
0.192443
0.194087
0.197703
0.198196
0.197374
0.197867
0.196388
0.19721
0.196552
0.198853
0.19458
0.197703
0.199182
0.199346
0.197538
0.198196
0.199511
0.196223
0.196059
0.197045
0.197867
0.197374
0.197045
0.200004
0.200332
0.198853
0.19721
0.198031
0.198196
0.198196
0.198524
0.198853
0.19836
0.193758
0.198031
0.198524
0.195895
0.197867
0.197703
0.200661
0.197703
0.200497
0.197867
0.20099
0.198689
0.202469
0.198524
0.201812
0.200004
0.200661
0.19721
0.197703
0.201647
0.201319
0.203126
0.199182
0.200661
0.199346
0.199675
0.199346
0.20099
0.199511
0.200332
0.197703
0.20362
0.19836
0.19836
0.199182
0.198031
0.199346
0.198689
0.200004
0.195895
0.20099
0.199018
0.201647
0.19836
0.19836
0.200168
0.201483
0.200332
0.201154
0.200332
0.196223
0.199018
0.197538
0.195895
0.19573
0.196223
0.200332
0.199511
0.199346
0.199346
0.200825
0.200497
0.199346
0.200661
0.199839
0.199675
0.200497
0.200168
0.202798
0.196717
0.201483
0.201154
0.200168
0.196881
0.199018
0.19836
0.19836
0.198031
0.200004
0.198689
0.200825
0.200168
0.196388
0.199839
0.197374
0.199182
0.198853
0.199675
0.198196
0.199182
0.199511
0.201154
0.199182
0.200004
0.199839
0.199182
0.198524
0.201154
0.199346
0.198196
0.200825
0.198689
0.197867
0.196717
0.20099
0.196388
0.198689
0.198524
0.199346
0.199675
0.198689
0.200168
0.198853
0.201154
0.201319
0.201812
0.200332
0.200168
0.200332
0.198524
0.196059
0.199018
0.198031
0.198689
0.200661
0.199839
0.200825
0.199018
0.200332
0.199839
0.200661
0.198031
0.197374
0.201976
0.20214
0.200004
0.200661
0.199839
0.198853
0.19721
0.197045
0.196881
0.198853
0.19836
0.200168
0.200168
0.199675
0.200332
0.200004
0.196552
0.197374
0.199511
0.198031
0.196552
0.200004
0.203126
0.199018
0.199511
0.200332
0.201812
0.198689
0.199018
0.200332
0.198853
0.201154
0.199511
0.200004
0.199511
0.201483
0.200661
0.205099
0.196059
0.198524
0.200332
0.197867
0.20099
0.199018
0.200497
0.200004
0.203455
0.19836
0.202305
0.19836
0.202633
0.20099
0.200332
0.199511
0.200825
0.201154
0.19836
0.199346
0.200497
0.200497
0.198524
0.201483
0.199675
0.199346
0.199346
0.199675
0.197045
0.198689
0.198853
0.201319
0.199839
0.198689
0.20099
0.200661
0.201319
0.200661
0.199182
0.198689
0.20362
0.202469
0.20099
0.201154
0.199839
0.19836
0.197538
0.199675
0.19836
0.201154
0.202633
0.203291
0.199839
0.202633
0.201647
0.20099
0.200168
0.201154
0.200497
0.201812
0.199511
0.201483
0.20099
0.200168
0.199182
0.200661
0.198853
0.20099
0.199839
0.200168
0.20099
0.197538
0.203126
0.200497
0.201647
0.200825
0.201483
0.199346
0.196881
0.19721
0.199018
0.196059
0.192608
0.197867
0.198853
0.201812
0.200332
0.202798
0.200332
0.202469
0.201647
0.201483
0.201319
0.178637
0.026936
0.034003
0.040906
0.048138
0.056684
0.057671
0.063094
0.069833
0.078873
0.081995
0.088241
0.0935
0.097774
0.102376
0.107471
0.112073
0.111744
0.116839
0.118318
0.121277
0.1267
0.126043
0.13311
0.137877
0.136069
0.141164
0.146259
0.145602
0.147738
0.15234
0.151683
0.153984
0.15497
0.1576
0.157764
0.158257
0.161051
0.163516
0.164831
0.164503
0.169598
0.168283
0.169269
0.170584
0.174693
0.173378
0.177158
0.177815
0.178966
0.178473
0.178144
0.178473
0.181431
0.181924
0.18176
0.187184
0.184061
0.186855
0.181924
0.186198
0.185047
0.189156
0.187019
0.189649
0.185869
0.18817
0.190471
0.188006
0.188827
0.188992
0.190964
0.190142
0.190307
0.188992
0.192115
0.1908
0.190964
0.192936
0.196059
0.195073
0.192115
0.194087
0.193101
0.193594
0.191293
0.193758
0.193101
0.190964
0.19458
0.197045
0.19573
0.197045
0.195566
0.195237
0.19573
0.194251
0.200004
0.198524
0.197374
0.196059
0.198196
0.196717
0.199346
0.19573
0.199182
0.197538
0.19721
0.195566
0.199018
0.196717
0.192443
0.192279
0.194416
0.196223
0.199839
0.196059
0.197538
0.196881
0.195237
0.201647
0.197867
0.199018
0.199675
0.199182
0.197703
0.19836
0.198689
0.198196
0.19721
0.197045
0.199182
0.200168
0.201976
0.198524
0.198031
0.199182
0.196881
0.195566
0.199839
0.199839
0.200497
0.200168
0.199018
0.200332
0.198031
0.19836
0.199018
0.198689
0.199346
0.200004
0.198853
0.201483
0.199018
0.201154
0.201154
0.201976
0.198524
0.199182
0.200168
0.199182
0.198031
0.196388
0.199675
0.199018
0.199675
0.200004
0.201154
0.19721
0.200497
0.198689
0.201812
0.199839
0.199511
0.200497
0.201976
0.200004
0.198031
0.200497
0.199346
0.199182
0.196717
0.19573
0.198031
0.199018
0.197374
0.198524
0.200168
0.199839
0.19836
0.200332
0.202305
0.199182
0.199839
0.199018
0.200332
0.199182
0.201483
0.198031
0.201483
0.198689
0.198689
0.199839
0.199675
0.200497
0.198853
0.200332
0.201319
0.201976
0.198853
0.20214
0.19836
0.20214
0.19573
0.19836
0.194744
0.198196
0.198031
0.19836
0.199675
0.198524
0.199839
0.199839
0.20099
0.19836
0.198853
0.19721
0.198853
0.199182
0.199839
0.199346
0.200004
0.202305
0.202633
0.201812
0.196881
0.19573
0.196223
0.199182
0.198689
0.196717
0.198524
0.201647
0.199675
0.201483
0.199675
0.197538
0.198853
0.198196
0.199346
0.199346
0.200004
0.201647
0.200825
0.200497
0.202469
0.200661
0.194416
0.198853
0.201812
0.200004
0.20362
0.20362
0.203784
0.203126
0.201483
0.203126
0.198853
0.19195
0.19836
0.201976
0.198853
0.202305
0.199018
0.201319
0.201812
0.203126
0.202305
0.204277
0.193429
0.202305
0.204277
0.200661
0.201154
0.19836
0.197867
0.201647
0.201812
0.199675
0.20362
0.197538
0.201154
0.20099
0.200661
0.20477
0.201483
0.203291
0.203948
0.20362
0.203126
0.204934
0.204606
0.201812
0.20214
0.202469
0.200497
0.202469
0.202633
0.20214
0.20362
0.202469
0.20099
0.206414
0.204934
0.205427
0.206085
0.203455
0.205099
0.201976
0.203455
0.202633
0.201812
0.202633
0.20855
0.196881
0.201976
0.202469
0.201812
0.201812
0.203784
0.201483
0.200497
0.201154
0.199346
0.202798
0.201319
0.203291
0.199182
0.199675
0.197374
0.200004
0.200332
0.200004
0.199839
0.20099
0.199511
0.20099
0.200497
0.198689
0.200332
0.197374
0.202962
0.198689
0.198524
0.199018
0.198031
0.196388
0.197867
0.195237
0.197703
0.197703
0.195566
0.19836
0.196059
0.197045
0.196223
0.19721
0.196717
0.197538
0.194251
0.196059
0.195073
0.193922
0.192936
0.19573
0.199182
0.194416
0.195073
0.196223
0.193594
0.194087
0.192115
0.197374
0.196717
0.193429
0.193265
0.191786
0.192936
0.192115
0.193101
0.19195
0.192772
0.193429
0.193758
0.195237
0.19573
0.195237
0.193429
0.194744
0.194744
0.199018
0.192115
0.198031
0.194909
0.19195
0.196059
0.195402
0.197867
0.192443
0.19195
0.194087
0.195566
0.192443
0.195895
0.191786
0.193922
0.193922
0.192936
0.196059
0.197045
0.195402
0.194909
0.196717
0.195073
0.195073
0.193922
0.195237
0.194087
0.196881
0.196717
0.197703
0.200168
0.196717
0.196388
0.19721
0.195402
0.196881
0.197374
0.197538
0.195895
0.195402
0.197045
0.197045
0.199511
0.198031
0.196717
0.19458
0.197867
0.196717
0.196717
0.197374
0.197703
0.200825
0.196552
0.197374
0.19836
0.198196
0.199511
0.199675
0.197374
0.198031
0.195895
0.199018
0.198853
0.20099
0.193758
0.198853
0.197867
0.19573
0.197045
0.196388
0.196059
0.198853
0.19836
0.197538
0.200004
0.197867
0.200168
0.197374
0.196552
0.199839
0.197045
0.196881
0.195073
0.19573
0.196552
0.198031
0.192443
0.195402
0.19721
0.198031
0.196717
0.200004
0.198196
0.197703
0.199839
0.198853
0.196388
0.197867
0.196388
0.197538
0.198031
0.196388
0.198196
0.196223
0.199182
0.199018
0.200004
0.202305
0.199018
0.198853
0.199346
0.199839
0.197867
0.199346
0.198689
0.197374
0.199675
0.198524
0.196059
0.19721
0.195895
0.199018
0.196059
0.199018
0.19836
0.199346
0.19836
0.202798
0.20099
0.195895
0.197045
0.197374
0.196388
0.192936
0.195566
0.194416
0.194909
0.196059
0.198524
0.19836
0.198853
0.201154
0.202962
0.197538
0.199182
0.198853
0.19836
0.197867
0.198524
0.197374
0.198524
0.199182
0.196717
0.200497
0.197045
0.196059
0.196388
0.196223
0.19573
0.198689
0.19836
0.200168
0.198031
0.202633
0.202633
0.19836
0.199346
0.197703
0.19836
0.193922
0.196552
0.196881
0.198196
0.198196
0.198689
0.199018
0.200332
0.196388
0.196881
0.198031
0.194744
0.198524
0.197045
0.199675
0.196388
0.198853
0.197045
0.200332
0.196059
0.198524
0.199346
0.200497
0.197867
0.200661
0.199675
0.199839
0.198689
0.199346
0.200004
0.197538
0.200825
0.199018
0.199018
0.197703
0.202305
0.199346
0.200004
0.198196
0.200332
0.198853
0.199182
0.199346
0.198196
0.199182
0.198689
0.200825
0.200661
0.200168
0.199675
0.201812
0.197867
0.198524
0.198853
0.198524
0.198524
0.19458
0.200004
0.198853
0.197045
0.19721
0.199839
0.198524
0.199511
0.198196
0.201154
0.195073
0.19836
0.197703
0.194744
0.19573
0.196059
0.200497
0.197374
0.200004
0.196717
0.199346
0.199182
0.197538
0.199346
0.201319
0.197867
0.202305
0.200497
0.198689
0.197374
0.197867
0.198196
0.198524
0.198196
0.198196
0.200004
0.200004
0.200661
0.194251
0.201319
0.198524
0.199839
0.198196
0.199018
0.198689
0.201154
0.200004
0.196223
0.198853
0.197538
0.198689
0.193594
0.198853
0.197538
0.196388
0.197867
0.201154
0.197867
0.197045
0.197867
0.197703
0.196552
0.194251
0.19573
0.199675
0.200004
0.199346
0.200661
0.195895
0.200497
0.19836
0.199018
0.197703
0.198196
0.199182
0.199018
0.199018
0.197867
0.200004
0.195895
0.196388
0.198853
0.199182
0.197045
0.199182
0.196223
0.199182
0.199018
0.194744
0.200825
0.199839
0.200497
0.199675
0.20099
0.19836
0.197045
0.196059
0.199182
0.196059
0.197045
0.197045
0.199675
0.196552
0.197867
0.196223
0.197045
0.197374
0.196388
0.195237
0.196717
0.195566
0.196059
0.198853
0.195895
0.205099
0.199018
0.198853
0.199018
0.198853
0.196717
0.198031
0.196388
0.197703
0.199346
0.19836
0.200004
0.199018
0.198689
0.199182
0.198524
0.196388
0.199182
0.196223
0.200004
0.199675
0.195402
0.198689
0.199346
0.197538
0.199346
0.198853
0.197867
0.198689
0.196717
0.198196
0.196552
0.199018
0.197703
0.200825
0.198031
0.198689
0.201154
0.19836
0.195237
0.197045
0.197538
0.199839
0.198853
0.197703
0.197538
0.194087
0.196881
0.195073
0.196388
0.199018
0.197045
0.199675
0.199839
0.199346
0.197867
0.201154
0.198031
0.198031
0.197703
0.200004
0.197374
0.199018
0.200332
0.200825
0.199182
0.201319
0.203291
0.199182
0.200332
0.200168
0.199675
0.199018
0.20099
0.200332
0.200825
0.202305
0.199839
0.19836
0.19836
0.19836
0.197045
0.196717
0.198853
0.197374
0.200004
0.199839
0.200332
0.200168
0.200004
0.196388
0.19721
0.199018
0.197538
0.198196
0.196388
0.19721
0.198031
0.198196
0.194744
0.198689
0.195566
0.198853
0.198689
0.198689
0.200661
0.199018
0.20099
0.199675
0.199839
0.199675
0.201483
0.196059
0.200661
0.198853
0.198689
0.198689
0.198853
0.200661
0.200004
0.200332
0.199182
0.199182
0.200004
0.203455
0.199018
0.198524
0.199346
0.199018
0.197374
0.202469
0.199018
0.198524
0.199346
0.198524
0.199839
0.199018
0.200004
0.199346
0.201319
0.198853
0.199675
0.198196
0.199839
0.19836
0.196881
0.194416
0.199346
0.198196
0.199018
0.199182
0.197045
0.199346
0.199346
0.201154
0.201976
0.200825
0.199182
0.198031
0.199018
0.201483
0.19836
0.197703
0.199511
0.199346
0.198689
0.199839
0.200661
0.19721
0.201976
0.197045
0.200168
0.198524
0.201483
0.198689
0.201154
0.199675
0.202633
0.201319
0.199018
0.200004
0.198853
0.203455
0.197867
0.20214
0.199675
0.201647
0.199675
0.202962
0.199511
0.204441
0.203948
0.203126
0.200825
0.200661
0.199675
0.200168
0.20099
0.199346
0.20214
0.200661
0.201647
0.197538
0.205263
0.201812
0.200168
0.201976
0.201154
0.200661
0.202633
0.202633
0.20214
0.200825
0.199182
0.200497
0.19836
0.202469
0.200661
0.201154
0.199018
0.201647
0.200332
0.199675
0.200661
0.200332
0.200168
0.201319
0.201647
0.200825
0.202305
0.199346
0.199839
0.200497
0.199839
0.197867
0.201154
0.199511
0.201647
0.196552
0.200004
0.201647
0.200497
0.205099
0.202633
0.201483
0.197538
0.200661
0.199839
0.200661
0.198196
0.201812
0.201483
0.202962
0.203126
0.20214
0.20099
0.199675
0.200497
0.200332
0.205099
0.201154
0.202798
0.201319
0.202798
0.200661
0.202633
0.200825
0.201976
0.200332
0.199346
0.199511
0.195566
0.198196
0.20362
0.200661
0.199839
0.200332
0.200497
0.195073
0.199182
0.199839
0.198196
0.200168
0.19836
0.200004
0.198853
0.197374
0.197703
0.197045
0.197374
0.195402
0.195566
0.193429
0.196717
0.196223
0.195237
0.193758
0.198031
0.196388
0.196388
0.194744
0.19573
0.199018
0.199182
0.195237
0.195566
0.197045
0.196059
0.194087
0.196881
0.199346
0.195566
0.196552
0.196388
0.194909
0.195895
0.198031
0.19721
0.196717
0.196223
0.195237
0.196717
0.19573
0.19721
0.192936
0.195895
0.193429
0.197867
0.193758
0.193922
0.195073
0.193758
0.194744
0.19721
0.194087
0.196881
0.196059
0.195073
0.197374
0.195895
0.195895
0.198196
0.195073
0.190142
0.194087
0.19195
0.195566
0.193429
0.19458
0.197703
0.19836
0.196881
0.199346
0.197374
0.195073
0.196552
0.194744
0.198031
0.195895
0.198031
0.195895
0.19721
0.197374
0.196881
0.196552
0.196388
0.197867
0.198853
0.197867
0.197045
0.19836
0.196552
0.197703
0.196881
0.198524
0.197374
0.197538
0.196059
0.19836
0.195566
0.197045
0.194744
0.197538
0.198524
0.198853
0.199018
0.196223
0.199182
0.194251
0.200825
0.199182
0.199018
0.197374
0.199675
0.195073
0.197045
0.197045
0.194087
0.196717
0.195895
0.199346
0.195237
0.199346
0.197867
0.198689
0.198031
0.198853
0.202305
0.200497
0.200825
0.20214
0.198853
0.19721
0.19836
0.195402
0.197703
0.197374
0.199018
0.196717
0.197867
0.197374
0.200332
0.199839
0.202633
0.199839
0.198524
0.199018
0.200004
0.198031
0.196388
0.196881
0.195895
0.197045
0.197867
0.200004
0.197374
0.19573
0.200168
0.199182
0.198689
0.200332
0.197867
0.195566
0.195402
0.197703
0.196223
0.193594
0.195237
0.195073
0.194909
0.194744
0.197374
0.194744
0.194744
0.195237
0.196717
0.19721
0.190964
0.188334
0.19721
0.196059
0.194909
0.192443
0.1908
0.187677
0.188499
0.188006
0.178473
0.185047
0.18061
0.183568
0.181431
0.18439
0.181924
0.18176
0.182582
0.182582
0.182582
0.175186
0.171734
0.170913
0.173214
0.170255
0.171241
0.161051
0.169105
0.166804
0.161709
0.152176
0.151025
0.149875
0.146916
0.149546
0.147738
0.149382
0.141
0.149053
0.154148
0.149546
0.144944
0.146588
0.14478
0.145437
0.141
0.139356
0.141164
0.130974
0.13952
0.079859
0.0769
0.074271
0.075092
0.067696
0.072956
0.071312
0.069504
0.068518
0.053726
0.058328
0.063916
0.066217
0.056684
0.045015
0.049288
0.038276
0.010664
0.007213
0.008199
0.003433
0.008528
0.00672
0.003761
0.004419
0.00146
0.00409
0.001954
0.001132
0.000146
0.001296
-0.004128
-0.001169
0.002118
0.001789
0.001296
0.003433
0.001789
0.000474
0.002611
-0.001169
0.001789
-0.001169
-0.001169
0.000803
0.002118
-0.00347
0.002611
0.002775
0.002282
0.002282
0.00031
0.003268
0.000639
0.001132
0.001296
0.003104
0.002282
0.000803
0.003104
0.001625
0.005241
0.001296
0.00146
0.002611
0.002611
-0.000183
0.004583
0.000474
0.001296
0.001625
0.00672
0.003104
0.000146
0.00146
0.006227
0.000639
0.001625
0.002282
-0.000183
0.001954
0.000803
0.003926
-0.000512
0.000803
0.000146
0.006391
0.001296
0.003761
0.003597
0.006556
0.005405
0.00672
0.007213
0.002611
0.002775
0.003926
0.017403
0.018718
0.026114
0.030223
0.040742
0.04633
0.054219
0.060629
0.065888
0.070162
0.075585
0.088405
0.088077
0.095144
0.096952
0.101883
0.102376
0.110593
0.11273
0.114538
0.121605
0.119962
0.12818

Kurve 2

-0.005278
0.002447
0.002282
0.003761
0.002775
0.002611
0.000639
0.003761
-0.001662
0.004419
0.003104
-0.007744
0.001296
-0.000841
0.002447
0.003268
0.003597
0.001625
0.00294
0.002118
0.004255
0.001132
-0.008237
0.001296
0.002282
-0.001827
-0.000183
-0.001334
0.001954
0.001296
0.000639
0.002282
0.002447
0.002775
-0.000841
0.003433
-0.002484
0.003926
0.001789
0.002118
0.001296
-0.000183
-0.000183
0.003433
0.004748
-0.000841
0.002447
0.00146
0.001954
0.00031
0.004255
0.000967
0.004583
0.001625
0.003268
0.008199
0.000146
0.000639
0.006227
0.00146
0.000639
0.002447
0.001296
0.004583
0.002118
0.001132
0.005734
0.001296
-1.9e-05
0.003433
0.002775
0.003104
0.002611
-0.001005
0.00031
0.000146
-0.002155
-0.001827
0.002775
0.001625
0.000967
0.002282
0.001789
0.001789
0.003761
0.004583
0.002447
0.002118
0.00409
0.001954
0.001954
-0.000512
-0.002977
0.000474
-1.9e-05
0.001625
-0.000347
0.00294
0.00146
0.001296
0.002611
0.002611
0.002118
0.003104
0.001625
0.003597
0.002282
0.005076
0.000474
-0.001005
0.001132
0.000474
0.001625
-0.000512
0.000967
-0.00232
0.00294
0.000967
0.00294
0.001789
0.004583
-1.9e-05
-0.002155
0.00294
-0.001827
0.001789
0.001296
0.005241
0.002118
0.002447
0.000639
0.003761
0.003433
-0.001169
-0.000183
0.005241
0.003433
0.002118
0.003926
0.002775
0.002118
0.000146
0.002447
0.002118
0.000146
-0.001169
0.001132
-0.000183
-0.000512
0.000474
0.003926
0.001296
0.000474
0.003104
0.003268
0.001296
0.000474
-0.000183
-0.002977
-0.001991
0.00146
0.001296
0.001132
0.001789
0.000146
0.006062
0.001296
0.000639
0.001954
0.000967
0.001625
0.000967
-0.000676
0.00146
-0.001005
0.000803
0.00294
0.000474
0.002775
0.002118
0.002118
0.000474
0.004583
0.000967
-0.000841
0.001296
0.001296
-1.9e-05
-0.000841
0.002611
-0.001169
0.000967
0.002447
0.004748
0.001954
0.003104
0.001296
0.002118
0.00294
0.000803
0.002118
0.001132
0.001789
-1.9e-05
0.003268
0.000639
-0.002155
-0.002977
-0.000676
0.001789
0.002611
-0.001169
0.001954
0.003597
0.001296
0.004912
0.000639
-0.000347
0.00146
0.001625
-0.000676
0.001296
-0.00232
-0.000676
-0.000841
0.00031
0.002447
0.003597
-0.002648
0.00146
0.004748
0.001132
0.004912
0.00294
0.001625
0.000803
-1.9e-05
0.000474
0.004912
-0.000183
0.00031
0.002282
0.000967
0.00294
0.000803
0.002611
0.001296
0.003268
0.003268
0.003597
0.002775
0.003433
0.000639
0.001296
-0.001005
0.00031
-0.005278
-0.002484
-0.00347
0.001789
0.001625
0.001954
0.00146
0.002611
0.002447
-0.000347
0.001132
-0.002813
0.002611
-0.002484
0.00146
0.000803
-0.000841
-0.001498
-0.001334
0.00031
-0.00232
0.00031
0.000639
0.000639
0.00294
0.00409
0.00409
0.003761
0.002447
0.002447
0.001789
0.000146
0.001789
0.000803
-0.001169
0.000803
0.002611
0.000967
0.002282
0.001625
0.001296
0.001625
0.003104
-0.000347
0.002282
0.000474
0.001789
0.001625
0.00031
0.001296
-0.001991
-0.002155
-0.000183
-0.000183
-0.001005
0.002447
0.001625
0.003433
0.002118
0.004583
0.00146
0.001296
0.004748
0.003268
0.001625
0.000639
-0.001498
0.002118
-0.001334
0.001789
0.003433
-0.001334
0.003761
0.001954
0.002118
0.000146
0.002611
0.000146
0.00146
0.001789
0.003104
0.003104
0.001789
0.003761
0.00146
0.001132
0.002611
0.000803
-0.001334
0.000146
0.000474
0.002447
0.000803
0.001625
0.001625
0.005405
0.00031
0.000474
0.002611
-0.000676
-0.000183
-0.000841
-0.001005
0.000803
0.001625
-0.000512
0.002447
0.000474
-0.000347
0.00031
-0.000183
0.003104
0.00672
0.001789
0.000639
0.00146
-0.000347
0.000803
0.00031
0.001132
0.001296
0.003268
-0.000183
0.001296
0.000146
0.001296
-0.001827
0.000146
0.001132
0.003926
0.001625
0.001954
0.001954
0.000474
0.00294
-0.001005
0.000803
0.000967
0.001132
-0.001991
0.002775
-0.002484
0.00031
0.000146
-1.9e-05
0.001132
-0.000676
0.000967
0.001296
0.003433
-0.001005
0.003104
-0.001827
-0.000841
0.00031
0.000803
-0.001005
-0.001991
-1.9e-05
0.000474
-0.001005
0.001625
0.001296
-0.001827
-0.001169
-0.001005
0.000639
0.000474
-0.001662
-0.000347
0.001954
0.001625
0.002118
0.003268
0.001132
-0.000347
-0.000676
-0.001991
0.003926
0.000967
0.005405
0.002282
0.001789
0.003761
-0.001662
0.001954
-0.001991
0.00146
0.000639
-1.9e-05
-0.001334
0.001296
0.001132
0.000474
0.001789
-0.001005
0.001789
-0.000183
0.001296
0.000967
0.00031
0.004748
0.004419
0.000967
-0.001334
0.00294
-0.000841
-0.000183
-0.000347
-0.000512
-0.000512
0.000803
-0.003963
0.000967
-0.002484
0.002447
0.000803
0.003433
-0.001334
-0.000183
0.000146
-0.000183
-0.001498
-0.001334
0.004748
0.000803
0.00146
0.001132
0.001132
-0.001334
0.001625
0.001296
0.000803
0.000639
-1.9e-05
-1.9e-05
0.004748
0.001625
0.000639
0.001954
0.001132
0.001132
0.000474
0.004419
0.000967
0.000803
0.002282
0.002447
0.000639
0.002447
-0.001005
0.000967
0.004419
0.002282
0.002447
0.003268
-1.9e-05
0.00031
0.002447
0.001296
0.002447
0.001789
0.000967
-0.001662
-0.002813
0.002775
-0.001169
-0.001662
0.000474
0.001132
0.002118
0.001296
0.000967
0.003433
0.002118
0.002611
0.000803
0.001625
0.001789
0.003104
0.000639
-0.000183
0.000146
0.001625
0.00031
0.001132
0.002282
0.000639
0.003926
-0.000183
0.002118
0.002118
0.00294
0.002775
0.003761
0.00146
0.002447
-0.000183
-0.001334
0.002118
-0.002484
-0.001005
-0.00232
0.000803
0.001296
0.002447
0.000146
0.002775
0.001296
0.003597
0.00146
-0.000512
0.002447
0.000967
-0.000841
0.003761
-0.000676
-0.001498
-0.001662
-0.000183
-0.000347
-0.001827
-0.001169
0.000803
0.002282
0.000639
0.00294
0.001625
0.001625
0.001789
0.001296
-0.000676
-0.000183
-0.002813
0.000146
-0.000676
-0.003142
0.000967
-0.001827
0.000474
0.001625
0.000639
0.001132
0.003104
-0.000676
0.004748
0.001789
0.002118
-0.001169
-0.001334
-0.000347
0.001132
-0.001827
-0.006757
0.001132
-0.002977
-0.001334
0.001132
0.002447
-0.001169
0.001625
-0.000512
0.00146
0.000803
-0.00232
0.002118
-0.000512
0.002282
-0.003306
-0.000183
-0.001991
0.000803
-0.001991
-0.000841
0.001296
0.000474
0.001132
0.001625
0.00146
0.002447
0.001296
-0.000183
0.002282
-0.001334
-0.000512
-0.000183
0.000803
-0.000676
0.000474
0.001132
0.002118
0.000639
0.001132
0.001954
0.001625
0.000803
0.000474
0.001954
-0.001334
0.000146
-1.9e-05
0.000967
0.00409
0.003597
0.00146
0.001296
0.00031
-0.000347
-0.000183
0.000639
0.001296
0.003268
-0.000676
0.000639
0.000967
0.000474
-0.000347
-0.003635
-0.004292
0.00031
0.000967
-0.001827
0.001625
0.002611
0.000803
0.000639
0.003104
0.001954
-0.001169
0.001296
0.000146
0.001296
-0.000512
0.004419
0.001132
0.00409
0.001625
0.00409
-1.9e-05
0.001132
-0.000183
-0.000347
0.001789
-0.000676
0.000146
0.000639
0.00031
-1.9e-05
0.00294
-0.001498
0.001954
0.00031
-0.000183
-0.001827
0.000803
0.001789
0.000967
0.001625
0.000146
0.004419
-0.003799
0.000803
-0.001169
0.00146
0.001132
-0.001498
-0.003142
-0.003142
-0.002813
0.000474
0.001954
0.000639
0.00031
0.000803
0.001132
-0.000512
0.000639
-0.000183
0.000474
0.000803
-0.001169
0.002611
0.001954
-0.000183
0.000474
-0.001005
-0.001005
0.000474
0.000639
0.003104
0.001625
0.001789
0.002447
-0.000183
-0.001169
0.006062
0.010829
0.01954
0.025457
0.035154
0.041564
0.050603
0.05652
0.063752
0.066875
0.069997
0.077722
0.081667
0.086269
0.091857
0.097116
0.099417
0.104512
0.105663
0.114538
0.114538
0.116839
0.123085
0.130152
0.132782
0.133603
0.138205
0.139356
0.139356
0.143465
0.150039
0.148396
0.14971
0.149875
0.150697
0.15612
0.15612
0.161051
0.16138
0.164831
0.16516
0.165653
0.169105
0.170748
0.171077
0.173049
0.171734
0.17535
0.175679
0.176994
0.175679
0.177158
0.179295
0.177815
0.179788
0.180281
0.181924
0.182582
0.183897
0.185376
0.186198
0.184225
0.189485
0.185212
0.187513
0.186855
0.188499
0.188334
0.186526
0.186362
0.188663
0.189814
0.188499
0.190471
0.193429
0.192443
0.191457
0.194416
0.191621
0.197045
0.192936
0.195073
0.197703
0.196717
0.194909
0.199675
0.194087
0.197867
0.19836
0.192772
0.197045
0.194416
0.198031
0.195237
0.197374
0.196059
0.197045
0.19836
0.199839
0.19836
0.198196
0.197538
0.195895
0.198196
0.19721
0.198853
0.196552
0.201319
0.196059
0.197045
0.196717
0.199018
0.198689
0.194909
0.198853
0.198031
0.200332
0.20099
0.201319
0.197374
0.198031
0.198031
0.198031
0.196223
0.196388
0.198196
0.198196
0.199675
0.199675
0.201319
0.200497
0.200332
0.201647
0.201647
0.197045
0.194416
0.200497
0.200661
0.199182
0.201647
0.19836
0.199346
0.199018
0.19836
0.199182
0.201483
0.198689
0.201812
0.199346
0.199675
0.201647
0.201319
0.199182
0.200661
0.200168
0.200332
0.200004
0.196223
0.200497
0.199018
0.199675
0.199675
0.202305
0.198524
0.197867
0.197538
0.199182
0.19836
0.195895
0.201812
0.197538
0.199346
0.20214
0.201154
0.19836
0.199839
0.198689
0.198853
0.199018
0.198853
0.201812
0.200004
0.198689
0.201647
0.206578
0.201154
0.20477
0.199839
0.189156
0.186691
0.186691
0.188663
0.190142
0.189156
0.189485
0.191293
0.186855
0.194416
0.192115
0.193758
0.191786
0.193101
0.193265
0.19458
0.193101
0.19458
0.193265
0.193101
0.192279
0.195402
0.19458
0.193429
0.195073
0.194909
0.197374
0.201647
0.197703
0.196717
0.196717
0.197703
0.195073
0.192772
0.19721
0.194744
0.194744
0.195566
0.197045
0.19836
0.197045
0.19721
0.196881
0.200332
0.199839
0.200004
0.196388
0.200332
0.193594
0.200004
0.19721
0.197867
0.198853
0.198853
0.198853
0.196388
0.201976
0.197045
0.196717
0.198031
0.199182
0.198524
0.196881
0.199675
0.198689
0.199018
0.199018
0.199346
0.197374
0.199182
0.198853
0.201483
0.20099
0.198853
0.199346
0.199018
0.194744
0.196552
0.200497
0.199182
0.197045
0.199346
0.198689
0.197703
0.195895
0.197703
0.200497
0.198524
0.200661
0.200332
0.200332
0.200004
0.200497
0.198689
0.197867
0.194744
0.198031
0.200661
0.19836
0.202469
0.197703
0.200661
0.20099
0.199839
0.199511
0.200332
0.19836
0.200661
0.200825
0.200661
0.200332
0.199675
0.199182
0.199675
0.198196
0.197867
0.199675
0.19836
0.197374
0.19836
0.198196
0.201483
0.202633
0.198524
0.202798
0.200825
0.202469
0.19836
0.196552
0.195895
0.19721
0.19458
0.196388
0.201154
0.197374
0.194909
0.197703
0.199675
0.197538
0.199675
0.197538
0.19836
0.198524
0.19573
0.196717
0.196388
0.198031
0.196552
0.197045
0.192279
0.194087
0.19573
0.198524
0.19458
0.199182
0.19836
0.199511
0.199675
0.200497
0.199018
0.197867
0.197045
0.196717
0.197703
0.198031
0.198196
0.196388
0.200497
0.197374
0.198689
0.198689
0.198689
0.195895
0.196388
0.19836
0.199675
0.200004
0.200004
0.200825
0.194909
0.196059
0.19836
0.192936
0.193265
0.20099
0.197374
0.19836
0.200332
0.201976
0.200825
0.20099
0.20099
0.199839
0.195073
0.199346
0.200004
0.198853
0.200004
0.199346
0.198853
0.20099
0.202305
0.198524
0.200332
0.192443
0.199018
0.200661
0.199018
0.197538
0.198524
0.201647
0.198853
0.200168
0.19836
0.201319
0.190307
0.199018
0.197538
0.199675
0.198689
0.199182
0.200004
0.20362
0.200168
0.201154
0.200497
0.19195
0.199511
0.201319
0.198524
0.196223
0.199346
0.200661
0.199675
0.198031
0.201319
0.200168
0.196059
0.198689
0.199018
0.20214
0.197867
0.199511
0.203126
0.204277
0.199839
0.201483
0.200168
0.202305
0.201483
0.200004
0.19836
0.200825
0.199346
0.199839
0.202962
0.198689
0.199346
0.198031
0.205099
0.197374
0.19836
0.198524
0.203455
0.199018
0.199839
0.200825
0.200332
0.199018
0.199182
0.20477
0.196881
0.20099
0.197703
0.199839
0.199839
0.200004
0.20099
0.201647
0.200497
0.202469
0.204113
0.200004
0.199182
0.19721
0.199182
0.196881
0.197374
0.198689
0.199511
0.197538
0.198689
0.202962
0.200332
0.201319
0.202305
0.199839
0.201647
0.200168
0.202962
0.199511
0.199182
0.199675
0.201483
0.200004
0.193429
0.200497
0.19836
0.199839
0.199511
0.200825
0.199346
0.20099
0.199511
0.201154
0.199018
0.199675
0.200004
0.200004
0.200168
0.198031
0.197045
0.198524
0.199675
0.197703
0.199511
0.197538
0.199018
0.196717
0.20214
0.197867
0.199675
0.201647
0.201319
0.198689
0.197374
0.200004
0.198524
0.199839
0.197538
0.198689
0.197867
0.20362
0.199346
0.203455
0.200004
0.200825
0.201154
0.19836
0.199511
0.201976
0.197374
0.201483
0.200661
0.199675
0.200168
0.20099
0.196881
0.19836
0.202305
0.200825
0.195895
0.199511
0.198031
0.199675
0.200497
0.199511
0.199182
0.200497
0.200661
0.202305
0.198524
0.199182
0.198524
0.197374
0.19721
0.201483
0.196552
0.195895
0.199346
0.199182
0.197374
0.197045
0.200004
0.199018
0.200332
0.199511
0.202633
0.198689
0.201483
0.200004
0.199346
0.200004
0.202305
0.201812
0.198196
0.20099
0.198689
0.201319
0.199182
0.201483
0.200004
0.201976
0.200332
0.201154
0.199346
0.200661
0.198524
0.20099
0.199839
0.201154
0.198689
0.199182
0.197374
0.196388
0.202469
0.197867
0.196059
0.199182
0.200497
0.198853
0.199511
0.201319
0.200168
0.200825
0.19836
0.199182
0.198031
0.194909
0.199511
0.198524
0.196717
0.199511
0.195566
0.199511
0.199018
0.201319
0.199346
0.200168
0.199839
0.199511
0.200497
0.200332
0.202798
0.200168
0.200825
0.20214
0.199839
0.197703
0.199511
0.196388
0.197703
0.19836
0.203126
0.19721
0.19836
0.200168
0.201812
0.200497
0.197867
0.200004
0.199346
0.199675
0.197703
0.200497
0.197538
0.199511
0.193429
0.197374
0.197703
0.197374
0.197703
0.199675
0.199511
0.202962
0.200168
0.198689
0.202962
0.197374
0.201319
0.197538
0.199018
0.196223
0.196717
0.195073
0.196717
0.200332
0.197867
0.200497
0.199511
0.198031
0.199511
0.198524
0.198853
0.202962
0.199839
0.199675
0.198853
0.200168
0.199511
0.19721
0.197045
0.197867
0.198853
0.193429
0.199018
0.19836
0.198196
0.197867
0.205263
0.198031
0.200497
0.201483
0.19721
0.198196
0.197374
0.199018
0.197045
0.193922
0.198031
0.199346
0.198196
0.200332
0.199839
0.202305
0.198031
0.199675
0.200497
0.20362
0.198689
0.200661
0.19721
0.202305
0.19458
0.200004
0.198196
0.194416
0.196717
0.196059
0.199839
0.196059
0.201319
0.199675
0.196717
0.199346
0.199346
0.200168
0.197867
0.199511
0.198853
0.199182
0.196388
0.200332
0.198524
0.195895
0.198196
0.199839
0.19721
0.198031
0.198853
0.198853
0.199018
0.196388
0.199839
0.200004
0.198524
0.199839
0.200497
0.197045
0.199018
0.198196
0.199675
0.196717
0.197374
0.199346
0.199839
0.19836
0.199182
0.197867
0.196881
0.196059
0.196881
0.197538
0.196552
0.198524
0.199182
0.199182
0.198031
0.199018
0.198196
0.200332
0.19721
0.199182
0.197538
0.194087
0.197703
0.199346
0.197374
0.199018
0.200661
0.200332
0.196388
0.200168
0.199182
0.198689
0.20099
0.199018
0.201319
0.198524
0.199182
0.200004
0.199839
0.197538
0.197867
0.199018
0.198524
0.200825
0.199839
0.200497
0.199182
0.200332
0.199018
0.199675
0.197703
0.199182
0.197374
0.196717
0.196059
0.192443
0.196059
0.196717
0.196552
0.197045
0.199675
0.199018
0.200497
0.198524
0.202305
0.197538
0.198853
0.199182
0.19721
0.200825
0.198196
0.200825
0.195402
0.196223
0.199675
0.198524
0.199182
0.198196
0.196059
0.201483
0.199018
0.200497
0.201812
0.201647
0.197045
0.199018
0.197867
0.198031
0.196059
0.198524
0.19836
0.196059
0.197538
0.199346
0.199675
0.197867
0.200332
0.199346
0.200168
0.199511
0.198689
0.200332
0.197045
0.196388
0.19836
0.196552
0.194416
0.196552
0.197703
0.197703
0.194416
0.200497
0.198524
0.201647
0.198689
0.200332
0.199018
0.197045
0.199675
0.198031
0.198689
0.197703
0.202798
0.198524
0.200004
0.195402
0.20099
0.197374
0.198524
0.198853
0.197538
0.199346
0.198853
0.199675
0.198853
0.195566
0.200004
0.198524
0.200168
0.199018
0.195566
0.198689
0.195073
0.196717
0.196552
0.197374
0.200332
0.199018
0.19836
0.199018
0.200004
0.199018
0.199675
0.19836
0.200332
0.201812
0.19836
0.194416
0.199511
0.195566
0.194251
0.199675
0.19836
0.199018
0.199675
0.197867
0.200004
0.200332
0.19836
0.200497
0.19721
0.198853
0.200497
0.20099
0.197045
0.198689
0.196388
0.200332
0.197538
0.195566
0.200004
0.198853
0.197867
0.198196
0.19721
0.19458
0.201976
0.19721
0.196717
0.198689
0.199018
0.196223
0.198689
0.196388
0.198196
0.198524
0.198031
0.198689
0.19573
0.199511
0.197045
0.200332
0.19836
0.202962
0.20099
0.199839
0.198524
0.195073
0.196059
0.19721
0.195566
0.195566
0.19836
0.196717
0.201812
0.196881
0.198853
0.197703
0.198031
0.19836
0.199346
0.198853
0.19573
0.199018
0.199182
0.199839
0.197538
0.196717
0.197703
0.199675
0.197045
0.198689
0.198031
0.199675
0.19721
0.198031
0.203291
0.200661
0.199182
0.201154
0.201319
0.198196
0.198196
0.198524
0.198031
0.193922
0.199182
0.199346
0.198031
0.196552
0.199182
0.198196
0.198196
0.196388
0.196552
0.194744
0.198196
0.197538
0.198031
0.19836
0.197045
0.199018
0.197538
0.19836
0.196223
0.199018
0.199346
0.198853
0.199018
0.200004
0.198196
0.201647
0.202469
0.197867
0.198853
0.197045
0.200168
0.198031
0.199018
0.19836
0.200497
0.19573
0.199018
0.197867
0.199018
0.197374
0.200825
0.20214
0.200825
0.200661
0.200004
0.202633
0.197703
0.199346
0.197045
0.198689
0.199675
0.197538
0.197703
0.19721
0.198524
0.199182
0.198524
0.195237
0.200332
0.196223
0.199511
0.197703
0.196059
0.199675
0.199182
0.200332
0.198853
0.199839
0.198689
0.197703
0.200004
0.197867
0.19836
0.198524
0.198524
0.200661
0.19458
0.198853
0.199839
0.198524
0.19836
0.198853
0.19836
0.200661
0.198196
0.199675
0.197703
0.199839
0.198196
0.199675
0.197374
0.200004
0.201319
0.201976
0.199182
0.198031
0.199018
0.19836
0.200825
0.197374
0.203291
0.197703
0.201319
0.197703
0.19721
0.199675
0.19836
0.19836
0.195566
0.197703
0.195073
0.198031
0.196223
0.199346
0.192279
0.198689
0.196881
0.199839
0.200004
0.200825
0.201154
0.199018
0.201647
0.198031
0.199182
0.197538
0.199346
0.196881
0.197703
0.197703
0.197374
0.194744
0.19573
0.198853
0.197538
0.198524
0.198524
0.198031
0.197538
0.19836
0.197867
0.199346
0.196223
0.198689
0.198031
0.196881
0.197045
0.197374
0.197703
0.199511
0.199182
0.20214
0.197045
0.195073
0.198689
0.196059
0.19721
0.197703
0.195566
0.191457
0.198196
0.194416
0.196388
0.198524
0.199018
0.199839
0.199511
0.198524
0.199018
0.200661
0.199675
0.199675
0.197703
0.200825
0.198031
0.199839
0.197538
0.196717
0.197045
0.197538
0.19721
0.198031
0.19721
0.197703
0.19836
0.197867
0.199511
0.198689
0.199018
0.19721
0.199511
0.19721
0.199018
0.19573
0.19573
0.19721
0.196717
0.198031
0.197374
0.198853
0.197374
0.194744
0.196881
0.19836
0.197867
0.199675
0.19836
0.199182
0.197045
0.198524
0.19573
0.194087
0.192772
0.196223
0.195237
0.194416
0.197703
0.198689
0.200168
0.198853
0.201319
0.197538
0.200332
0.198689
0.198524
0.200004
0.197703
0.196388
0.201976
0.197538
0.198031
0.199182
0.19836
0.202633
0.197703
0.199182
0.199511
0.20099
0.197538
0.201319
0.198524
0.199675
0.200497
0.197867
0.19836
0.19836
0.197867
0.197538
0.201483
0.194744
0.201976
0.202305
0.201319
0.204441
0.199346
0.199346
0.201483
0.199839
0.19836
0.196881
0.195237
0.199675
0.198524
0.19573
0.196717
0.198196
0.198031
0.199346
0.19836
0.197538
0.197374
0.198031
0.20099
0.201812
0.200497
0.199839
0.200168
0.198524
0.198853
0.197867
0.198031
0.197045
0.193429
0.193429
0.19836
0.19573
0.200004
0.199018
0.197867
0.198196
0.198196
0.200004
0.200497
0.198853
0.196717
0.200497
0.198031
0.199018
0.197867
0.199839
0.19836
0.197703
0.194251
0.195237
0.194416
0.197703
0.19836
0.198689
0.198689
0.194744
0.197867
0.197374
0.199346
0.194909
0.197374
0.199182
0.199511
0.196717
0.200004
0.196552
0.197045
0.198196
0.197703
0.199346
0.199346
0.20099
0.19836
0.201647
0.199346
0.203291
0.198853
0.200497
0.198689
0.198689
0.195566
0.199018
0.196881
0.195237
0.19836
0.199182
0.200825
0.196552
0.19721
0.196059
0.198853
0.195895
0.202633
0.196388
0.200332
0.199018
0.19721
0.196717
0.194087
0.196223
0.199675
0.201319
0.196881
0.197045
0.197703
0.197374
0.195402
0.198031
0.197867
0.193265
0.197703
0.20099
0.200004
0.198524
0.198853
0.198853
0.197703
0.197867
0.200661
0.196552
0.191786
0.196059
0.199839
0.198196
0.197867
0.19836
0.199675
0.198689
0.203126
0.203126
0.198524
0.190471
0.197867
0.197538
0.197703
0.199018
0.197538
0.199675
0.196223
0.200332
0.197374
0.198689
0.1908
0.197703
0.198853
0.201319
0.198031
0.199018
0.201319
0.20099
0.202305
0.196388
0.197538
0.183897
0.194909
0.19573
0.197045
0.196059
0.197538
0.20099
0.198524
0.19836
0.199182
0.199675
0.188499
0.200332
0.198689
0.199182
0.198853
0.199346
0.199675
0.20099
0.197703
0.199839
0.20099
0.192936
0.197538
0.198031
0.19573
0.201976
0.202305
0.201154
0.201976
0.199675
0.200004
0.20099
0.19721
0.195402
0.197538
0.196717
0.197045
0.197867
0.198196
0.20099
0.200497
0.197867
0.203291
0.200825
0.198524
0.200661
0.198031
0.195237
0.198853
0.200004
0.20099
0.197867
0.200168
0.194087
0.198689
0.195895
0.195402
0.195073
0.197703
0.198689
0.201647
0.197867
0.203291
0.200332
0.201319
0.204441
0.197867
0.19836
0.196552
0.197538
0.199511
0.199675
0.199182
0.200497
0.198196
0.197703
0.205921
0.201154
0.194909
0.20099
0.199018
0.200004
0.200497
0.199675
0.199182
0.198853
0.195402
0.203455
0.197045
0.195237
0.200168
0.198196
0.201976
0.200825
0.201483
0.199675
0.200332
0.201483
0.208222
0.199346
0.197374
0.200004
0.195566
0.199511
0.198031
0.196552
0.196059
0.201647
0.197703
0.200168
0.198853
0.200497
0.199675
0.201154
0.199839
0.20099
0.20099
0.199346
0.199675
0.193265
0.199182
0.196717
0.196881
0.195895
0.202305
0.194909
0.196717
0.200661
0.200004
0.199675
0.200168
0.200332
0.199839
0.200004
0.195402
0.199675
0.196059
0.199182
0.198689
0.198524
0.197867
0.201647
0.195073
0.19573
0.198196
0.197538
0.198689
0.200825
0.196717
0.195073
0.197538
0.19721
0.196223
0.196388
0.197703
0.198853
0.198524
0.199018
0.199839
0.196717
0.199675
0.199018
0.199182
0.199839
0.200825
0.197045
0.197538
0.200004
0.200004
0.199018
0.19836
0.202469
0.200661
0.199182
0.198524
0.203126
0.193758
0.196717
0.199839
0.198853
0.197374
0.199675
0.200661
0.199346
0.199675
0.198689
0.202962
0.197538
0.199182
0.199346
0.201976
0.197374
0.196881
0.198689
0.198689
0.199182
0.196388
0.202305
0.194087
0.19195
0.197045
0.199675
0.197374
0.200825
0.199182
0.199675
0.200497
0.199018
0.199675
0.198853
0.199018
0.197374
0.200004
0.197538
0.201319
0.199018
0.196717
0.201812
0.201976
0.200168
0.200332
0.198031
0.201647
0.20099
0.198031
0.199018
0.19721
0.198196
0.199511
0.199018
0.19836
0.19721
0.198689
0.198689
0.198031
0.20099
0.196223
0.201976
0.199839
0.199839
0.202469
0.196717
0.19721
0.197703
0.199018
0.197374
0.198524
0.198853
0.200168
0.19721
0.201812
0.19836
0.201319
0.197045
0.19836
0.198853
0.200332
0.202469
0.199182
0.200497
0.198853
0.200825
0.199839
0.200661
0.196552
0.198853
0.196388
0.195402
0.19836
0.199511
0.200168
0.199675
0.201319
0.199346
0.199675
0.198853
0.198689
0.196223
0.199675
0.198031
0.201647
0.202798
0.198031
0.197045
0.197703
0.198196
0.197703
0.201154
0.199018
0.200004
0.201812
0.198524
0.195895
0.199182
0.198853
0.198524
0.197703
0.199018
0.197867
0.200497
0.196223
0.195402
0.197045
0.196388
0.19721
0.198689
0.197538
0.197538
0.199675
0.198689
0.199018
0.199511
0.200168
0.199182
0.199839
0.197867
0.200497
0.197374
0.199182
0.199018
0.197045
0.199839
0.198031
0.200168
0.198524
0.201154
0.193265
0.201319
0.197703
0.200497
0.199346
0.196059
0.199018
0.198031

Kurve 3

0.001954
0.005569
0.00409
0.003433
0.001132
0.004748
0.002118
0.001625
0.002447
0.002775
0.000803
0.001789
0.001625
0.002447
0.003597
0.00031
0.004419
0.001789
0.001132
-1.9e-05
0.002611
0.002118
0.001296
0.00146
0.000474
0.001789
0.00031
-0.000841
-0.000347
0.001132
0.000803
0.002118
0.001132
0.00146
-0.001169
-0.000183
0.002611
0.000474
0.001954
-1.9e-05
0.000639
0.001954
-0.000676
0.000146
-0.002648
-0.002155
0.001789
0.001296
0.000639
-1.9e-05
0.001296
0.001132
0.002118
0.000967
0.003761
0.00146
0.001789
0.001954
0.003597
0.002118
-0.000512
-1.9e-05
0.001789
0.002282
0.001132
0.00294
-1.9e-05
-1.9e-05
-0.003306
0.002611
-0.000841
0.000639
-0.000183
0.006556
0.001625
-0.001991
0.003268
0.000474
0.002447
0.00146
0.002447
-0.001498
-0.001498
-0.002977
0.000474
-0.001991
-0.003306
0.001132
0.000967
0.000803
0.002611
0.003597
-0.000676
0.00031
-0.000841
0.001625
0.00031
0.000639
0.002282
0.00294
0.000967
0.000474
0.000967
0.001625
0.00146
0.001789
0.002611
0.001296
0.00294
0.005076
0.003104
0.002118
0.003104
0.002447
0.001132
-1.9e-05
0.002611
-0.001991
0.00294
0.00031
0.002118
0.004748
-0.000676
0.00146
0.000146
0.001625
0.000639
0.003761
0.001954
0.002775
-0.002155
0.005241
-0.000347
0.000474
0.001296
0.001625
-0.000347
-0.001827
0.002775
0.000967
0.000803
-0.000183
0.00146
-0.001169
0.002611
0.001954
0.005405
0.003597
0.002118
0.000967
0.001132
0.001132
-0.001827
0.001954
-0.000512
0.002118
0.001954
0.000639
0.002775
0.005405
0.001132
0.003597
0.00294
0.001132
0.004748
0.002447
0.000803
-0.000841
0.002447
0.000803
0.000803
-0.00232
0.001625
-0.000183
0.000474
0.001625
0.002611
0.001789
0.001132
0.00409
0.001296
0.002611
-0.001662
-0.001662
-0.002155
-0.001991
0.000146
-0.002648
-0.004785
0.002775
-0.000347
0.002611
-0.000347
0.001132
0.00294
0.00294
-0.000183
0.003268
0.003104
-0.000347
0.002282
0.002447
-0.000512
-0.000512
0.002118
-0.00232
0.001954
-0.001169
0.002282
0.003597
0.003926
0.000639
0.003104
0.001296
0.002447
0.002447
-0.000512
0.001296
-0.003142
0.00294
-0.002813
0.00031
-0.001334
0.001296
-0.00232
-0.000676
0.000803
0.00031
0.003597
0.000803
0.000639
0.002447
-0.000512
-0.001498
0.00146
-0.000347
0.001625
-0.001662
-0.002155
-0.002155
-0.000512
-0.001005
0.000803
0.002775
0.00146
0.003926
0.003104
0.001296
0.000474
-0.000512
0.005241
0.00031
-0.001169
0.003104
0.003268
0.002611
0.001625
0.001954
-1.9e-05
0.001625
0.003433
0.002611
0.00294
0.002118
0.002611
0.001789
0.003597
-0.001498
0.00146
0.000639
-0.002155
-0.000512
-0.000347
-0.000183
0.001625
0.000474
0.001625
0.000803
-0.000183
0.000803
-0.001005
0.002611
-0.002648
0.000146
-0.001169
-0.000183
-0.00347
0.000639
0.00146
0.003104
-0.000841
0.000967
0.001132
0.00294
0.004419
-0.001498
0.002447
-0.001334
-0.000183
0.001132
0.002282
-0.001498
0.002447
0.000803
0.000803
0.004912
0.000803
-0.000183
-0.000183
-0.000512
-0.001334
0.002447
-0.002155
0.00031
0.000803
-1.9e-05
-0.000841
-0.001827
0.001625
0.002447
-0.001498
0.001954
0.003926
0.002447
0.00146
0.002282
0.000474
-0.000512
-0.000183
-0.000676
0.001954
0.003104
-0.000676
-0.000512
0.000639
0.001132
0.000474
0.00146
0.003926
0.003104
0.001625
0.004419
0.000146
0.001789
-1.9e-05
0.001789
-0.001498
0.000474
-0.002155
0.002775
-0.001662
0.001132
0.002611
0.002447
0.002447
0.001296
0.002775
0.001296
0.003926
-0.003142
0.000639
-0.001827
0.002775
-0.002155
-1.9e-05
0.001296
-0.001498
-0.000347
0.001132
0.00146
-1.9e-05
0.00409
0.002611
0.004255
-0.000512
0.003433
0.00031
-1.9e-05
0.002611
-0.000183
-0.001991
0.00409
0.00031
-0.002155
0.000803
0.000146
0.002611
-0.001169
0.000639
0.000474
0.002282
0.000967
-0.000512
-0.00232
0.00031
0.000967
0.00146
0.00146
-0.000347
0.00146
-1.9e-05
0.00409
0.000967
0.00146
0.002282
-0.000347
0.000639
0.002447
0.000967
0.002447
0.003104
-0.000347
0.002118
0.000639
-0.002484
0.004255
-0.001169
-0.000347
0.00146
0.001789
0.004255
-0.002155
-1.9e-05
-0.000512
-1.9e-05
-0.001005
0.002775
-0.000512
0.002282
0.000146
-0.001005
0.001789
0.001132
0.000639
-0.00232
-0.000347
-0.001169
0.002775
-0.004292
0.000474
0.000639
0.000967
0.000146
0.002611
0.001954
0.001789
0.002611
0.000474
0.000803
0.00031
0.002775
0.001789
0.002775
0.000803
0.004255
-0.000841
0.00146
-0.001005
0.00146
0.001789
0.002775
0.004583
0.004255
0.004583
0.001296
0.005569
-0.000183
0.001625
0.000803
0.001296
-0.000841
-0.000841
-0.001005
-0.000512
-0.003306
-0.000347
0.001296
-0.001498
0.00409
-0.000676
0.001789
0.002118
-1.9e-05
0.000967
0.001625
-0.001169
-0.000183
0.002118
0.00031
-0.003306
-0.001498
0.001954
0.000803
0.005734
0.001954
0.00294
0.00409
0.003926
0.00409
0.003761
0.000967
0.003268
0.000474
0.00031
-0.001498
0.001296
0.00031
-0.000512
0.000639
0.002118
-0.001662
0.001954
0.000803
0.00146
0.001954
0.002447
0.001789
0.000639
0.001789
0.000803
0.000474
-0.000841
-0.001169
-0.000183
-0.002484
0.00146
0.000639
0.00409
0.003433
0.001789
0.001132
0.006062
-0.002648
0.001296
-0.002155
-0.002813
0.00146
-0.002155
0.00031
0.002775
0.001296
0.00294
0.004748
0.000146
0.00031
0.000474
0.000474
0.00031
0.000803
0.00409
0.00146
0.000967
0.002282
0.003761
-0.000512
0.000967
0.00031
0.001296
0.00031
0.000474
-0.002977
0.004419
-0.000841
0.001296
0.002282
0.00146
0.000967
0.000803
0.00146
-0.001334
-0.001005
0.000967
0.001954
0.00031
0.001789
0.002775
-0.002484
-0.003635
-0.000676
-0.000676
-0.000347
0.000967
-0.000347
-0.002155
-0.000841
0.000967
-0.000512
0.001132
-0.003306
0.002282
-1.9e-05
0.004912
-0.002648
0.002775
-0.000512
0.001132
-0.001334
-0.000347
-0.000347
0.000803
0.002447
0.002447
0.000639
0.00031
0.003597
-0.002648
0.002775
0.00146
0.000639
0.00031
0.001789
0.00146
0.000474
0.001132
-0.000512
-0.001827
-1.9e-05
-0.000512
-0.000347
-0.000183
-0.001005
0.001954
-0.000512
0.003597
0.000803
-0.001498
0.003761
-0.000183
0.000803
0.002447
-0.000841
-0.001005
0.000146
-0.001991
-0.001169
-0.001991
-1.9e-05
-0.002977
-0.001005
-0.001498
0.00146
-0.000512
0.002775
-0.001005
0.000639
0.000146
0.000146
0.00031
0.002282
-0.000183
-0.001827
0.002447
-0.001005
0.002118
0.002447
0.00031
0.000803
0.002611
0.000474
0.003597
0.001954
0.001954
0.00146
-0.001498
0.000146
-0.001662
0.005076
0.001296
0.002447
0.00031
0.001296
0.001132
0.00294
0.001789
0.00146
0.001954
0.001954
0.002775
0.00031
0.001132
-0.001827
-0.000676
-0.001334
-0.000841
-0.001991
-0.001005
0.003433
0.00409
0.001954
0.003926
0.002118
0.001954
0.002611
0.002775
0.001789
-0.001334
0.002775
-0.000183
0.000967
0.002282
-0.001005
-0.000841
0.001789
0.002611
0.002282
-0.000676
0.000639
0.002447
0.00146
0.001789
0.000803
0.002775
0.00031
0.002118
0.00031
0.001132
-0.003963
-0.003306
-0.00347
-0.000183
-0.001662
0.000639
0.000146
0.000803
0.000967
0.002447
0.000967
0.000474
-0.002155
-0.001169
0.000639
-0.000347
0.000967
0.001132
-0.001169
0.000474
-0.003306
-0.003963
-0.001334
-0.005771
-0.002977
0.002118
0.00146
-0.000183
0.000146
-1.9e-05
0.000146
0.003926
0.00146
0.00146
-0.007415
0.005076
0.009843
0.021183
0.027593
0.03614
0.041235
0.045837
0.058164
0.061615
0.065067
0.06293
0.077886
0.081995
0.091528
0.093993
0.099582
0.100403
0.102211
0.107964
0.112073
0.116182
0.109936
0.122263
0.123742
0.129001
0.131138
0.135411
0.136562
0.140342
0.142807
0.146916
0.146752
0.140835
0.150039
0.150532
0.152176
0.156778
0.16138
0.161215
0.163681
0.162859
0.165817
0.164996
0.164831
0.166968
0.171077
0.170913
0.174693
0.174528
0.176994
0.176172
0.177487
0.180116
0.179459
0.178802
0.178637
0.180774
0.179952
0.186362
0.182582
0.183732
0.180938
0.188334
0.185376
0.186855
0.189649
0.188006
0.190307
0.18817
0.190964
0.189814
0.189978
0.188006
0.191786
0.18932
0.192115
0.193922
0.1908
0.193101
0.193265
0.192772
0.194416
0.193265
0.190964
0.193101
0.194251
0.194909
0.195402
0.192279
0.192772
0.193922
0.194416
0.196881
0.193758
0.195402
0.197703
0.196388
0.197703
0.202469
0.19721
0.196388
0.200004
0.198196
0.199675
0.197045
0.197045
0.198689
0.199182
0.196552
0.204113
0.194744
0.197045
0.202469
0.199018
0.200004
0.198031
0.200004
0.202798
0.199346
0.19721
0.206907
0.195402
0.200004
0.198689
0.199182
0.198524
0.200825
0.199511
0.200004
0.198853
0.197538
0.203948
0.197867
0.19721
0.200825
0.201319
0.200497
0.199346
0.203291
0.203784
0.201976
0.200825
0.204277
0.198524
0.199511
0.201319
0.201647
0.199675
0.202798
0.198689
0.202305
0.199511
0.201319
0.203126
0.202305
0.200168
0.200004
0.201319
0.200332
0.199346
0.200168
0.199018
0.190635
0.193101
0.194087
0.192936
0.187677
0.191786
0.193265
0.191293
0.193922
0.195073
0.195895
0.194416
0.194416
0.19836
0.19573
0.191457
0.19573
0.195073
0.194087
0.193265
0.196059
0.197867
0.193922
0.196223
0.196223
0.196881
0.198689
0.195566
0.197045
0.19836
0.196388
0.201154
0.198524
0.198689
0.196223
0.199346
0.196552
0.19721
0.196717
0.19721
0.196717
0.198196
0.066217
0.068354
0.072956
0.078708
0.083968
0.08709
0.095473
0.097116
0.104677
0.104677
0.11158
0.113716
0.116017
0.113059
0.122098
0.12555
0.127194
0.131796
0.135904
0.138205
0.137219
0.147574
0.146423
0.148889
0.150039
0.152833
0.155134
0.152669
0.158093
0.156285
0.154806
0.157764
0.164503
0.163023
0.165489
0.163681
0.171241
0.170748
0.172063
0.175186
0.176172
0.175843
0.178802
0.179459
0.180281
0.177487
0.180938
0.180281
0.182253
0.181924
0.182089
0.185869
0.183897
0.184883
0.189485
0.189156
0.189814
0.193265
0.193101
0.192772
0.190471
0.189649
0.188006
0.188006
0.18932
0.1908
0.192279
0.190635
0.194744
0.193922
0.195073
0.194251
0.195895
0.194744
0.197703
0.00409
0.019047
0.0271
0.029237
0.034496
0.042057
0.050932
0.054712
0.065231
0.072791
0.07575
0.086433
0.08857
0.092679
0.100403
0.100075
0.106649
0.109607
0.110758
0.116675
0.119797
0.122263
0.126207
0.131138
0.132946
0.13574
0.13837
0.141493
-0.013003
-0.004128
0.004912
0.014116
0.021841
0.034989
0.038276
0.047316
0.044851
0.04633
0.055698
0.058821
0.053562
0.058657
0.062273
0.071312
0.078544
0.081502
0.088734
0.091692
0.097116
0.100568
0.107306
0.105992
0.111251
0.113552
0.113881
0.120455
0.126043
0.129988
0.132453
0.136562
0.138041
0.143136
0.139849
0.143794
0.146095
0.147903
0.148724
0.153819
0.157107
0.159408
0.160887
0.16138
0.166475
0.163188
0.16779
0.167461
0.171241
0.169105
0.171241
0.173871
0.176665
0.17272
0.174364
0.18439
0.174364
0.178309
0.18061
0.181267
0.181924
0.182417
0.181924
0.184554
0.184225
0.183732
0.187677
0.185869
0.185376
0.184061
0.189156
0.187513
0.188006
0.188334
0.186855
0.187841
0.18932
0.19195
0.19195
0.192279
0.19458
0.193265
0.193429
0.19195
0.191621
0.19458
0.194251
0.19458
0.19721
0.193265
0.193594
0.196223
0.194744
0.197374
0.192608
0.199675
0.198031
0.200004
0.196552
0.198031
0.195237
0.197538
0.198196
0.196552
0.198031
0.193594
0.201976
0.197538
0.196388
0.200004
0.201154
0.200661
0.197374
0.198689
0.199018
0.199675
0.196223
0.200004
0.199018
0.197867
0.200004
0.199182
0.197374
0.200168
0.195237
0.199182
0.198196
0.198689
0.199346
0.19836
0.200825
0.200661
0.200825
0.199018
0.20214
0.201483
0.201154
0.198524
0.199675
0.196717
0.201812
0.199839
0.197867
0.199839
0.202798
0.200168
0.200332
0.201483
0.20099
0.200004
0.196552
0.199511
0.198853
0.200004
0.200332
0.200004
0.198853
0.199511
0.199346
0.202469
0.199839
0.201319
0.200168
0.199346
0.200004
0.201154
0.203455
0.197867
0.200661
0.200497
0.199346
0.199182
0.201154
0.199839
0.201154
0.198853
0.199511
0.200661
0.19836
0.200825
0.199018
0.19721
0.195895
0.202962
0.201319
0.200497
0.197867
0.200661
0.200497
0.199182
0.199675
0.200825
0.199018
0.199839
0.201154
0.200661
0.200332
0.20099
0.202469
0.19836
0.200661
0.198853
0.201154
0.20099
0.201154
0.204441
0.201812
0.198853
0.202469
0.203126
0.198524
0.200497
0.197538
0.200168
0.199675
0.19836
0.199346
0.201483
0.199511
0.201154
0.20214
0.201647
0.197703
0.19721
0.199839
0.198031
0.19458
0.200332
0.200168
0.199346
0.201976
0.201483
0.199675
0.20099
0.20099
0.197374
0.199839
0.200497
0.20362
0.200332
0.201319
0.201976
0.201319
0.200004
0.199346
0.200332
0.197703
0.201154
0.197867
0.202962
0.201319
0.201483
0.201319
0.203784
0.199839
0.199675
0.200661
0.19836
0.197045
0.199839
0.200825
0.196881
0.199182
0.199018
0.200332
0.195566
0.200332
0.198689
0.200004
0.198853
0.201154
0.201154
0.199675
0.198524
0.196717
0.199346
0.193758
0.198031
0.200332
0.199018
0.198031
0.19836
0.19836
0.199182
0.199018
0.199511
0.200661
0.204277
0.201319
0.200661
0.201812
0.198524
0.199675
0.198689
0.200004
0.199675
0.200332
0.19836
0.19721
0.199182
0.197538
0.200168
0.200825
0.199675
0.200168
0.199511
0.20099
0.200661
0.198524
0.198853
0.195895
0.197045
0.196881
0.19836
0.195895
0.198196
0.198853
0.197374
0.200497
0.204277
0.197703
0.200661
0.200168
0.199839
0.19836
0.193594
0.19836
0.194744
0.197867
0.197045
0.200497
0.199018
0.199018
0.19836
0.199675
0.196717
0.195895
0.20477
0.199182
0.198689
0.199182
0.199839
0.197703
0.200497
0.198031
0.199675
0.200004
0.197374
0.195237
0.197703
0.197538
0.197703
0.200004
0.197538
0.200497
0.199346
0.198524
0.19836
0.197867
0.196881
0.195566
0.199018
0.198524
0.200004
0.19836
0.19836
0.198689
0.19836
0.199346
0.198524
0.198853
0.201647
0.19721
0.199346
0.192608
0.199675
0.195895
0.193429
0.195237
0.195402
0.197703
0.199346
0.200004
0.198524
0.198689
0.198853
0.198853
0.199182
0.19721
0.195073
0.196059
0.197703
0.199018
0.200497
0.19836
0.200004
0.200661
0.199346
0.19573
0.198196
0.19836
0.198524
0.19721
0.200332
0.195895
0.19836
0.198031
0.197703
0.197867
0.196552
0.199018
0.200004
0.200497
0.199675
0.201154
0.198524
0.201319
0.197867
0.201154
0.198031
0.199675
0.197374
0.198524
0.198524
0.196881
0.197045
0.200168
0.197538
0.197538
0.196059
0.198853
0.201647
0.197867
0.201154
0.198524
0.200004
0.199346
0.199839
0.196881
0.196388
0.19721
0.19721
0.197867
0.199675
0.200497
0.200825
0.199839
0.198031
0.199675
0.200661
0.200497
0.19721
0.200004
0.199839
0.198689
0.198031
0.197867
0.195895
0.199018
0.201812
0.200004
0.197045
0.199839
0.200004
0.198524
0.200825
0.19836
0.201154
0.19836
0.200661
0.199182
0.198031
0.196223
0.197374
0.197867
0.196223
0.196552
0.20099
0.202305
0.198689
0.201647
0.200661
0.20099
0.199675
0.197045
0.198689
0.20214
0.199511
0.199182
0.199346
0.197538
0.202305
0.199182
0.201319
0.197538
0.202305
0.199346
0.199675
0.200497
0.20099
0.199346
0.200004
0.201154
0.199346
0.197703
0.200168
0.200661
0.197538
0.195402
0.19836
0.199675
0.196388
0.198196
0.199346
0.200332
0.200332
0.200825
0.200825
0.200004
0.199018
0.199675
0.200825
0.197703
0.196717
0.19721
0.199675
0.194251
0.195566
0.197374
0.200825
0.197703
0.199675
0.199018
0.198689
0.198689
0.201154
0.200332
0.199018
0.202305
0.201647
0.202305
0.202633
0.202469
0.198853
0.197703
0.198031
0.202469
0.198853
0.199018
0.200004
0.201154
0.199675
0.197374
0.202305
0.200332
0.199511
0.196388
0.199675
0.198689
0.199182
0.203948
0.201319
0.196388
0.200825
0.197374
0.198524
0.19836
0.199182
0.200168
0.200332
0.199511
0.199182
0.205592
0.19573
0.197374
0.198524
0.196881
0.200004
0.196552
0.199018
0.199182
0.198031
0.198196
0.201319
0.197045
0.200168
0.200004
0.198689
0.198689
0.200168
0.199511
0.203784
0.197703
0.202798
0.201812
0.196388
0.197867
0.196223
0.198689
0.197703
0.197867
0.199018
0.199346
0.199839
0.199511
0.199346
0.197867
0.199675
0.201483
0.196881
0.198853
0.199675
0.19836
0.19836
0.200497
0.197867
0.197703
0.200497
0.198524
0.198524
0.197045
0.197538
0.196059
0.199182
0.199346
0.195402
0.199018
0.201483
0.199182
0.19836
0.199182
0.200168
0.199346
0.19836
0.200497
0.198853
0.200825
0.198031
0.20214
0.198689
0.200004
0.200661
0.200332
0.19721
0.201154
0.20214
0.200004
0.20214
0.195566
0.202962
0.199018
0.199675
0.197045
0.202633
0.202305
0.199675
0.198853
0.200332
0.200332
0.200332
0.201647
0.199346
0.200497
0.199511
0.202305
0.198524
0.198853
0.202962
0.200661
0.196717
0.201483
0.200825
0.199675
0.196717
0.199018
0.197867
0.199675
0.197374
0.200497
0.200661
0.199839
0.201483
0.199018
0.204113
0.201647
0.198853
0.199018
0.199839
0.199018
0.199839
0.199675
0.199182
0.200497
0.200332
0.199675
0.199346
0.201647
0.200497
0.201154
0.199675
0.201319
0.200661
0.200168
0.203291
0.193429
0.195895
0.197867
0.197703
0.198524
0.200825
0.197374
0.200332
0.199675
0.200332
0.199839
0.200004
0.200661
0.201154
0.200004
0.199018
0.199346
0.199018
0.198196
0.19836
0.198689
0.197045
0.196881
0.198196
0.199839
0.197703
0.201812
0.200497
0.195895
0.197703
0.201154
0.201319
0.199182
0.197867
0.200825
0.195895
0.199346
0.197867
0.199346
0.198524
0.199675
0.199511
0.201319
0.201319
0.19836
0.201319
0.201154
0.20099
0.19836
0.19573
0.199346
0.201319
0.200825
0.196388
0.203291
0.19721
0.199346
0.199182
0.199018
0.198524
0.201319
0.198196
0.201483
0.200661
0.201483
0.201483
0.199839
0.200004
0.198196
0.197703
0.198524
0.199675
0.194909
0.199182
0.200004
0.197867
0.200004
0.199346
0.20477
0.198524
0.198689
0.200332
0.200332
0.198196
0.201319
0.200825
0.201976
0.199675
0.201483
0.197703
0.200825
0.197538
0.201976
0.198196
0.199346
0.200004
0.202633
0.199182
0.200332
0.203126
0.201483
0.196881
0.196881
0.199675
0.200168
0.19836
0.198689
0.198689
0.200168
0.199839
0.196388
0.198689
0.199675
0.199018
0.200825
0.199346
0.19836
0.197538
0.200825
0.196552
0.197045
0.196881
0.200168
0.199018
0.199839
0.19836
0.197538
0.196881
0.196717
0.202798
0.202469
0.198853
0.198524
0.199182
0.197703
0.200332
0.19836
0.200168
0.197538
0.201812
0.196717
0.199182
0.19573
0.19721
0.19836
0.197538
0.200004
0.201483
0.201154
0.19836
0.199182
0.198689
0.202305
0.194416
0.197374
0.198853
0.197538
0.197538
0.196223
0.198853
0.196223
0.199511
0.201154
0.199182
0.189814
0.195237
0.195895
0.19721
0.196059
0.198031
0.196223
0.196059
0.201154
0.19836
0.199511
0.188499
0.198853
0.199018
0.199839
0.197045
0.200825
0.19836
0.19836
0.199018
0.200004
0.198689
0.190635
0.198196
0.19836
0.201483
0.196552
0.200004
0.19836
0.198524
0.198196
0.199182
0.198031
0.192279
0.19573
0.197538
0.198524
0.195566
0.199675
0.197374
0.198524
0.196552
0.19573
0.200825
0.194416
0.19836
0.201154
0.200332
0.199675
0.196059
0.201812
0.195895
0.199182
0.199182
0.199182
0.199182
0.196223
0.197867
0.19836
0.196717
0.197045
0.197703
0.196881
0.201647
0.199018
0.196881
0.199675
0.197374
0.198689
0.196552
0.199675
0.19836
0.197374
0.198524
0.200332
0.200825
0.200332
0.20362
0.199511
0.199018
0.199346
0.198689
0.19573
0.19721
0.19836
0.196881
0.198031
0.197703
0.200825
0.198031
0.197374
0.19721
0.197538
0.200332
0.199018
0.200825
0.198853
0.197045
0.202798
0.200004
0.196388
0.199346
0.199346
0.193594
0.196717
0.199182
0.200332
0.196717
0.198853
0.197867
0.201976
0.196552
0.197374
0.197045
0.199839
0.20099
0.197374
0.198031
0.195402
0.197703
0.199018
0.200497
0.196223
0.199511
0.196881
0.199182
0.197867
0.200825
0.200168
0.199675
0.199182
0.200332
0.19836
0.19836
0.201647
0.199511
0.197703
0.198524
0.203948
0.199346
0.200004
0.196552
0.198196
0.199182
0.197374
0.199839
0.196881
0.198524
0.199182
0.200497
0.200825
0.19836
0.196552
0.198689
0.193594
0.196223
0.194744
0.198689
0.199346
0.199675
0.198196
0.204277
0.201319
0.200825
0.200661
0.200168
0.201154
0.19836
0.20099
0.196717
0.200004
0.19836
0.20099
0.198853
0.200825
0.197374
0.199675
0.196388
0.198689
0.198031
0.199018
0.198853
0.201812
0.203455
0.200825
0.200497
0.199018
0.198853
0.197703
0.19573
0.192115
0.197374
0.195402
0.198524
0.199511
0.195895
0.200661
0.198031
0.199182
0.197867
0.200332
0.197703
0.199346
0.195237
0.200168
0.197374
0.197374
0.197703
0.200661
0.199182
0.194416
0.198853
0.196059
0.199675
0.196059
0.199839
0.203126
0.202305
0.198689
0.201976
0.201647
0.199346
0.19836
0.197867
0.198689
0.196388
0.198853
0.19721
0.199839
0.198196
0.200825
0.200497
0.199346
0.200168
0.19721
0.199018
0.199018
0.198524
0.200825
0.197703
0.200168
0.199839
0.201319
0.198524
0.198031
0.198689
0.196717
0.199182
0.197374
0.200332
0.200004
0.198689
0.202798
0.199511
0.196717
0.198689
0.196388
0.198524
0.199018
0.198524
0.203291
0.198524
0.199346
0.199511
0.201483
0.197045
0.198689
0.196552
0.201647
0.198524
0.20214
0.200661
0.197703
0.199346
0.20214
0.201319
0.196223
0.198689
0.196552
0.198524
0.197703
0.201812
0.198524
0.198196
0.19573
0.200004
0.198689
0.197045
0.198853
0.198196
0.197374
0.199675
0.19836
0.198689
0.199346
0.199018
0.199675
0.196552
0.198689
0.197374
0.198853
0.198853
0.197867
0.200825
0.199839
0.200332
0.197374
0.198689
0.197045
0.198689
0.199182
0.196717
0.195895
0.200004
0.197867
0.199675
0.196552
0.197374
0.200497
0.197538
0.199839
0.199511
0.199018
0.199675
0.200497
0.19721
0.200497
0.199511
0.19721
0.198853
0.199839
0.195073
0.200004
0.195402
0.19573
0.198524
0.193922
0.19836
0.198853
0.198689
0.196388
0.198031
0.193922
0.199511
0.198031
0.198524
0.199511
0.196717
0.199675
0.199346
0.198524
0.194744
0.19573
0.196388
0.19721
0.195566
0.197538
0.199675
0.197045
0.198196
0.200004
0.199018
0.201319
0.202798
0.197538
0.198524
0.194909
0.198524
0.197703
0.196223
0.197374
0.199839
0.19721
0.198689
0.198853
0.199018
0.198689
0.199346
0.200497
0.197045
0.198524
0.201154
0.198853
0.19836
0.193758
0.200004
0.198196
0.194909
0.195895
0.195402
0.19836
0.194087
0.202469
0.201647
0.201647
0.198853
0.203126
0.200004
0.197374
0.199675
0.198031
0.19573
0.193922
0.198196
0.19573
0.197867
0.196552
0.201647
0.198196
0.19721
0.199182
0.199839
0.199018
0.198689
0.201976
0.199182
0.19836
0.197374
0.201647
0.198031
0.197045
0.19458
0.20099
0.199675
0.19458
0.199675
0.19836
0.199182
0.199675
0.202305
0.196223
0.199675
0.197703
0.201483
0.19458
0.198689
0.19836
0.197538
0.196223
0.198524
0.200168
0.197703
0.198524
0.200168
0.198031
0.197867
0.195073
0.199346
0.198524
0.13311
0.138534
0.140671
0.141
0.13459
0.138041
0.136891
0.140506
0.141821
0.14971
0.150532
0.152011
0.154477
0.155956
0.157107
0.158914
0.161873
0.153819
0.156449
0.15875
0.162037
0.160558
0.163352
0.164503
0.167297
0.165653
0.16779
0.168447
0.166804
0.17157
0.170255
0.17798
0.172227
0.178309
0.178309
0.179623
0.176665
0.179459
0.178802
0.180281
0.18061
0.180116
0.182911
0.182746
0.184554
0.180281
0.184554
0.181596
0.186526
0.183732
0.187677
0.186526
0.18817
0.188499
0.184718
0.188334
0.187348
0.186198
0.186362
0.188663
0.188663
0.19195
0.18817
0.190471
0.189814
0.190635
0.191457
0.193429
0.194416
0.195237
0.190964
0.019704
0.009678
0.01691
0.025457
0.032524
0.040413
0.045837
0.054383
0.057671
0.063423
0.069833
0.074599
0.081502
0.086926
0.092679
0.096788
0.099253
0.103526
0.109279
0.109936
0.116346
0.118318
0.121934
0.124399
0.125221
0.127687
0.133932
0.135083
0.138041
0.140342
0.144122
0.144944
0.150368
0.149875
0.150861
0.153162
0.150861
0.155134
0.159243
0.16138
0.161544
0.163845
0.163845
0.164996
0.167461
0.169433
0.171899
0.173542
0.174693
0.1742
0.176994
0.1742
0.17913
0.176665

Kurve 4

0.001132
0.00146
0.001954
0.00409
0.003268
0.001789
0.000639
0.003433
0.003761
-0.000512
0.004912
0.001625
0.000474
0.004583
0.001954
0.00146
0.000639
0.000146
0.00146
0.00409
0.000474
0.001296
-0.001005
0.001296
0.001132
0.003104
-0.001498
0.00294
0.001625
0.004912
0.002447
0.000803
0.001132
-0.001827
0.000146
0.002447
0.002282
-0.001169
0.001954
-0.000676
0.00294
-0.000183
0.001132
-0.002155
0.000146
0.000803
0.000967
0.001625
-0.000183
0.002611
-0.001991
0.002282
0.002447
0.003268
-0.00725
0.000967
-0.003306
0.001789
0.001954
-0.000512
0.001296
0.000146
-0.001005
-0.000676
-0.000512
-0.002484
-0.000841
-0.000183
-0.000183
-1.9e-05
-0.000183
0.000146
-0.000183
-0.000512
-0.000347
-0.000676
-0.000183
-0.000512
0.000146
-1.9e-05
-0.000183
-1.9e-05
0.00031
-0.000347
0.00031
0.000803
-1.9e-05
-0.005936
-0.003142
-1.9e-05
-0.000183
-0.002648
-0.003142
-0.001498
-0.000676
-0.000183
0.000146
0.001132
0.00031
-0.002813
0.00031
-0.001991
-0.000347
-0.000512
0.00146
-0.001498
-0.000676
-0.000183
0.000146
0.003433
-0.003635
0.001954
0.000967
-0.00232
-0.004949
0.002118
-0.001334
0.00031
-0.001498
-1.9e-05
0.006556
-0.002813
-0.001498
0.002447
0.000146
0.00031
0.003761
-0.001498
0.003433
0.001296
0.002447
0.008857
0.001954
0.001954
0.00146
0.00146
0.002611
0.003761
-0.002155
0.001789
0.001954
-0.000676
0.00146
-0.001662
-1.9e-05
0.001132
-0.000183
0.001625
0.000967
-0.000512
-0.002813
0.001296
0.000639
0.003104
0.00031
0.001789
0.001132
0.000639
0.001789
0.002282
0.002447
-1.9e-05
-0.000183
-0.001005
0.002447
-0.001498
-0.000841
0.002447
0.001954
0.000146
0.002118
0.003597
0.000803
0.004912
0.001789
0.004255
-1.9e-05
0.00294
0.001625
0.000474
-0.000183
-0.000183
0.000639
-0.001334
0.002118
0.004255
0.003433
0.00146
0.004419
-1.9e-05
0.004912
0.002447
0.003761
0.001789
0.007049
0.000803
0.00294
0.002447
-0.000183
0.001132
-0.000512
0.001296
0.00146
0.004255
0.003597
0.00409
0.001625
0.005241
0.004912
0.003268
0.001954
0.004748
0.00409
0.003104
-0.000347
-1.9e-05
0.000474
0.000146
0.002611
0.001132
0.000146
0.002118
0.003926
0.002775
0.003926
0.004583
0.001296
0.003926
0.003433
-0.000347
0.005076
-0.002977
-0.001005
0.001789
-0.000512
0.002447
0.00294
0.004255
0.00294
0.003926
-1.9e-05
0.00787
0.003597
0.00409
0.007542
0.001789
0.00294
0.005241
0.002775
0.002118
0.003104
0.001132
0.003104
0.00146
0.001954
0.002118
0.005898
0.00409
-0.000183
0.003761
0.001296
0.00146
0.000146
-0.001498
0.000474
0.001954
0.000146
0.00294
0.001954
0.005405
0.007049
0.006556
0.007049
0.008363
0.00146
0.001789
0.002447
0.004583
0.005898
-0.000676
0.005898
0.007213
0.006227
0.004419
0.00672
0.006227
0.005898
0.006062
0.006884
0.00787
0.009021
0.009678
0.011486
0.00935
0.011158
0.005734
0.007213
0.003597
0.00294
0.004419
0.003597
0.005569
0.005241
0.00787
0.001789
0.004255
0.004912
0.00409
0.003268
0.002775
0.001789
-0.000512
0.00146
0.000146
0.00294
-0.000347
-0.000347
-1.9e-05
0.002447
-0.000183
0.002118
-0.000841
0.000474
0.00146
0.002775
0.001625
0.000474
0.00031
0.003597
0.001625
-0.003635
-0.000183
-0.001498
0.000803
-0.001169
0.001954
0.00031
0.002447
-0.000512
0.001296
0.000967
-0.002155
0.000803
-0.001827
-0.000841
-0.000676
-0.003635
-0.002484
0.000146
-0.001827
0.00031
0.000474
0.000803
0.000146
0.000146
-0.00347
-0.004456
-0.006429
-0.003635
0.001296
-0.002648
-0.002813
-0.000512
0.000639
-0.002648
-0.000841
-0.000676
0.002447
0.002282
0.002282
0.001625
0.000803
-1.9e-05
0.000639
-0.000676
-0.001169
0.000146
-0.000841
0.000803
0.000803
0.004255
0.00031
0.002447
-0.000183
0.004583
0.001296
-0.000183
0.004419
0.001625
0.000474
-0.000512
-0.001334
-0.00232
0.000639
-0.001005
-0.000676
-0.001498
-0.000841
-0.001662
0.000639
-0.000183
0.000474
0.00146
0.000803
0.00031
-0.001991
0.003268
0.001789
0.000967
-0.003963
0.00031
-0.003635
-1.9e-05
0.000474
0.001625
-0.000676
-0.000512
0.001789
0.004748
0.002611
0.001296
0.001296
-0.000512
0.001789
0.000803
0.002118
-0.00232
0.003104
0.000639
-0.001005
0.000639
0.001296
0.000803
-0.001169
-0.002977
0.008363
-0.001662
-0.000512
-0.000512
-0.000347
-0.001334
-0.000183
0.002775
-0.000512
0.005898
0.000967
0.002447
0.005241
0.003761
0.006391
0.00787
0.005076
0.007049
0.007706
0.004748
0.005734
0.003433
0.003926
0.005898
0.005569
0.003268
0.003761
0.002611
0.00409
0.001296
-0.000183
-1.9e-05
0.000146
0.00409
0.003433
0.002611
0.000474
0.006062
0.002447
0.00294
0.002775
-0.000347
-0.001169
-0.001169
0.00031
-0.000183
0.00031
-0.001334
0.003268
-0.000512
-0.000512
-0.002155
0.002447
0.000803
-0.003142
0.001954
-0.000512
-0.002155
-0.000347
0.000146
0.000639
0.000146
-0.001169
0.001132
-0.000183
0.000639
0.000803
0.000474
-0.000347
0.000146
-0.001169
-0.000347
-1.9e-05
-0.000841
-0.001827
-1.9e-05
0.000639
-0.001498
-0.000676
-0.000347
0.000803
-0.008072
0.001625
0.000474
-0.000183
0.001625
0.003926
0.00146
0.00409
0.001132
0.000146
-0.001498
-0.000183
-1.9e-05
0.000803
-0.000841
0.004255
0.003268
-0.000183
0.005405
0.004419
0.002282
-0.001991
0.004583
0.000474
0.002447
0.001132
0.001789
0.001789
0.000146
0.006556
0.00787
0.006391
0.006062
0.006062
0.003268
0.005405
0.003926
0.00409
0.003104
0.006391
0.006884
0.007213
0.007213
0.008857
0.006884
0.002447
0.005076
0.002447
0.002447
0.000146
0.001296
0.001789
0.003926
0.001789
0.001789
0.002611
0.002611
0.00409
0.003268
0.003104
0.002611
0.003433
0.003433
0.004748
0.001625
0.002611
0.001625
0.001132
0.000474
-0.001005
-0.001662
-0.006264
-0.004785
-0.002155
0.001132
-0.001991
0.000474
0.002447
-0.000183
-0.002155
-1.9e-05
-0.001991
-0.000347
-0.002813
-0.000676
0.000967
0.001954
0.000803
0.00409
0.004748
0.002775
0.001954
0.001954
0.001132
-0.001334
0.001954
-0.001991
-0.002977
-0.004785
-0.002155
-0.00347
-0.000347
-0.001662
-0.001991
-0.001991
-0.001498
-1.9e-05
-0.001498
0.000146
-0.001169
0.00031
-0.001334
-0.000347
-0.00232
0.002118
-0.000676
-0.001169
0.001296
0.001954
0.001296
-0.000183
0.002282
0.003104
-0.000347
-0.000347
0.003761
-0.001169
0.000474
0.000474
0.00146
0.000474
0.003268
0.003104
0.002775
0.003926
0.002775
0.003926
0.003104
-0.002155
-0.004456
-0.001005
-0.003963
0.000474
-0.00347
0.001954
-0.00232
-0.00232
-0.000512
-0.000183
-0.002977
0.000146
0.00031
0.001954
0.003268
0.001789
0.001789
0.002447
0.005898
0.001132
0.003104
0.001132
0.001625
0.001954
0.002447
0.002775
0.001789
0.001132
0.000146
0.001625
0.00031
0.001789
0.000803
0.001954
0.005076
0.002775
0.000967
0.004748
-0.001991
-0.001169
0.000639
-0.000183
-0.000841
-0.000183
0.004912
0.000146
0.003104
0.001132
0.002775
-0.003306
0.001954
0.001296
0.001296
-0.000841
0.002118
0.001954
-0.000183
0.000639
-0.002155
-1.9e-05
-0.001827
0.000474
-0.000347
0.000639
-0.001827
0.001625
0.001625
0.004748
0.002282
0.00031
-1.9e-05
-0.000512
-0.000841
-0.000841
0.000803
-0.001827
0.001296
0.001954
0.002775
0.00146
0.003926
0.00031
-0.000841
-1.9e-05
0.000474
0.000967
-0.001169
-0.001498
0.001296
0.000639
-1.9e-05
-0.000512
-0.000347
0.001296
-0.001169
0.001132
0.006391
0.016581
0.018389
0.031373
0.038934
0.048631
0.05011
0.055863
0.059972
0.063259
0.064738
0.074764
0.081009
0.082817
0.09498
0.097281
0.10254
0.10632
0.114702
0.113552
0.118318
0.122263
0.1267
0.127194
0.129001
0.131796
0.135576
0.13837
0.141493
0.145437
0.143629
0.148231
0.150697
0.153326
0.155299
0.156285
0.159572
0.160065
0.159736
0.162366
0.166639
0.164667
0.166804
0.165982
0.169105
0.169926
0.172392
0.172063
0.175679
0.174364
0.176336
0.179295
0.18061
0.181596
0.18439
0.178966
0.184718
0.183732
0.181267
0.184061
0.184061
0.187677
0.184225
0.184554
0.187677
0.187513
0.18932
0.188827
0.188499
0.192115
0.190142
0.191786
0.192443
0.194087
0.190307
0.190635
0.194416
0.195402
0.192443
0.192936
0.121934
-0.001005
0.011979
0.013623
0.013459
0.021019
0.027758
0.037619
0.042878
0.045837
0.051589
0.059478
0.063752
0.071477
0.075421
0.083968
0.084954
0.090378
0.093993
0.101225
0.102047
0.105663
0.115689
0.117332
0.120619
0.121605
0.128344
0.127687
0.132617
0.134097
0.136891
0.137712
0.141164
0.143465
0.145108
0.147409
0.152669
0.154641
0.15497
0.153984
0.006556
-1.9e-05
-1.9e-05
-1.9e-05
0.014773
-1.9e-05
-0.000512
0.004912
0.014609
0.026771
0.03236
0.040084
0.046823
0.052082
0.055041
0.062437
0.068518
0.075914
0.081502
0.085118
0.088734
0.093993
0.099746
0.100732
0.108457
0.110593
0.115853
0.118976
0.121112
0.12555
0.127687
0.129001
0.13459
0.138205
0.137055
0.142314
0.140506
0.14478
0.146095
0.151518
0.150532
0.154148
0.151025
0.156613
0.159901
0.158914
0.164503
0.161051
0.166804
0.166146
0.169433
0.168612
0.174364
0.170419
0.174693
0.176336
0.174364
0.17913
0.177322
0.180116
0.182582
0.183404
0.181596
0.184061
0.182253
0.182417
0.182253
0.190142
0.183897
0.186033
0.186362
0.187841
0.187348
0.187677
0.191128
0.191457
0.190635
0.190307
0.189649
0.190142
0.191128
0.191621
0.196059
0.193758
0.196059
0.193265
0.195402
0.193101
0.192279
0.194087
0.19458
0.1908
0.193265
0.197703
0.194909
0.195073
0.195895
0.197045
0.194744
0.198031
0.197045
0.194909
0.193101
0.197374
0.197867
0.198196
0.199511
0.19836
0.196717
0.19836
0.197867
0.196717
0.199018
0.196059
0.199839
0.196552
0.198689
0.201319
0.199182
0.197703
0.199511
0.196388
0.19836
0.19721
0.19836
0.198689
0.19458
0.200004
0.197703
0.201483
0.199675
0.200004
0.199346
0.20214
0.203784
0.198853
0.200497
0.200332
0.19573
0.196881
0.199675
0.196717
0.201154
0.199839
0.199675
0.199511
0.200168
0.199839
0.201812
0.201154
0.200497
0.201154
0.200168
0.200004
0.200661
0.201319
0.198031
0.201812
0.199182
0.201976
0.199018
0.199839
0.199675
0.200004
0.200004
0.200825
0.201319
0.200332
0.197703
0.199346
0.199511
0.198196
0.201483
0.199839
0.197045
0.198853
0.199675
0.198853
0.199182
0.199182
0.199018
0.199018
0.199511
0.202469
0.202469
0.203291
0.200168
0.202962
0.199018
0.198196
0.196552
0.199839
0.196881
0.198031
0.199018
0.197703
0.198524
0.200004
0.200661
0.202469
0.200332
0.200168
0.202469
0.199839
0.202305
0.201647
0.201154
0.203291
0.200004
0.198689
0.203948
0.199511
0.198524
0.200332
0.203126
0.200332
0.202962
0.197045
0.198524
0.20099
0.198689
0.201483
0.200004
0.199018
0.200004
0.201483
0.198524
0.199675
0.197703
0.199346
0.201647
0.199675
0.20099
0.198853
0.202469
0.201812
0.202305
0.19836
0.202798
0.19836
0.197703
0.198524
0.199346
0.196552
0.19721
0.195402
0.199511
0.201319
0.199839
0.201976
0.199839
0.201154
0.20099
0.20214
0.199511
0.201812
0.198196
0.202633
0.201154
0.201812
0.199511
0.197703
0.199018
0.199346
0.201154
0.19721
0.201647
0.19836
0.20099
0.201976
0.199182
0.199839
0.201647
0.200004
0.200497
0.199346
0.199839
0.201154
0.198853
0.200825
0.199346
0.200497
0.199182
0.199346
0.196223
0.200004
0.199511
0.197867
0.200168
0.200004
0.199675
0.199675
0.198853
0.196388
0.199018
0.201483
0.199839
0.202469
0.200497
0.201647
0.201319
0.199675
0.20099
0.200004
0.197538
0.196552
0.199839
0.199839
0.199182
0.20214
0.201154
0.200497
0.200168
0.201976
0.201154
0.195402
0.198196
0.202798
0.199675
0.20099
0.20099
0.20214
0.199839
0.200497
0.200168
0.19836
0.195237
0.198853
0.201812
0.200661
0.20099
0.200168
0.202798
0.199018
0.202305
0.196717
0.198524
0.188992
0.199511
0.199839
0.199346
0.199018
0.199018
0.201483
0.197703
0.204113
0.203126
0.203948
0.194087
0.201483
0.195073
0.201154
0.200497
0.199511
0.201154
0.198031
0.200825
0.200661
0.200661
0.199346
0.201483
0.200332
0.203291
0.200825
0.202305
0.201976
0.201976
0.204277
0.200497
0.199018
0.203126
0.19721
0.19836
0.201483
0.198524
0.199675
0.200332
0.201647
0.200661
0.202469
0.199839
0.208715
0.199346
0.201647
0.20214
0.200825
0.19836
0.20099
0.201154
0.197374
0.199182
0.199675
0.20362
0.196881
0.200661
0.200168
0.203126
0.201976
0.199182
0.201647
0.200004
0.197045
0.201319
0.203948
0.201976
0.200661
0.19721
0.204113
0.199182
0.202305
0.202633
0.20362
0.200332
0.204606
0.203126
0.200825
0.201976
0.200168
0.199839
0.200661
0.201647
0.201154
0.201483
0.198689
0.203455
0.198853
0.200168
0.201154
0.201647
0.201319
0.201154
0.200661
0.203455
0.200004
0.20362
0.204113
0.201154
0.199839
0.200004
0.199511
0.19573
0.200497
0.200004
0.199346
0.200497
0.201647
0.199511
0.202469
0.195073
0.200825
0.20099
0.200004
0.201812
0.199675
0.204441
0.201647
0.201976
0.20099
0.205099
0.196388
0.202798
0.201812
0.200168
0.199182
0.202469
0.201154
0.200661
0.202305
0.198524
0.205592
0.198853
0.201812
0.200004
0.199018
0.198853
0.201976
0.200661
0.200497
0.199839
0.199675
0.203784
0.200004
0.200168
0.201154
0.199839
0.196717
0.203126
0.199675
0.199018
0.201812
0.19836
0.198853
0.199511
0.199839
0.20099
0.199511
0.200497
0.203291
0.199018
0.201647
0.20214
0.199675
0.199346
0.201483
0.200332
0.201154
0.20099
0.200825
0.200497
0.202962
0.199675
0.19836
0.200004
0.199018
0.199018
0.201812
0.198031
0.205921
0.200168
0.201154
0.203784
0.200004
0.199346
0.201483
0.199018
0.197374
0.19836
0.197703
0.19721
0.198689
0.19836
0.200497
0.198689
0.198689
0.197867
0.201647
0.197538
0.19721
0.195073
0.196717
0.196388
0.197867
0.197538
0.198689
0.19836
0.197045
0.199346
0.19573
0.199182
0.196717
0.197374
0.197538
0.199182
0.198853
0.199839
0.198853
0.199182
0.201483
0.196059
0.197374
0.198524
0.19573
0.196388
0.19836
0.197045
0.199839
0.199182
0.19836
0.197374
0.199018
0.196717
0.20099
0.197538
0.196388
0.199018
0.201812
0.199511
0.199511
0.199182
0.19721
0.198031
0.196552
0.197867
0.197045
0.197374
0.198196
0.200004
0.199346
0.201976
0.201483
0.201976
0.195895
0.198196
0.198853
0.196059
0.196223
0.196552
0.200004
0.197045
0.199675
0.197538
0.199839
0.198196
0.197867
0.198689
0.202798
0.197867
0.199346
0.201319
0.20099
0.19836
0.197538
0.19836
0.196717
0.197867
0.19573
0.199182
0.197538
0.198853
0.200497
0.19836
0.199182
0.198031
0.197045
0.198196
0.200497
0.196717
0.199511
0.201483
0.19721
0.199511
0.200332
0.199018
0.200497
0.198689
0.197703
0.197867
0.199018
0.199182
0.195237
0.191786
0.199182
0.198031
0.195566
0.201812
0.200168
0.200661
0.19721
0.198689
0.199675
0.198689
0.198689
0.200497
0.201483
0.197538
0.200661
0.198196
0.200004
0.197374
0.19721
0.196552
0.202633
0.204606
0.200661
0.201647
0.199346
0.199018
0.199511
0.199018
0.199018
0.198031
0.19721
0.200825
0.197538
0.201319
0.199182
0.20099
0.199018
0.201647
0.19836
0.200168
0.200004
0.199346
0.199182
0.197045
0.198031
0.199511
0.200332
0.192936
0.202798
0.196881
0.196552
0.196717
0.199346
0.200332
0.198689
0.201483
0.200497
0.200332
0.200497
0.201976
0.197045
0.200004
0.19721
0.198853
0.198689
0.19836
0.200825
0.198196
0.199346
0.202305
0.199675
0.197538
0.199839
0.199346
0.200332
0.198689
0.19721
0.199018
0.200168
0.200332
0.198853
0.199346
0.197045
0.198196
0.199182
0.19836
0.199511
0.198031
0.201483
0.201154
0.200661
0.201812
0.199675
0.199839
0.198524
0.200004
0.197374
0.19573
0.192443
0.202469
0.200332
0.198196
0.19836
0.201483
0.199675
0.198853
0.202962
0.199511
0.202469
0.199018
0.20214
0.200168
0.201319
0.201647
0.200661
0.198524
0.20099
0.198689
0.200004
0.199018
0.200004
0.207235
0.199511
0.201319
0.202305
0.203126
0.198853
0.202469
0.200825
0.201647
0.198853
0.200661
0.19836
0.200825
0.199839
0.200661
0.201154
0.199511
0.202798
0.201319
0.201647
0.200497
0.200661
0.201647
0.202962
0.201319
0.202469
0.202469
0.200661
0.199839
0.198689
0.20099
0.201154
0.201812
0.201483
0.203291
0.203948
0.200497
0.20099
0.202305
0.200661
0.202962
0.199018
0.20214
0.201976
0.200661
0.200332
0.198524
0.201647
0.199839
0.202633
0.197703
0.200004
0.199675
0.199182
0.198689
0.203784
0.201483
0.203126
0.200497
0.201483
0.200661
0.200332
0.201154
0.199018
0.199511
0.201319
0.203291
0.198031
0.201976
0.198689
0.200825
0.198853
0.20099
0.199511
0.200332
0.200661
0.196717
0.200332
0.199675
0.197538
0.192936
0.199018
0.196717
0.197374
0.195895
0.199182
0.197538
0.197374
0.199018
0.199018
0.195895
0.201647
0.201647
0.197867
0.198853
0.196881
0.200332
0.196388
0.201647
0.197538
0.19836
0.198524
0.198524
0.19573
0.198689
0.19836
0.197867
0.197374
0.197538
0.19721
0.197703
0.199018
0.19573
0.198031
0.195895
0.197867
0.197045
0.196881
0.19573
0.198524
0.195073
0.19573
0.198031
0.194744
0.197045
0.19573
0.195895
0.194909
0.196717
0.19573
0.197867
0.194909
0.197867
0.197045
0.196552
0.197045
0.197045
0.195402
0.19573
0.196388
0.196388
0.197703
0.196717
0.19721
0.196717
0.196717
0.19721
0.207728
0.198031
0.196717
0.198196
0.195895
0.193594
0.195073
0.197374
0.196717
0.194744
0.198689
0.200661
0.193758
0.199018
0.195566
0.198196
0.196717
0.19573
0.198689
0.198853
0.199839
0.198196
0.200332
0.196881
0.197703
0.197045
0.198031
0.193758
0.195402
0.196881
0.196881
0.196223
0.196223
0.201812
0.195895
0.198031
0.198196
0.19836
0.197374
0.19721
0.198524
0.198689
0.198524
0.198524
0.198524
0.19836
0.196717
0.197538
0.198031
0.20099
0.201483
0.199675
0.198196
0.200825
0.196552
0.196717
0.200004
0.196223
0.198689
0.19836
0.19836
0.197374
0.200497
0.19836
0.200332
0.19573
0.199182
0.19836
0.197703
0.197867
0.200168
0.19836
0.199018
0.20099
0.199182
0.20099
0.19573
0.197867
0.193594
0.197538
0.195895
0.195566
0.198031
0.200168
0.199182
0.198689
0.200661
0.198689
0.204441
0.197867
0.199675
0.198031
0.199182
0.199675
0.198524
0.199018
0.199839
0.198031
0.199839
0.201319
0.19721
0.198031
0.198689
0.198196
0.197538
0.198689
0.203948
0.202798
0.20099
0.199018
0.200825
0.196717
0.19836
0.19836
0.196552
0.196881
0.197703
0.197538
0.199839
0.198031
0.199182
0.201154
0.199346
0.19721
0.199675
0.201154
0.199182
0.200168
0.198031
0.19573
0.19721
0.197538
0.197045
0.197538
0.198853
0.199675
0.199675
0.198524
0.200332
0.200168
0.198689
0.201483
0.199018
0.20362
0.198853
0.197867
0.198524
0.197703
0.198853
0.19573
0.197045
0.196059
0.200004
0.197045
0.200661
0.198031
0.202305
0.196717
0.199018
0.198524
0.198031
0.200332
0.193101
0.199346
0.196552
0.200332
0.196717
0.198031
0.19836
0.198524
0.19721
0.198689
0.198196
0.200004
0.198689
0.198524
0.202469
0.200004
0.199675
0.19721
0.198689
0.19721
0.197045
0.197867
0.197703
0.200661
0.200661
0.199511
0.199675
0.196881
0.200497
0.201154
0.199839
0.199675
0.200168
0.201812
0.197374
0.200004
0.202469
0.197867
0.195237
0.196552
0.197538
0.198689
0.198524
0.199675
0.197045
0.198031
0.198689
0.200332
0.198689
0.199182
0.199182
0.197045
0.199018
0.197538
0.201154
0.199675
0.199346
0.197703
0.200497
0.198524
0.19836
0.198196
0.197374
0.195566
0.195237
0.195237
0.197703
0.199675
0.197045
0.200332
0.198689
0.201647
0.20099
0.200825
0.199182
0.199511
0.196881
0.200332
0.198853
0.198031
0.202305
0.198689
0.19836
0.197867
0.200004
0.200004
0.200332
0.196552
0.196881
0.199675
0.198196
0.198524
0.197703
0.197703
0.195895
0.198689
0.202305
0.199675
0.200168
0.200168
0.199018
0.200497
0.199018
0.200332
0.199018
0.200004
0.200332
0.197867
0.200661
0.197703
0.197867
0.200825
0.199839
0.19721
0.199182
0.195402
0.198689
0.19836
0.199018
0.194909
0.199346
0.201483
0.202469
0.20099
0.200332
0.199346
0.197703
0.197703
0.197374
0.196881
0.195895
0.200332
0.198853
0.198689
0.199346
0.199018
0.196881
0.197867
0.19836
0.197703
0.197538
0.197538
0.199675
0.199182
0.198031
0.198524
0.20362
0.195566
0.19836
0.197045
0.195402
0.196552
0.195895
0.199511
0.199018
0.199018
0.200661
0.198689
0.19721
0.198689
0.197045
0.201812
0.200497
0.196223
0.198524
0.198689
0.195402
0.197045
0.197045
0.19573
0.198524
0.20099
0.200497
0.19836
0.198853
0.198031
0.199675
0.198853
0.200497
0.197045
0.198031
0.197374
0.199018
0.19721
0.198524
0.197045
0.200825
0.199018
0.197538
0.197045
0.198853
0.199182
0.195237
0.197867
0.197703
0.199839
0.19721
0.199018
0.195402
0.19721
0.196059
0.197045
0.19721
0.197538
0.198689
0.197867
0.199018
0.195566
0.199511
0.199018
0.198524
0.197374
0.197867
0.198031
0.195402
0.197867
0.198031
0.194251
0.193594
0.197703
0.200004
0.201483
0.198689
0.198853
0.200332
0.200661
0.195237
0.201319
0.199182
0.198524
0.198524
0.199018
0.198689
0.19836
0.197538
0.19836
0.199839
0.197045
0.197045
0.196881
0.199511
0.196388
0.198524
0.199018
0.199346
0.196881
0.200004
0.201319
0.197045
0.201483
0.197538
0.195073
0.199675
0.198853
0.197538
0.199182
0.19721
0.199182
0.197045
0.199675
0.195895
0.197703
0.197374
0.198853
0.199346
0.198524
0.199018
0.194087
0.196552
0.196717
0.196388
0.194416
0.198524
0.197867
0.198524
0.197538
0.199346
0.198031
0.200332
0.199346
0.197703
0.201319
0.198031
0.200332
0.199018
0.200168
0.199511
0.201483
0.195402
0.198031
0.199182
0.198524
0.198031
0.200168
0.199675
0.199346
0.200168
0.199675
0.200332
0.201319
0.199346
0.198031
0.198689
0.197374
0.19836
0.198031
0.199839
0.198853
0.198524
0.200004
0.197374
0.198524
0.198524
0.201154
0.197538
0.19836
0.199839
0.200332
0.197703
0.195895
0.196388
0.196717
0.194744
0.197538
0.196717
0.197703
0.19721
0.199346
0.201647
0.19836
0.199839
0.199839
0.195237
0.196881
0.198853
0.19836
0.199346
0.201154
0.203784
0.201812
0.199675
0.199346
0.197703
0.192936
0.197045
0.198524
0.196881
0.198031
0.199675
0.198853
0.19836
0.199018
0.197703
0.198689
0.190964
0.19721
0.198524
0.197374
0.200661
0.200168
0.201976
0.200497
0.201976
0.197703
0.200168
0.191128
0.196552
0.199018
0.199018
0.197045
0.197374
0.197045
0.200168
0.200168
0.199182
0.199346
0.189978
0.196881
0.197703
0.201154
0.198524
0.198853
0.201976
0.20214
0.199839
0.200168
0.200332
0.191293
0.203126
0.200332
0.20099
0.200497
0.199018
0.203126
0.201483
0.197538
0.200004
0.197703
0.194087
0.193265
0.196388
0.19836
0.198689
0.196388
0.200168
0.20214
0.199182
0.197538
0.199182
0.19836
0.196388
0.199511
0.198196
0.200004
0.196059
0.198196
0.196552
0.192936
0.199346
0.199346
0.200004
0.199346
0.202633
0.194909
0.200168
0.199675
0.201976
0.20099
0.199675
0.197703
0.199346
0.201647
0.197045
0.198689
0.198031
0.198524
0.199675
0.197703
0.197538
0.201647
0.197867
0.20099
0.202633
0.201812
0.200004
0.199839
0.198196
0.197867
0.197867
0.199675
0.198853
0.196059
0.201483
0.203126
0.198031
0.199511
0.200332
0.195402
0.200332
0.199018
0.199839
0.20099
0.200497
0.19836
0.20099
0.195073
0.199182
0.198689
0.196552
0.202305
0.201154
0.202962
0.19836
0.203126
0.200332
0.203948
0.199018
0.201812
0.202633
0.199839
0.19836
0.199346
0.200825
0.199018
0.199839
0.198524
0.203455
0.199346
0.197703
0.197374
0.199675
0.200004
0.200497
0.202798
0.202798
0.202469
0.198853
0.203455
0.197538
0.19836
0.198196
0.200332
0.201812
0.201319
0.202305
0.201647
0.202469
0.200497
0.201976
0.201154
0.199018
0.200497
0.201812
0.200004
0.201976
0.200825
0.200825
0.198031
0.199346
0.199346
0.197867
0.196223
0.196552
0.200168
0.201647
0.201976
0.205263
0.20099
0.201319
0.204113
0.202962
0.201976
0.200332
0.20214
0.199511
0.202469
0.200332
0.204606
0.203784
0.204441
0.201812
0.203948
0.203126
0.203126
0.202469
0.203126
0.201483
0.201812
0.204441
0.201483
0.201647
0.200168
0.206249
0.19836
0.20362
0.202962
0.202798
0.202305
