Ladekurvenmessung
Zeit: 2018_05_04 09.53.41
Info: FVA3, v = 0.14, T = 23, F = 20, h = 43
Ladewiderstand[Ohm]: 1012700
Störkapazität[pF]: 0.000000
Entladezeit[ms]: 200
Abtastrate[Hz]: 250000
Anzahl der Messwerte: 2500.000000
Verzögerung[ms]: 3
Ladespannung[V]: 0.200000
	Kurve_1	Kurve_2	Kurve_3	Kurve_4
0	-0.000347	0.00031	-0.000512	0.000146
1	-0.000512	0.00031	0.001132	0.000474
2	-0.000512	0.00031	0.00031	0.002775
3	-0.000512	-0.000183	-0.002155	0.002611
4	0.00031	-0.000347	0.001625	0.001625
5	-1.9e-05	-0.000347	0.000146	0.002447
6	0.000474	-0.000512	0.000146	0.001954
7	0.00031	-0.000512	0.000146	0.003597
8	0.000474	-1.9e-05	-0.001334	0.001132
9	0.000146	-0.000183	-0.004785	0.000474
10	-0.000347	0.00031	-0.001334	-0.003306
11	-0.000347	0.000474	-0.002813	0.001132
12	-0.000512	0.000474	-0.000183	-0.000841
13	-0.000512	0.000146	-0.001991	0.002775
14	-0.000347	-0.000347	0.00031	0.00294
15	-1.9e-05	-0.000347	0.001132	0.00146
16	0.000146	-0.000347	-1.9e-05	0.001296
17	0.000146	-0.000512	-0.000512	0.000146
18	0.000146	-0.000347	0.000967	-0.000676
19	0.00031	0.000146	-0.001005	0.002118
20	0.000146	0.00031	0.001625	-0.000347
21	-0.000183	0.000146	-0.002155	-0.001169
22	-0.000512	0.00031	0.001132	0.000639
23	-0.000512	0.00031	0.003104	0.000474
24	-0.000347	0.000474	-0.000347	0.00409
25	-0.000183	-1.9e-05	0.000639	-0.000841
26	0.000146	-0.000347	-0.001005	0.001625
27	-1.9e-05	-0.000347	-1.9e-05	-0.000183
28	0.000146	-0.000676	0.000639	0.002118
29	0.00031	-0.000512	0.00294	-0.002813
30	0.00031	-1.9e-05	0.000967	-0.000183
31	0.000146	0.00031	-0.001005	0.000146
32	-0.000183	0.00031	-0.004621	0.001789
33	-0.000183	0.000474	-0.001169	-0.002813
34	-0.000512	0.000474	-0.000841	-0.000841
35	-0.000512	0.000146	-0.001334	-1.9e-05
36	-0.000183	-0.000183	-0.001991	0.000639
37	0.000146	-0.000347	-0.001005	-0.001334
38	0.00031	-0.000183	-0.000676	-0.002484
39	0.000146	-0.000676	-0.002813	0.004255
40	0.00031	-0.000183	0.002775	-0.001662
41	0.00031	0.000146	-0.002155	0.003104
42	0.000474	0.00031	0.002447	-0.000183
43	-0.000183	0.00031	0.001954	0.00031
44	-0.000183	0.00031	0.000146	-0.000512
45	-0.000512	0.000474	0.001789	-0.000183
46	-0.000676	0.00031	0.000967	0.000639
47	-0.000347	-1.9e-05	0.00146	-0.001334
48	-1.9e-05	-0.000347	-0.00232	-0.000676
49	0.00031	-0.000676	0.000803	-1.9e-05
50	0.000474	-0.000347	-0.000512	-0.000183
51	0.000474	-0.000512	0.000803	0.00031
52	0.000146	-1.9e-05	-0.000841	0.002118
53	0.000146	0.000146	-0.002484	-0.001005
54	-0.000183	0.00031	0.00031	0.003597
55	-0.000347	0.000639	0.001132	-0.002155
56	-0.000512	0.00031	-0.002648	0.00031
57	-0.000512	0.00031	0.003104	0.001789
58	-0.000183	-0.000183	-0.001498	0.002611
59	-1.9e-05	-0.000676	-0.005114	-0.001662
60	-1.9e-05	-0.000347	-0.003142	0.001954
61	0.000474	-0.000512	-0.003142	-0.002648
62	0.000474	-0.000183	-0.001827	0.001789
63	0.000474	-1.9e-05	-0.001498	-0.000183
64	0.00031	0.00031	-0.004785	-0.001827
65	-0.000183	0.00031	-1.9e-05	-0.001827
66	-0.000347	0.00031	0.000967	-0.000512
67	-0.000512	0.000146	-0.000512	-0.000841
68	-0.000512	0.00031	0.000639	-0.001005
69	-0.000183	-0.000347	0.002118	0.000967
70	-1.9e-05	-0.000347	0.005241	0.000146
71	0.00031	-0.000512	0.00031	0.002611
72	0.000474	-0.000347	-0.002155	0.000639
73	0.00031	-0.000347	-0.000841	0.001132
74	0.00031	-1.9e-05	0.000803	0.002282
75	0.000146	0.000474	-0.003306	0.00031
76	-0.000183	0.00031	-1.9e-05	-0.000841
77	-0.000347	0.000474	0.000474	-0.000676
78	-0.000512	0.00031	0.00031	-0.003963
79	-0.000183	0.000146	0.000146	-1.9e-05
80	-0.000347	-0.000183	0.001296	-0.001334
81	-1.9e-05	-0.000183	0.003433	0.001625
82	0.00031	-0.000183	-0.003635	-0.001005
83	0.000146	-0.000512	0.000146	-0.001827
84	0.00031	-0.000183	-0.003142	0.000146
85	0.000474	-1.9e-05	0.00294	-0.000512
86	0.00031	0.000146	-0.004785	-0.002484
87	0.000146	0.00031	0.000967	-0.002813
88	-0.000347	0.00031	0.000146	-0.003306
89	-0.000512	0.00031	-0.000512	-0.00232
90	-0.000512	0.00031	-0.000841	0.001789
91	-0.000183	-0.000183	0.001954	0.002118
92	-1.9e-05	-0.000347	-0.003306	0.000146
93	0.00031	-0.000512	-0.001827	-0.003306
94	0.00031	-0.000512	-0.005936	0.001625
95	0.000474	-0.000183	-0.001498	0.000803
96	0.000474	-1.9e-05	-0.001991	-0.000841
97	0.000146	0.000474	-0.002484	-0.002813
98	-0.000183	0.00031	0.000639	-0.001827
99	-0.000347	0.00031	-0.003142	-0.00232
100	-0.000512	0.000474	0.004419	-0.002648
101	-0.000347	0.000146	-0.001169	0.002118
102	-0.000347	-0.000183	0.000474	0.000474
103	-0.000183	-0.000347	-0.001498	0.001132
104	0.000146	-0.000347	-0.000183	-0.002155
105	0.00031	-0.000512	0.000146	-0.001662
106	0.00031	-0.000347	-0.000183	-0.001169
107	0.000146	-0.000183	-0.000841	0.003268
108	0.00031	0.00031	0.000474	-0.001991
109	-0.000183	0.000474	-0.003306	0.003104
110	-0.000347	0.000639	-0.001498	0.000639
111	-0.000512	0.000474	-0.001169	-0.001005
112	-0.000512	0.00031	-0.002648	-0.000183
113	-0.000347	-0.000183	-0.002648	-0.000183
114	-1.9e-05	-0.000183	-0.001334	-0.000676
115	0.00031	-0.000347	-0.001169	-0.001334
116	0.00031	-0.000512	-0.004128	0.001954
117	0.000146	-0.000347	-0.000676	-0.003799
118	0.000474	-1.9e-05	-0.002813	0.001296
119	0.00031	0.00031	-1.9e-05	-0.001991
120	-0.000183	0.000639	0.002611	-0.000347
121	-0.000347	0.000146	-0.000183	-0.000512
122	-0.000347	0.00031	-1.9e-05	-0.000183
123	-0.000512	0.000146	-0.000183	-1.9e-05
124	-0.000512	-1.9e-05	-0.001334	0.002118
125	0.000146	-0.000183	-0.000512	-0.000347
126	0.00031	-0.000183	-0.002155	-1.9e-05
127	0.00031	-0.000512	-0.001169	0.002118
128	0.000474	-0.000512	-0.002484	-0.002155
129	0.000474	-1.9e-05	0.000967	-0.000512
130	0.000146	0.00031	0.000146	-0.001498
131	-0.000183	-1.9e-05	-0.000841	-0.00232
132	-0.000347	0.00031	0.00031	-0.005936
133	-0.000512	0.00031	-0.000347	-0.006593
134	-0.000512	0.000146	-1.9e-05	-0.003142
135	-0.000347	0.00031	-0.000841	-1.9e-05
136	-1.9e-05	-0.000512	0.001296	-0.002977
137	0.000146	-0.000347	-0.001991	-0.001662
138	0.000474	-0.000183	0.003104	-0.002813
139	0.00031	-0.000512	0.002118	-0.000347
140	0.000639	-0.000183	0.001625	0.00146
141	0.000146	0.00031	-0.000183	-0.000512
142	-0.000183	0.000146	-0.001991	-0.001169
143	-0.000347	0.000474	-0.002813	0.000639
144	-0.000347	0.00031	-0.003306	-0.000512
145	-0.000347	0.000474	-0.000347	-0.001991
146	-0.000183	-1.9e-05	-0.002813	0.00294
147	0.000146	-0.000512	0.000474	-0.001334
148	0.000146	-0.000841	-0.00347	-0.002484
149	0.00031	-0.000676	0.00031	-0.000512
150	0.00031	-0.000676	-0.001334	-0.002648
151	0.00031	-1.9e-05	-0.000512	-1.9e-05
152	0.000146	0.00031	0.000803	-0.000676
153	-0.000183	-1.9e-05	0.00294	-0.005936
154	-0.000183	0.003268	-0.001498	-0.005278
155	-0.000512	-0.002155	0.001789	-0.002155
156	-0.000512	0.000474	0.000639	0.000146
157	-0.000347	-1.9e-05	-0.000676	-0.001991
158	-1.9e-05	0.000967	0.003104	0.00031
159	0.000146	-0.000512	0.000967	-0.002977
160	0.00031	0.003761	0.000474	-0.003963
161	0.000474	0.001296	-0.005278	-0.001169
162	0.000474	-0.002484	-0.001662	0.001789
163	-1.9e-05	-0.001334	-0.005114	-0.001662
164	-0.000183	-0.003963	-0.002155	-0.001334
165	-0.000183	-0.003963	-0.003142	-0.001005
166	-0.000347	-0.002813	-0.000841	-0.001334
167	-0.000347	-0.002155	-0.001169	0.000474
168	-0.000347	-0.002648	0.000803	-0.002813
169	-1.9e-05	-0.001498	-0.000347	0.000146
170	0.00031	-0.002648	0.00031	-0.001662
171	0.000146	0.000639	-0.000512	-0.001827
172	0.000474	0.000967	-0.001334	-0.000676
173	0.00031	-0.000841	-0.000512	0.000967
174	0.00031	-0.001498	-0.002648	-0.001498
175	-0.000183	-0.000183	-0.000183	-0.000676
176	-0.000347	-0.000841	-0.001169	-0.000841
177	-0.000347	-0.003635	0.000146	-0.001498
178	-0.000512	-0.001498	-0.002648	-0.000512
179	-0.000183	-0.002484	0.00031	-0.001991
180	-1.9e-05	0.000803	-0.000183	0.001789
181	0.000146	-0.001827	0.000474	0.001625
182	0.00031	-0.000512	-0.003142	0.001132
183	0.000474	-1.9e-05	0.001789	-0.003635
184	0.000474	-0.00232	0.000146	-0.000512
185	0.000146	-0.003635	-0.002648	-0.002648
186	-0.000183	-0.000676	0.002611	-0.00347
187	-0.000347	-0.000183	0.00294	-0.001169
188	-0.000512	-0.000183	-1.9e-05	-0.001991
189	-0.000347	0.000474	0.002118	-0.002484
190	-0.000183	-0.002155	0.00294	-0.002977
191	-1.9e-05	-0.000676	-0.000183	-0.000676
192	0.00031	-0.000676	-0.000676	-0.000512
193	0.00031	0.001132	-1.9e-05	0.000146
194	0.00031	0.001132	0.001296	0.000474
195	0.000146	-0.001827	-0.000841	0.002775
196	0.000474	-0.00232	-0.000676	-0.001169
197	-1.9e-05	0.000146	-0.001827	-0.001498
198	-0.000347	-0.001334	-1.9e-05	-0.001169
199	-0.000347	-1.9e-05	-0.002155	0.002611
200	-0.000512	-0.002155	-0.000347	-0.001005
201	-0.000347	-0.000676	0.000639	-0.001005
202	-1.9e-05	-0.000183	-1.9e-05	-0.001662
203	-1.9e-05	0.000639	0.001296	-0.002155
204	0.00031	-0.001169	0.000967	-0.002813
205	0.00031	0.000803	0.00031	-0.000841
206	0.000474	-0.001662	0.00146	0.00146
207	0.000146	-0.001827	-0.001334	-0.001005
208	-0.000183	-0.001005	-0.001498	-0.004785
209	-0.000183	-0.001334	-0.003963	0.00031
210	-0.000512	0.000803	-0.001827	-0.002155
211	-0.000512	0.00031	0.001132	0.002775
212	-0.000183	-0.000841	-0.001334	0.001132
213	-1.9e-05	-0.002155	-0.00347	-1.9e-05
214	0.000146	0.00031	-0.000841	0.002775
215	0.000146	-0.0061	0.002118	-0.000676
216	0.000146	-0.002484	-0.002484	0.000967
217	0.000474	-0.001334	0.000639	0.001789
218	0.00031	-0.001005	0.00031	-0.001334
219	-0.000183	-0.001827	-1.9e-05	-0.001827
220	-1.9e-05	-0.001991	0.002118	0.000639
221	-0.000183	-0.000183	-0.002484	-0.003635
222	-0.000512	-0.001334	-0.001991	-0.002155
223	-0.000183	0.000803	0.00031	-0.002155
224	-1.9e-05	-0.000347	0.000639	-0.000676
225	0.00031	0.000967	-0.001334	-0.000183
226	0.00031	-0.003306	0.000474	-0.001169
227	0.00031	-0.004128	-0.002155	-0.001334
228	0.000474	-0.005771	-0.000841	-0.000841
229	0.00031	-0.001827	-0.000512	-0.000347
230	0.000146	-0.003142	0.001625	-0.000512
231	-0.000347	0.001625	-0.000841	0.003761
232	-0.000512	-0.00347	0.000639	0.000474
233	-0.000512	-0.001334	-0.000183	0.00031
234	-0.000512	0.000146	-0.000676	-0.000347
235	-1.9e-05	0.002611	-0.001169	-0.003142
236	0.000146	0.005405	-0.001334	-0.001169
237	0.00031	-0.000512	0.001296	-0.000183
238	0.000474	-0.001005	-0.001334	-0.002813
239	0.00031	-0.000841	0.000803	-0.00347
240	0.000146	-0.001334	-0.000512	-0.001169
241	-1.9e-05	-0.001991	0.004583	-0.004621
242	-0.000347	-1.9e-05	-0.002813	0.00031
243	-0.000347	-0.004785	0.001132	-0.002155
244	-0.000512	-0.000347	-0.001827	-0.000512
245	-0.000512	0.000967	0.001132	-0.002484
246	-1.9e-05	-0.001662	-0.002484	0.000803
247	0.000639	-0.002155	-1.9e-05	-1.9e-05
248	0.000474	-0.000183	-0.000676	0.001132
249	0.000474	-0.003635	-0.003306	-1.9e-05
250	0.000474	-0.001991	0.001625	-0.000183
251	0.00031	0.002447	-0.001169	-1.9e-05
252	-1.9e-05	-0.00347	0.002282	-0.000512
253	-0.000183	-0.003142	-0.002484	-0.001827
254	-0.000347	-0.003799	0.001789	-0.00725
255	-0.000347	-0.001827	-0.000841	0.000474
256	-0.000676	-1.9e-05	-0.002155	-0.00347
257	-1.9e-05	-0.001498	-0.000676	-0.000183
258	0.00031	-0.001169	0.002118	-0.002484
259	0.000146	-0.000841	-0.004128	0.00146
260	0.00031	-0.002484	-0.005278	-0.003306
261	0.00031	-0.001662	-0.003799	0.000474
262	0.00031	-0.004128	-0.003799	-0.004128
263	-0.000183	-0.003142	0.000474	-0.002648
264	-0.000183	-0.003306	-0.003142	0.001625
265	-0.000512	-0.001991	0.002611	-0.004621
266	-0.000512	-0.003142	-0.001662	0.00294
267	-0.000347	0.001296	-0.001334	-0.001334
268	-1.9e-05	-0.002484	-0.001991	0.000639
269	-1.9e-05	-0.001991	0.00031	-0.000841
270	0.000146	0.00146	-0.000676	-0.001498
271	0.000474	-0.001498	-0.001005	-0.003142
272	0.00031	0.00031	-0.000841	-0.002484
273	0.000146	-0.001991	0.000639	-0.00347
274	-1.9e-05	0.000803	0.000474	0.000146
275	-0.000183	-0.001991	0.000967	-0.000512
276	-0.000512	-0.002155	0.00146	-0.00232
277	-0.000347	-0.00725	0.000474	-0.002155
278	-0.000183	-0.002484	-0.004621	-0.004456
279	-1.9e-05	-0.002813	-0.000676	-0.001662
280	0.000146	-0.002813	0.000639	-0.003306
281	0.000146	-0.000841	-0.001334	-1.9e-05
282	0.000146	0.001132	0.003104	-0.001334
283	0.000146	-0.000183	-0.000183	-0.003306
284	0.000146	0.000803	-0.001662	-0.001169
285	-1.9e-05	0.001954	0.000639	-0.001005
286	-0.000347	-0.001169	-0.000183	-0.004128
287	-0.000512	-0.005443	-0.00347	-0.00347
288	-0.000347	-0.002977	0.00031	-0.001005
289	-0.000512	0.000146	-0.00232	-0.002155
290	-0.000183	-0.001827	-0.001498	0.000146
291	0.00031	0.000639	-0.001169	-0.001005
292	0.000146	-0.000841	-0.003799	-0.001991
293	0.00031	-1.9e-05	-0.001498	-0.001498
294	0.000474	-0.004292	-1.9e-05	-0.000183
295	0.000146	-0.00232	-0.001498	-0.003635
296	-1.9e-05	-0.001498	-1.9e-05	-0.001169
297	-0.000183	-0.002484	0.000967	0.000146
298	-0.000183	-0.001498	-0.002484	-0.001005
299	-0.000676	0.000803	0.001296	0.000803
300	-1.9e-05	0.001296	-0.000841	-0.001827
301	-0.000183	0.000967	-0.001005	-0.001005
302	0.00031	0.001132	0.00031	-0.001169
303	0.000474	-0.00347	-0.001169	-0.001498
304	0.000474	0.001132	-0.005936	-0.001334
305	0.00031	-0.003635	0.000639	0.001296
306	0.00031	0.003761	-0.003635	0.000146
307	-0.000347	-0.006264	0.000474	-0.000676
308	-0.000347	-0.001005	-0.001662	-0.001991
309	-0.000183	-0.001498	-0.000183	-0.001827
310	0.000474	-0.002977	0.003597	-0.002155
311	-0.000676	-0.002648	0.000474	-0.003799
312	-0.001005	-0.003799	0.000146	-0.002977
313	0.00031	-0.003635	-0.000347	-0.003635
314	0.001132	-0.002648	-0.001662	-0.00232
315	-1.9e-05	-0.001169	-0.00232	-0.001169
316	-0.000841	-0.001498	0.000146	-0.000183
317	-0.000676	-0.00232	-0.001334	0.000146
318	0.002282	-0.002813	0.003761	-0.005443
319	-0.002813	-0.001005	-0.003142	-0.001827
320	-0.000841	-0.003306	-0.001498	-0.003635
321	-0.001334	-0.001334	-0.002484	0.000474
322	-0.000347	-0.001169	0.000639	-0.005443
323	-0.000676	0.001954	-0.001991	-0.001662
324	-0.001498	-0.004128	0.002611	-0.001005
325	0.001132	0.002775	0.000146	-0.001827
326	-1.9e-05	0.00146	-0.001334	-0.001498
327	0.000639	-0.005443	0.000639	-0.000183
328	0.00031	-0.005278	-0.001827	-0.001498
329	0.000146	-0.002813	-0.00347	-0.001005
330	0.00031	-0.002813	-0.000183	-0.00232
331	-0.000347	-0.002155	-0.000183	-0.003142
332	-0.000512	-0.001991	0.00031	0.000803
333	-0.000347	-0.001005	0.004912	-0.00873
334	0.000146	0.000967	-0.002155	-0.002977
335	0.000803	-0.000841	-0.001498	-0.002648
336	-0.001827	-0.00347	-0.000841	-0.001662
337	-0.000512	-0.003306	-0.000512	0.000146
338	-0.000347	0.001296	0.000639	0.003597
339	0.00031	-0.001169	0.000146	-0.002648
340	0.000803	-0.000347	-0.002648	-0.000347
341	-0.000347	-0.000841	0.001296	0.00031
342	-0.000347	0.000803	0.001296	-0.001827
343	-0.001005	-0.001991	-0.000512	-0.000347
344	-0.001662	-0.000512	0.003268	-0.002155
345	0.000146	-0.001169	-0.001169	-0.000512
346	0.000146	-0.001662	-0.001169	-0.000512
347	0.00031	-0.001005	0.000146	0.000474
348	0.000474	-0.000512	0.000639	-0.001005
349	0.00031	-0.001498	-0.000347	0.000639
350	0.000146	-0.004949	0.001625	-0.003306
351	0.000146	0.002611	0.001296	0.000146
352	-0.000183	-1.9e-05	0.001296	-0.001169
353	-0.000347	-0.001005	-0.000347	-0.000183
354	-0.000347	-0.000676	-0.001662	-0.00232
355	-0.000347	-1.9e-05	0.002282	-1.9e-05
356	-0.000183	-0.002813	-0.001169	0.001132
357	0.000146	-0.000512	-0.001662	0.001625
358	0.00031	-0.001334	0.000474	0.000967
359	0.000146	0.002611	0.000146	-0.000676
360	0.00031	-0.000841	0.000639	-0.001498
361	0.000146	-0.003635	-0.002155	-0.001334
362	-1.9e-05	-0.004949	-0.004785	-0.001498
363	-0.000347	-0.000183	-0.000676	-0.003799
364	-0.000183	-0.000676	0.001954	0.002118
365	-0.000347	-0.006922	0.002282	-0.003635
366	-0.000512	0.001625	-0.000347	-0.001991
367	-1.9e-05	-0.003963	-0.001662	-0.003963
368	0.000146	-0.000512	-0.003306	-0.000512
369	0.00031	-0.002484	0.000967	-0.001827
370	0.00031	-0.000676	0.001132	-0.000512
371	0.000146	-0.002648	-0.002813	-0.002648
372	0.00031	-0.001005	-0.001005	-0.001005
373	0.000474	-0.000841	-0.000512	0.001954
374	-0.000347	0.000474	0.003433	0.000803
375	-0.000512	-0.001991	0.000967	0.00294
376	-0.000183	-1.9e-05	0.002447	-0.003635
377	-0.000841	0.001132	0.000146	-0.001498
378	-0.000183	-0.00347	0.000474	0.000803
379	0.000146	-1.9e-05	-0.001334	0.001954
380	0.000146	-0.001169	-0.000841	0.00031
381	0.00031	-0.001662	-0.000347	0.001132
382	0.000146	-0.00232	0.000803	-0.003963
383	0.000474	-0.000676	-0.001169	-0.000841
384	-1.9e-05	-0.002484	0.001954	-0.0061
385	-0.000183	-1.9e-05	-0.002813	-0.003799
386	-0.000512	-0.002484	-0.000347	-0.002813
387	-0.000512	-0.002977	0.00031	-0.003142
388	-0.000512	0.000474	0.00031	0.00031
389	-1.9e-05	0.000967	-0.001169	-0.001991
390	0.000146	-0.000183	-1.9e-05	0.000639
391	0.000474	0.002611	-0.000841	-0.001005
392	0.000146	0.001625	-0.002484	0.000639
393	0.000474	-0.00232	-0.001334	-0.000347
394	-1.9e-05	0.000639	-0.002648	0.00031
395	-0.000183	-0.000183	0.002447	-0.002155
396	-0.000347	0.000146	-0.003306	-1.9e-05
397	-0.000347	-0.000676	-0.000512	-0.001169
398	-0.000347	-0.002155	-0.000676	-0.001827
399	-0.000347	-0.001498	-0.001991	-0.004456
400	0.000146	-0.002155	-0.001334	0.000803
401	0.000474	-0.002484	-0.000347	-0.002813
402	0.00031	-0.000347	-0.000347	-0.001662
403	0.000639	-0.000841	0.000639	-0.004292
404	0.000474	-0.002155	-0.003306	-0.004785
405	0.00031	-0.002484	-0.00232	0.000967
406	-1.9e-05	-0.00347	0.000803	-0.00232
407	0.000146	-0.001827	-0.001662	-0.000183
408	-0.000183	-0.000512	-0.000676	0.00146
409	-0.000512	-0.001498	-0.002484	0.001296
410	0.00031	0.000639	-0.002484	-0.003142
411	-0.000347	0.000803	-0.001662	0.000967
412	0.000146	-0.000183	-0.004949	0.000474
413	0.00031	0.00146	-0.002648	0.00146
414	0.00031	0.002118	-0.001334	0.001789
415	0.000146	-0.001991	0.001954	0.000639
416	0.000146	-0.001498	0.002447	-0.001662
417	-0.000183	-0.002155	0.002447	-0.001662
418	0.00031	-0.004292	0.001296	-0.003142
419	-0.000512	-0.005443	0.000146	-0.001991
420	-1.9e-05	-0.005278	0.001296	-0.002155
421	0.000474	0.001296	0.000474	-0.003306
422	-0.000183	-0.001334	0.001296	-0.000347
423	0.000474	-0.003963	0.000146	0.000967
424	0.000146	0.000967	-0.001498	-0.001169
425	0.000146	0.003268	0.002447	-0.000512
426	0.000474	-0.001334	-0.000347	0.003268
427	0.00031	0.000639	0.000803	-0.00347
428	-1.9e-05	0.002282	-0.001498	-0.003635
429	-0.000183	-0.000841	0.000146	-0.000676
430	-0.000512	0.001296	-0.00347	0.000474
431	-0.000347	-0.002155	0.000639	-0.001005
432	-0.000347	-1.9e-05	-0.002648	-0.002813
433	0.000146	0.000639	-0.00232	-0.002813
434	0.00031	-0.001827	-0.001827	-0.000512
435	0.00031	-0.001991	-0.004128	-0.005443
436	0.000474	0.00294	-0.000183	-0.00347
437	0.00031	-0.005114	-0.002648	-0.004128
438	-1.9e-05	-0.000347	-0.000841	-0.003799
439	0.000146	0.000803	-0.001662	-0.003799
440	-0.000512	-0.004785	0.001132	-0.003963
441	-0.000512	-0.000841	-0.001005	0.00031
442	-0.000347	-0.001827	0.000967	-0.000183
443	-1.9e-05	0.000146	-0.000183	-0.001169
444	0.000474	-0.001334	-0.004292	0.000967
445	-0.000183	0.000639	-0.001005	0.001296
446	0.00031	-0.000512	-0.001991	-0.001662
447	0.000474	0.00672	-0.003799	0.000474
448	0.00031	-0.003142	-0.003799	0.001132
449	0.00031	-0.002648	-0.002484	-0.000676
450	-0.000183	-0.005936	-0.004128	-0.00232
451	-0.000183	-0.002484	0.00031	-0.000841
452	-0.000676	-0.003799	-0.000183	-0.002813
453	-0.000512	-0.001991	-0.001169	-0.004949
454	0.00031	-0.00232	0.000146	-0.002484
455	0.000146	-0.005114	-0.000183	-0.002155
456	0.000146	-0.000676	-0.000512	0.000967
457	0.000474	-0.00347	0.001625	-0.001498
458	0.000146	0.002447	-0.001005	0.000803
459	0.00031	-0.004621	-0.001827	0.000639
460	0.00031	-0.001498	-0.002155	-1.9e-05
461	-0.000183	0.000639	-0.001005	-0.000841
462	-0.000347	0.002282	-0.001169	0.003761
463	-0.000183	-0.000183	-0.002484	-0.001169
464	-0.000512	0.000803	-0.002977	-0.000347
465	-0.000347	-0.000347	-1.9e-05	-0.003142
466	-1.9e-05	-0.001169	-0.002977	-0.002813
467	0.000146	-0.003306	0.001296	-0.001662
468	0.00031	-0.002155	0.000474	-0.002813
469	0.000474	-0.001991	-0.001005	-0.001169
470	0.00031	-0.0061	0.000146	-0.000841
471	0.000474	-0.003306	-0.001662	-0.002155
472	-0.000183	-0.001662	0.001296	-0.004292
473	-0.000347	-0.001827	0.00146	-0.000512
474	-0.000347	-0.003306	0.00409	-0.001827
475	-0.000512	-0.001334	-0.000183	-0.001169
476	-0.000512	-0.000183	0.001132	-0.003963
477	-1.9e-05	0.000146	0.000967	-0.002155
478	0.00031	0.005076	-0.001334	-0.003306
479	-1.9e-05	-0.000512	-0.002484	0.000146
480	0.00031	-0.000676	-0.001498	-0.004292
481	0.000146	0.000146	-0.001991	0.000639
482	0.000146	0.000146	-0.001991	0.000146
483	-1.9e-05	-0.001005	0.00031	-0.007908
484	-0.000183	-0.001005	-0.002813	-0.001005
485	-0.000347	-0.002155	-0.001498	-0.002648
486	-0.000347	-0.001827	-0.008565	-0.001991
487	-0.000512	-0.001991	0.007706	-0.006429
488	-1.9e-05	-0.000183	-0.001005	-0.004292
489	0.000146	-0.001662	0.000146	-0.003306
490	0.000146	-0.003799	0.000967	-0.001662
491	0.00031	-0.00725	0.001625	-0.00347
492	0.00031	-0.007086	0.000146	-0.002813
493	0.000146	-0.001991	0.000803	-0.002813
494	-1.9e-05	-0.001498	0.000967	-0.000676
495	-0.000512	-0.002977	-0.001169	-0.003799
496	-0.000347	0.000474	-0.001991	0.000146
497	-0.000512	-0.001662	-0.002484	-0.00232
498	-0.001991	0.003268	0.001789	-0.002977
499	0.000146	0.001954	-0.00232	0.002611
500	0.00031	-0.003963	0.00146	-0.001827
501	0.00031	-0.001662	-0.00347	-0.000512
502	0.000474	-0.011195	-0.000841	-0.000183
503	0.000474	-0.002813	-0.001498	-0.001334
504	0.00031	-0.002484	-0.002484	-0.005278
505	-0.000183	-0.001334	0.001296	-0.003306
506	-0.000183	-0.003963	-0.000183	-0.001827
507	-0.000512	-0.001169	-0.000512	-0.002648
508	-0.000676	-0.002484	0.00294	-0.003306
509	-0.000512	-0.003142	0.000967	-0.001991
510	-1.9e-05	-0.001827	-0.001991	-0.002648
511	-1.9e-05	0.00146	-0.001498	-0.001662
512	0.000146	-0.002484	-0.002155	-0.000841
513	0.00031	-0.012674	-0.00232	-0.000183
514	0.000639	-0.003963	-0.005936	-0.002977
515	0.000474	-0.00347	0.000639	-0.002813
516	-1.9e-05	-0.001498	0.005241	-0.000676
517	-0.000347	-0.003963	0.001789	-0.000841
518	-0.000512	-0.002977	-1.9e-05	-0.002813
519	-0.000347	-0.004621	0.003926	-0.000183
520	-0.000512	0.000639	-0.001005	-0.001662
521	-1.9e-05	-0.001991	-0.000347	-0.001169
522	0.000146	-0.001334	-0.001991	-0.001005
523	0.00031	-0.001169	0.001625	-0.002484
524	0.00031	-0.011195	-0.001498	0.000474
525	0.00031	-0.005607	0.001296	-0.001169
526	0.00031	-0.001334	-0.001005	-0.000347
527	-0.000183	-0.005114	0.000639	-0.001662
528	-0.000183	-0.003799	0.000146	-0.002648
529	-0.000183	0.000967	-0.001334	0.000474
530	-0.000183	-0.003142	-0.000183	-0.001005
531	-0.000512	0.001789	-0.002977	-0.000676
532	0.000146	-0.000841	-0.003635	0.000146
533	0.000146	-0.000841	-0.003142	-0.001827
534	0.000474	-0.001991	-0.001498	-0.003306
535	-1.9e-05	-0.007744	-0.007415	0.001296
536	0.00031	-0.007415	-0.00232	-0.001991
537	0.000146	-0.000841	-0.00347	-0.001334
538	-1.9e-05	-0.000841	-0.003142	-0.00725
539	-0.000183	-0.002977	-0.000347	0.00146
540	-0.000347	-0.002648	0.001296	-0.002977
541	-0.000347	-0.001991	0.000146	-0.000512
542	-0.000512	-0.001991	0.000474	-0.000676
543	-0.000183	-0.000512	-0.002977	-0.002484
544	0.000146	-0.000676	-0.002484	-0.001827
545	0.000146	-0.002813	0.001296	-0.003306
546	0.00031	-0.007086	-0.003799	-0.001169
547	0.000474	-0.00347	-1.9e-05	-0.000841
548	0.00031	0.004419	-0.002484	-0.001169
549	-1.9e-05	-0.001005	0.000146	-0.000512
550	-0.000183	-0.001991	-0.000183	0.000803
551	-0.000183	-0.001498	-0.000512	-0.000347
552	-0.000676	-0.003306	-0.001334	0.001625
553	-0.000347	-0.001005	-0.000676	-0.000183
554	-1.9e-05	0.000967	-0.002813	0.001132
555	0.000146	0.000474	-0.001827	-0.002977
556	0.00031	-0.001169	-0.001005	-0.002813
557	-1.9e-05	-0.004292	-0.001169	-0.001334
558	0.000474	-0.002155	0.002118	-0.00347
559	-1.9e-05	-0.001991	-0.005114	-0.00347
560	-0.000183	-0.003306	0.00031	-0.001662
561	-0.000183	-0.005114	-0.003635	-0.001991
562	-0.000347	-0.002484	0.001132	-0.002155
563	-0.000512	-0.003635	-0.002977	-0.001005
564	0.001625	-0.001662	0.000146	-0.003142
565	-1.9e-05	-0.000841	-0.005771	0.002282
566	0.00031	-0.00232	0.000474	-0.001169
567	0.000474	-0.003635	0.004419	0.00409
568	0.00031	-0.004621	-0.001662	0.000474
569	0.000146	-0.001334	-0.002648	0.001789
570	0.00031	-0.004949	-0.000841	-0.000676
571	-0.000347	0.00031	-0.001991	-0.000676
572	-0.000347	-0.002484	-0.001662	0.000146
573	-0.000347	-0.000183	0.000803	-0.001662
574	-0.000676	-0.000512	-0.001169	-0.004456
575	0.00146	0.000474	0.001625	-0.000347
576	-1.9e-05	-0.000347	-0.000676	0.001132
577	0.000146	-0.002155	-0.002484	-0.001498
578	-1.9e-05	-0.004292	-0.000183	-0.000841
579	0.00031	-0.005114	-0.000183	-0.00347
580	0.00031	-0.003142	0.001954	0.002118
581	-1.9e-05	-0.0061	0.000146	-0.003306
582	0.000803	-0.001498	0.001132	-0.001169
583	-1.9e-05	-0.00347	-1.9e-05	-0.001991
584	-0.000183	-0.001498	0.003268	-0.001169
585	-0.000512	-0.002813	0.003104	-0.002813
586	0.004419	0.00146	0.001625	-0.001005
587	-0.000347	-0.001334	0.000146	-0.001334
588	0.00031	0.001789	0.00146	-0.001662
589	0.000146	-0.000841	0.00031	-0.001498
590	0.00031	0.000639	-0.000676	-0.00347
591	0.000474	0.000967	-0.001498	0.001625
592	0.000146	0.000474	-0.001334	-0.001827
593	-1.9e-05	0.000146	-0.001498	-0.002648
594	-1.9e-05	-0.001498	-0.001005	-0.002155
595	-0.000183	-0.001005	0.000803	-0.001827
596	-0.000512	-0.003963	-0.001498	-0.00347
597	-0.000347	0.001132	0.002775	-0.001005
598	-0.000183	0.000967	-0.000676	0.000639
599	-1.9e-05	0.002775	-0.00232	-1.9e-05
600	0.000146	-0.003635	0.003926	-0.003963
601	0.00031	-0.001827	-0.000512	-1.9e-05
602	0.00031	-0.002813	-0.001827	0.000639
603	0.000474	-0.000676	-0.000676	-0.000183
604	-1.9e-05	-0.001662	-0.000841	0.000967
605	-0.000512	0.00031	-0.000676	-0.002155
606	-0.000512	-0.001005	-0.001169	-0.000183
607	0.000803	-0.000841	-0.001169	-0.002648
608	0.00031	0.001789	0.000803	-0.002648
609	-1.9e-05	-0.000676	-0.001334	-0.004128
610	-1.9e-05	-0.000841	-0.001827	0.000639
611	0.000146	-0.002813	-0.003142	-0.003635
612	0.00031	-0.004456	-0.003963	-1.9e-05
613	0.00031	-0.003635	-0.001662	-0.002155
614	0.000474	-0.002813	-0.002484	0.000803
615	0.000474	-0.006429	0.003268	-0.002648
616	0.00031	-0.002813	-0.006757	-0.001991
617	-0.000183	-0.005771	0.000474	0.004748
618	-0.000841	-0.004128	0.006227	-0.001005
619	0.000474	-0.000841	0.003597	-0.001169
620	0.000146	-0.002977	0.001132	0.000146
621	0.000146	-0.000183	-0.000347	-0.000676
622	0.000146	0.000146	-0.000676	-0.000676
623	0.00031	0.000146	-0.00232	-0.001498
624	0.000639	-0.001169	-0.001005	-0.004128
625	-0.001827	0.000967	-0.002648	-0.001991
626	-1.9e-05	-0.000347	0.001132	-0.002977
627	-0.000841	-0.002155	-0.002155	-0.001662
628	-0.001827	-0.000676	-0.001498	-0.001991
629	0.000146	-0.003635	-0.002484	0.000967
630	-0.011688	-0.00347	0.004748	-0.001827
631	-0.000512	-0.001169	-0.004621	-0.000841
632	-0.003963	-0.005114	0.000967	-0.00232
633	-0.001827	-0.001005	0.003104	-0.001827
634	0.000803	-0.002484	0.001789	-0.001169
635	0.00146	-0.002813	0.000803	-0.002648
636	-0.001827	-0.001991	-0.003635	-0.004128
637	0.003433	-0.001827	0.000474	0.000967
638	0.002775	-0.001334	-0.006429	-0.001334
639	0.001625	-1.9e-05	-0.002813	-0.002484
640	0.000639	0.000967	-0.00347	-0.001005
641	-0.004456	0.002611	0.000967	-0.002155
642	-0.000347	0.005241	-0.004456	0.001296
643	0.000146	0.000639	-0.000676	-0.001005
644	-0.000183	0.000967	-0.004456	0.000474
645	-0.001005	-0.000183	-0.002648	-0.00232
646	0.000146	-0.004128	-0.001334	-0.001334
647	-0.003306	0.000146	-0.00232	-0.002155
648	0.002447	-0.001827	-0.000512	-0.004128
649	-0.000347	-0.00347	-0.000183	0.00146
650	-1.9e-05	-0.001662	0.00031	-0.003306
651	-0.001827	-0.00347	-0.001662	0.000639
652	-0.007744	-1.9e-05	0.00409	-0.001498
653	-0.000183	-0.004128	-0.003306	-0.000347
654	0.003597	-0.001169	-1.9e-05	-0.001334
655	-0.000512	-0.000183	-0.002648	0.003597
656	0.000146	-0.000841	0.00031	-0.000512
657	0.00031	-0.001662	-0.002648	-0.001334
658	0.000474	-0.000347	-0.001991	-0.001662
659	-1.9e-05	-0.001827	-0.005936	0.000639
660	-0.000347	-0.001334	-0.00232	-0.00232
661	-0.000512	0.003597	-0.003142	-1.9e-05
662	-0.000676	-1.9e-05	-0.002977	-0.001005
663	-0.000512	-0.000841	-0.001498	-0.001498
664	-0.000183	-0.000512	-0.005114	-0.000841
665	-1.9e-05	-0.002813	-0.001169	-0.001005
666	0.00031	-0.005278	-0.000512	0.000967
667	0.000474	-0.003799	-0.000347	-0.000183
668	0.000474	-0.005607	-0.002813	-0.008565
669	0.000474	-0.004949	-0.001334	-0.004456
670	-0.000183	-0.004785	0.00031	0.001954
671	-1.9e-05	-0.000841	-0.001991	-0.006922
672	-0.000512	0.000639	-1.9e-05	-0.001169
673	-0.000347	-0.000841	-0.000841	-0.003306
674	-0.002813	-0.000676	-0.002155	-0.004621
675	-0.000183	-1.9e-05	-0.000347	-0.002155
676	-0.001991	-1.9e-05	-0.003306	0.001132
677	0.00031	-0.002155	-1.9e-05	-0.003142
678	-0.000676	-0.000347	-0.000841	-0.001334
679	0.000639	0.000639	-0.000183	0.00146
680	-0.001169	-0.000347	-1.9e-05	-0.001662
681	0.00031	-0.001662	0.001296	-0.002484
682	-0.000183	-0.002155	0.002282	-0.00232
683	-0.000183	-0.001334	-0.002648	-0.003142
684	-0.000347	-0.000841	-0.005114	-0.00232
685	-0.002484	-0.000676	-0.005607	-0.004621
686	-0.000347	-0.001169	-0.002813	-0.001827
687	-0.000183	-0.001827	-0.001662	-0.001498
688	0.000146	-0.00232	-0.000347	-0.006264
689	0.000146	-0.000183	0.001954	0.00031
690	0.00031	-0.003306	0.001789	-0.001334
691	0.000474	-0.002155	-0.001498	-0.001169
692	-1.9e-05	-0.000841	0.00294	-0.002155
693	-0.000512	0.00031	0.00146	0.000639
694	-0.000512	-0.003142	-0.001334	-0.000183
695	-0.000512	0.001296	-0.000347	-0.000512
696	-0.000841	-0.003799	-0.00988	-0.000347
697	-0.001498	-0.002155	-0.000676	-0.000183
698	-0.001662	-0.001334	-0.001005	0.001132
699	0.000639	-0.00232	-1.9e-05	-0.002977
700	-0.000183	-0.001334	-1.9e-05	-0.001662
701	-0.001498	-0.001662	-0.000512	0.000803
702	-0.001334	-0.002977	-0.001005	-0.001498
703	-1.9e-05	-0.000347	0.002447	-0.00232
704	0.000803	-0.002813	-0.001005	-0.001662
705	0.000803	-0.003963	0.001132	-0.001498
706	-0.002484	0.00294	0.001132	-0.001169
707	0.002611	0.001789	-0.008401	-0.001005
708	0.003104	-0.002648	-0.001169	0.001296
709	0.000967	-0.003142	-0.000841	0.000474
710	0.000967	0.002282	-0.002813	0.002118
711	0.001625	-0.002813	-0.002155	-0.001005
712	0.000474	-0.001827	-0.000347	0.00409
713	-0.000347	-0.001169	-0.002977	-0.001334
714	0.002118	0.000803	-1.9e-05	-0.002484
715	-0.002977	0.000639	-0.000841	-0.000183
716	0.001296	-0.001169	0.000146	-0.001169
717	-0.00232	0.000146	0.001789	-0.003306
718	-0.001169	0.000803	-0.005936	-0.007579
719	0.000967	0.001132	-0.002484	-0.003799
720	0.001132	0.001132	0.000639	-0.004785
721	-0.001498	0.00146	-0.000841	-0.001498
722	0.00294	-0.000841	0.001132	-0.002155
723	0.000967	-0.001005	0.000474	0.00146
724	0.00031	0.000639	-0.000512	-0.009223
725	0.002775	-0.001334	0.003761	-0.001334
726	-0.001334	-0.001662	-0.001662	0.000639
727	0.00294	-0.000676	0.000967	-0.000512
728	-0.000512	-0.000841	-0.000841	-0.001498
729	0.002775	-0.000512	-0.009387	0.000146
730	-0.002977	0.000474	0.001954	0.000474
731	0.003597	0.003104	-0.003963	-0.001662
732	-0.000183	0.000639	-0.001169	-0.001005
733	0.000639	-1.9e-05	-0.001169	-0.002648
734	-0.000347	0.001954	-0.000347	-0.001662
735	-0.000347	-0.001662	-0.004456	-0.006264
736	-1.9e-05	-0.000183	-0.001334	-0.003635
737	0.000146	-0.001334	0.00146	-0.008237
738	0.000146	-0.002155	0.001625	-0.003799
739	-0.000347	-0.001005	0.003597	-0.007086
740	-0.002813	0.000967	-0.004128	-0.001334
741	-0.005278	-0.003799	-0.001991	-1.9e-05
742	0.001625	0.000146	-1.9e-05	-0.003142
743	-0.003142	-0.001662	-0.001169	0.000639
744	-1.9e-05	-0.002977	0.000474	0.00146
745	0.000474	-0.001827	-0.001334	0.00031
746	0.000474	-0.001169	-0.002813	-0.001005
747	0.001296	-0.002155	0.001625	0.00031
748	-0.000512	-0.002813	-0.001169	0.000474
749	-0.000512	-0.001498	-0.001334	0.000146
750	-0.001169	-0.000347	0.000803	0.00031
751	0.00294	0.006556	-0.002155	0.000474
752	0.006391	0.008528	0.008692	-0.000183
753	0.008528	0.017403	0.017732	0.001296
754	0.015102	0.023649	0.023977	0.003926
755	0.024799	0.030716	0.033181	0.0105
756	0.021676	0.041564	0.039263	0.004419
757	0.027265	0.043043	0.045837	0.012308
758	0.039098	0.04896	0.052904	0.018225
759	0.04633	0.055698	0.059314	0.029894
760	0.048795	0.060793	0.061286	0.035318
761	0.059314	0.068189	0.068847	0.041399
762	0.062273	0.071805	0.068354	0.050439
763	0.064574	0.075914	0.074106	0.055863
764	0.071641	0.081831	0.078873	0.060629
765	0.073284	0.08972	0.084132	0.065231
766	0.078708	0.091528	0.088734	0.070819
767	0.067861	0.094487	0.095801	0.074435
768	0.06556	0.098924	0.098431	0.0769
769	0.067039	0.102211	0.106485	0.080352
770	0.071477	0.108457	0.106813	0.090213
771	0.063752	0.110265	0.108786	0.093665
772	0.010664	0.11273	0.115689	0.09876
773	0.012965	0.117496	0.115853	0.095308
774	0.008528	0.120948	0.119304	0.097938
775	0.013459	0.122263	0.123413	0.101883
776	0.02069	0.127687	0.126207	0.104019
777	0.019211	0.129166	0.128015	0.110429
778	0.018225	0.132453	0.132617	0.112566
779	-0.000676	0.136069	0.134754	0.114867
780	0.008528	0.138205	0.139192	0.118811
781	0.012637	0.140013	0.13837	0.123249
782	0.007049	0.14215	0.141	0.124728
783	0.005898	0.149053	0.141986	0.1267
784	0.00146	0.146095	0.147409	0.130152
785	-0.004292	0.146588	0.144615	0.135904
786	-0.000512	0.148724	0.148067	0.133603
787	0.001954	0.151025	0.150697	0.139356
788	-0.000512	0.152505	0.151354	0.140178
789	0.002611	0.156613	0.153491	0.142972
790	0.000967	0.154477	0.152011	0.144944
791	0.001954	0.158421	0.158421	0.146259
792	0.00146	0.1576	0.160065	0.149217
793	0.002775	0.160229	0.16138	0.150039
794	0.00031	0.164503	0.160229	0.153819
795	0.001789	0.164996	0.163023	0.154312
796	-0.001005	0.16894	0.163352	0.1576
797	0.001789	0.166146	0.164667	0.159408
798	0.004912	0.168612	0.166475	0.157928
799	-0.001169	0.168447	0.167625	0.161873
800	0.001132	0.17272	0.166804	0.16516
801	0.000474	0.171406	0.16779	0.162859
802	0.000967	0.174693	0.170255	0.166639
803	-0.000841	0.170913	0.170584	0.167297
804	-0.000183	0.174857	0.172885	0.167954
805	-1.9e-05	0.176501	0.171406	0.171899
806	0.000474	0.175843	0.176336	0.167297
807	-0.002484	0.176994	0.172392	0.171406
808	0.000967	0.178309	0.175515	0.172063
809	0.001132	0.177651	0.173871	0.174364
810	0.001296	0.178144	0.178473	0.173049
811	0.00146	0.182417	0.177651	0.176665
812	0.002282	0.178637	0.181924	0.173871
813	0.00146	0.183732	0.179295	0.175679
814	0.000967	0.181103	0.179788	0.178473
815	0.003104	0.182417	0.181103	0.178473
816	-0.000512	0.185869	0.176829	0.179788
817	0.000803	0.18554	0.180116	0.182582
818	-0.001991	0.183897	0.178802	0.17798
819	-0.000183	0.186033	0.181267	0.184061
820	-0.000183	0.184883	0.183568	0.187184
821	-0.001662	0.18439	0.183897	0.183239
822	0.000474	0.19195	0.183075	0.188334
823	0.00031	0.185047	0.18554	0.184061
824	-0.001169	0.186198	0.183897	0.186033
825	-0.000183	0.188334	0.185212	0.18439
826	-0.000676	0.188334	0.183732	0.186198
827	0.001296	0.189814	0.182253	0.18554
828	-0.000183	0.192608	0.176665	0.186855
829	-0.002155	0.187677	0.166804	0.186691
830	0.001296	0.191128	0.157764	0.184883
831	-0.000347	0.189978	0.152833	0.189649
832	0.000639	0.189978	0.141164	0.185212
833	0.003926	0.195566	0.131796	0.189156
834	0.001296	0.190307	0.121441	0.1908
835	0.00031	0.193101	0.095637	0.187677
836	0.000146	0.19195	0.080516	0.186526
837	-0.000347	0.191293	0.034332	0.192608
838	-0.000347	0.196717	0.025785	0.188334
839	-0.000183	0.193758	0.0271	0.18932
840	-0.001334	0.19195	0.02447	0.188992
841	0.001132	0.194416	0.014445	0.191128
842	0.005569	0.192608	0.018882	0.193101
843	0.010007	0.193922	0.003104	0.191786
844	0.01576	0.195073	0.007049	0.193101
845	0.022663	0.196223	0.012144	0.193101
846	0.024306	0.190635	0.000639	0.190635
847	0.008692	0.194909	0.005898	0.191128
848	0.012308	0.192608	0.010007	0.193265
849	0.003761	0.196059	0.02069	0.193758
850	0.008528	0.19721	0.022169	0.195073
851	0.015266	0.193922	0.02069	0.194416
852	0.011979	0.19573	0.027429	0.195073
853	0.016417	0.196223	0.029401	0.196059
854	0.014116	0.197374	0.012308	0.195566
855	0.008199	0.195566	0.003433	0.196388
856	0.009678	0.197867	0.00294	0.196388
857	0.014609	0.194744	0.007049	0.193594
858	0.017239	0.196552	0.000639	0.194909
859	0.021841	0.195895	0.001789	0.195895
860	0.027593	0.196717	0.003268	0.196717
861	0.028744	0.197045	0.00294	0.198853
862	0.040249	0.196223	-0.000676	0.19721
863	0.038769	0.195237	0.002775	0.195073
864	0.008035	0.198031	0.003268	0.196388
865	0.011486	0.193101	0.00146	0.196552
866	0.021512	0.196223	-1.9e-05	0.196223
867	0.027922	0.194087	-0.000512	0.198524
868	0.031373	0.190964	0.001296	0.194416
869	0.023977	0.196059	-0.000183	0.198196
870	0.016253	0.194909	0.000474	0.196388
871	0.001296	0.197374	-0.000841	0.199182
872	0.000639	0.19836	0.000474	0.195237
873	-0.000347	0.199182	-0.001662	0.199346
874	0.000474	0.196881	0.000803	0.195566
875	0.000146	0.198524	-0.000347	0.198689
876	0.000639	0.197045	0.000639	0.198853
877	0.00146	0.199018	-0.000183	0.197867
878	0.002611	0.197703	0.000639	0.195073
879	0.00294	0.196552	-1.9e-05	0.197045
880	0.002611	0.197867	0.00031	0.191786
881	0.008528	0.197703	-1.9e-05	0.194909
882	0.012965	0.196717	-0.000183	0.198524
883	0.021348	0.199018	0.000146	0.195073
884	0.026936	0.19836	-0.001498	0.19721
885	0.024142	0.195402	0.00031	0.19573
886	0.023977	0.197538	-1.9e-05	0.198031
887	0.031209	0.196881	0.00031	0.19836
888	0.025785	0.201812	-1.9e-05	0.198689
889	0.02595	0.198196	0.00031	0.196223
890	0.032524	0.199018	-0.000512	0.200825
891	0.007049	0.198689	0.000146	0.195895
892	0.006884	0.199018	-0.000183	0.199839
893	-0.000676	0.199182	-0.000512	0.197374
894	-1.9e-05	0.199839	-0.000512	0.198689
895	0.001954	0.20099	-0.000676	0.19721
896	0.00031	0.198853	0.000146	0.198524
897	0.000639	0.196881	0.000146	0.196552
898	0.000967	0.19836	0.000474	0.197703
899	-0.000347	0.19836	0.000639	0.196223
900	0.002447	0.196388	0.000639	0.196552
901	0.000803	0.197045	0.000146	0.199018
902	0.002775	0.195566	-0.000347	0.198853
903	0.002118	0.197538	-0.000183	0.198853
904	0.002775	0.194909	-0.000676	0.19836
905	0.002611	0.197374	-0.000512	0.198853
906	0.002118	0.195402	-0.000183	0.198524
907	0.005241	0.19836	0.000146	0.202305
908	0.002282	0.199182	0.000146	0.199511
909	0.007377	0.20099	0.000474	0.200825
910	0.007377	0.201483	0.00031	0.197538
911	0.01576	0.200661	0.000146	0.194416
912	0.012965	0.19721	-1.9e-05	0.197867
913	0.001296	0.198689	-1.9e-05	0.196717
914	-0.000347	0.197703	-0.000347	0.19721
915	0.006884	0.196223	-0.000183	0.198031
916	0.003268	0.196059	-0.000512	0.198689
917	-0.000183	0.196059	-0.000347	0.197703
918	-1.9e-05	0.19836	0.000146	0.198689
919	0.000146	0.197045	0.00031	0.198031
920	0.000146	0.199839	0.000146	0.197538
921	0.000474	0.200332	0.000474	0.203291
922	0.000474	0.196717	0.000474	0.196881
923	0.000146	0.197538	-1.9e-05	0.197538
924	-0.000512	0.200332	-0.000183	0.200168
925	-0.000347	0.200004	-0.000183	0.19836
926	-0.000347	0.200497	-0.000512	0.198853
927	-0.000183	0.199346	-0.000676	0.199018
928	-1.9e-05	0.200661	-0.000512	0.199346
929	-1.9e-05	0.199346	0.00031	0.199346
930	0.000474	0.200168	0.000146	0.196552
931	0.00031	0.196388	0.000474	0.19721
932	0.000474	0.199346	0.00031	0.196388
933	0.000146	0.196059	0.00031	0.196881
934	0.000146	0.196388	0.000146	0.195073
935	-0.000183	0.198196	-0.000183	0.196059
936	0.000803	0.192279	-0.000183	0.195237
937	0.001132	0.20099	-0.000347	0.196881
938	0.000639	0.195402	-0.000347	0.19573
939	0.006062	0.197045	-0.000183	0.200497
940	-0.000183	0.200332	0.000146	0.200332
941	0.000146	0.203126	-1.9e-05	0.201976
942	0.000474	0.197538	0.000474	0.201319
943	0.005898	0.20099	0.000146	0.200332
944	0.00672	0.200168	0.000474	0.198689
945	-1.9e-05	0.200661	-1.9e-05	0.198196
946	-0.002977	0.200497	-1.9e-05	0.199346
947	0.000639	0.197867	-0.000183	0.196881
948	0.000967	0.198689	-0.000512	0.199346
949	0.000146	0.196059	-0.000347	0.19836
950	0.00031	0.200168	-0.000183	0.201812
951	0.001625	0.197867	0.000146	0.197374
952	0.005569	0.195895	0.00031	0.20099
953	0.000639	0.198031	0.000474	0.198031
954	0.006062	0.202962	0.000146	0.201483
955	0.008528	0.200004	0.00031	0.200497
956	0.010336	0.20214	0.000146	0.19721
957	-0.000183	0.201483	-0.000183	0.199018
958	-1.9e-05	0.200168	-0.000512	0.200332
959	0.005405	0.202305	-0.000512	0.198524
960	0.005569	0.199018	-0.000512	0.197867
961	-0.000183	0.200004	-0.000183	0.202305
962	0.00409	0.201154	-0.000183	0.196552
963	-0.000841	0.197703	0.00031	0.198853
964	0.000803	0.195402	0.000474	0.199675
965	-1.9e-05	0.19836	0.00031	0.202305
966	0.00031	0.195237	0.000474	0.195237
967	0.000146	0.195895	-1.9e-05	0.201154
968	0.00146	0.19721	-0.000347	0.19721
969	0.000146	0.198853	-0.000347	0.199018
970	0.000967	0.197703	-0.000347	0.197374
971	0.000803	0.199182	-0.000676	0.197045
972	0.008528	0.198196	-0.000347	0.200168
973	0.015266	0.198853	0.000146	0.19836
974	0.015102	0.199018	0.000146	0.198196
975	0.016581	0.199511	0.00031	0.202305
976	0.00146	0.200497	0.000474	0.202305
977	0.002118	0.199675	0.00031	0.19836
978	0.000146	0.200168	0.00031	0.200661
979	0.001625	0.197538	-0.000347	0.198031
980	0.003597	0.198196	-0.000512	0.203948
981	0.008035	0.198031	-0.000183	0.20099
982	-0.001662	0.199346	-0.000512	0.202305
983	-0.000183	0.201812	-0.000183	0.201976
984	0.00146	0.200825	-1.9e-05	0.20214
985	0.000146	0.199018	0.000146	0.197703
986	0.00031	0.20477	0.00031	0.197374
987	0.004583	0.199182	0.000474	0.204606
988	0.005734	0.19836	0.00031	0.195402
989	0.006062	0.198689	-1.9e-05	0.197703
990	0.004912	0.198853	-1.9e-05	0.196059
991	0.003597	0.198853	-0.000347	0.201483
992	0.007706	0.198031	-0.000676	0.19836
993	0.009678	0.196552	-0.000512	0.198196
994	0.005405	0.20214	-0.000183	0.201319
995	0.008363	0.199675	-1.9e-05	0.201647
996	0.012472	0.199839	0.000146	0.199182
997	0.019375	0.199839	0.000146	0.20099
998	0.023813	0.198031	0.000474	0.203948
999	0.028579	0.198689	0.000474	0.200661
1000	0.033674	0.196881	-1.9e-05	0.199018
1001	0.037948	0.200332	-1.9e-05	0.200497
1002	0.039591	0.199839	-0.000183	0.199346
1003	0.036304	0.20099	-0.000347	0.199346
1004	0.035811	0.197374	-0.000183	0.197867
1005	0.031702	0.200168	-0.000347	0.199346
1006	0.031209	0.198031	-1.9e-05	0.199675
1007	0.041564	0.193265	0.000146	0.196552
1008	0.042057	0.198196	0.000146	0.199839
1009	0.046494	0.199675	0.000474	0.203291
1010	0.055041	0.197374	0.000474	0.199346
1011	0.059972	0.197045	-0.000183	0.199182
1012	0.062273	0.196388	-0.000183	0.205427
1013	0.065395	0.196717	-0.000512	0.197538
1014	0.072134	0.200168	-0.000183	0.202469
1015	0.071805	0.195237	-0.000512	0.20099
1016	0.077886	0.201976	-0.000512	0.20214
1017	0.078544	0.19721	0.00031	0.199839
1018	0.083475	0.196223	0.000146	0.199675
1019	0.08594	0.19721	0.00031	0.200168
1020	0.086926	0.199511	0.00031	0.198524
1021	0.087912	0.199018	0.000474	0.194744
1022	0.096294	0.192936	-1.9e-05	0.196059
1023	0.095801	0.193429	-1.9e-05	0.198031
1024	0.099253	0.195073	-0.000183	0.195895
1025	0.094322	0.195895	-0.000512	0.200004
1026	0.099089	0.195073	-0.000183	0.198689
1027	0.105005	0.197703	-0.000183	0.200004
1028	0.104841	0.195073	0.000146	0.200332
1029	0.109936	0.195402	0.000474	0.202305
1030	0.034168	0.196552	0.00031	0.201976
1031	0.004912	0.197045	0.00031	0.193101
1032	0.00294	0.192279	0.00031	0.197374
1033	0.000639	0.195895	0.000146	0.197045
1034	-0.000183	0.196552	-0.000347	0.199018
1035	0.000803	0.196552	-0.000347	0.199018
1036	0.000967	0.192115	-0.000347	0.192772
1037	0.001954	0.19836	-0.000512	0.194744
1038	0.004583	0.197374	-0.000347	0.199511
1039	0.005734	0.198031	0.000146	0.19721
1040	0.005076	0.197538	0.00031	0.195402
1041	0.004255	0.197045	0.00031	0.197045
1042	0.011979	0.197703	0.00031	0.193265
1043	0.00787	0.19458	0.000474	0.196059
1044	0.008857	0.197703	0.000146	0.198524
1045	0.008857	0.196388	-1.9e-05	0.199675
1046	0.002775	0.197045	-0.000347	0.20099
1047	-0.000676	0.196717	-0.000347	0.200168
1048	0.00294	0.197045	-0.000512	0.199511
1049	0.000803	0.195402	-0.000347	0.202305
1050	0.00031	0.200004	0.00031	0.200497
1051	0.006884	0.199839	0.00031	0.201647
1052	0.001296	0.199346	0.000474	0.200332
1053	-1.9e-05	0.192115	0.00031	0.189156
1054	-0.001169	0.196059	0.000474	0.196223
1055	0.005076	0.196552	0.00031	0.197867
1056	0.000474	0.195895	-0.000183	0.198853
1057	0.000803	0.194744	-0.000347	0.199018
1058	0.000803	0.191293	-0.000183	0.197374
1059	0.007706	0.187184	-0.000512	0.196388
1060	0.00294	0.188006	-0.000183	0.200168
1061	0.00294	0.192115	-1.9e-05	0.198031
1062	0.001625	0.186691	0.00031	0.19836
1063	0.010171	0.1908	0.000146	0.201976
1064	0.018882	0.188663	0.000474	0.191293
1065	0.016746	0.188499	0.000474	0.200332
1066	0.006556	0.190964	-1.9e-05	0.201976
1067	0.000474	0.192936	-0.000347	0.200497
1068	0.005898	0.189814	-0.000347	0.202305
1069	0.008857	0.192279	-0.000347	0.196223
1070	0.012637	0.192115	-0.000512	0.196388
1071	0.020362	0.191457	-0.000183	0.197867
1072	0.025457	0.190964	0.000146	0.198853
1073	0.029566	0.193758	0.00031	0.197703
1074	0.037948	0.194416	0.000474	0.199182
1075	0.042878	0.193429	0.000474	0.188827
1076	0.050768	0.193265	0.00031	0.19836
1077	0.053233	0.19458	0.00031	0.199018
1078	0.057671	0.193594	-0.000183	0.201976
1079	0.063752	0.191293	-0.000512	0.197867
1080	0.067203	0.194251	-0.000512	0.194909
1081	0.07049	0.194251	-0.000512	0.200497
1082	0.067532	0.199346	-0.000183	0.200825
1083	0.062766	0.197045	0.000474	0.198031
1084	0.065231	0.197703	0.000474	0.201812
1085	0.061451	0.196552	0.000146	0.200661
1086	0.062766	0.194251	0.00031	0.189156
1087	0.058657	0.194744	0.00031	0.199018
1088	0.055698	0.19721	0.00031	0.196059
1089	0.057013	0.196059	-0.000347	0.19721
1090	0.049288	0.193758	-0.000183	0.195895
1091	0.052575	0.195237	-0.000183	0.199839
1092	0.056027	0.195237	-0.000512	0.195073
1093	0.063423	0.197374	-0.000512	0.197045
1094	0.065395	0.193922	-0.000183	0.196552
1095	0.070983	0.197703	0.000146	0.195073
1096	0.074599	0.194909	0.000146	0.188006
1097	0.081667	0.196388	0.000146	0.182417
1098	0.074435	0.195073	0.00031	0.189485
1099	0.078544	0.197045	0.000146	0.189978
1100	0.081995	0.196717	-0.000183	0.188992
1101	0.085611	0.199018	-0.000183	0.190471
1102	0.090378	0.195402	-0.000512	0.190142
1103	0.090049	0.19458	-0.000347	0.188663
1104	0.095966	0.200497	-0.000183	0.192936
1105	0.093007	0.196717	0.000146	0.18932
1106	0.09613	0.201319	0.00031	0.191457
1107	0.100075	0.196717	0.000146	0.191786
1108	0.101225	0.199839	0.00031	0.188827
1109	0.087255	0.19195	0.00031	0.188334
1110	0.081667	0.195402	0.000146	0.189978
1111	0.081338	0.196881	-0.000183	0.189156
1112	0.087584	0.19573	-0.000347	0.18817
1113	0.088405	0.19458	-0.000347	0.190635
1114	0.096952	0.196223	-0.000183	0.195237
1115	0.104348	0.197374	-0.000183	0.192443
1116	0.10517	0.194416	-1.9e-05	0.195073
1117	0.108786	0.19836	0.000474	0.194744
1118	0.116346	0.199182	0.000474	0.192279
1119	0.114702	0.199511	0.000474	0.193429
1120	0.118483	0.198524	0.00031	0.191128
1121	0.120126	0.200168	0.000146	0.195237
1122	0.122756	0.19836	-1.9e-05	0.193101
1123	0.002775	0.199018	-0.000347	0.194087
1124	0.007377	0.198031	-0.000347	0.194087
1125	0.010007	0.197374	-0.000183	0.198031
1126	0.020855	0.199346	-0.000183	0.195895
1127	0.027758	0.197867	0.000146	0.196059
1128	0.033017	0.195402	0.000146	0.193101
1129	0.03992	0.200004	0.000474	0.196223
1130	0.04633	0.195895	0.00031	0.19573
1131	0.054876	0.196388	0.00031	0.195237
1132	0.058657	0.201647	0.00031	0.197045
1133	0.06556	0.19836	-0.000183	0.199346
1134	0.07197	0.200168	-0.000347	0.195073
1135	0.079037	0.198524	-0.000512	0.191128
1136	0.081502	0.199511	-0.000347	0.197374
1137	0.08709	0.197374	-0.000183	0.193101
1138	0.090706	0.200497	-0.000183	0.196552
1139	0.093336	0.196881	0.000146	0.196388
1140	0.098102	0.199346	0.000146	0.200168
1141	0.101225	0.199018	0.00031	0.197867
1142	0.105992	0.19836	0.00031	0.19573
1143	0.106156	0.197538	0.000146	0.197703
1144	0.113716	0.199182	-0.000183	0.197374
1145	0.114867	0.198196	-0.000512	0.197867
1146	0.11799	0.199346	-0.000512	0.197867
1147	0.12292	0.196059	-0.000347	0.201154
1148	0.127029	0.195237	-0.000183	0.197374
1149	0.129001	0.199511	0.000146	0.200168
1150	0.13196	0.199675	-1.9e-05	0.196881
1151	0.134097	0.199018	0.000146	0.19836
1152	0.101225	0.197045	0.00031	0.196881
1153	0.02332	0.200661	0.00031	0.196388
1154	0.026936	0.20099	0.00031	0.198689
1155	0.03729	0.198031	-1.9e-05	0.197374
1156	0.040577	0.199182	-0.000183	0.197538
1157	0.045837	0.200004	-0.000512	0.201647
1158	0.054876	0.194087	-0.000512	0.202305
1159	0.061615	0.19721	-0.000183	0.200661
1160	0.061779	0.199511	-1.9e-05	0.199839
1161	0.069176	0.200004	0.00031	0.198689
1162	0.075421	0.199346	0.000639	0.201154
1163	0.082324	0.196388	0.00031	0.193758
1164	0.084625	0.195237	0.000474	0.197538
1165	0.086762	0.195895	0.000146	0.196388
1166	0.096788	0.198689	-0.000183	0.199018
1167	0.099582	0.193101	-1.9e-05	0.19573
1168	0.102211	0.200168	-0.000347	0.196717
1169	0.109114	0.198031	-0.000347	0.198689
1170	0.113223	0.200661	-0.000183	0.199018
1171	0.113059	0.19836	-1.9e-05	0.198524
1172	0.118483	0.200825	0.000146	0.197703
1173	0.119304	0.198853	0.00031	0.198689
1174	0.127358	0.201812	0.00031	0.198196
1175	0.125057	0.199675	0.000146	0.199511
1176	0.127029	0.200332	0.00031	0.194744
1177	0.129495	0.199182	-0.000347	0.199018
1178	0.134425	0.196388	-0.000512	0.195895
1179	0.137384	0.198524	-0.000183	0.199511
1180	0.138534	0.197374	-0.000512	0.205263
1181	0.141986	0.198031	-0.000347	0.200497
1182	0.142479	0.196717	0.000146	0.198031
1183	0.14971	0.199346	0.000146	0.200497
1184	0.152505	0.197703	0.000474	0.194744
1185	0.14971	0.201154	0.00031	0.189156
1186	0.150697	0.197703	0.00031	0.196059
1187	0.156613	0.201319	0.000146	0.197538
1188	0.152669	0.19836	-1.9e-05	0.19721
1189	0.159079	0.198031	-0.000183	0.198853
1190	0.159572	0.198524	-0.000347	0.196552
1191	0.162037	0.199018	-0.000676	0.198853
1192	0.164503	0.199839	-0.000183	0.203455
1193	0.16138	0.200168	-1.9e-05	0.199675
1194	0.16253	0.200825	0.00031	0.200168
1195	0.164667	0.199511	0.00031	0.200004
1196	0.165817	0.200004	0.00031	0.200004
1197	0.166968	0.198196	0.000474	0.196717
1198	0.166311	0.19836	0.00031	0.197374
1199	0.169762	0.198031	-1.9e-05	0.195402
1200	0.172227	0.198196	-0.000347	0.200332
1201	0.171734	0.19573	-0.000512	0.196717
1202	0.173707	0.200825	-0.000512	0.199839
1203	0.169762	0.200004	-0.000512	0.199182
1204	0.172063	0.198689	0.00031	0.199511
1205	0.174035	0.19836	0.000146	0.200661
1206	0.175679	0.200497	0.000146	0.200661
1207	0.175515	0.197703	0.000474	0.198689
1208	0.177487	0.19573	0.00031	0.197538
1209	0.17798	0.201483	0.00031	0.200332
1210	0.180774	0.202962	-0.000183	0.198689
1211	0.180116	0.201976	-0.000347	0.202305
1212	0.178802	0.198689	-0.000347	0.203948
1213	0.177322	0.200661	-0.000512	0.203455
1214	0.180938	0.196552	-0.000183	0.200825
1215	0.183404	0.197374	-0.000183	0.200004
1216	0.178473	0.199018	0.000146	0.199018
1217	0.18554	0.19721	0.00031	0.198524
1218	0.183732	0.195402	0.000474	0.199018
1219	0.185869	0.196388	0.00031	0.19836
1220	0.184554	0.196223	0.00031	0.197867
1221	0.18817	0.196881	-0.000512	0.198031
1222	0.186526	0.197374	-0.000183	0.200332
1223	0.188827	0.198196	-0.000347	0.199675
1224	0.188006	0.198031	-0.000841	0.201483
1225	0.190471	0.197045	-0.000347	0.200497
1226	0.18817	0.201483	-1.9e-05	0.202633
1227	0.18932	0.196881	0.00031	0.198853
1228	0.189814	0.200004	0.00031	0.205756
1229	0.191128	0.198689	0.000474	0.201319
1230	0.189649	0.198524	0.00031	0.200497
1231	0.188663	0.199346	0.00031	0.197703
1232	0.194416	0.199839	-0.000183	0.199018
1233	0.193922	0.19836	-0.000347	0.200825
1234	0.188499	0.19836	-0.000183	0.19721
1235	0.193758	0.194909	-0.000512	0.20099
1236	0.198031	0.200332	-0.000183	0.201483
1237	0.190142	0.20099	0.000146	0.198031
1238	0.191457	0.19836	0.000146	0.198689
1239	0.195895	0.199018	0.00031	0.199675
1240	0.194087	0.198853	0.000474	0.19721
1241	0.192115	0.202305	0.000474	0.200004
1242	0.193101	0.194909	0.00031	0.197374
1243	0.195566	0.198853	-0.000183	0.201647
1244	0.195237	0.199675	-0.000183	0.201319
1245	0.194909	0.200168	-0.000676	0.200661
1246	0.193758	0.197703	-0.000347	0.20099
1247	0.198031	0.200168	-0.000183	0.201647
1248	0.191457	0.197867	-1.9e-05	0.200825
1249	0.195895	0.198853	0.000146	0.199511
1250	0.193101	0.188663	0.00031	0.197045
1251	0.195566	0.157764	0.000474	0.200825
1252	0.193101	0.107799	0.000474	0.198196
1253	0.192443	0.096623	0.00031	0.197538
1254	0.193101	0.074271	-0.000347	0.200661
1255	0.193101	0.064902	-0.000183	0.198196
1256	0.195402	0.065067	-0.000512	0.202633
1257	0.197538	0.068354	-0.000512	0.204441
1258	0.198689	0.076407	-0.000183	0.201154
1259	0.196388	0.084296	-1.9e-05	0.200332
1260	0.197703	0.087748	0.000146	0.200004
1261	0.196881	0.089556	0.00031	0.199346
1262	0.200825	0.097281	0.000146	0.201647
1263	0.194416	0.096294	0.00031	0.20477
1264	0.197703	0.103526	0.00031	0.201647
1265	0.203455	0.104348	-0.000183	0.200332
1266	0.199018	0.11158	-0.000347	0.202962
1267	0.196223	0.112237	-0.000347	0.199018
1268	0.199346	0.114538	-0.000512	0.200497
1269	0.197703	0.118318	-0.000347	0.201154
1270	0.196717	0.121277	-0.000183	0.198031
1271	0.195402	0.124235	0.00031	0.199675
1272	0.197703	0.128344	0.000146	0.196552
1273	0.19721	0.132782	0.000474	0.200497
1274	0.198196	0.13196	0.000474	0.200004
1275	0.196223	0.138699	0.00031	0.198689
1276	0.198689	0.139849	-0.000183	0.199346
1277	0.200497	0.141493	-0.000512	0.200661
1278	0.198689	0.143465	-0.000183	0.199182
1279	0.198689	0.147409	-0.000347	0.205099
1280	0.199346	0.152011	-0.000183	0.199182
1281	0.197374	0.154312	-0.000183	0.199511
1282	0.197703	0.152011	0.00031	0.200332
1283	0.19721	0.155627	0.000146	0.197867
1284	0.193594	0.157764	0.000474	0.198031
1285	0.197045	0.154641	0.00031	0.198031
1286	0.189649	0.160558	0.00031	0.195237
1287	0.195073	0.163188	-0.000183	0.196059
1288	0.196552	0.161544	-0.000347	0.198196
1289	0.196223	0.162366	-0.000347	0.199346
1290	0.200497	0.165324	-0.000676	0.203291
1291	0.200661	0.166146	-0.000347	0.199675
1292	0.196881	0.168118	-1.9e-05	0.200332
1293	0.197867	0.168283	0.000146	0.199018
1294	0.20099	0.171406	0.000146	0.201154
1295	0.197703	0.170419	0.000474	0.198524
1296	0.200004	0.170091	0.00031	0.201154
1297	0.197045	0.172227	0.00031	0.199182
1298	0.198853	0.177651	-0.000183	0.199839
1299	0.199182	0.17272	-0.000183	0.20362
1300	0.198689	0.176172	-0.000347	0.197045
1301	0.197045	0.177487	-0.000347	0.203291
1302	0.19573	0.179295	-0.000183	0.201812
1303	0.196223	0.180281	-1.9e-05	0.199675
1304	0.194087	0.180116	0.00031	0.200825
1305	0.199346	0.181103	0.000474	0.199182
1306	0.195895	0.179952	0.00031	0.196388
1307	0.19721	0.180445	0.000474	0.204277
1308	0.195237	0.181924	0.000146	0.19836
1309	0.199182	0.184883	-0.000183	0.20099
1310	0.198689	0.179459	-0.000183	0.198196
1311	0.199182	0.184061	-0.000347	0.19836
1312	0.198853	0.182417	-0.000512	0.202305
1313	0.200497	0.188006	-0.000183	0.20099
1314	0.197045	0.184718	0.000146	0.20362
1315	0.199675	0.187019	0.00031	0.200168
1316	0.201812	0.186198	0.00031	0.203455
1317	0.199182	0.185212	0.000474	0.20099
1318	0.19721	0.188006	0.000146	0.202798
1319	0.19836	0.184718	0.000146	0.198524
1320	0.199018	0.187513	-0.000183	0.199839
1321	0.197045	0.18817	-0.000347	0.198524
1322	0.199511	0.189814	-0.000676	0.200497
1323	0.19721	0.189485	-0.000512	0.19836
1324	0.198689	0.193101	-0.000347	0.202962
1325	0.193922	0.189814	-0.000183	0.19836
1326	0.200332	0.193429	0.00031	0.197374
1327	0.19836	0.190471	0.00031	0.199511
1328	0.19836	0.188827	0.00031	0.196881
1329	0.198689	0.188827	0.00031	0.200497
1330	0.20099	0.19195	0.00031	0.196059
1331	0.200332	0.189649	-0.000183	0.199346
1332	0.198853	0.191457	-0.000183	0.198689
1333	0.19573	0.193758	-0.000347	0.200004
1334	0.20099	0.192443	-0.000347	0.198031
1335	0.196717	0.191786	-0.000183	0.201647
1336	0.198689	0.189978	-1.9e-05	0.19573
1337	0.203291	0.19195	0.00031	0.199346
1338	0.19836	0.18817	0.00031	0.199018
1339	0.198196	0.185047	0.000146	0.198031
1340	0.197538	0.182746	0.000146	0.200497
1341	0.198196	0.18554	0.000146	0.197045
1342	0.198031	0.180116	-0.000183	0.199018
1343	0.19721	0.183075	-0.000183	0.198689
1344	0.200332	0.180445	-0.000347	0.201812
1345	0.199182	0.180281	-0.000676	0.196552
1346	0.197374	0.182253	-0.000347	0.202469
1347	0.197703	0.176336	-1.9e-05	0.200168
1348	0.200168	0.17798	0.000146	0.198031
1349	0.199511	0.177815	0.000146	0.19721
1350	0.197703	0.178637	0.00031	0.201319
1351	0.197374	0.176994	0.000474	0.201812
1352	0.196059	0.184883	0.00031	0.200168
1353	0.196717	0.180938	-0.000183	0.200168
1354	0.196223	0.183075	-0.000347	0.201812
1355	0.197045	0.183897	-0.000347	0.198196
1356	0.194744	0.184554	-0.000347	0.199018
1357	0.199018	0.184225	-0.000347	0.200332
1358	0.200661	0.184554	-1.9e-05	0.196059
1359	0.197045	0.183897	0.000146	0.198853
1360	0.199182	0.184225	0.000474	0.198031
1361	0.19721	0.187513	0.000474	0.196552
1362	0.200825	0.187841	0.00031	0.199182
1363	0.198689	0.184718	0.00031	0.198853
1364	0.201483	0.183732	-0.000183	0.199346
1365	0.19836	0.187513	-0.000183	0.197867
1366	0.194087	0.186855	-0.000512	0.200004
1367	0.200332	0.184718	-0.000512	0.202962
1368	0.197867	0.186691	-0.000183	0.202305
1369	0.199511	0.191293	-1.9e-05	0.202305
1370	0.19836	0.187348	0.00031	0.198689
1371	0.198524	0.193922	0.000474	0.200825
1372	0.198689	0.19195	0.000474	0.199839
1373	0.199675	0.192443	0.00031	0.198853
1374	0.196388	0.190964	0.000146	0.197703
1375	0.200332	0.192279	-1.9e-05	0.199182
1376	0.198689	0.190635	-0.000183	0.19836
1377	0.200004	0.19458	-0.000347	0.198196
1378	0.199511	0.192115	-0.000512	0.199675
1379	0.201812	0.191293	-0.000183	0.194087
1380	0.200661	0.192772	0.000146	0.199839
1381	0.201976	0.191457	0.000146	0.197703
1382	0.201154	0.192115	0.000146	0.200497
1383	0.202962	0.192443	0.000474	0.197374
1384	0.202798	0.193265	0.000146	0.202633
1385	0.197045	0.193922	0.00031	0.19721
1386	0.202469	0.19836	-0.000183	0.200661
1387	0.198853	0.198031	-0.000183	0.203455
1388	0.198031	0.198031	-0.000512	0.20362
1389	0.196223	0.19458	-0.000676	0.199675
1390	0.201154	0.198031	-0.000183	0.198524
1391	0.19573	0.196388	0.000146	0.199346
1392	0.200004	0.196881	0.000146	0.198853
1393	0.19721	0.195895	0.000639	0.199511
1394	0.200004	0.196717	0.000474	0.19836
1395	0.199018	0.194909	0.000474	0.201154
1396	0.197703	0.194251	0.00031	0.197703
1397	0.19836	0.194744	-1.9e-05	0.200497
1398	0.199839	0.19458	-0.000183	0.19836
1399	0.199839	0.196388	-0.000347	0.199839
1400	0.197867	0.194416	-0.000183	0.201647
1401	0.202305	0.19573	-0.000512	0.199675
1402	0.195402	0.198196	-1.9e-05	0.200004
1403	0.198524	0.201319	-1.9e-05	0.202469
1404	0.197374	0.19836	0.00031	0.203291
1405	0.195895	0.200004	0.000146	0.202962
1406	0.198853	0.199018	0.000146	0.201976
1407	0.198031	0.198524	0.000474	0.199018
1408	0.19836	0.19721	-0.000183	0.200004
1409	0.198196	0.197045	-0.000183	0.197045
1410	0.198853	0.199675	-0.000347	0.199182
1411	0.199182	0.19836	-0.000347	0.198689
1412	0.201154	0.199511	-0.000183	0.19836
1413	0.197374	0.19721	0.00031	0.196223
1414	0.200332	0.197538	0.00031	0.202305
1415	0.197867	0.195895	0.00031	0.200332
1416	0.199018	0.19721	0.00031	0.198524
1417	0.197045	0.193101	0.000474	0.205427
1418	0.202305	0.195237	0.000146	0.19836
1419	0.198196	0.195566	-1.9e-05	0.19836
1420	0.200825	0.197374	-0.000512	0.200497
1421	0.198853	0.198853	-0.000347	0.199346
1422	0.200497	0.199839	-0.000512	0.198524
1423	0.200332	0.199018	-0.000512	0.199511
1424	0.198689	0.200332	-1.9e-05	0.197374
1425	0.198853	0.200168	0.00031	0.201154
1426	0.198031	0.197867	0.00031	0.199346
1427	0.199346	0.198196	0.000146	0.199839
1428	0.197045	0.198853	0.000639	0.200332
1429	0.197703	0.198689	0.000146	0.195073
1430	0.198031	0.200661	-0.000183	0.196388
1431	0.199839	0.198689	-0.000183	0.199675
1432	0.201319	0.194744	-0.000347	0.198196
1433	0.196717	0.197703	-0.000183	0.201812
1434	0.196388	0.196552	-0.000512	0.197538
1435	0.198524	0.199675	-0.000183	0.198853
1436	0.196223	0.200004	-1.9e-05	0.19836
1437	0.202633	0.202469	0.000474	0.197703
1438	0.198524	0.199018	0.000474	0.199018
1439	0.201483	0.200661	0.000474	0.196059
1440	0.200168	0.199346	0.000146	0.19721
1441	0.200825	0.199839	-1.9e-05	0.196388
1442	0.201154	0.200825	-0.000512	0.200168
1443	0.197538	0.197703	-0.000512	0.199182
1444	0.200168	0.198853	-0.000512	0.201154
1445	0.19836	0.19721	-0.000676	0.19836
1446	0.195237	0.199839	0.000146	0.200168
1447	0.195566	0.196881	0.00031	0.19836
1448	0.200004	0.198853	-1.9e-05	0.200168
1449	0.196552	0.196223	0.00031	0.199511
1450	0.197045	0.199346	0.000639	0.199839
1451	0.19721	0.193758	0.00031	0.19836
1452	0.200825	0.199182	-1.9e-05	0.199346
1453	0.196059	0.201812	-0.000183	0.199511
1454	0.198031	0.199346	-0.000183	0.196881
1455	0.197867	0.200825	-0.000347	0.201319
1456	0.199839	0.200004	-0.000512	0.200004
1457	0.201976	0.199839	0.000146	0.197867
1458	0.197867	0.200168	0.000146	0.200004
1459	0.197045	0.200497	0.000474	0.201154
1460	0.196059	0.195402	0.000474	0.197045
1461	0.195566	0.200497	0.00031	0.202305
1462	0.195402	0.197374	0.000146	0.198853
1463	0.199018	0.196388	-1.9e-05	0.196717
1464	0.194087	0.197867	-0.000183	0.19721
1465	0.20099	0.195073	-0.000512	0.198689
1466	0.195566	0.194744	-0.000183	0.199511
1467	0.198524	0.196881	-0.000183	0.197703
1468	0.196717	0.195237	-1.9e-05	0.201154
1469	0.198031	0.195402	0.00031	0.198689
1470	0.19836	0.196881	0.000146	0.199346
1471	0.198196	0.200004	0.000474	0.199675
1472	0.198524	0.200332	0.00031	0.20099
1473	0.198196	0.198689	0.00031	0.194909
1474	0.200825	0.199675	-0.000183	0.201812
1475	0.196059	0.195073	-0.000347	0.197703
1476	0.198031	0.199346	-0.000512	0.203291
1477	0.197374	0.196059	-0.000347	0.198031
1478	0.196717	0.200168	0.000146	0.197867
1479	0.195237	0.200168	-1.9e-05	0.196059
1480	0.19721	0.198196	0.000474	0.199346
1481	0.196552	0.199839	0.000474	0.199839
1482	0.194744	0.201976	0.000639	0.199346
1483	0.190964	0.196388	0.000639	0.199839
1484	0.194251	0.196388	0.000639	0.196717
1485	0.194744	0.196717	-1.9e-05	0.197374
1486	0.199346	0.199675	0.000146	0.196223
1487	0.197703	0.204113	-0.000347	0.198853
1488	0.200497	0.196388	-0.000183	0.192936
1489	0.199018	0.199018	-0.000183	0.198031
1490	0.195237	0.19836	0.000146	0.198689
1491	0.200332	0.195895	-0.000347	0.20099
1492	0.196223	0.195895	0.001625	0.200332
1493	0.197538	0.199018	-1.9e-05	0.20214
1494	0.195566	0.125714	0.001296	0.200497
1495	0.197703	0.110922	-1.9e-05	0.200825
1496	0.197045	0.113552	-0.000347	0.200661
1497	0.19836	0.118811	-1.9e-05	0.201647
1498	0.195566	0.120619	-1.9e-05	0.200004
1499	0.197867	0.122592	0.000146	0.200825
1500	0.197045	0.125714	-1.9e-05	0.200004
1501	0.194416	0.129001	-0.000676	0.200661
1502	0.198031	0.131631	0.00031	0.200497
1503	0.193429	-0.000183	0.001132	0.196059
1504	0.19573	-0.000512	-0.000183	0.198689
1505	0.199182	-1.9e-05	0.001625	0.197538
1506	0.198524	-1.9e-05	0.000967	0.199346
1507	0.201154	0.00031	0.001132	0.199182
1508	0.200168	0.000474	-1.9e-05	0.200497
1509	0.200497	0.00146	-1.9e-05	0.19836
1510	0.201483	0.005734	0.003597	0.200825
1511	0.199511	0.010664	-0.002155	0.201976
1512	0.199675	0.021348	-0.000841	0.197867
1513	0.199018	0.022169	0.003268	0.197045
1514	0.19836	0.031373	0.002447	0.20099
1515	0.196059	0.039591	0.002447	0.199182
1516	0.20099	0.043207	0.00672	0.201483
1517	0.200004	0.049288	0.007049	0.200004
1518	0.198196	0.056684	0.015102	0.198524
1519	0.197703	0.06293	0.017403	0.199346
1520	0.201812	0.068518	0.021348	0.197045
1521	0.198524	0.075092	0.024635	0.200332
1522	0.20099	0.080516	0.029894	0.197374
1523	0.200661	0.086433	0.032688	0.199511
1524	0.199839	0.087419	0.037783	0.200661
1525	0.198853	0.089556	0.043536	0.200004
1526	0.197538	0.095308	0.047809	0.199675
1527	0.199839	0.040413	0.055041	0.203784
1528	0.196552	0.000967	0.058657	0.198031
1529	0.200825	0.000803	0.06671	0.19721
1530	0.198524	0.000639	0.070983	0.198689
1531	0.19573	0.004419	0.076079	0.195895
1532	0.196717	0.001296	0.081502	0.203948
1533	0.200661	0.00031	0.084461	0.196881
1534	0.196059	-0.000347	0.086762	0.199182
1535	0.196059	-0.000512	0.09498	0.196388
1536	0.199675	-0.000512	0.093007	0.199511
1537	0.19721	-0.000347	0.101883	0.196388
1538	0.198853	0.000146	0.105005	0.198524
1539	0.195073	0.000146	0.106978	0.200332
1540	0.197538	0.00031	0.114538	0.201647
1541	0.19721	0.00031	0.120455	0.201647
1542	0.199675	0.000474	0.121934	0.202305
1543	0.197867	0.00031	0.119962	0.202633
1544	0.20099	-0.000347	0.125714	0.201483
1545	0.198196	-0.000183	0.124728	0.201154
1546	0.198196	-0.000512	0.127522	0.201976
1547	0.199018	-0.000347	0.131796	0.204441
1548	0.193922	-0.000512	0.131467	0.199675
1549	0.196388	-0.000183	0.132946	0.20362
1550	0.192443	0.000146	0.135576	0.198853
1551	0.184554	0.000146	0.135576	0.200004
1552	0.174693	0.000474	0.137055	0.201976
1553	0.155792	0.00031	0.139849	0.200004
1554	0.154312	0.00031	0.142972	0.198853
1555	0.159408	-0.000183	0.144287	0.200497
1556	0.153819	-0.000183	0.143136	0.199182
1557	0.124564	0.000474	0.139685	0.200004
1558	0.097116	0.006227	0.143465	0.200332
1559	0.085611	0.015924	0.143301	0.201319
1560	0.07049	0.021348	0.140671	0.202469
1561	0.072463	0.028415	0.150204	0.200332
1562	0.066875	0.035647	0.147081	0.198031
1563	0.069997	0.042221	0.147081	0.198689
1564	0.069504	0.051918	0.146916	0.203784
1565	0.066546	0.057671	0.14856	0.197703
1566	0.064738	0.062108	0.149382	0.199018
1567	0.06934	0.06293	0.151683	0.20099
1568	0.074764	0.054219	0.150697	0.200168
1569	0.077722	0.046659	0.152011	0.19836
1570	0.083475	0.022169	0.155956	0.201319
1571	0.086926	0.005076	0.155627	0.198853
1572	0.090871	0.000639	0.158421	0.199182
1573	0.093665	-1.9e-05	0.161544	0.197867
1574	0.098267	0.000803	0.161215	0.200497
1575	0.102376	0.00031	0.163023	0.200332
1576	0.10632	0.000639	0.165982	0.200332
1577	0.107635	-1.9e-05	0.166475	0.200497
1578	0.111908	-1.9e-05	0.168283	0.20099
1579	0.112073	-0.000347	0.165489	0.201319
1580	0.119797	-0.000347	0.170091	0.199675
1581	0.122098	-0.001991	0.17272	0.200004
1582	0.12177	0.000146	0.170419	0.200004
1583	0.125714	0.003433	0.170091	0.200661
1584	0.126536	0.002447	0.172885	0.197703
1585	0.128673	0.003104	0.174035	0.196223
1586	0.131467	0.000474	0.173707	0.197703
1587	0.134918	0.000146	0.176336	0.199182
1588	0.131138	-0.000841	0.176829	0.193594
1589	0.137219	-0.000347	0.179952	0.201976
1590	0.141657	-0.000183	0.178637	0.20099
1591	0.133439	-0.000347	0.175021	0.200332
1592	0.134918	-0.000347	0.179788	0.201154
1593	0.137219	-1.9e-05	0.181103	0.200825
1594	0.140013	0.00031	0.179623	0.202469
1595	0.144122	0.000474	0.185869	0.199511
1596	0.144451	0.000474	0.181267	0.201483
1597	0.148067	0.000639	0.184718	0.199511
1598	0.150204	0.00031	0.18554	0.200661
1599	0.149875	0.000639	0.185376	0.199018
1600	0.152833	-0.000512	0.185376	0.20099
1601	0.153655	-1.9e-05	0.182746	0.200004
1602	0.153984	-0.000512	0.188006	0.206085
1603	0.153984	0.006227	0.186362	0.200825
1604	0.157928	0.005569	0.187348	0.20099
1605	0.156778	0.014445	0.184883	0.201319
1606	0.161215	0.02069	0.191621	0.199511
1607	0.160394	0.028086	0.186691	0.200661
1608	0.163681	0.036304	0.187184	0.19836
1609	0.164996	0.041564	0.1908	0.201483
1610	0.168612	0.05011	0.195566	0.19721
1611	0.167461	0.054876	0.186855	0.203784
1612	0.171406	0.060465	0.188663	0.199675
1613	0.172885	0.068189	0.191786	0.199018
1614	0.17272	0.075092	0.188499	0.201647
1615	0.175843	0.076407	0.192443	0.201154
1616	0.17157	0.082488	0.190307	0.199839
1617	0.17913	0.085776	0.192443	0.201812
1618	0.176994	0.08857	0.193101	0.200168
1619	0.179623	0.09498	0.192936	0.199182
1620	0.180116	0.097938	0.185047	0.201976
1621	0.181596	0.106485	0.00409	0.199346
1622	0.176172	0.106978	-0.000512	0.200332
1623	0.180445	0.112237	0.00031	0.198689
1624	0.180281	0.11651	0.000474	0.199346
1625	0.181103	0.121934	0.000474	0.201647
1626	0.182911	0.121605	0.000474	0.200661
1627	0.184225	0.123906	0.000474	0.197703
1628	0.185376	0.126536	-1.9e-05	0.202469
1629	0.186855	0.12933	-1.9e-05	0.187677
1630	0.187348	0.133768	-0.000512	0.179295
1631	0.187019	0.134097	0.000474	0.181431
1632	0.194251	0.138041	0.004748	0.180116
1633	0.186855	0.140506	0.005241	0.181431
1634	0.190471	0.145108	0.011322	0.184718
1635	0.191293	0.144122	0.017239	0.18439
1636	0.18817	0.150039	0.025292	0.183075
1637	0.189156	0.144287	0.032524	0.183897
1638	0.187677	0.149875	0.03992	0.182582
1639	0.186198	0.154148	0.044851	0.180281
1640	0.192936	0.153491	0.052411	0.176665
1641	0.18932	0.156449	0.056027	0.17913
1642	0.190964	0.158586	0.063094	0.179295
1643	0.192936	0.159079	0.067039	0.176501
1644	0.189156	0.160887	0.074928	0.168283
1645	0.19195	0.161051	0.079037	0.151518
1646	0.193265	0.163516	0.083475	0.146916
1647	0.194251	0.171734	0.085776	0.147081
1648	0.191786	0.163352	0.091528	0.146916
1649	0.193922	0.166475	0.096788	0.151683
1650	0.191293	0.169105	0.103362	0.149217
1651	0.193594	0.166804	0.103526	0.152998
1652	0.193101	0.171734	0.10517	0.158093
1653	0.193101	0.173378	0.111251	0.157271
1654	0.193265	0.170748	0.115195	0.159408
1655	0.193265	0.174364	0.117825	0.16138
1656	0.194744	0.175515	0.121441	0.165324
1657	0.197538	0.175186	0.121605	0.16401
1658	0.196552	0.182253	0.124399	0.165324
1659	0.196059	0.176665	0.126207	0.167297
1660	0.19721	0.178309	0.129495	0.168776
1661	0.194416	0.182089	0.134425	0.168447
1662	0.198031	0.178802	0.140178	0.171406
1663	0.196881	0.180445	0.138863	0.171899
1664	0.196717	0.180445	0.142972	0.174035
1665	0.19836	0.181267	0.143136	0.171734
1666	0.193429	0.186526	0.145437	0.176994
1667	0.197374	0.179623	0.145766	0.178473
1668	0.198196	0.180938	0.150204	0.176994
1669	0.195073	0.184718	0.15234	0.177651
1670	0.197045	0.183075	0.154312	0.17913
1671	0.196388	0.186033	0.155134	0.179952
1672	0.196552	0.186033	0.1576	0.178966
1673	0.19836	0.187513	0.156613	0.180445
1674	0.197045	0.188334	0.159736	0.180938
1675	0.196388	0.188499	0.161873	0.184554
1676	0.197374	0.193594	0.160887	0.181103
1677	0.196388	0.189978	0.16138	0.18439
1678	0.19458	0.189978	0.16516	0.183075
1679	0.199675	0.190635	0.089227	0.188827
1680	0.19573	0.188006	0.017732	0.184225
1681	0.197703	0.191293	0.025621	0.18439
1682	0.199346	0.189814	0.03236	0.186033
1683	0.200825	0.188006	0.04107	0.185705
1684	0.196881	0.193101	0.045344	0.185212
1685	0.199018	0.188827	0.053397	0.186855
1686	0.197045	0.189978	0.059807	0.189156
1687	0.199839	0.195566	0.063587	0.187677
1688	0.197867	0.194087	0.070819	0.189978
1689	0.195237	0.192772	0.075421	0.189485
1690	0.196059	0.19458	0.077229	0.190635
1691	0.193922	0.190635	0.084296	0.18932
1692	0.200168	0.195895	0.091364	0.191621
1693	0.194744	0.193758	0.096294	0.190471
1694	0.198031	0.195895	0.097774	0.190307
1695	0.198524	0.194416	0.099253	0.190307
1696	0.200332	0.196881	0.105992	0.191293
1697	0.196059	0.192279	0.1101	0.191457
1698	0.200168	0.196717	0.113388	0.191786
1699	0.197867	0.194251	0.112401	0.191786
1700	0.195402	0.192443	0.124399	0.192443
1701	0.195895	0.197867	0.12177	0.189978
1702	0.198524	0.187513	0.127358	0.195402
1703	0.19458	0.198031	0.129166	0.194251
1704	0.197867	0.198031	0.130974	0.193758
1705	0.197374	0.195895	0.13837	0.197045
1706	0.197374	0.197703	0.136398	0.193265
1707	0.200825	0.19721	0.140178	0.196881
1708	0.198196	0.198853	0.137219	0.195402
1709	0.199182	0.198853	0.138699	0.19721
1710	0.198524	0.198196	0.141164	0.197045
1711	0.197867	0.198196	0.143629	0.195895
1712	0.196388	0.194744	0.142314	0.196388
1713	0.199182	0.18554	0.146588	0.197538
1714	0.198031	0.195073	0.14971	0.197374
1715	0.19458	0.19458	0.152833	0.193922
1716	0.199182	0.19195	0.154148	0.198196
1717	0.20214	0.194087	0.158421	0.195895
1718	0.199675	0.194087	0.159901	0.198031
1719	0.200004	0.195895	0.162366	0.196059
1720	0.201976	0.198196	0.16401	0.19721
1721	0.198853	0.199182	0.163023	0.19721
1722	0.200168	0.197045	0.164831	0.202962
1723	0.195237	0.196059	0.165489	0.197538
1724	0.20099	0.190635	0.165489	0.199839
1725	0.199839	0.195237	0.166804	0.19836
1726	0.19721	0.199346	0.168612	0.197374
1727	0.015266	0.198689	0.167954	0.197045
1728	0.00146	0.199182	0.16894	0.198689
1729	-0.001169	0.199182	0.166804	0.191621
1730	0.005734	0.198524	0.13574	0.199018
1731	0.013459	0.19836	0.138041	0.197374
1732	0.017074	0.200825	0.139356	0.197867
1733	0.024635	0.197703	0.141328	0.199182
1734	0.029566	0.197538	0.144615	0.195566
1735	0.037948	0.190964	0.147081	0.198031
1736	0.045015	0.199839	0.15119	0.197045
1737	0.049781	0.200004	0.152176	0.193101
1738	0.056356	0.199346	0.156449	0.195895
1739	0.064574	0.200332	0.158914	0.200332
1740	0.066875	0.19836	0.158586	0.19836
1741	0.074435	0.198031	0.159243	0.199346
1742	0.080023	0.199675	0.158586	0.198031
1743	0.081338	0.200825	0.16253	0.202469
1744	0.087419	0.198853	0.16138	0.202798
1745	0.092021	0.199675	0.163845	0.198196
1746	0.094651	0.064574	0.161709	0.199839
1747	0.101718	-1.9e-05	0.168612	0.199182
1748	0.10254	0.000474	0.166804	0.200661
1749	0.108293	0.00031	0.168776	0.198031
1750	0.107306	0.00031	0.172556	0.197374
1751	0.113552	0.000474	0.17157	0.196881
1752	0.119962	-1.9e-05	0.17535	0.200168
1753	0.121605	0.004748	0.178473	0.195237
1754	0.121934	0.017239	0.174364	0.200332
1755	0.123578	0.021676	0.176829	0.198853
1756	0.1267	0.031538	0.177487	0.201154
1757	0.136233	0.03236	0.177815	0.200332
1758	0.136562	0.041235	0.17913	0.198689
1759	0.135411	0.048302	0.178966	0.200004
1760	0.143629	0.055041	0.179459	0.200004
1761	0.144122	0.060793	0.182417	0.199675
1762	0.145766	0.063259	0.178966	0.198196
1763	0.14593	0.066546	0.179952	0.196059
1764	0.15119	0.076572	0.185376	0.196881
1765	0.148889	0.079201	0.179459	0.201647
1766	0.152505	0.083968	0.184883	0.199675
1767	0.156613	0.083475	0.183732	0.199511
1768	0.157928	0.090378	0.18554	0.199675
1769	0.161051	0.097445	0.186526	0.200004
1770	0.160887	0.100896	0.187348	0.19836
1771	0.161709	0.107471	0.18554	0.19836
1772	0.167132	0.106649	0.189156	0.199839
1773	0.165489	0.111415	0.18932	0.199839
1774	0.166475	0.116839	0.187677	0.199839
1775	0.172885	0.112073	0.189485	0.199346
1776	0.166968	0.101718	0.187019	0.200825
1777	0.170584	0.10139	0.188992	0.20099
1778	0.170584	0.10254	0.191293	0.199675
1779	0.172556	0.101718	0.189156	0.198853
1780	0.170748	0.105498	0.1908	0.198196
1781	0.164996	0.110758	0.19195	0.198031
1782	0.16894	0.113223	0.190142	0.197703
1783	0.168447	0.117661	0.192772	0.196059
1784	0.16138	0.120619	0.192115	0.202962
1785	0.147409	0.125057	0.192936	0.196552
1786	0.153655	0.126207	0.194087	0.198031
1787	0.144944	0.126372	0.192115	0.200168
1788	0.146095	0.133932	0.191293	0.199182
1789	0.147738	0.13459	0.193594	0.198196
1790	0.151683	0.137548	0.195237	0.197045
1791	0.150861	0.13837	0.192115	0.20099
1792	0.1576	0.143958	0.192936	0.201319
1793	0.159572	0.142807	0.189649	0.20362
1794	0.15875	0.149053	0.194087	0.202305
1795	0.160394	0.146752	0.196388	0.202962
1796	0.159901	0.151025	0.191621	0.200825
1797	0.167132	0.154312	0.193758	0.201647
1798	0.161709	0.15497	0.195402	0.201483
1799	0.163845	0.156285	0.194909	0.204606
1800	0.163023	0.158093	0.196223	0.20099
1801	0.164831	0.157764	0.196388	0.20099
1802	0.165489	0.160229	0.197867	0.201319
1803	0.168118	0.161051	0.197374	0.202633
1804	0.168118	0.163188	0.197703	0.198689
1805	0.171241	0.163516	0.196717	0.199511
1806	0.171077	0.164503	0.197374	0.200004
1807	0.170748	0.165489	0.19573	0.200332
1808	0.176501	0.170255	0.199018	0.199839
1809	0.173871	0.17157	0.197867	0.201154
1810	0.17798	0.172392	0.193429	0.201647
1811	0.179952	0.014773	0.198196	0.198853
1812	0.180774	-0.001169	0.195402	0.201154
1813	0.177322	-0.000183	0.201483	0.201483
1814	0.18061	0.00146	0.195895	0.200497
1815	0.180938	0.001625	0.198196	0.200661
1816	0.185376	0.00146	0.199018	0.198196
1817	0.184718	0.000639	0.195237	0.202962
1818	0.183568	0.007377	0.200332	0.199182
1819	0.186691	0.017403	0.198524	0.19836
1820	0.182253	0.018061	0.200661	0.201483
1821	0.183897	0.025128	0.197538	0.199182
1822	0.185212	0.031538	0.197374	0.199018
1823	0.185869	0.038276	0.203784	0.198196
1824	0.186855	0.042714	0.193758	0.198853
1825	0.187348	0.051425	0.199346	0.200332
1826	0.189156	0.056356	0.201812	0.198196
1827	0.191621	0.062273	0.198689	0.20099
1828	0.188499	0.064902	0.200661	0.200332
1829	0.18932	0.073613	0.200661	0.203126
1830	0.192608	0.078708	0.200497	0.202305
1831	0.187841	0.083803	0.198853	0.204934
1832	0.188663	0.086433	0.198853	0.201154
1833	0.189978	0.091692	0.199346	0.202305
1834	0.190471	0.09613	0.198031	0.200332
1835	0.191621	0.09876	0.199346	0.201154
1836	0.189156	0.105663	0.197538	0.197867
1837	0.193758	0.108293	0.204113	0.197703
1838	0.190142	0.109772	0.19836	0.200168
1839	0.192279	0.114538	0.198689	0.195237
1840	0.194087	0.117661	0.199346	0.196552
1841	0.192608	0.121277	0.201154	0.197374
1842	0.194251	0.1267	0.197045	0.200332
1843	0.196059	0.123742	0.199346	0.202305
1844	0.191786	0.130316	0.197045	0.20362
1845	0.192279	0.13311	0.199346	0.199018
1846	0.195237	0.13574	0.197867	0.201154
1847	0.192279	0.137548	0.199346	0.200004
1848	0.195073	0.141986	0.202469	0.202469
1849	0.192772	0.141986	0.200661	0.200825
1850	0.194087	0.147738	0.201319	0.20214
1851	0.194416	0.149382	0.201647	0.20099
1852	0.18932	0.152176	0.204441	0.201647
1853	0.19195	0.151354	0.197045	0.200661
1854	0.197538	0.156613	0.201647	0.199182
1855	0.19458	0.152833	0.19836	0.199511
1856	0.195402	0.158093	0.199018	0.19836
1857	0.19721	0.1576	0.199182	0.199839
1858	0.195895	0.154312	0.200004	0.196059
1859	0.198689	0.162366	0.197703	0.203126
1860	0.19721	0.160722	0.196059	0.199018
1861	0.198853	0.165982	0.199346	0.198524
1862	0.196717	0.166311	0.200825	0.202305
1863	0.190471	0.167625	0.201483	0.200168
1864	0.196223	0.167625	0.195073	0.201483
1865	0.20099	0.167954	0.196717	0.201976
1866	0.199511	0.170091	0.201319	0.201154
1867	0.195402	0.173214	0.201483	0.201319
1868	0.195073	0.168612	0.198524	0.200168
1869	0.197867	0.17272	0.201483	0.196881
1870	0.19836	0.174035	0.199839	0.199511
1871	0.19836	0.176829	0.200004	0.198853
1872	0.19836	0.176336	0.200332	0.197703
1873	0.197374	0.177651	0.201319	0.195895
1874	0.188663	0.179459	0.204277	0.200168
1875	0.197374	0.176501	0.200332	0.197867
1876	0.197374	0.178473	0.200168	0.199675
1877	0.19721	0.177158	0.19836	0.199675
1878	0.200168	0.182417	0.205427	0.200004
1879	0.198031	0.177158	0.196881	0.199346
1880	0.198031	0.177158	0.204441	0.196717
1881	0.199675	0.178144	0.199346	0.198853
1882	0.199346	0.176008	0.201319	0.201812
1883	0.194087	0.172392	0.20099	0.200004
1884	0.199675	0.166146	0.201319	0.201976
1885	0.187841	0.162695	0.206578	0.012637
1886	0.198031	0.166146	0.200004	0.00031
1887	0.196552	0.167461	0.200497	0.006391
1888	0.197538	0.164338	0.201812	0.011979
1889	0.198031	0.167132	0.198689	0.021841
1890	0.199675	0.168776	0.199675	0.024306
1891	0.19721	0.169598	0.199675	0.031702
1892	0.199182	0.171077	0.202469	0.03992
1893	0.199675	0.172392	0.20362	0.044522
1894	0.194909	0.17157	0.198524	0.048631
1895	0.195895	0.173214	0.20099	0.057013
1896	0.188827	0.176336	0.205263	0.060465
1897	0.197867	0.175843	0.199675	0.067203
1898	0.197045	0.177322	0.200825	0.076079
1899	0.199182	0.178309	0.20362	0.080023
1900	0.19721	0.178309	0.200497	0.085611
1901	0.198689	0.180116	0.200825	0.089556
1902	0.19573	0.185047	0.199182	0.093993
1903	0.198524	0.183568	0.203291	0.095966
1904	0.201319	0.182417	0.199346	0.103362
1905	0.20099	0.182582	0.200661	0.103033
1906	0.199182	0.18554	0.199511	0.107799
1907	0.194416	0.183732	0.202633	0.111087
1908	0.197703	0.186691	0.195402	0.115031
1909	0.19836	0.185376	0.193101	0.116182
1910	0.201154	0.180445	0.200168	0.123742
1911	0.197538	0.183732	0.197867	0.119797
1912	0.199675	0.185869	0.19721	0.127194
1913	0.196388	0.182746	0.199018	0.129495
1914	0.200825	0.184061	0.20362	0.132782
1915	0.199018	0.185047	0.205592	0.13837
1916	0.199346	0.189156	0.204441	0.138699
1917	0.199346	0.191621	0.201812	0.141328
1918	0.194416	0.19195	0.205099	0.141493
1919	0.197374	0.190964	0.199839	0.145766
1920	0.197538	0.190307	0.199018	0.145766
1921	0.196059	0.193265	0.200332	0.151354
1922	0.200497	0.192115	0.200004	0.147245
1923	0.199839	0.192936	0.199346	0.154148
1924	0.195237	0.189649	0.198031	0.152505
1925	0.20099	0.191128	0.202469	0.15612
1926	0.197374	0.191786	0.200661	0.15612
1927	0.199675	0.19195	0.201319	0.160887
1928	0.198853	0.189978	0.201976	0.160887
1929	0.196059	0.189814	0.197045	0.162366
1930	0.200497	0.169598	0.198524	0.168118
1931	0.196223	0.154148	0.202469	0.167297
1932	0.205263	0.147574	0.200004	0.168118
1933	0.200497	0.150697	0.20214	0.166968
1934	0.197374	0.151354	0.19721	0.170748
1935	0.197045	0.15234	0.199018	0.164174
1936	0.201319	0.155956	0.200332	0.167625
1937	0.197703	0.15497	0.195895	0.166968
1938	0.199675	0.163023	0.200661	0.171734
1939	0.200168	0.161051	0.199182	0.174035
1940	0.199182	0.164174	0.195895	0.176994
1941	0.196059	0.161709	0.19836	0.178802
1942	0.200497	0.166311	0.203455	0.177651
1943	0.196059	0.165489	0.199675	0.179952
1944	0.19836	0.168447	0.199346	0.180445
1945	0.196059	0.167625	0.200497	0.18176
1946	0.200332	0.169762	0.198524	0.17913
1947	0.20099	0.169598	0.201319	0.181924
1948	0.199839	0.170091	0.202305	0.183075
1949	0.200004	0.172556	0.200661	0.184061
1950	0.198524	0.174857	0.201483	0.183075
1951	0.197045	0.174528	0.192772	0.183732
1952	0.194416	0.175843	0.197538	0.186855
1953	0.197703	0.178966	0.198196	0.185212
1954	0.196717	0.178637	0.199346	0.182417
1955	0.200332	0.178144	0.200332	0.18439
1956	0.199182	0.179952	0.199839	0.185047
1957	0.199018	0.181431	0.195566	0.185047
1958	0.199675	0.177651	0.19458	0.187019
1959	0.071477	0.181924	0.194909	0.188827
1960	0.005076	0.183568	0.199018	0.188499
1961	0.015431	0.181596	0.19836	0.188992
1962	-0.000183	0.182089	0.187348	0.189485
1963	-0.000183	0.18176	0.197045	0.192279
1964	0.00031	0.183075	0.197703	0.192772
1965	0.000474	0.184554	0.201976	0.191457
1966	0.000639	0.185376	0.199182	0.192279
1967	0.000639	0.183732	0.19836	0.192115
1968	0.001132	0.187677	0.197867	0.189978
1969	0.009678	0.186691	0.199346	0.191293
1970	0.017403	0.188006	0.199839	0.192443
1971	0.022334	0.188006	0.198689	0.191293
1972	0.029566	0.188663	0.20214	0.193922
1973	0.034003	0.190471	0.18932	0.192608
1974	0.040577	0.191128	0.19836	0.195566
1975	0.046659	0.189156	0.199018	0.195566
1976	0.056356	0.192279	0.200497	0.195402
1977	0.056027	0.191786	0.19721	0.194909
1978	0.063259	0.192115	0.201647	0.193922
1979	0.072956	0.189485	0.197374	0.195566
1980	0.075914	0.189978	0.199839	0.195237
1981	0.080023	0.188006	0.20099	0.195237
1982	0.086926	0.190964	0.199182	0.19458
1983	0.093336	0.192279	0.200004	0.195237
1984	0.090378	0.190635	0.191786	0.192936
1985	0.089885	0.193429	0.19836	0.197703
1986	0.089556	0.193101	0.200497	0.194251
1987	0.094322	0.192443	0.197867	0.195566
1988	0.095966	0.191786	0.200497	0.196223
1989	0.102376	0.193594	0.201319	0.194909
1990	0.105498	0.189485	0.19721	0.193429
1991	0.1101	0.196717	0.202305	0.199018
1992	0.113552	0.192279	0.200661	0.196881
1993	0.115853	0.196388	0.202469	0.19836
1994	0.118318	0.198853	0.200004	0.198196
1995	0.120948	0.194087	0.191293	0.196881
1996	0.128344	0.195566	0.194087	0.199346
1997	0.129495	0.194416	0.19836	0.19836
1998	0.130481	0.194744	0.197045	0.200332
1999	0.133439	0.192608	0.031867	0.193429
2000	0.136398	0.195073	0.019375	0.197538
2001	0.13459	0.192936	0.025128	0.196059
2002	0.138205	0.195895	0.036633	0.197867
2003	0.138699	0.192115	0.042057	0.196059
2004	0.137055	0.194087	0.048631	0.198524
2005	0.106813	0.194909	0.051425	0.199182
2006	0.062601	0.196881	0.054383	0.198689
2007	0.031702	0.19836	0.057835	0.200661
2008	0.025128	0.199018	0.067861	0.199182
2009	0.027429	0.192936	0.072956	0.200825
2010	0.033674	0.19721	0.078873	0.198524
2011	0.039756	0.197867	0.040577	0.19836
2012	0.046987	0.191786	0.043207	0.198524
2013	0.053069	0.19458	0.050439	0.197867
2014	0.060793	0.191128	0.053562	0.199511
2015	0.069669	0.192608	0.058985	0.196388
2016	0.067368	0.192936	0.036469	0.19836
2017	0.076736	0.193758	0.000474	0.19836
2018	0.077393	0.191786	0.00672	0.198031
2019	0.082982	0.193758	0.011322	0.198196
2020	0.086597	0.193101	0.008363	0.200004
2021	0.081174	0.193594	0.002611	0.198196
2022	0.035318	0.19458	-0.000347	0.199675
2023	0.042385	0.196388	0.006884	0.200497
2024	0.047152	0.195237	0.001954	0.198196
2025	0.053726	0.195073	0.000146	0.199511
2026	0.058328	0.196881	-0.000347	0.200661
2027	0.06293	0.197045	0.00031	0.199346
2028	0.065395	0.200661	-0.001991	0.199675
2029	0.054055	0.205592	-0.000347	0.199675
2030	0.040084	0.195566	-1.9e-05	0.200004
2031	0.04748	0.199675	0.000146	0.196717
2032	0.042057	0.199018	0.000967	0.198524
2033	0.003104	0.197374	0.000967	0.198853
2034	0.001296	0.198031	0.00031	0.197867
2035	0.00031	0.194416	0.000639	0.19458
2036	-0.000676	0.195566	-0.000183	0.194251
2037	0.00031	0.194744	-0.000183	0.195237
2038	-0.000183	0.196388	-0.000347	0.191293
2039	-0.001334	0.198689	-0.000512	0.191457
2040	-0.000183	0.197045	-0.000183	0.189485
2041	0.000474	0.197045	0.000146	0.18932
2042	0.000474	0.196388	0.00031	0.178802
2043	0.00031	0.197045	0.00031	0.165817
2044	0.000639	0.200004	0.00031	0.158421
2045	0.00031	0.198031	0.000146	0.154477
2046	0.000146	0.19721	-0.000183	0.150697
2047	-0.001005	0.19573	-0.000183	0.144122
2048	-0.000676	0.193429	-0.000347	0.142972
2049	-0.000512	0.199018	-0.000512	0.143136
2050	-0.000512	0.199346	-0.000183	0.136891
2051	-0.000512	0.197045	-1.9e-05	0.133439
2052	-1.9e-05	0.195073	0.000146	0.126865
2053	0.000474	0.196717	0.00031	0.118154
2054	0.00031	0.196388	0.000639	0.113223
2055	0.000639	0.198524	0.000474	0.104841
2056	0.000146	0.196388	0.000146	0.092186
2057	0.000146	0.195566	0.00031	0.083146
2058	-0.000347	0.199182	-0.000347	0.073613
2059	-0.000183	0.199182	-0.000347	0.063916
2060	-0.000347	0.197374	-0.000183	0.064245
2061	-0.000512	0.202305	-0.000347	0.063916
2062	-0.000347	0.198524	-0.000183	0.070819
2063	0.000146	0.198031	-0.000183	0.070162
2064	0.00031	0.199675	0.000474	0.076407
2065	0.00031	0.197045	0.000146	0.0769
2066	0.000474	0.198853	0.00031	0.079366
2067	0.00031	0.195402	0.00031	0.078544
2068	0.000146	0.194416	-0.000183	0.079366
2069	-0.000183	0.195237	-0.000183	0.081009
2070	-0.000183	0.195237	-0.000183	0.084461
2071	-0.000512	0.195237	-0.000512	0.086762
2072	-0.000512	0.197045	-0.000347	0.081831
2073	-0.000183	0.196881	-0.000183	0.081338
2074	0.000146	0.192936	0.000146	0.083803
2075	0.000474	0.192115	0.00031	0.084789
2076	0.00031	0.000474	0.000639	0.083475
2077	0.00031	0.002282	0.000146	0.082653
2078	0.000474	0.000146	0.000474	0.076572
2079	0.000146	0.000146	-0.000183	0.076572
2080	-1.9e-05	0.000639	-1.9e-05	0.076572
2081	-0.000347	0.00031	-0.000347	0.077886
2082	-0.000512	-0.00232	-0.000183	0.074435
2083	-0.000347	0.007049	-0.000512	0.07049
2084	-0.000512	0.015924	-0.000183	0.071312
2085	0.00031	0.01954	-1.9e-05	0.075421
2086	0.00031	0.031209	0.00031	0.074106
2087	0.00031	0.039263	0.000474	0.081338
2088	0.00031	0.041235	0.000474	0.08331
2089	0.000639	0.049617	0.00031	0.081174
2090	0.000146	0.054219	-1.9e-05	0.089063
2091	-1.9e-05	0.062601	-0.000347	0.087419
2092	-0.000183	0.068518	-0.000183	0.085611
2093	-0.000347	0.071477	-0.000512	0.086926
2094	0.001954	0.078873	-0.000512	0.088405
2095	-0.000676	0.080845	-1.9e-05	0.085611
2096	-1.9e-05	0.087584	-1.9e-05	0.087255
2097	0.000146	0.089391	0.000474	0.089063
2098	0.000146	0.097938	-1.9e-05	0.083968
2099	0.000146	0.100403	0.00031	0.085611
2100	0.000474	0.102869	0.000146	0.077229
2101	-0.000347	0.105827	-1.9e-05	0.054712
2102	-0.000183	0.106649	-0.000183	0.054383
2103	-0.000512	0.115524	-0.000347	0.061451
2104	-0.000347	0.11799	-0.000512	0.056849
2105	-0.000512	0.120126	-0.000347	0.057835
2106	-0.000347	0.124071	-0.000183	0.056027
2107	-1.9e-05	0.127851	0.000146	0.062273
2108	0.000474	0.127029	0.000146	0.059807
2109	0.00031	0.132617	0.00031	0.064409
2110	0.000474	0.132453	0.00031	0.071312
2111	0.000474	0.131631	0.000146	0.069176
2112	-1.9e-05	0.135411	0.000146	0.072627
2113	-0.000183	0.141	-0.000512	0.077722
2114	-0.000347	0.142643	-0.000183	0.077558
2115	-0.000347	0.145602	-0.000183	0.081338
2116	-0.000512	0.147245	-0.000676	0.081995
2117	-0.000183	0.149053	-0.000512	0.080681
2118	0.000146	0.15612	-1.9e-05	0.084132
2119	0.000146	0.154641	0.000146	0.089391
2120	0.000474	0.155956	0.000474	0.091035
2121	0.00031	0.157107	0.000146	0.095144
2122	0.000474	0.157435	0.000146	0.092514
2123	0.000146	0.161215	0.000146	0.085447
2124	-0.000347	0.16138	-0.000347	0.093336
2125	-0.000347	0.16401	-0.000183	0.090378
2126	-0.000512	0.167625	-0.000347	0.091364
2127	-0.000512	0.163188	-0.000512	0.089556
2128	-0.000183	0.16401	-0.000347	0.090706
2129	0.000146	0.167132	0.000146	0.089885
2130	0.000146	0.164996	0.00031	0.084954
2131	0.00031	0.163516	0.000474	0.077558
2132	0.00031	0.167132	0.00031	0.077229
2133	0.00031	0.168283	0.00031	0.070819
2134	0.000146	0.169926	0.000146	0.068025
2135	-0.000347	0.170091	-0.000347	0.074764
2136	-0.000347	0.170748	-0.000347	0.072134
2137	-0.000183	0.174035	-0.000183	0.070819
2138	-0.000676	0.171899	-0.000512	0.07312
2139	-0.000347	0.176008	-0.000183	0.080187
2140	-1.9e-05	0.173542	0.000146	0.078215
2141	0.00031	0.174693	0.00031	0.080023
2142	0.00031	0.175186	0.000474	0.080023
2143	0.00031	0.180116	0.000146	0.078708
2144	0.000474	0.179295	0.00031	0.079201
2145	0.00031	0.176829	0.000146	0.08216
2146	-0.000183	0.180445	-0.000183	0.081009
2147	-0.000347	0.17913	-0.000183	0.078215
2148	-0.000347	0.181267	-0.000676	0.081667
2149	-0.000512	0.183075	-0.000347	0.081667
2150	-0.000183	0.182746	-0.000347	0.085611
2151	-1.9e-05	0.183897	-1.9e-05	0.093665
2152	0.000146	0.184554	0.00031	0.092843
2153	0.00031	0.184061	0.00031	0.092186
2154	0.000474	0.18817	0.000474	0.093829
2155	0.000474	0.18439	0.00031	0.092679
2156	0.000146	0.188827	0.000146	0.098102
2157	-1.9e-05	0.182417	-1.9e-05	0.100075
2158	-0.000347	0.000474	-0.000347	0.102376
2159	-0.000512	0.003761	-0.000347	0.104019
2160	-0.000183	0.014938	-0.000512	0.101554
2161	-0.000347	0.022334	-0.000347	0.105663
2162	-1.9e-05	0.022169	0.000146	0.097281
2163	0.000146	0.031045	0.000146	0.09235
2164	0.000146	0.039263	0.000474	0.087255
2165	0.00031	0.042057	0.00031	0.088898
2166	0.00031	0.046001	0.000474	0.082817
2167	0.000146	0.050603	-1.9e-05	0.086104
2168	-0.000183	0.05389	-0.000183	0.079859
2169	-0.000347	0.056356	-0.000347	0.083146
2170	-0.000676	0.057671	-0.000347	0.081667
2171	-0.000676	0.061122	-0.000347	0.040577
2172	-0.000183	0.06556	-0.000512	0.044686
2173	-1.9e-05	0.072956	-1.9e-05	0.045179
2174	0.00031	0.073449	0.00031	0.050439
2175	0.00031	0.080352	0.00031	0.054219
2176	0.000474	0.083968	0.000474	0.062437
2177	0.00031	0.089885	0.000474	0.0603
2178	0.000146	0.094815	-1.9e-05	0.067368
2179	-0.000183	0.095637	-0.000347	0.070819
2180	-0.000183	0.100732	-0.000347	0.077229
2181	-0.000512	0.105334	-0.000512	0.079694
2182	-0.000512	0.113552	-0.000512	0.083639
2183	-0.000183	0.108621	-0.000512	0.093993
2184	0.000146	0.104512	-0.000183	0.097445
2185	0.000146	0.10632	0.000474	0.094487
2186	0.000474	0.10895	0.00031	0.103855
2187	0.000474	0.104512	0.000474	0.108786
2188	0.000146	0.092186	0.000146	0.103197
2189	-1.9e-05	0.085776	0.000146	0.106649
2190	-0.000512	0.0105	-0.000183	0.110593
2191	-0.000512	0.000474	-0.000512	0.110758
2192	-0.000512	0.001625	-0.000183	0.114538
2193	-0.000512	0.000146	-0.000183	0.115031
2194	-0.000183	-0.000512	-0.000183	0.119469
2195	-0.001498	-0.000676	-1.9e-05	0.120126
2196	0.005076	-0.000347	0.00031	0.118976
2197	0.010829	0.000146	0.00031	0.123085
2198	0.019704	0.00031	0.00031	0.127851
2199	0.026114	0.000146	0.000474	0.124399
2200	0.034168	0.00031	0.000146	0.1267
2201	0.040906	0.000474	-0.000183	0.130809
2202	0.044851	0.000967	-0.000183	0.131302
2203	0.051261	0.000474	-0.000183	0.136398
2204	0.052904	0.000639	-0.000512	0.135247
2205	0.063587	-1.9e-05	-0.000183	0.141821
2206	0.066381	-0.000512	-1.9e-05	0.142643
2207	0.072463	-0.000512	0.000146	0.137219
2208	0.07312	-0.000841	0.000146	0.145273
2209	0.077886	0.000474	0.00031	0.137055
2210	0.076736	-1.9e-05	0.000146	0.131302
2211	0.091692	0.000803	-1.9e-05	0.133275
2212	0.090213	-0.000183	-0.000183	0.135247
2213	0.092679	0.000146	-0.000347	0.136069
2214	0.100075	0.000967	-0.000347	0.139027
2215	0.100568	0.000146	-0.000347	0.139849
2216	0.107306	-0.000347	-0.000676	0.140013
2217	0.107635	0.000146	0.00031	0.140342
2218	0.112894	-0.000347	0.000146	0.141493
2219	0.112894	-0.000183	0.000146	0.141493
2220	0.117661	-1.9e-05	0.000474	0.146588
2221	0.120619	-0.000183	0.00031	0.136891
2222	0.124564	0.000474	-0.000183	0.140671
2223	0.126207	0.000474	-1.9e-05	0.137548
2224	0.125714	0.000639	-0.000183	0.140342
2225	0.126043	0.00031	-0.000512	0.143794
2226	0.130316	0.00031	-0.000512	0.141493
2227	0.134425	-0.000676	-0.000347	0.145273
2228	0.130645	-1.9e-05	-0.000183	0.144615
2229	0.135083	-0.000676	-1.9e-05	0.145766
2230	0.134097	-0.000512	0.000146	0.146095
2231	0.137055	-0.000183	0.000474	0.153162
2232	0.139356	0.000146	0.000474	0.146916
2233	0.142479	0.000803	0.00031	0.140835
2234	0.136726	0.00031	-0.000347	0.14593
2235	0.137712	0.000146	-0.000347	0.147738
2236	0.126207	0.000639	-0.000676	0.144944
2237	0.082488	0.000474	-0.000347	0.151025
2238	0.004912	0.000146	-0.000183	0.15497
2239	0.001789	-0.000183	0.000146	0.153326
2240	0.00935	-0.000512	0.00031	0.154477
2241	0.001625	-0.000347	0.000146	0.155299
2242	0.000146	-0.000183	0.000474	0.155956
2243	0.002118	0.00031	0.00031	0.15497
2244	0.005734	-1.9e-05	0.000146	0.159243
2245	-1.9e-05	0.000146	-0.000347	0.156942
2246	0.003268	0.000474	-0.000347	0.156285
2247	-0.001662	0.000474	-0.000183	0.157271
2248	0.001954	0.00031	-0.000512	0.156449
2249	0.002611	0.000146	-0.000347	0.15612
2250	0.001625	-0.000347	0.00031	0.15612
2251	-0.000183	-0.000347	0.000474	0.156778
2252	0.001625	-0.000183	0.000474	0.158586
2253	0.00031	-1.9e-05	0.000474	0.152833
2254	0.00294	0.00031	0.000474	0.159408
2255	0.001132	-0.000183	-1.9e-05	0.155134
2256	0.000146	0.00031	-0.000347	0.157928
2257	0.000639	0.000474	-0.000347	0.160065
2258	-0.000512	0.00031	-0.000347	0.15497
2259	0.000967	0.000967	-0.000676	0.158914
2260	0.005405	-1.9e-05	-0.000183	0.159901
2261	0.000639	-0.000183	-1.9e-05	0.160722
2262	-1.9e-05	-0.000347	0.000146	0.161544
2263	0.002118	-0.000676	0.000146	0.164338
2264	0.00146	-0.000512	0.000474	0.149875
2265	0.003268	-1.9e-05	0.00031	0.160229
2266	0.001789	0.000474	-1.9e-05	0.159079
2267	0.002775	0.000474	-0.000183	0.163352
2268	-0.00232	0.00031	-0.000183	0.15875
2269	0.002611	0.000474	-0.000347	0.159736
2270	0.000146	0.00031	-0.000347	0.159736
2271	0.003433	0.000146	-0.000347	0.156942
2272	0.000474	-0.000183	-1.9e-05	0.157107
2273	0.003268	-0.000183	0.000146	0.159079
2274	0.003268	-0.000512	0.000146	0.159572
2275	0.001132	-0.000676	0.00031	0.145602
2276	0.00146	-0.000183	0.000146	0.155463
2277	0.001132	0.000146	0.000146	0.155956
2278	0.005734	0.000146	-0.000183	0.15875
2279	0.009021	0.000474	-0.000512	0.156778
2280	0.012144	0.00031	-0.000512	0.160394
2281	-0.001662	0.00031	-0.000512	0.158914
2282	0.00672	-0.000183	-0.000183	0.163845
2283	0.000474	-0.000347	0.000146	0.162695
2284	0.00146	-1.9e-05	0.00031	0.158914
2285	0.006391	-0.000841	0.00031	0.161051
2286	0.00935	-0.000676	0.000474	0.151354
2287	0.0105	0.000146	0.000474	0.156613
2288	0.011979	0.000474	0.000474	0.160229
2289	0.020197	0.000474	-0.000183	0.164503
2290	0.029401	0.000639	-0.000347	0.165653
2291	0.037948	0.000474	-0.000347	0.167625
2292	0.041235	0.000146	-0.000347	0.166475
2293	0.04748	-0.000183	-0.000347	0.170091
2294	0.050274	-0.000347	-0.000183	0.167461
2295	0.056356	-0.000512	0.000146	0.170913
2296	0.061286	-0.000347	0.000474	0.170748
2297	0.067203	-0.000512	0.00031	0.161051
2298	0.070819	-0.000183	0.000474	0.166475
2299	0.076079	0.000639	-1.9e-05	0.169598
2300	0.080516	0.00031	-0.000183	0.168776
2301	0.086104	0.000474	-0.000347	0.168447
2302	0.090213	0.000146	-0.000512	0.16894
2303	0.097116	0.00031	-0.000512	0.164174
2304	0.100239	-1.9e-05	-0.000347	0.16779
2305	0.102869	-0.000183	0.000146	0.166968
2306	0.109114	-1.9e-05	0.000146	0.169433
2307	0.113223	-0.000183	0.000146	0.169105
2308	0.115195	-1.9e-05	0.000146	0.164503
2309	0.120619	0.00031	0.000474	0.170748
2310	0.123906	0.00031	-1.9e-05	0.174528
2311	0.11914	0.000146	-0.000183	0.172063
2312	0.128015	0.000639	-0.000512	0.173871
2313	0.129988	0.000146	-0.000512	0.173542
2314	0.132453	0.000639	-0.000512	0.169762
2315	0.135083	-0.000347	-0.000347	0.175186
2316	0.136726	0.000146	0.000146	0.171734
2317	0.139192	-0.000676	0.00031	0.17535
2318	0.141821	-0.000347	0.000474	0.174364
2319	0.145108	-0.000183	0.000474	0.16894
2320	0.150039	-0.000183	0.000146	0.172063
2321	0.148231	0.000803	0.000146	0.176172
2322	0.153326	0.00031	-0.000347	0.175186
2323	0.155627	0.000146	-0.000347	0.177158
2324	0.156778	0.000474	-0.000512	0.175186
2325	0.154312	0.00031	-0.000676	0.177322
2326	0.159079	0.00031	-0.000347	0.178144
2327	0.161215	-0.000347	-1.9e-05	0.181431
2328	0.16253	-0.000347	0.000146	0.177815
2329	0.165324	-0.000512	0.00031	0.178637
2330	0.166639	-0.000183	0.000474	0.178144
2331	0.163023	-1.9e-05	0.000474	0.17798
2332	0.166311	0.00031	0.000146	0.179623
2333	0.169269	0.000474	-0.000183	0.176994
2334	0.168776	0.000146	-0.000183	0.178802
2335	0.169762	0.000474	-0.000512	0.178309
2336	0.171241	0.00031	-0.000512	0.178802
2337	0.173542	-1.9e-05	-0.000347	0.180938
2338	0.174528	-0.000347	0.000146	0.173871
2339	0.175515	-1.9e-05	0.00031	0.176336
2340	0.180116	-0.000347	0.00031	0.179295
2341	0.172063	0.000967	0.000146	0.177322
2342	0.178637	0.000146	0.000474	0.179623
2343	0.177487	0.000146	0.000146	0.18061
2344	0.180774	0.000639	-1.9e-05	0.181596
2345	0.180938	0.000146	-0.000183	0.181267
2346	0.180938	0.000803	-0.000347	0.181431
2347	0.180281	0.000146	-0.000512	0.182582
2348	0.178966	0.000146	-0.000347	0.182582
2349	0.17913	-0.000347	0.000146	0.183568
2350	0.181431	-0.000347	0.000146	0.184225
2351	0.179952	-0.000512	0.00031	0.183897
2352	0.180774	0.000146	0.000474	0.182911
2353	0.182911	-0.000183	0.00031	0.181103
2354	0.182746	0.000146	0.00031	0.180445
2355	0.18817	0.00031	-1.9e-05	0.18554
2356	0.186033	0.000474	-0.000183	0.183404
2357	0.188827	0.000474	-0.000347	0.119797
2358	0.189485	0.00031	-0.000347	0.108621
2359	0.190471	-0.000183	-0.000347	0.112401
2360	0.187348	-0.000347	-1.9e-05	0.113059
2361	0.191786	-0.000512	0.00031	0.11799
2362	0.188992	-0.000183	0.000474	0.086104
2363	0.188663	0.00031	0.000146	0.057506
2364	0.188006	-0.000183	0.00031	0.062766
2365	0.188992	0.000803	0.000146	0.050274
2366	0.189814	0.000474	-0.000183	0.054055
2367	0.188827	0.000639	-0.000347	0.01954
2368	0.189485	-1.9e-05	-0.000512	0.011651
2369	0.188334	0.000474	-0.000512	0.006062
2370	0.191786	-0.000183	-0.000183	0.005898
2371	0.190307	-0.000347	-1.9e-05	0.003104
2372	0.193429	-0.000512	0.00031	0.00409
2373	0.188992	-0.000183	0.00031	0.008035
2374	0.190471	-1.9e-05	0.000474	0.005241
2375	0.191457	-0.000512	0.000474	0.000639
2376	0.041235	0.00031	0.000146	0.002447
2377	-0.000347	0.000474	-0.000183	0.003104
2378	0.005734	0.00031	-0.000347	0.000803
2379	0.011651	0.000474	-0.000512	0.002282
2380	0.021841	0.00031	-0.000347	0.002447
2381	0.030387	-0.000183	-0.000183	0.001296
2382	0.033181	-1.9e-05	-0.000183	-0.000676
2383	0.037948	-0.000347	0.005734	0.000967
2384	0.04633	-0.000183	0.002775	-0.001827
2385	0.048795	-0.000512	0.00294	0.003104
2386	0.051754	0.00031	0.004255	-0.001005
2387	0.046494	0.000146	0.004255	0.001954
2388	0.027265	0.00031	0.003597	0.001296
2389	0.001954	0.00031	0.009843	-1.9e-05
2390	0.000146	0.000474	0.01428	0.000803
2391	0.001296	0.000474	0.021183	-0.004128
2392	0.001296	-1.9e-05	0.021676	0.001132
2393	0.001296	-0.000512	0.021676	0.003926
2394	0.000474	-0.000841	0.023977	-0.000183
2395	0.00031	-0.000347	0.030716	0.00294
2396	0.000474	-0.000676	0.030716	0.00146
2397	0.000474	0.000146	0.032853	-0.000183
2398	0.000474	0.000639	0.025457	0.005076
2399	-0.000183	0.00031	0.023977	0.002775
2400	-0.000512	0.00031	0.007213	0.006556
2401	-0.000347	0.000146	0.005241	0.003926
2402	-0.000512	0.000639	0.003761	0.000146
2403	-0.000512	-0.000183	0.004912	0.000146
2404	-1.9e-05	-0.000676	0.005734	-1.9e-05
2405	0.000146	-0.000676	0.006884	-0.000676
2406	0.000146	-1.9e-05	0.003433	0.000967
2407	0.00031	-0.001169	0.005569	-0.001498
2408	0.00031	0.000146	0.005898	-0.000183
2409	0.000146	0.000474	0.010993	0.001132
2410	0.000146	0.000474	0.020197	0.003433
2411	-0.000512	0.000639	0.015924	0.011815
2412	-0.000347	0.000639	0.003104	0.017239
2413	-0.000512	0.00031	0.004748	0.017403
2414	-0.000183	0.00031	0.003926	0.010171
2415	0.000146	-0.000183	0.006391	0.016417
2416	0.00031	-0.000347	0.004748	0.021019
2417	0.00031	-0.000347	0.010993	0.02973
2418	0.00031	-0.000512	0.01313	0.033839
2419	0.000474	-0.000183	0.019211	0.041399
2420	-1.9e-05	0.00031	0.010336	0.047809
2421	-0.000183	-1.9e-05	0.007706	0.050932
2422	-0.000347	0.000474	0.00409	0.054548
2423	-0.000512	0.000474	0.008857	0.059807
2424	-0.000512	-1.9e-05	0.008363	0.0603
2425	-1.9e-05	-1.9e-05	-0.001005	0.066875
2426	0.000146	-0.000512	0.002775	0.074928
2427	0.000146	-0.000183	0.005241	0.075421
2428	0.000474	-0.000347	0.005734	0.080023
2429	0.000639	-0.000347	0.000639	0.086269
2430	0.00031	-1.9e-05	0.003597	0.092679
2431	0.000146	0.000639	0.003926	0.094651
2432	-0.000183	0.000474	0.010171	0.100403
2433	-0.000183	0.00031	0.00935	0.104512
2434	-0.000512	0.000639	-0.001005	0.10895
2435	-0.000512	0.00031	0.001296	0.109114
2436	-0.000347	-0.000183	0.006227	0.114702
2437	0.000146	-0.000512	0.011322	0.119469
2438	0.000146	-0.000347	0.016417	0.123249
2439	0.000474	-0.000512	0.008363	0.122098
2440	0.00031	-0.000512	0.009514	0.124728
2441	0.00031	0.000146	0.000967	0.128837
2442	0.00031	0.000474	0.004419	0.130974
2443	-0.000183	0.000146	0.00146	0.134425
2444	-0.000347	0.000474	0.007213	0.138534
2445	-0.000512	0.00031	0.003268	0.138534
2446	-0.000347	0.00031	0.00672	0.146423
2447	-0.000512	-0.000183	0.012637	0.144451
2448	-1.9e-05	-0.000183	0.014938	0.144615
2449	0.000146	-0.000512	0.018061	0.151683
2450	0.000474	-0.000512	0.01954	0.149546
2451	0.00031	-0.000676	0.01954	0.154148
2452	0.000474	-0.000347	0.017074	0.154148
2453	0.000474	0.00031	0.016581	0.156285
2454	-0.000347	0.000474	0.003597	0.16401
2455	-1.9e-05	0.000474	0.002118	0.159243
2456	-0.000512	0.000474	-0.000841	0.162695
2457	-0.000347	-1.9e-05	0.00146	0.165817
2458	-0.000347	-1.9e-05	-1.9e-05	0.164831
2459	0.000146	-0.000183	-0.001498	0.165489
2460	0.00031	-0.000347	-0.000512	0.168447
2461	0.000474	-0.000512	0.001625	0.168776
2462	0.000474	-0.000183	0.004583	0.171077
2463	0.000474	0.000146	0.002447	0.168447
2464	0.00031	0.00031	0.008199	0.171734
2465	-0.000347	0.00031	0.001296	0.171899
2466	-0.000347	0.000639	0.000967	0.1742
2467	-0.000183	0.000474	0.001789	0.176665
2468	-0.000347	0.000474	0.004419	0.179788
2469	-0.000183	-1.9e-05	-0.000676	0.178637
2470	-1.9e-05	-1.9e-05	0.002775	0.178966
2471	0.000146	-0.000512	0.006062	0.18061
2472	0.00031	-0.000676	-0.001169	0.179952
2473	0.00031	-0.000183	0.000639	0.181103
2474	0.000474	-1.9e-05	0.001789	0.181431
2475	0.000146	-1.9e-05	-0.00232	0.183897
2476	-0.000183	0.000474	0.00031	0.184554
2477	-0.000183	0.00031	0.005734	0.182582
2478	-0.000183	0.000639	0.003104	0.182417
2479	-0.000512	0.000474	-0.001005	0.184883
2480	-0.000183	-0.000347	-0.005278	0.184061
2481	-1.9e-05	-0.000347	0.001625	0.188006
2482	0.000146	-0.000512	0.001296	0.186691
2483	0.00031	-0.000347	0.002775	0.186526
2484	0.00031	-0.000183	-0.001334	0.186691
2485	0.000474	0.000146	0.00409	0.18817
2486	0.000146	-1.9e-05	0.001296	0.187184
2487	-0.000183	0.00031	0.002118	0.188827
2488	-0.000512	0.000146	0.002611	0.191457
2489	-0.000512	0.000639	0.00294	0.191293
2490	-0.000512	-1.9e-05	-0.000512	0.194251
2491	-0.000347	0.000146	0.004583	0.192772
2492	0.000146	-0.000347	0.009021	0.192936
2493	0.000146	-0.000183	0.004583	0.192279
2494	0.000146	-0.000347	0.009021	0.193758
2495	0.00031	-0.000512	0.005734	0.191621
2496	0.000639	0.000146	0.0105	0.194087
2497	0.000146	0.000146	0.011651	0.191128
2498	-1.9e-05	0.000967	0.01691	0.191293
2499	-0.000347	0.000474	0.009843	0.190964
