Ladekurvenmessung
Zeit: 2018_05_04 09.57.18
Info: FVA3, v = 0.533, T = 23, F = 20, h = 381.9
Ladewiderstand[Ohm]: 1012700
Störkapazität[pF]: 0.000000
Entladezeit[ms]: 200
Abtastrate[Hz]: 250000
Anzahl der Messwerte: 2500.000000
Verzögerung[ms]: 3
Ladespannung[V]: 0.200000
	Kurve_1	Kurve_2	Kurve_3	Kurve_4
0	-0.003635	-0.001334	0.00031	-0.003306
1	-1.9e-05	0.005241	0.00409	-0.002155
2	0.000803	0.000639	0.003761	0.000146
3	0.000803	0.002447	-0.000676	0.000967
4	-0.000512	0.001789	0.002775	0.001625
5	0.002447	0.000803	-0.000512	0.000967
6	0.00031	0.000474	-0.000676	0.003926
7	0.004255	-0.000183	0.00031	0.000146
8	-0.000512	-0.000676	-0.001169	0.001789
9	0.001132	-0.003142	0.004419	0.000639
10	-0.004128	-0.004456	-0.003142	0.005734
11	-0.001498	-0.005278	-0.000676	-0.002155
12	0.000146	0.000639	-0.002155	-1.9e-05
13	-0.005114	-0.000512	-0.002813	0.001954
14	0.000803	-0.001991	-0.002813	-0.002813
15	0.000639	0.000803	0.000639	0.000967
16	0.001625	-0.000512	0.001132	-0.001991
17	-0.003635	0.000474	0.001954	0.00031
18	0.003104	0.001789	0.000146	-0.001498
19	-0.005278	-0.001498	-0.004456	-0.003142
20	-0.001005	0.000474	0.002611	-0.000183
21	-0.005278	-0.001334	-0.000841	-0.000347
22	-0.003142	-0.001498	-0.002155	0.000146
23	-0.001498	-0.001827	-0.003635	0.001296
24	-0.000183	-0.005443	-0.001334	-0.000676
25	-0.000512	-0.002155	-0.00232	0.00031
26	-0.000841	-0.002813	-0.001498	-0.000676
27	0.001296	-0.001662	0.003104	-0.000347
28	-0.004621	-0.001827	-0.002648	-0.001169
29	0.003268	0.00146	-0.0061	-0.000183
30	-0.001662	-0.00232	-0.001334	-0.00347
31	-0.002484	-0.001169	-0.007744	-0.002977
32	-0.003142	-0.000841	-0.001991	-0.00347
33	-0.003142	0.000146	-0.000347	-0.003306
34	-0.002155	-0.000676	0.002282	-0.000512
35	-0.001005	0.001132	-0.001662	0.000474
36	-0.004128	0.001296	0.005241	-0.003799
37	-0.003963	-0.000512	-0.001827	-0.005607
38	-0.003963	0.000146	0.001296	0.001296
39	-0.001991	-0.00347	0.004419	0.00031
40	-0.000676	0.001954	-0.003799	-0.001498
41	0.000803	0.000474	-0.00232	0.000967
42	-0.001991	-0.000512	-0.011524	0.002282
43	0.003268	-0.000676	-0.001827	0.000803
44	-1.9e-05	0.002447	-0.003142	-1.9e-05
45	-0.002648	0.000967	-0.001169	-0.002977
46	-0.002155	-0.002484	-0.002648	-0.000512
47	0.000967	0.00031	-0.001005	-0.001169
48	-0.002155	0.001132	-0.00232	-0.004456
49	-0.001827	-0.000676	0.004255	-0.002155
50	0.001132	-0.00347	-0.000183	-0.003963
51	-0.001827	0.00146	0.00031	0.000474
52	-0.000183	0.001296	-0.000512	-0.000841
53	-0.001498	-0.001334	-0.008894	0.00146
54	-0.002155	0.000803	-0.003635	-0.001334
55	-0.001498	0.000146	-0.004785	-0.000183
56	-0.000676	-0.00232	0.000474	0.00031
57	0.000146	-0.000841	-0.004128	-0.000512
58	-0.000841	-0.002155	-0.001991	-0.001662
59	-1.9e-05	-0.000512	-0.000676	0.002447
60	0.000967	-1.9e-05	0.000803	0.002447
61	-0.000512	0.003597	-0.001827	-0.000841
62	0.000639	0.000803	-0.000676	-0.001169
63	-1.9e-05	-0.000183	-0.004456	-0.001334
64	-0.004621	-0.004128	-0.003963	-0.000512
65	-0.004949	-0.000347	-0.002813	-0.001827
66	0.00787	-0.003142	-0.002813	-0.004128
67	-0.001005	-0.001334	-0.002155	-0.001169
68	-0.003306	0.000146	-0.000347	0.003104
69	-0.000512	-0.001169	-0.003142	-0.004292
70	-0.002484	0.001954	-0.004292	-0.001827
71	-0.003142	-0.003799	-1.9e-05	0.000639
72	-0.004785	-0.004621	0.00031	0.000639
73	0.000639	-0.001827	-0.002155	-0.000183
74	-0.004456	-0.001005	-0.004128	-0.000183
75	-0.002484	-0.005114	0.000146	0.000803
76	-0.003306	-0.002813	-0.003799	-0.001334
77	-0.001662	-0.000512	0.000146	-0.000347
78	-0.000512	-0.00232	-0.003635	-0.000841
79	-0.002484	-0.001498	-0.004621	-0.001498
80	-1.9e-05	0.002282	-0.003306	-0.00232
81	-0.003635	-0.002977	-0.001334	-0.001334
82	0.000639	-0.001498	-0.001662	-0.00347
83	-0.001827	-0.002155	-0.001169	-0.000676
84	0.001625	-0.000347	-0.000512	-0.002813
85	-0.003799	-0.00232	-1.9e-05	0.00146
86	-0.003799	-0.001991	-0.002484	0.00146
87	-0.003635	-0.001169	-0.005443	-0.002977
88	0.002447	0.001296	-0.002977	-0.003306
89	-0.001169	-0.000183	-0.001498	0.001132
90	-0.007086	-0.001662	-1.9e-05	-0.001991
91	0.00146	-0.000841	-0.001662	-0.000841
92	-0.001169	-0.006593	0.003761	-0.004128
93	-0.002648	0.000146	-0.001991	0.001296
94	-0.002484	-0.00232	-0.000347	0.005076
95	-0.000347	-0.000347	-0.000183	-0.001498
96	-0.003799	-0.000841	-0.000512	-0.004949
97	-0.00232	-0.003142	0.001789	-0.001498
98	-1.9e-05	-0.001005	-0.000512	-0.002155
99	-1.9e-05	-0.001827	-0.000512	-0.000676
100	-0.001334	-0.002484	0.000639	-0.002648
101	-0.001498	-0.001334	0.001789	-0.002155
102	-0.001334	0.00409	0.000146	-0.001005
103	-0.00347	-0.002155	0.003926	-0.001169
104	-0.000676	-0.001005	-0.000512	0.00031
105	-0.001169	0.000803	-0.001498	-0.001334
106	-0.00347	-0.005278	0.001954	-0.001169
107	-0.001662	-0.002813	0.001789	-0.000676
108	-0.001005	-0.000183	0.000803	-0.000183
109	-0.001827	0.001132	0.002447	-0.001498
110	0.00031	0.000146	0.002282	-0.003799
111	-0.002155	-0.002484	0.002447	-0.001662
112	-0.002813	-0.002484	0.001625	-0.002977
113	-0.001498	0.003268	-0.000512	-0.000183
114	0.000967	0.00031	0.000474	-0.002977
115	-0.003635	-0.001005	0.000146	0.000639
116	0.001954	0.000146	0.001789	0.002118
117	-0.001662	-0.001334	-0.001662	0.001789
118	-0.002648	-0.001991	0.000474	-0.001005
119	-0.003799	-0.002977	0.002118	0.001625
120	-0.001827	-0.001005	0.002775	-0.001662
121	0.003104	-1.9e-05	0.001296	-0.003142
122	0.00146	-0.003963	0.005241	-0.000841
123	-0.005443	-0.002813	0.005241	-0.001334
124	-0.003306	0.000146	0.004912	-0.000183
125	-0.00232	-0.001334	0.00672	-0.001662
126	-0.001005	-0.001334	0.004748	0.001132
127	0.000146	-0.004128	0.005405	-0.001334
128	-0.002648	-0.000841	0.002118	0.00146
129	-0.000841	-0.001169	0.00146	-0.001334
130	-0.000183	-0.001005	0.00294	0.002447
131	0.000639	-1.9e-05	0.002118	-0.002648
132	-0.000841	0.00031	0.002447	-0.002155
133	0.00031	-0.001662	0.003104	-0.002155
134	-0.002977	-0.005278	0.001296	-0.002977
135	-0.001498	0.001132	0.00294	-0.002813
136	-0.001169	-0.000512	0.001132	-0.000676
137	-0.001005	-0.004456	0.00294	-0.001334
138	-0.001169	-0.003799	0.000803	-0.001169
139	-0.003635	-0.004128	0.003268	0.000146
140	-0.001827	-0.001334	0.00409	-0.000841
141	-0.001662	0.00031	0.002775	0.002447
142	-0.000347	0.003104	0.00409	0.000146
143	-0.001169	-0.000676	0.003433	-0.003963
144	-0.001662	-0.000183	0.000967	0.001954
145	0.001789	0.000474	0.004912	-0.000183
146	0.001625	0.002775	0.00294	-0.003306
147	0.001132	-0.000183	0.003268	-0.001334
148	0.000967	-0.001169	0.001789	0.000146
149	-0.000183	-0.001169	0.000803	-0.002484
150	0.000146	-0.00232	0.003597	-0.001498
151	0.000967	-0.000841	0.00146	-0.002484
152	-0.001334	-0.002648	0.000639	0.000146
153	-0.000347	-0.001334	0.003104	-0.000841
154	-0.002155	-0.002977	0.002447	-0.001827
155	-0.000512	-0.000347	0.000146	-0.002484
156	-0.001498	-0.004456	0.002447	0.001789
157	-0.000347	-0.000512	0.001954	-0.003306
158	-0.001991	-0.002813	0.003104	-0.002648
159	0.000967	-0.0061	-0.001169	-0.002155
160	-0.0061	-0.004292	0.003597	-0.002813
161	-1.9e-05	0.00031	0.003268	-0.000676
162	-0.001827	-0.002155	0.000803	-0.001827
163	0.000803	0.005569	0.003433	-0.001334
164	0.001296	-0.001334	0.005405	0.00031
165	-0.001827	-0.002155	0.00672	-0.000841
166	-0.001169	0.001954	0.004912	-0.000512
167	0.000639	-0.002813	0.006227	-0.002813
168	0.001296	-0.001169	0.004255	-0.005114
169	-0.001827	-0.003142	0.006884	-0.0061
170	-0.000183	-0.001827	-0.000841	-0.000841
171	0.001296	-0.00232	0.003761	-0.001827
172	0.002118	-0.000183	0.006062	-0.001334
173	-1.9e-05	-0.002813	0.004748	-0.000183
174	-0.001005	-0.004128	0.002775	-0.004785
175	-0.00232	-0.001827	0.005241	0.000639
176	-0.002484	-0.00232	0.004419	-0.002484
177	-0.005114	-0.001498	0.008199	-0.002155
178	-0.000676	-0.000347	0.002611	-0.001005
179	-0.001498	-0.001498	0.000474	-0.002155
180	-0.001005	-0.002977	0.003926	-0.00232
181	-0.001334	0.000474	-0.001169	0.001132
182	0.001296	-0.004128	0.004583	-0.001005
183	0.000639	0.000639	0.002775	-0.000841
184	-0.001498	-0.00232	0.002611	0.000146
185	0.000967	-0.001662	0.002282	-0.004949
186	-0.002155	-0.000183	0.004255	-0.003963
187	0.000474	0.000146	-0.000512	-0.003635
188	-0.005771	-0.003799	0.005405	-0.00232
189	-0.00347	0.001296	0.004912	-0.003306
190	-0.003142	-0.003306	0.002775	-0.000841
191	-0.002648	-0.001662	0.00146	-0.002648
192	-0.004949	-0.000841	-0.000183	-0.002155
193	-1.9e-05	0.001132	0.003268	-0.003142
194	-0.003142	0.002611	0.000474	-0.001662
195	-0.001169	-0.001498	0.006556	0.000474
196	-0.001498	0.000967	0.002611	0.001132
197	-0.004785	0.00031	0.004912	-0.004128
198	0.000639	0.000803	-1.9e-05	0.000474
199	-0.001827	-0.002977	0.003761	-0.000841
200	-0.001169	0.000639	-0.000183	-0.003799
201	0.000146	-0.001827	0.000967	-0.001827
202	0.001625	-0.001662	-0.003306	-0.001827
203	-0.000676	-0.000841	-0.004456	0.000967
204	0.001789	-0.000676	0.00031	0.00031
205	-0.001334	-0.002977	-1.9e-05	-0.001498
206	-0.000676	-0.002484	-0.002648	-0.003799
207	-0.000183	-0.003142	0.002611	0.00409
208	-0.001498	-0.002155	0.001789	-0.005443
209	-0.002155	0.000639	-0.000512	-0.004785
210	0.000803	0.000146	0.00146	-0.007086
211	-0.003306	0.001132	-1.9e-05	-0.00347
212	-0.000841	-0.001005	0.000146	-0.004128
213	-0.001334	-0.00232	-0.00347	0.001625
214	-0.000676	-0.002813	0.00031	0.001132
215	0.001954	-0.001005	0.000803	-0.000183
216	0.002118	-0.002813	0.000639	0.002282
217	-0.003963	0.000474	-0.000347	-0.001991
218	-0.002813	-0.002155	-1.9e-05	0.004419
219	0.001296	-1.9e-05	-0.000512	-0.001662
220	-0.003142	-0.004456	-0.003963	-0.001005
221	0.000803	-0.002155	-0.000347	-0.001991
222	0.000474	-0.004785	-0.004292	-1.9e-05
223	0.002775	-0.000841	-0.003963	-0.001991
224	-0.002813	-0.003963	-0.001498	-0.000512
225	-0.000347	-0.004128	-0.000841	-0.002648
226	-0.003142	-0.000676	-0.000512	-0.001005
227	-0.000183	-0.001662	0.002447	-0.000841
228	-0.001991	0.00146	0.00146	-0.003142
229	-0.000841	-0.001662	-0.00347	0.001789
230	-0.000347	0.000474	-0.000512	-0.00347
231	-0.001991	-0.001991	-0.001005	-0.002155
232	-0.002648	-0.000347	-0.001827	-0.000183
233	-0.000512	-0.001334	0.00146	-0.000512
234	-0.000841	0.001625	-0.001662	0.000474
235	-0.000676	-0.001169	0.00031	0.003597
236	-0.001005	-0.00232	-0.002155	-1.9e-05
237	-0.002155	-0.002813	-0.000347	0.001132
238	-0.001662	0.001132	0.00031	-0.000512
239	-0.0061	0.000803	-0.000347	-0.000183
240	-0.003963	-0.001827	-0.00347	-0.003799
241	-0.001827	-0.000676	-0.001005	-0.00347
242	-0.001662	-0.004292	-0.001662	-0.002155
243	-0.001827	-0.000347	-0.00347	-0.002155
244	-0.003142	-0.003799	-1.9e-05	-0.002648
245	-0.002484	0.001954	-0.000841	-0.001662
246	-0.00347	-0.001991	-0.001991	-0.001827
247	0.000146	-0.003963	0.00031	-0.001169
248	-0.001169	-0.001662	0.001954	0.000474
249	-1.9e-05	-0.001169	-0.001005	-0.003142
250	-0.001169	-0.000183	0.00409	-0.001005
251	-0.001662	-0.000512	0.001789	-0.009716
252	0.00146	-0.001498	-0.001991	-0.001334
253	-0.000183	0.00146	-0.001005	-0.001005
254	-0.001662	-0.001169	-0.003799	0.000474
255	-0.000183	-0.002648	-0.001334	-0.002977
256	-0.001169	-0.000676	-0.003635	0.001296
257	0.000146	-0.001991	-0.003306	-0.000183
258	0.000803	0.001954	0.001625	0.00031
259	-0.001169	0.001789	-0.00232	-0.004128
260	-0.000841	-0.001005	-0.000676	0.00146
261	-0.003799	-0.002648	0.000639	-0.004949
262	-0.001991	0.001296	-0.004949	-0.013003
263	-0.004621	-0.001991	-0.003306	-0.001827
264	-0.001334	0.000803	-0.000347	-0.002484
265	-0.003142	0.001625	-0.000183	-0.000347
266	-0.000512	0.001954	-0.002155	-0.002813
267	0.000803	-0.002155	0.000967	-0.001005
268	-0.000841	-0.000347	-0.001498	0.001132
269	-0.001991	-0.000841	-0.002155	0.003926
270	-0.000512	-0.001005	-0.000676	0.000146
271	0.000146	-0.001005	-0.001827	0.006556
272	0.000803	-0.005114	-0.001169	-0.000841
273	-0.000183	-0.001005	-0.004949	-0.005607
274	-0.002648	-0.002813	-0.004292	-0.001005
275	0.000474	-1.9e-05	-0.001005	-0.001991
276	0.000146	-0.001169	0.001625	-0.001498
277	-0.001991	-0.000841	-0.000676	-0.001827
278	-1.9e-05	-0.00232	0.00146	-0.001005
279	-1.9e-05	-0.001005	-0.004128	-0.001334
280	-0.001169	-0.003635	-0.003635	0.000474
281	-0.000183	-0.002484	-0.001169	-0.004949
282	-0.001498	-0.001991	0.000146	0.002118
283	-0.000841	-0.001169	-0.001498	-0.001498
284	-0.002813	0.000146	0.000474	-0.001662
285	-0.001005	0.001296	-0.002155	-0.002155
286	-0.004456	-0.001827	-0.000347	-0.004292
287	-0.005607	-0.004128	0.001132	-0.002648
288	-0.005771	0.00146	-0.00232	0.001625
289	-0.003306	-0.001498	-0.002813	-0.001005
290	-0.003963	-0.000512	-0.004128	0.001789
291	-0.002155	-0.000183	-0.000512	0.004583
292	-0.001334	-0.002155	-0.000841	-0.003635
293	0.001296	-0.005114	-0.000676	-0.000347
294	0.001296	-0.001334	-0.002977	-0.000183
295	-0.002484	-0.004621	-0.000347	-0.002977
296	0.000639	-0.001334	-0.002155	-0.005443
297	0.003104	-0.001005	-1.9e-05	-0.002484
298	0.00146	-0.003635	-0.001662	-0.004621
299	-0.003142	-0.004128	-0.001498	-0.002977
300	0.002775	0.002611	0.002775	-0.002977
301	-0.001334	-0.001169	0.001296	-0.000512
302	-1.9e-05	0.000146	-0.001005	0.00031
303	-0.001334	0.001625	0.00031	0.000146
304	-0.00347	-0.001991	-1.9e-05	0.000803
305	-0.000183	-0.001169	-0.001991	-1.9e-05
306	-0.00232	-0.002813	-0.000841	-0.000676
307	-0.001827	0.004255	-0.005114	-0.001827
308	0.000474	0.001625	-0.001334	0.000803
309	-0.002155	-0.001498	-0.000676	-0.004785
310	-0.001662	-0.001498	-0.002155	-0.00232
311	0.003104	0.00031	-0.004621	-0.003799
312	-1.9e-05	-0.004785	-0.000841	-0.000676
313	-0.001005	-0.001827	0.00031	-0.000841
314	-0.000512	-0.002977	0.001296	-0.001169
315	-0.001991	-0.005278	-0.001827	-0.00232
316	-0.003306	-0.001662	-0.000841	0.000146
317	-0.004621	-0.005936	-0.001827	-0.003142
318	-0.002813	-1.9e-05	-0.002484	-0.001991
319	-0.001662	-0.001498	-0.002484	-0.003306
320	-0.002648	-0.000512	-0.002813	-0.003963
321	-0.00232	-0.001334	-0.001498	-0.002648
322	0.003104	-0.001991	-0.002813	-0.001005
323	0.000803	0.000474	0.001789	0.000967
324	0.00146	0.001132	-0.001005	-0.001169
325	0.00031	-0.003142	-0.000512	0.002118
326	-1.9e-05	-0.001498	-0.000347	-0.001827
327	-0.001827	-0.002977	-0.001005	0.001296
328	0.00146	-0.000347	-0.001334	-0.003306
329	-0.002155	-0.001169	0.003268	-0.001662
330	0.000146	-0.001334	-0.001169	-0.003635
331	-0.000676	-0.002155	-0.001991	-0.000841
332	-0.005771	-0.001169	-0.001334	-0.006264
333	0.001625	-0.000183	-0.003306	-0.00347
334	-0.003142	-0.001334	0.000803	-0.001991
335	-0.004621	-0.001005	-0.000512	-0.001662
336	-0.004621	0.002118	-0.000676	0.000639
337	-0.00232	0.000474	-0.001169	-0.001005
338	-0.007579	-0.001334	-0.001334	0.002118
339	-0.004292	0.000474	0.001132	-0.001991
340	0.001954	0.000474	0.004748	-0.001827
341	-0.003799	0.001625	-0.002977	0.000146
342	-0.001005	0.001132	0.003268	-0.000347
343	-0.001169	0.000639	-0.000841	0.000639
344	-0.000676	0.000639	-0.001827	0.003597
345	0.002611	-0.002155	-0.000183	-0.002813
346	-0.001498	-0.00232	-0.003142	-0.000512
347	0.004748	-0.001498	-0.001169	-0.002484
348	0.001296	-0.001005	-0.003799	-0.002813
349	-0.002484	-0.002813	-0.001005	-0.003963
350	-0.001005	-0.000841	-0.000183	-0.001827
351	-0.002813	-0.000841	0.00294	-0.004456
352	-0.003799	-0.000347	-0.002648	-0.002155
353	-0.002813	-0.000512	-0.001169	-0.001334
354	-0.002977	-0.000676	-0.002648	-0.002155
355	-0.001991	-0.000841	-0.000512	-0.000183
356	0.000146	-0.001662	-0.002648	0.000146
357	-0.001169	-0.004456	0.00031	-0.000676
358	-0.001005	0.000967	-0.001005	0.00146
359	0.000803	-0.003142	-0.000183	0.001789
360	-0.000183	-0.002813	0.000803	-0.00347
361	0.000146	-0.002813	0.000639	-0.001498
362	0.003597	-0.001169	0.002282	-0.001334
363	-0.000676	-1.9e-05	-0.005443	-0.001991
364	0.001625	-0.002155	-0.000676	-0.00232
365	0.001625	-0.003306	-0.000183	-0.001169
366	-0.000183	0.001296	-0.001662	-0.002813
367	-0.00232	-0.000841	-0.001169	-0.000183
368	-0.002484	-0.00232	-0.004785	-0.003142
369	-0.002484	0.000967	-0.002648	-0.004456
370	-0.001991	-0.002155	-0.001827	-0.004292
371	-0.00232	-0.001169	-0.003142	-0.001991
372	-0.001169	-0.005443	0.000146	0.00031
373	-0.003306	-0.002813	-0.000841	0.001296
374	-0.002977	-0.000676	-0.001334	-0.001169
375	-0.001827	-0.002648	-0.000347	-0.001991
376	-0.002484	-0.002484	-1.9e-05	0.003268
377	0.002447	-0.000841	-0.002977	-0.002155
378	-0.002648	-0.000841	-0.001662	0.001954
379	0.000474	-0.00232	-0.003799	-0.005443
380	0.00031	0.00031	0.000639	-0.001169
381	-0.000512	-0.003306	-0.000841	-0.001005
382	-0.000841	-0.002484	-1.9e-05	-0.008072
383	-0.000841	-0.002484	0.000474	-0.003635
384	-0.003306	-0.001005	-0.002813	-0.000183
385	-0.004128	-0.004949	-1.9e-05	-0.001169
386	-0.002813	0.001132	-0.002813	-0.004456
387	-0.001169	-0.00232	-0.001005	-0.000676
388	-0.001334	0.001132	-0.002155	-0.00232
389	-0.00873	-0.001827	0.000967	-0.001334
390	0.002282	-0.000183	-0.004128	-0.002155
391	-0.002155	-0.001169	0.002447	0.000639
392	-0.003142	-0.001662	0.003926	0.000803
393	-0.000841	0.002447	0.002611	0.003926
394	-0.00232	-0.000841	0.001132	0.000803
395	0.000639	0.001296	-0.004621	-0.000347
396	0.000639	0.000474	-0.001334	-0.004128
397	0.000639	-0.000512	-0.002648	-0.002977
398	-0.001662	-0.001827	-0.003306	-0.000183
399	-0.00347	0.001132	-0.000841	-0.002155
400	-0.003306	-0.002648	-0.001169	-0.003306
401	-0.000841	-0.000841	-0.004128	-0.006429
402	-0.001991	-0.002977	0.000639	0.000967
403	-0.000676	-0.001498	-0.002813	-0.000183
404	-0.003142	-0.003799	-0.001991	-0.000347
405	0.000474	-0.003635	-0.001662	-0.002648
406	-0.002813	0.000146	-0.00232	0.001132
407	-0.001498	-0.002977	-0.001662	-0.003963
408	-0.002155	-0.002155	-0.000512	-0.000841
409	-0.00347	-0.002813	-1.9e-05	0.001132
410	0.000146	-0.00232	-0.000841	0.001954
411	0.000474	-0.001991	-0.000676	-0.001334
412	-0.000512	-0.001991	-0.004621	-0.001662
413	0.000967	-0.002813	0.000474	0.000967
414	0.002282	0.001296	-0.001991	-0.000512
415	0.000803	-0.001169	-0.000512	0.000146
416	-0.001169	0.002611	-0.001334	-0.00232
417	-0.003963	0.001625	0.000967	0.001296
418	0.001132	-1.9e-05	-0.002648	-0.001169
419	-0.00347	-0.001827	-0.003799	-0.002813
420	-0.001991	-0.000841	-0.001005	-0.000512
421	-0.001498	-0.00232	-0.005443	0.00146
422	-0.001005	-0.005936	-0.003635	-0.001005
423	-0.003799	-0.006593	-0.002813	-0.000183
424	0.000803	-0.006593	-0.001005	0.000967
425	-0.000347	-0.002155	-0.003963	-0.001662
426	-0.00347	-0.003799	-0.003142	-0.002484
427	-0.002977	-0.000347	-0.002484	-0.000512
428	-0.000347	-0.00232	0.001296	0.001789
429	-0.000841	-0.000347	-0.005278	-0.001334
430	-0.000183	-0.000676	-0.002648	-0.002155
431	-0.002977	0.001296	-0.003799	0.002282
432	-0.000841	-0.001991	-0.001991	-0.001334
433	0.002282	0.00146	-0.000183	-0.001334
434	-0.001827	-0.001662	-0.001334	-0.002484
435	0.00031	-0.004128	-0.001334	0.00031
436	-0.001005	-0.003142	-0.000676	-0.000512
437	-0.000841	-0.004456	-0.00232	-0.001827
438	0.002118	-0.003635	-0.001827	0.000146
439	-1.9e-05	-0.000347	0.00031	-0.001005
440	-0.001827	-0.00232	-0.00232	0.000639
441	-0.003142	-0.001005	-0.001827	-0.004456
442	-0.006922	0.000803	0.003433	-0.000183
443	-0.001498	0.002282	-0.004621	-0.004785
444	0.000639	-0.001498	-0.00232	-0.008401
445	-0.001498	-0.001991	0.00146	-0.006429
446	0.00146	0.001132	-0.000347	-0.001498
447	-0.002484	-0.001334	-0.002155	-0.000676
448	-0.004292	0.000474	-0.00725	-0.004949
449	-0.004621	-0.005771	0.00031	0.001789
450	0.000639	0.000474	0.001789	-0.000347
451	-0.001169	0.001625	-0.008565	0.00146
452	0.000639	-0.000841	0.000146	-0.001827
453	-0.002648	-0.001334	-0.004456	0.000146
454	0.001954	-0.000676	-0.003963	-0.001005
455	-1.9e-05	-0.004621	-0.002648	-1.9e-05
456	-0.001169	-0.003142	-0.001827	-0.003306
457	0.000803	-0.003635	-0.001005	-0.002977
458	-0.000512	-0.004128	0.000146	-0.001827
459	-0.005443	-0.00232	-0.001334	-0.001498
460	-0.005607	-0.003963	-1.9e-05	0.002447
461	-0.002813	-0.002813	-0.003306	0.001296
462	-0.003306	-0.004292	0.001132	-0.000512
463	-0.001005	0.00294	-0.000347	-1.9e-05
464	-0.001991	-0.000183	0.00031	-1.9e-05
465	0.00031	0.003597	-0.001169	-0.001334
466	-0.001005	-0.001498	-0.000183	0.000803
467	-0.001662	0.000146	-0.001005	-0.003799
468	-0.001169	-0.002155	-0.000841	0.001296
469	0.002775	-0.003306	-0.00347	-0.000676
470	0.000967	-0.004456	-0.002977	-0.000347
471	-0.002977	-0.00725	-0.001498	0.001132
472	-0.005607	-0.000841	-0.002977	0.003597
473	-0.001991	-0.004785	-0.004456	-0.00232
474	-0.003142	-0.003799	-0.006757	-0.000183
475	-1.9e-05	-0.004292	-0.00232	-0.001334
476	0.001132	0.002447	-0.000512	-0.00232
477	-0.001498	-0.002648	-1.9e-05	-0.003306
478	-0.000676	-0.001498	-0.001169	-0.003635
479	-0.003799	-0.000841	0.004748	-0.001169
480	0.004255	-0.000841	-0.001662	-0.000841
481	-0.005278	-0.001169	-1.9e-05	0.00146
482	-0.003142	0.00031	0.001132	-0.000676
483	-0.002484	0.006556	0.001296	-0.000676
484	-0.001334	0.001954	-0.001334	-0.002155
485	-0.002648	0.00146	-1.9e-05	0.001789
486	-0.003142	0.00031	-0.001334	-0.001662
487	-0.00232	-0.000676	-0.002977	0.001296
488	0.003761	-0.003142	-0.000676	-0.000841
489	0.00031	-1.9e-05	-0.002648	-0.0061
490	-0.001662	-0.001662	-0.000841	-0.001169
491	0.004912	-0.000347	-0.001827	-0.001662
492	-0.002813	-0.002155	0.001625	-0.005771
493	-0.001827	0.005241	-0.00347	-0.005936
494	-0.001334	0.002775	-0.002977	-0.004949
495	0.000639	0.000803	-0.00232	-0.006264
496	-0.003963	0.000146	-0.000183	-0.002813
497	0.000474	-0.001005	0.000967	-0.002977
498	-0.001334	-0.001662	-0.003142	-0.004292
499	-0.001827	0.001296	-0.000676	-0.005607
500	0.002611	-0.000183	-0.000512	0.005241
501	0.00146	-1.9e-05	-0.000183	-0.002155
502	0.004748	0.000639	-0.001991	0.001132
503	-0.001334	-0.002484	0.002118	0.003433
504	0.00409	0.00294	-0.002977	0.000639
505	-0.001169	-0.001169	-0.000841	-0.002977
506	0.001132	-0.002484	-0.001498	-0.001498
507	-0.001169	-0.002977	-0.004621	-0.001334
508	0.001789	0.002775	-0.001334	-0.003306
509	-0.000512	-0.00725	-0.002155	-0.00347
510	-0.001991	-0.002648	-0.001498	-0.00347
511	-0.001662	-0.003635	-0.000512	-0.001662
512	-0.001498	-0.001498	-0.001005	-0.001169
513	-0.00725	-0.000347	0.000967	0.000639
514	-0.000347	-0.000183	-0.000183	-0.001827
515	-0.00347	0.000639	0.001296	-1.9e-05
516	-0.003142	0.000803	-0.000676	-1.9e-05
517	-0.001169	-0.001169	-0.001334	-0.001005
518	-1.9e-05	-0.007579	-0.001827	-0.001005
519	0.001132	0.000803	-0.004456	-1.9e-05
520	0.002118	0.00031	-0.002155	-0.000183
521	-0.000676	-0.004128	-0.004621	0.00146
522	0.001132	-0.003799	-0.002484	-0.001334
523	0.001625	-0.001662	-0.001498	-0.003799
524	-0.010538	-0.002648	-0.000183	-0.001169
525	-0.000512	-0.002484	-0.002977	-0.002484
526	-0.001662	-1.9e-05	0.000146	-0.001334
527	-0.000512	0.00031	-0.002484	-0.001169
528	-0.002155	-0.002484	-0.002155	-0.000676
529	-0.002977	-1.9e-05	-0.005278	-0.008072
530	-0.000512	-0.001334	-0.00232	0.000146
531	-1.9e-05	0.000803	0.007213	-0.002484
532	-0.002484	-1.9e-05	0.00031	-0.004456
533	-0.001662	-0.000183	-1.9e-05	-0.00232
534	-0.003799	0.002775	-0.000347	0.001625
535	-0.015304	-0.001827	0.001132	-0.001662
536	-0.001169	0.00146	-0.002648	-0.000347
537	-0.0061	-1.9e-05	0.001132	-0.001005
538	-0.006264	0.003268	-0.001827	-0.000183
539	-0.00347	-0.001005	-0.001005	-0.001169
540	0.001132	0.000803	-0.001005	-0.001991
541	-1.9e-05	-1.9e-05	-0.001334	-0.001169
542	0.003761	0.002775	-0.001662	-0.002977
543	0.001296	-0.001334	-0.00347	0.004912
544	-0.002484	-0.000347	-0.005607	-0.000183
545	-0.000347	-0.000183	-0.00347	-0.001169
546	-0.009387	-0.003635	-0.000347	-0.001991
547	-0.004456	-0.002155	-1.9e-05	-0.002484
548	0.00031	-0.000841	-1.9e-05	-0.00347
549	-0.004949	0.000639	-0.000183	-0.0061
550	0.000639	-0.000512	-0.001169	-0.003963
551	0.002282	-1.9e-05	-0.002648	-0.001334
552	0.00146	-0.00232	-0.000841	0.000474
553	0.004255	0.00031	-0.002155	-0.000676
554	-0.002484	-0.00347	0.000803	-0.001827
555	-0.001827	0.001296	-0.005114	-0.00347
556	0.000803	-0.001991	0.000639	0.002611
557	-0.000183	0.002447	0.000474	-0.001334
558	-0.000676	0.002282	-0.000512	-1.9e-05
559	0.000146	0.000474	-0.003142	0.001625
560	-0.000347	-1.9e-05	-0.000841	-0.003799
561	-0.001827	-0.000512	-0.005443	-0.00725
562	-0.003142	-0.002813	-0.003635	0.00031
563	0.004419	-0.001498	-0.001498	-0.004949
564	-0.002648	-0.000183	-0.001005	-0.00232
565	-0.001662	-0.002813	-0.000512	-0.001827
566	-1.9e-05	-1.9e-05	-0.000841	-0.001169
567	-0.001334	-0.001498	-0.003963	-0.002155
568	0.000146	-0.003142	-0.002813	-0.001169
569	-0.005278	0.001132	-0.001827	-0.001827
570	0.002118	0.004419	-0.001991	-0.000512
571	-0.001169	-1.9e-05	0.000146	-0.001498
572	-0.001498	0.000639	-0.002977	-0.002484
573	-0.001827	-0.000183	-0.000512	-0.002484
574	0.00409	0.003268	0.00031	-0.002484
575	0.002447	-1.9e-05	-0.002813	-1.9e-05
576	-0.001005	-0.000183	-0.001498	-0.002977
577	-0.001334	-0.001662	-0.002648	-1.9e-05
578	-1.9e-05	-0.000512	-0.001005	-0.000512
579	-0.001334	0.000803	0.000474	-0.005607
580	-0.002648	-0.001662	-0.002155	-0.005278
581	-0.001334	0.002282	-0.004785	-0.002155
582	-0.001498	-0.001827	-0.00232	-0.00347
583	-0.001169	0.001296	-0.003142	-0.002155
584	-0.004621	-0.001334	-0.003963	-0.000841
585	-0.001005	-0.000841	-0.001334	-0.004621
586	-0.000676	-1.9e-05	-0.001169	0.000639
587	0.00031	-0.000676	0.001789	-0.002813
588	-0.002813	0.000146	-0.001005	0.000803
589	-0.005114	0.001296	-1.9e-05	-0.001005
590	-0.002813	0.000146	0.002447	0.00031
591	-0.001498	0.000639	-0.001498	0.00031
592	-0.002977	0.005569	0.000803	0.002282
593	-0.001005	0.000803	0.000146	-0.001334
594	-1.9e-05	0.000474	-0.002813	0.000639
595	0.000967	0.000967	0.003104	-0.000676
596	0.000146	0.001954	-0.004292	-0.001827
597	0.003433	-0.000676	-0.000347	-0.003142
598	0.000803	-0.000347	-0.004621	-0.002484
599	-0.001498	-0.001498	-0.003306	-0.006922
600	0.000639	-1.9e-05	-0.002648	-0.001991
601	-0.000183	0.000146	-0.001005	-0.004292
602	-0.004949	-0.001498	-0.001662	-0.002484
603	-0.004621	0.001954	-0.000841	0.000803
604	-0.000183	0.002118	-0.000347	-0.001169
605	-0.003142	0.001132	0.000474	-0.002484
606	-0.002648	0.001296	-0.004949	-0.001498
607	0.003433	0.000474	-0.000347	0.000474
608	0.003761	0.007542	0.00146	-0.000512
609	-0.00347	0.001132	-0.001498	0.00031
610	0.001789	0.001789	-0.002155	0.00031
611	-0.000183	0.001625	-0.000347	0.005569
612	-0.001169	0.001132	-0.000183	0.000639
613	-0.000512	0.002118	-0.000676	-1.9e-05
614	-0.001498	0.000639	-0.002155	-0.000512
615	0.000474	0.002118	0.000146	0.000146
616	-1.9e-05	-0.001169	-0.001005	-0.001827
617	-0.000841	-0.001005	-0.003799	-0.000841
618	0.000639	0.000639	-0.002484	-0.005771
619	-0.001662	0.007377	-0.004128	-0.002977
620	-0.005278	-0.002155	-0.002155	-0.001169
621	-0.001991	-0.003142	-0.00347	-0.00232
622	-0.006757	-0.001662	-0.002648	-0.000841
623	-0.002155	-0.001498	-0.000841	-0.003635
624	-0.005443	0.000146	0.00294	-0.002484
625	-0.001827	0.002775	-0.001991	0.000146
626	0.000474	0.004748	0.000803	0.002447
627	-0.000183	0.000803	0.000146	-0.002155
628	-0.001334	0.00146	-0.002484	-0.000347
629	0.000146	-0.001005	-1.9e-05	-0.00347
630	0.000967	0.003104	-0.00232	-0.003799
631	-0.000512	-0.000183	-0.001498	-0.002484
632	0.000146	-0.005278	-0.005607	-0.003635
633	-0.001498	-0.003799	0.00031	-0.001662
634	-0.000676	-0.001827	-0.001991	-0.003799
635	-0.00232	-0.002977	-0.003635	-0.003635
636	-0.003635	-0.001005	-0.002155	-0.005771
637	-0.004128	-0.000512	-0.001334	-0.000676
638	0.000146	0.001132	0.000474	-0.002813
639	0.000146	0.000803	-0.003142	-0.001991
640	-0.002484	0.000639	-0.001005	-0.001662
641	-0.001991	-0.000676	-0.001169	-0.003635
642	0.000639	-0.002813	-1.9e-05	-0.004949
643	0.001789	0.000146	-0.001827	-0.001498
644	-0.001498	-0.001827	0.001789	-0.001169
645	0.000474	0.000967	0.000474	-0.002648
646	0.000803	-0.001169	-0.002977	-0.001169
647	0.000474	0.000474	-0.001498	-0.00347
648	-0.001991	0.000639	0.001625	-0.002977
649	0.00294	0.00146	-0.002977	-0.004292
650	0.000639	-0.000347	-0.000183	-0.001991
651	-0.000676	0.002118	-0.003799	-0.004292
652	-0.002484	-0.011195	-0.002648	-0.000347
653	-0.005443	-0.002648	-0.002648	-0.004949
654	-0.004621	-1.9e-05	-0.001005	0.000967
655	-0.000512	-0.001991	0.004419	-0.000841
656	-0.004949	0.000803	0.005734	-0.002813
657	-0.001498	-0.002648	0.002447	-0.001005
658	-0.001498	0.002447	0.001789	-0.000512
659	-0.001827	0.001132	0.006556	-0.000512
660	-1.9e-05	0.004748	-0.001991	-0.00232
661	-0.000183	0.002282	0.000474	-0.002155
662	-1.9e-05	0.00409	-0.003142	0.001132
663	-0.002484	-0.011359	-0.001169	0.002611
664	0.000803	-0.002977	-0.001334	-0.000512
665	0.00146	0.003597	-0.001169	0.000803
666	0.001625	0.000967	-0.002813	-0.001169
667	-0.001498	-0.001827	-0.002155	-0.001334
668	0.003104	0.000803	-0.001991	-0.001005
669	-0.002977	-0.000512	-0.001662	-0.000676
670	-0.00232	-0.00232	0.004583	-0.003306
671	-0.000676	-0.001662	-0.003963	-0.001169
672	0.000474	-0.004128	-0.002648	-0.003963
673	-0.002648	-0.001991	-0.004949	-0.001005
674	-0.00988	-0.011852	-0.001827	0.001132
675	-0.000841	-0.00232	-0.001005	0.004255
676	-0.00232	-0.000841	-0.00232	0.002775
677	0.000474	-0.000512	0.000146	0.003433
678	-0.001005	0.006227	-1.9e-05	0.002447
679	-0.000676	-0.000512	0.001954	-0.000183
680	-0.000512	0.00146	0.002611	0.000967
681	0.000474	0.00294	0.003268	-0.001662
682	-0.001827	0.000803	-0.001827	-0.000676
683	0.000803	0.000803	-0.001662	-0.001991
684	-0.001498	-0.000183	0.000639	-0.001498
685	-0.001169	-0.002484	0.000967	-0.001334
686	-0.000183	-0.004292	0.001296	-0.002648
687	0.000967	-0.001169	0.000803	-0.00347
688	-0.006429	0.001132	-0.000183	0.000803
689	-0.007579	0.00031	0.000803	-0.00232
690	-0.003799	0.000146	-0.000183	-0.001991
691	-0.004949	-0.005114	-0.001662	0.00146
692	-0.005443	-0.003306	0.003926	0.001789
693	-0.0061	0.00031	0.000639	-0.000512
694	-0.000841	0.001132	-0.005278	-0.002977
695	-0.00232	-0.001662	0.00146	-0.00232
696	-0.003142	0.001132	-0.003306	0.00031
697	-0.001498	-0.002977	0.000474	-0.002648
698	0.00146	-0.000347	0.001789	-0.004292
699	-0.000676	0.000967	0.000474	0.001132
700	0.001296	-0.001169	-0.000841	-0.002484
701	0.000474	0.001789	0.000474	0.001296
702	-0.001827	-0.001991	-0.003142	-0.000676
703	-0.003306	-0.001662	-0.001169	0.00031
704	-0.002484	-0.001827	-0.003799	-0.002813
705	-0.006922	-0.000512	-0.003142	-0.001827
706	-0.004456	-0.003142	-0.004621	-0.001827
707	-0.000183	-0.000347	-0.008072	-0.002155
708	-0.002813	-0.006264	-0.003963	-0.000347
709	-0.002813	-0.004785	-0.002648	-0.002155
710	-0.002813	-0.00232	-0.001005	0.001625
711	-0.000676	-0.001005	-0.002155	-0.003142
712	0.001132	-0.000841	0.000803	-0.002813
713	-0.001169	0.000146	-0.001169	-0.00232
714	-0.002155	0.000146	-0.003799	-0.000841
715	-0.001169	0.001296	-0.000512	-0.003142
716	-0.001334	-0.000841	-0.002977	-1.9e-05
717	0.000146	-0.003306	-0.001991	-0.001498
718	-0.001662	0.001789	-0.003306	-0.001005
719	0.001132	-0.001498	-0.002484	-0.000841
720	0.000803	-0.001827	-0.002484	-0.001005
721	-0.001991	-0.010209	-0.000347	-1.9e-05
722	-0.002155	-0.006264	-0.001991	-0.001662
723	-0.000841	-0.004785	-0.000512	-0.001662
724	-0.002155	-0.002813	-0.000841	-0.000841
725	-0.005114	-0.006429	-0.006757	0.002118
726	-0.001005	-0.000347	-0.003799	-0.004949
727	-0.000347	-0.00232	-0.003142	-0.006922
728	-1.9e-05	-0.001662	0.000639	-0.001991
729	-0.002484	0.000474	-0.001169	-0.004292
730	0.003926	0.001954	-0.003799	-0.004456
731	-0.000841	-1.9e-05	0.003268	-0.001991
732	-0.002648	-0.000512	0.00294	-1.9e-05
733	0.000639	0.001132	-0.001005	0.001132
734	-0.002484	0.00146	-0.000841	-0.00232
735	0.00031	-0.000512	-0.003799	0.000803
736	-0.001991	-0.001827	-0.015468	-1.9e-05
737	-0.002813	-0.000676	-0.000347	-0.001005
738	-0.00347	-0.000347	-0.001334	0.000639
739	0.000639	0.000639	-0.004949	-0.001334
740	-0.005443	-0.001991	0.001132	-0.000841
741	-0.00232	-0.001662	-0.001827	-0.001169
742	-0.001334	-0.001169	0.002775	-0.001662
743	-0.002155	-0.002155	-0.002155	-0.00232
744	-0.00347	-0.001991	-0.000676	0.001132
745	0.002447	-0.003142	0.000146	-0.002648
746	-0.004292	-1.9e-05	-0.001334	-0.002813
747	-0.001991	-0.003799	-0.009223	-0.002648
748	-0.001827	-0.000347	-0.001662	-0.001334
749	-0.000676	-0.000676	0.004748	-0.004621
750	-0.000676	-0.000512	-0.002155	-0.000512
751	0.002611	0.005405	0.005898	0.003597
752	0.010664	0.012144	0.010829	0.011815
753	0.019704	0.017074	0.020855	0.017403
754	0.029894	0.026114	0.025457	0.027429
755	0.040742	0.031702	0.031209	0.033181
756	0.043865	0.039756	0.035318	0.040249
757	0.046659	0.044193	0.049124	0.04748
758	0.053562	0.047973	0.044851	0.052082
759	0.057835	0.055041	0.056191	0.058164
760	0.064245	0.061944	0.064409	0.061451
761	0.068518	0.068354	0.068847	0.06934
762	0.070983	0.072298	0.076079	0.071312
763	0.078051	0.079859	0.080352	0.08216
764	0.084625	0.081995	0.085776	0.081009
765	0.083475	0.089063	0.089885	0.085776
766	0.092679	0.094651	0.095637	0.090213
767	0.096459	0.099417	0.096788	0.097774
768	0.099746	0.101554	0.103033	0.100239
769	0.103033	0.107306	0.099253	0.107142
770	0.108786	0.112401	0.107799	0.11158
771	0.114209	0.109114	0.111087	0.112401
772	0.115031	0.116182	0.116017	0.118647
773	0.119797	0.121112	0.119962	0.119469
774	0.122756	0.123249	0.123413	0.126043
775	0.12818	0.120455	0.124893	0.124893
776	0.131138	0.127029	0.127851	0.130481
777	0.132946	0.129495	0.132289	0.128837
778	0.133932	0.131796	0.132617	0.13574
779	0.135576	0.134261	0.138534	0.13459
780	0.138534	0.140671	0.138205	0.139027
781	0.141821	0.143465	0.141657	0.141
782	0.14478	0.146259	0.14478	0.14215
783	0.145108	0.147409	0.150204	0.14856
784	0.143958	0.149546	0.151354	0.148067
785	0.14971	0.151354	0.155134	0.148231
786	0.152998	0.154477	0.155792	0.153984
787	0.153655	0.154477	0.149875	0.159736
788	0.155627	0.159243	0.1576	0.163352
789	0.155463	0.15875	0.156613	0.162695
790	0.162202	0.160229	0.15612	0.163845
791	0.163845	0.157107	0.159901	0.163188
792	0.162695	0.16779	0.160558	0.159736
793	0.166804	0.159572	0.164174	0.164174
794	0.171899	0.166804	0.165324	0.165489
795	0.168283	0.166475	0.166968	0.166804
796	0.169433	0.168447	0.167132	0.164831
797	0.169269	0.167461	0.170748	0.164996
798	0.169762	0.167132	0.169433	0.171734
799	0.171406	0.172063	0.173049	0.171077
800	0.17157	0.172556	0.175021	0.172227
801	0.173707	0.176501	0.172885	0.172392
802	0.173049	0.173707	0.176008	0.177158
803	0.174857	0.178309	0.173378	0.175186
804	0.176008	0.176665	0.179295	0.176665
805	0.179459	0.178473	0.184225	0.178309
806	0.177158	0.179459	0.175843	0.181267
807	0.181596	0.178309	0.178637	0.178637
808	0.180445	0.180281	0.175679	0.181431
809	0.18176	0.179459	0.175843	0.182911
810	0.182417	0.178473	0.182089	0.180281
811	0.183075	0.179459	0.17913	0.181431
812	0.182746	0.182746	0.182417	0.182582
813	0.182253	0.180938	0.184718	0.184225
814	0.178473	0.184883	0.18176	0.182582
815	0.180938	0.182911	0.183568	0.183568
816	0.188334	0.18439	0.183897	0.181431
817	0.18817	0.183897	0.187513	0.18176
818	0.186033	0.188663	0.183568	0.186526
819	0.186362	0.184554	0.186855	0.184225
820	0.187184	0.185212	0.186691	0.187019
821	0.184554	0.18554	0.188663	0.18932
822	0.188827	0.190307	0.186198	0.188499
823	0.188499	0.189485	0.184554	0.191293
824	0.189978	0.183897	0.190307	0.18932
825	0.190307	0.192443	0.187513	0.190307
826	0.190964	0.189485	0.188334	0.189814
827	0.190964	0.188663	0.18817	0.188827
828	0.190471	0.189156	0.1908	0.188827
829	0.19195	0.1908	0.186526	0.188827
830	0.191293	0.187019	0.191128	0.188663
831	0.191786	0.192608	0.188827	0.191621
832	0.189485	0.188334	0.190307	0.191457
833	0.19458	0.192443	0.18817	0.189485
834	0.186198	0.190964	0.191457	0.192772
835	0.191128	0.192279	0.193265	0.191128
836	0.191293	0.19458	0.192279	0.194251
837	0.189156	0.194251	0.197703	0.187677
838	0.191128	0.194909	0.194087	0.195895
839	0.189978	0.192936	0.194251	0.1908
840	0.19195	0.197538	0.194251	0.196717
841	0.198031	0.19195	0.193922	0.192772
842	0.193594	0.192115	0.190471	0.192115
843	0.195237	0.192115	0.196717	0.196881
844	0.193265	0.19573	0.193101	0.193265
845	0.193758	0.192772	0.197045	0.192772
846	0.19721	0.192608	0.192443	0.191457
847	0.19458	0.194744	0.19458	0.193594
848	0.195566	0.19721	0.192279	0.192443
849	0.197538	0.193265	0.19458	0.192772
850	0.194416	0.193265	0.195237	0.195073
851	0.192608	0.199511	0.191786	0.196552
852	0.198853	0.194416	0.199675	0.193594
853	0.193758	0.197045	0.193922	0.196223
854	0.19573	0.196717	0.197538	0.195237
855	0.197538	0.191786	0.193265	0.197045
856	0.195895	0.199511	0.195566	0.19721
857	0.196223	0.195895	0.193265	0.197045
858	0.198524	0.194416	0.196552	0.194909
859	0.19836	0.197374	0.197867	0.196223
860	0.197538	0.200661	0.197374	0.196552
861	0.197867	0.200332	0.199675	0.196388
862	0.197045	0.200004	0.195073	0.19721
863	0.199839	0.197867	0.193594	0.196717
864	0.197867	0.195402	0.194251	0.195402
865	0.199346	0.196552	0.19458	0.195566
866	0.193101	0.195566	0.194744	0.198524
867	0.195895	0.195566	0.195237	0.199839
868	0.194416	0.196388	0.19721	0.200004
869	0.197538	0.195073	0.192772	0.195402
870	0.194087	0.196223	0.193429	0.197703
871	0.195566	0.197374	0.194909	0.196388
872	0.19573	0.197867	0.192936	0.195402
873	0.194251	0.199346	0.19458	0.19836
874	0.19836	0.199182	0.194416	0.199675
875	0.197867	0.194744	0.196388	0.19836
876	0.198853	0.199182	0.19573	0.199182
877	0.199839	0.197703	0.197538	0.198524
878	0.199675	0.196717	0.19721	0.196717
879	0.197374	0.196881	0.196388	0.199839
880	0.19836	0.197374	0.194251	0.194909
881	0.196388	0.196881	0.198524	0.198196
882	0.197703	0.198031	0.197538	0.195895
883	0.196717	0.196881	0.198853	0.197374
884	0.197538	0.199182	0.196717	0.195402
885	0.195402	0.196223	0.196717	0.194416
886	0.196717	0.199511	0.193594	0.193429
887	0.195566	0.195895	0.193758	0.201154
888	0.197374	0.198031	0.196717	0.201319
889	0.192279	0.19721	0.196552	0.194744
890	0.195237	0.19458	0.201154	0.200497
891	0.198031	0.197867	0.197538	0.198031
892	0.199018	0.19721	0.199839	0.195073
893	0.200825	0.201647	0.197538	0.197374
894	0.203291	0.198524	0.200004	0.201154
895	0.199839	0.20099	0.195402	0.192936
896	0.191457	0.199346	0.196717	0.196388
897	0.19836	0.197703	0.189814	0.197703
898	0.197045	0.197538	0.194909	0.198853
899	0.19836	0.198196	0.193758	0.19573
900	0.19836	0.197538	0.1908	0.199018
901	0.198031	0.197045	0.19195	0.199839
902	0.197703	0.197867	0.192115	0.197374
903	0.197703	0.196552	0.191786	0.197045
904	0.197045	0.19721	0.185376	0.195402
905	0.19721	0.197703	0.190307	0.199511
906	0.196881	0.196881	0.189485	0.196223
907	0.198689	0.196388	0.191128	0.199675
908	0.198853	0.201647	0.189649	0.200168
909	0.198853	0.198689	0.195402	0.199346
910	0.198689	0.194251	0.189814	0.198853
911	0.19836	0.200497	0.191457	0.199675
912	0.198689	0.198689	0.192936	0.199511
913	0.196223	0.199511	0.193265	0.200004
914	0.198524	0.198853	0.191293	0.199018
915	0.196388	0.198853	0.190964	0.20099
916	0.202305	0.199182	0.192115	0.196059
917	0.201647	0.19836	0.190964	0.196388
918	0.198689	0.198853	0.189814	0.199839
919	0.198689	0.198031	0.188663	0.200332
920	0.198524	0.196223	0.187513	0.197703
921	0.196717	0.197538	0.187513	0.196059
922	0.196059	0.194744	0.192443	0.199346
923	0.197703	0.194416	0.190471	0.197703
924	0.195895	0.193922	0.193429	0.200168
925	0.201812	0.197374	0.192608	0.197538
926	0.19573	0.197374	0.194744	0.200004
927	0.197538	0.20099	0.194416	0.194416
928	0.197374	0.198689	0.194251	0.200497
929	0.202305	0.199182	0.194416	0.200004
930	0.195895	0.201319	0.192772	0.201154
931	0.200497	0.19836	0.192115	0.198689
932	0.198196	0.199675	0.190142	0.199839
933	0.19836	0.198689	0.19195	0.199675
934	0.198853	0.198853	0.191786	0.198196
935	0.199182	0.197538	0.194416	0.198853
936	0.197867	0.199839	0.192279	0.202798
937	0.197374	0.196059	0.192608	0.198524
938	0.194909	0.19836	0.188827	0.196059
939	0.197374	0.194909	0.192279	0.200168
940	0.196388	0.199675	0.193265	0.198689
941	0.195402	0.197703	0.192279	0.200825
942	0.199839	0.201154	0.194087	0.198524
943	0.196059	0.199182	0.196223	0.200332
944	0.194087	0.200825	0.194251	0.199018
945	0.197538	0.199182	0.195237	0.199511
946	0.203784	0.200661	0.198196	0.194251
947	0.198689	0.199018	0.193758	0.198689
948	0.20099	0.199511	0.194744	0.197374
949	0.19836	0.200825	0.193758	0.197045
950	0.199182	0.199675	0.193922	0.198196
951	0.200004	0.196881	0.192936	0.200332
952	0.198196	0.196881	0.192443	0.203948
953	0.198853	0.198524	0.1908	0.197538
954	0.199675	0.195566	0.195895	0.198689
955	0.198031	0.198689	0.193758	0.198031
956	0.198196	0.197867	0.196223	0.198689
957	0.198689	0.197703	0.194087	0.198524
958	0.197703	0.200168	0.196881	0.198853
959	0.199182	0.198031	0.192279	0.196059
960	0.194909	0.201319	0.199182	0.199839
961	0.199018	0.201154	0.197045	0.19836
962	0.199675	0.199182	0.195895	0.205099
963	0.194251	0.197867	0.198524	0.197045
964	0.197374	0.202305	0.195895	0.198524
965	0.202469	0.200168	0.198524	0.199511
966	0.197867	0.199018	0.194744	0.20099
967	0.194416	0.19458	0.196223	0.203126
968	0.199018	0.203126	0.192936	0.194909
969	0.197045	0.198524	0.195402	0.197045
970	0.197867	0.195402	0.19195	0.19721
971	0.196717	0.196223	0.193429	0.197374
972	0.199018	0.19721	0.194251	0.195895
973	0.198689	0.196388	0.196223	0.200825
974	0.198031	0.195237	0.197374	0.200332
975	0.197045	0.196059	0.198031	0.201812
976	0.199839	0.196881	0.196059	0.200332
977	0.196552	0.198689	0.198524	0.196552
978	0.197703	0.199182	0.196881	0.202962
979	0.197045	0.20099	0.199839	0.197045
980	0.198853	0.199675	0.198524	0.198689
981	0.198689	0.202469	0.198853	0.198853
982	0.19721	0.198853	0.199839	0.199675
983	0.201976	0.200168	0.195402	0.19836
984	0.197538	0.198031	0.19836	0.20362
985	0.197538	0.199839	0.196059	0.202798
986	0.198031	0.199675	0.197538	0.199182
987	0.197703	0.198853	0.199018	0.19721
988	0.196059	0.197867	0.197703	0.20099
989	0.198853	0.19836	0.196059	0.206085
990	0.197703	0.200004	0.200332	0.195402
991	0.200168	0.197045	0.19836	0.197538
992	0.197045	0.197538	0.196388	0.199511
993	0.201319	0.198853	0.198031	0.196881
994	0.197867	0.201154	0.197703	0.195237
995	0.197374	0.195895	0.195237	0.199182
996	0.196552	0.200004	0.196552	0.198031
997	0.201154	0.196388	0.20099	0.196223
998	0.201154	0.200661	0.197374	0.200004
999	0.199346	0.19836	0.200004	0.199346
1000	0.200004	0.202305	0.19721	0.205427
1001	0.197867	0.203784	0.200004	0.197374
1002	0.198689	0.200825	0.196223	0.198031
1003	0.200332	0.199182	0.200332	0.200332
1004	0.200004	0.199018	0.200004	0.19721
1005	0.20099	0.200168	0.197538	0.20099
1006	0.20099	0.198031	0.19836	0.198524
1007	0.199346	0.196881	0.194744	0.19836
1008	0.197538	0.197867	0.197867	0.198031
1009	0.196223	0.197538	0.200004	0.201319
1010	0.198689	0.196881	0.202305	0.198031
1011	0.197374	0.200497	0.199182	0.202962
1012	0.197374	0.199839	0.201483	0.197538
1013	0.201976	0.198853	0.199346	0.201154
1014	0.199675	0.200168	0.197703	0.202305
1015	0.200497	0.195566	0.196223	0.199346
1016	0.202798	0.196552	0.200004	0.201319
1017	0.204113	0.196717	0.199018	0.200332
1018	0.201647	0.195073	0.197045	0.203455
1019	0.200332	0.195566	0.197867	0.20214
1020	0.199839	0.198031	0.198853	0.20214
1021	0.197703	0.19721	0.195237	0.198853
1022	0.199839	0.196223	0.196059	0.199182
1023	0.200825	0.196552	0.196717	0.19836
1024	0.197538	0.200825	0.199675	0.198689
1025	0.198196	0.195895	0.195237	0.197045
1026	0.196388	0.19836	0.196223	0.201812
1027	0.199346	0.19836	0.199839	0.19721
1028	0.197867	0.197867	0.197703	0.199018
1029	0.197374	0.198853	0.197045	0.197538
1030	0.198524	0.200004	0.19836	0.198196
1031	0.19836	0.19721	0.200004	0.200168
1032	0.199182	0.199511	0.197703	0.20099
1033	0.197867	0.197374	0.200004	0.189978
1034	0.19836	0.203455	0.200168	0.197538
1035	0.196881	0.201319	0.199839	0.195566
1036	0.197867	0.20477	0.198689	0.196552
1037	0.195895	0.200825	0.198853	0.200825
1038	0.199511	0.199675	0.202962	0.197538
1039	0.197538	0.199346	0.201319	0.197374
1040	0.197867	0.19721	0.197538	0.195237
1041	0.200661	0.199346	0.198689	0.199182
1042	0.197374	0.19836	0.200332	0.200497
1043	0.194251	0.199346	0.197045	0.200661
1044	0.196552	0.195566	0.199511	0.187513
1045	0.197538	0.200661	0.197374	0.194087
1046	0.194744	0.197867	0.198031	0.198031
1047	0.195402	0.197867	0.197045	0.19573
1048	0.196059	0.199018	0.197703	0.198524
1049	0.201154	0.196717	0.198196	0.19721
1050	0.196552	0.200661	0.200332	0.199182
1051	0.199839	0.198196	0.19721	0.197703
1052	0.198196	0.200004	0.20214	0.200497
1053	0.203126	0.195073	0.203455	0.200497
1054	0.19836	0.201319	0.199346	0.201812
1055	0.201319	0.197374	0.199182	0.188827
1056	0.198689	0.201319	0.197867	0.199346
1057	0.19836	0.19836	0.192279	0.199675
1058	0.197045	0.199346	0.192772	0.200004
1059	0.196717	0.198196	0.194744	0.198031
1060	0.200825	0.198689	0.192279	0.199346
1061	0.198524	0.196881	0.190142	0.198689
1062	0.199839	0.19836	0.188663	0.19458
1063	0.198689	0.195566	0.192443	0.199839
1064	0.199346	0.195073	0.194416	0.199839
1065	0.197045	0.195566	0.191621	0.198853
1066	0.199182	0.19195	0.196223	0.190635
1067	0.197703	0.197867	0.197703	0.198524
1068	0.193594	0.201319	0.196388	0.198524
1069	0.196881	0.196388	0.192936	0.200497
1070	0.197538	0.195895	0.196552	0.199511
1071	0.200661	0.202305	0.194251	0.202305
1072	0.198524	0.194416	0.195402	0.200004
1073	0.200168	0.200497	0.193265	0.199346
1074	0.199511	0.197703	0.197045	0.203948
1075	0.200825	0.199675	0.197045	0.198031
1076	0.197538	0.199346	0.197045	0.202305
1077	0.198031	0.199182	0.195237	0.196717
1078	0.201647	0.199182	0.19836	0.197045
1079	0.199839	0.197703	0.193922	0.199511
1080	0.197538	0.198196	0.193101	0.19836
1081	0.19836	0.199018	0.19721	0.195895
1082	0.198031	0.201812	0.197867	0.198853
1083	0.200332	0.196388	0.19195	0.197045
1084	0.197045	0.201319	0.199018	0.192279
1085	0.19836	0.204441	0.199346	0.199018
1086	0.197045	0.201647	0.195566	0.199346
1087	0.198031	0.205263	0.201154	0.19721
1088	0.196881	0.202469	0.196059	0.201483
1089	0.198031	0.200661	0.200825	0.200497
1090	0.197867	0.202962	0.199346	0.201812
1091	0.199675	0.200004	0.199018	0.203126
1092	0.20477	0.200661	0.195895	0.200332
1093	0.199511	0.201319	0.197703	0.201154
1094	0.201647	0.199018	0.196059	0.19573
1095	0.201319	0.196388	0.197538	0.194744
1096	0.201647	0.198524	0.196223	0.201812
1097	0.200168	0.196059	0.198196	0.19573
1098	0.19836	0.199182	0.197374	0.195566
1099	0.196717	0.19836	0.197045	0.199511
1100	0.201319	0.200004	0.199675	0.19573
1101	0.197867	0.200168	0.197867	0.199346
1102	0.19721	0.199675	0.200332	0.197374
1103	0.197374	0.199675	0.201483	0.199675
1104	0.199839	0.198689	0.198196	0.200497
1105	0.199839	0.202962	0.198031	0.201319
1106	0.199346	0.196059	0.199346	0.19836
1107	0.198031	0.20214	0.197538	0.201319
1108	0.199018	0.198689	0.200661	0.201647
1109	0.199839	0.200168	0.200497	0.198689
1110	0.199182	0.199182	0.196717	0.201319
1111	0.199839	0.200497	0.196881	0.198196
1112	0.198031	0.197045	0.200004	0.199675
1113	0.19458	0.199018	0.197703	0.19573
1114	0.193265	0.200004	0.196388	0.196552
1115	0.201976	0.200168	0.200497	0.196717
1116	0.198524	0.201647	0.19836	0.198524
1117	0.196717	0.19836	0.196223	0.19195
1118	0.199675	0.200825	0.200168	0.197374
1119	0.201483	0.197867	0.197703	0.198031
1120	0.199675	0.196388	0.198689	0.196388
1121	0.197867	0.196717	0.199511	0.197374
1122	0.200332	0.199675	0.199182	0.199839
1123	0.199675	0.198689	0.199182	0.200332
1124	0.196552	0.198853	0.197703	0.199182
1125	0.199346	0.199675	0.201319	0.201154
1126	0.20362	0.201154	0.200332	0.200004
1127	0.200004	0.194087	0.19836	0.201154
1128	0.201319	0.20214	0.197374	0.197867
1129	0.199839	0.199839	0.20099	0.199018
1130	0.202305	0.196388	0.20099	0.198689
1131	0.199675	0.200168	0.197374	0.200168
1132	0.198196	0.197867	0.201319	0.194744
1133	0.197374	0.201812	0.198031	0.194909
1134	0.195237	0.197538	0.199675	0.200661
1135	0.197867	0.201319	0.198853	0.202962
1136	0.196881	0.195402	0.200004	0.20099
1137	0.196881	0.197045	0.197374	0.199839
1138	0.196717	0.196059	0.195895	0.201483
1139	0.198524	0.198524	0.198524	0.198853
1140	0.198524	0.20099	0.205427	0.199346
1141	0.200825	0.200332	0.199182	0.201319
1142	0.200004	0.200825	0.204934	0.199511
1143	0.201976	0.199182	0.19836	0.201319
1144	0.198853	0.200825	0.198196	0.202633
1145	0.201483	0.198524	0.198031	0.194087
1146	0.200332	0.200661	0.196552	0.19836
1147	0.2074	0.198196	0.197867	0.19721
1148	0.202633	0.201812	0.199675	0.196717
1149	0.203784	0.196717	0.197703	0.194744
1150	0.198853	0.199511	0.19573	0.197045
1151	0.201154	0.197867	0.200004	0.19836
1152	0.196388	0.199675	0.199511	0.199839
1153	0.197867	0.196717	0.201812	0.200168
1154	0.197867	0.197703	0.196388	0.198689
1155	0.196881	0.197538	0.200661	0.200168
1156	0.200332	0.198524	0.19721	0.199839
1157	0.19721	0.200168	0.199511	0.199675
1158	0.199018	0.201976	0.197867	0.199839
1159	0.200004	0.197538	0.199018	0.200661
1160	0.201154	0.198524	0.199346	0.200004
1161	0.199675	0.199182	0.200004	0.20214
1162	0.199182	0.198031	0.202305	0.203291
1163	0.199346	0.196717	0.199839	0.20099
1164	0.199346	0.194909	0.198031	0.200332
1165	0.199839	0.19573	0.200004	0.200168
1166	0.198689	0.197703	0.200332	0.198524
1167	0.200497	0.202633	0.19573	0.200332
1168	0.199346	0.200825	0.199018	0.197045
1169	0.200825	0.20099	0.195237	0.196059
1170	0.198196	0.19836	0.197045	0.19836
1171	0.199675	0.197867	0.196552	0.197374
1172	0.19573	0.198853	0.197867	0.19836
1173	0.200004	0.197703	0.199346	0.200825
1174	0.198524	0.194909	0.196881	0.200168
1175	0.198524	0.197867	0.199018	0.200004
1176	0.198031	0.196059	0.197867	0.201812
1177	0.198689	0.199018	0.202305	0.19836
1178	0.200332	0.198689	0.200332	0.201154
1179	0.200661	0.199018	0.197867	0.199182
1180	0.201319	0.201976	0.200497	0.198524
1181	0.201154	0.197867	0.19836	0.200168
1182	0.200497	0.199018	0.199511	0.198031
1183	0.19836	0.196388	0.200332	0.199675
1184	0.199675	0.194744	0.197867	0.201483
1185	0.200168	0.198689	0.200661	0.201976
1186	0.19573	0.20099	0.196552	0.201976
1187	0.195895	0.200661	0.196223	0.200168
1188	0.197374	0.202469	0.199346	0.200497
1189	0.19573	0.201483	0.200661	0.200332
1190	0.197867	0.20099	0.198689	0.197703
1191	0.194251	0.199675	0.199182	0.19573
1192	0.199182	0.199675	0.199018	0.203126
1193	0.199346	0.198853	0.19721	0.197703
1194	0.197703	0.200004	0.198853	0.199675
1195	0.201483	0.200004	0.199675	0.199839
1196	0.203126	0.197374	0.203784	0.196388
1197	0.19721	0.203948	0.19721	0.199511
1198	0.204277	0.19721	0.200004	0.199511
1199	0.201154	0.203291	0.198196	0.203126
1200	0.19836	0.201976	0.194909	0.197867
1201	0.200004	0.200661	0.195402	0.197374
1202	0.200168	0.197703	0.201483	0.200661
1203	0.198853	0.199018	0.197703	0.199839
1204	0.200332	0.197374	0.196059	0.200004
1205	0.199346	0.197045	0.195566	0.19836
1206	0.19721	0.197867	0.19721	0.201976
1207	0.206249	0.19573	0.196388	0.197867
1208	0.194087	0.199182	0.197867	0.200497
1209	0.197374	0.196223	0.198196	0.199182
1210	0.199511	0.200825	0.197703	0.201319
1211	0.198031	0.198853	0.198196	0.196717
1212	0.197703	0.201483	0.195566	0.198689
1213	0.205592	0.197538	0.198031	0.200825
1214	0.203291	0.203126	0.194909	0.199018
1215	0.200497	0.194744	0.199839	0.201319
1216	0.201319	0.200825	0.195566	0.199839
1217	0.199346	0.193922	0.198524	0.202798
1218	0.204934	0.194744	0.195073	0.200168
1219	0.193758	0.198689	0.197538	0.198031
1220	0.195566	0.194909	0.196552	0.198031
1221	0.195566	0.194744	0.196059	0.201647
1222	0.197374	0.197045	0.193429	0.19573
1223	0.198031	0.198031	0.194416	0.201976
1224	0.200661	0.19721	0.196881	0.198853
1225	0.198689	0.20099	0.197045	0.198853
1226	0.198853	0.196881	0.197045	0.197538
1227	0.199839	0.198031	0.195073	0.19836
1228	0.201319	0.200168	0.197867	0.203291
1229	0.201647	0.20099	0.19721	0.199018
1230	0.199839	0.199346	0.202469	0.199511
1231	0.198689	0.197703	0.19458	0.200825
1232	0.196552	0.19195	0.201319	0.201483
1233	0.199511	0.197538	0.198853	0.200661
1234	0.197045	0.194909	0.195237	0.206414
1235	0.200825	0.193758	0.197538	0.20362
1236	0.199675	0.195895	0.196881	0.200168
1237	0.199182	0.191128	0.195402	0.199839
1238	0.197538	0.18817	0.195073	0.200004
1239	0.198853	0.186691	0.200661	0.198196
1240	0.202962	0.189485	0.198031	0.19836
1241	0.199675	0.187841	0.200004	0.197867
1242	0.197045	0.191457	0.197538	0.203126
1243	0.200004	0.185705	0.199511	0.199018
1244	0.198853	0.188006	0.195895	0.199018
1245	0.199018	0.187513	0.200004	0.201319
1246	0.200004	0.188663	0.197703	0.197045
1247	0.200168	0.18817	0.199839	0.195566
1248	0.196552	0.190635	0.196059	0.199511
1249	0.19836	0.189649	0.197867	0.200332
1250	0.201483	0.189156	0.202305	0.195073
1251	0.192936	0.187841	0.195566	0.201154
1252	0.199675	0.186691	0.202962	0.202305
1253	0.198524	0.187019	0.203784	0.200004
1254	0.200332	0.190964	0.195895	0.201319
1255	0.200004	0.184225	0.193265	0.201319
1256	0.199182	0.185212	0.201647	0.200004
1257	0.200825	0.174035	0.195073	0.199018
1258	0.200004	0.155792	0.197703	0.198031
1259	0.199346	0.107799	0.197703	0.196552
1260	0.196881	0.069176	0.197045	0.200661
1261	0.195895	0.067532	0.199018	0.196223
1262	0.191293	0.043536	0.199346	0.199018
1263	0.20362	0.055205	0.196223	0.199018
1264	0.198689	0.054712	0.196223	0.199675
1265	0.199511	0.060465	0.19836	0.201976
1266	0.20099	0.065231	0.198196	0.201483
1267	0.199839	0.070326	0.200168	0.199675
1268	0.200004	0.071148	0.197703	0.203126
1269	0.199182	0.074435	0.196059	0.197045
1270	0.200825	0.083475	0.196059	0.199511
1271	0.203948	0.082653	0.196388	0.199182
1272	0.201483	0.089391	0.196223	0.198031
1273	0.190635	0.093665	0.196223	0.198689
1274	0.198031	0.091199	0.195402	0.19836
1275	0.199018	0.071805	0.199839	0.199018
1276	0.199675	0.046659	0.197538	0.200825
1277	0.19721	0.038934	0.19721	0.199182
1278	0.200661	0.046001	0.195566	0.199346
1279	0.199346	0.048302	0.196881	0.199511
1280	0.198853	0.055863	0.198031	0.198031
1281	0.197867	0.058657	0.199675	0.199018
1282	0.199182	0.060136	0.199675	0.199182
1283	0.199018	0.065067	0.202469	0.201976
1284	0.196388	0.06408	0.198524	0.202962
1285	0.195073	0.06293	0.201154	0.205099
1286	0.197538	0.060629	0.197867	0.200004
1287	0.199182	0.054055	0.19836	0.203291
1288	0.196552	0.039098	0.200168	0.199018
1289	0.195895	0.038769	0.196223	0.198196
1290	0.199675	0.037455	0.198689	0.198524
1291	0.198196	0.042385	0.198031	0.197374
1292	0.198196	0.033839	0.200004	0.19836
1293	0.200497	0.030223	0.196552	0.196881
1294	0.198853	0.017567	0.200004	0.195895
1295	0.19573	0.007213	0.199346	0.19721
1296	0.192608	-0.000183	0.199346	0.198853
1297	0.197538	0.001954	0.199018	0.194416
1298	0.194416	0.011486	0.202469	0.200497
1299	0.197374	0.004583	0.198853	0.198196
1300	0.198196	0.000639	0.200661	0.201647
1301	0.200825	0.001296	0.200004	0.200004
1302	0.199346	0.011651	0.196059	0.201647
1303	0.201483	0.004255	0.200497	0.200825
1304	0.200332	0.007706	0.19836	0.199182
1305	0.201647	0.003268	0.203291	0.200332
1306	0.199346	0.003104	0.198196	0.199675
1307	0.200004	0.00031	0.20214	0.197538
1308	0.198689	0.000967	0.198853	0.202962
1309	0.198524	-0.000347	0.201647	0.196717
1310	0.20214	-0.000183	0.193594	0.204606
1311	0.195566	-0.000183	0.199839	0.200825
1312	0.198689	-0.000512	0.200497	0.195566
1313	0.202469	-0.000512	0.194416	0.202633
1314	0.199675	0.000146	0.200661	0.198031
1315	0.197374	-1.9e-05	0.189814	0.199018
1316	0.200332	0.000474	0.169598	0.200168
1317	0.200168	0.00031	0.166804	0.200168
1318	0.197538	-1.9e-05	0.170091	0.202469
1319	0.199346	0.000146	0.167954	0.196223
1320	0.201483	-1.9e-05	0.171077	0.197703
1321	0.203784	-0.000512	0.16779	0.200168
1322	0.199675	-0.000347	0.173707	0.200168
1323	0.200497	-0.000347	0.174035	0.19836
1324	0.198196	0.001954	0.176172	0.199839
1325	0.201812	0.000146	0.175843	0.198853
1326	0.199182	-0.000512	0.17798	0.200004
1327	0.200497	0.00146	0.179623	0.198689
1328	0.19836	-0.000183	0.179623	0.200825
1329	0.198031	-1.9e-05	0.181103	0.197703
1330	0.197703	0.000639	0.18061	0.199675
1331	0.20099	0.000146	0.182089	0.197703
1332	0.196388	-0.000183	0.181431	0.198196
1333	0.197703	-0.000841	0.183897	0.199346
1334	0.196881	-0.000347	0.182582	0.201319
1335	0.197538	0.003104	0.185869	0.203455
1336	0.200168	0.000474	0.184225	0.201976
1337	0.198196	-0.000183	0.186362	0.200332
1338	0.196552	0.000474	0.189649	0.200004
1339	0.195073	-0.000183	0.185869	0.203948
1340	0.200661	-1.9e-05	0.187677	0.198689
1341	0.195566	0.000146	0.189156	0.201647
1342	0.201319	-1.9e-05	0.186033	0.199346
1343	0.200332	-0.000841	0.188663	0.197703
1344	0.197703	-0.000183	0.188006	0.192772
1345	0.199839	-0.001498	0.189156	0.197703
1346	0.196717	0.000474	0.189814	0.196717
1347	0.195566	0.001789	0.191128	0.19836
1348	0.197703	0.000803	0.1908	0.19836
1349	0.196059	0.002447	0.192608	0.197867
1350	0.199511	-0.000183	0.191293	0.20099
1351	0.19836	0.00294	0.191128	0.200497
1352	0.19836	0.011486	0.192772	0.199675
1353	0.199675	0.022498	0.191293	0.201319
1354	0.200004	0.02595	0.192936	0.198689
1355	0.200497	0.032031	0.192443	0.199346
1356	0.199675	0.041235	0.19458	0.201154
1357	0.199839	0.037455	0.194744	0.199018
1358	0.200332	0.052082	0.194744	0.20099
1359	0.20214	0.0603	0.195073	0.199839
1360	0.198524	0.067203	0.19573	0.201812
1361	0.198689	0.074435	0.196059	0.202305
1362	0.200661	0.07575	0.195402	0.202798
1363	0.201812	0.081009	0.193429	0.199346
1364	0.199182	0.089227	0.198196	0.19836
1365	0.20099	0.089885	0.197538	0.197867
1366	0.197538	0.094158	0.193265	0.200168
1367	0.200332	0.099746	0.192115	0.199511
1368	0.19721	0.09613	0.192443	0.199511
1369	0.197538	0.10254	0.191786	0.195402
1370	0.199839	0.108293	0.196552	0.197538
1371	0.198853	0.114702	0.195895	0.199018
1372	0.197867	0.115689	0.19573	0.199839
1373	0.196223	0.120784	0.197374	0.203784
1374	0.197538	0.123413	0.197045	0.19836
1375	0.197374	0.131302	0.198853	0.20099
1376	0.198031	0.130152	0.196717	0.200332
1377	0.198689	0.133603	0.196717	0.200497
1378	0.202633	0.136398	0.196881	0.199839
1379	0.197867	0.134425	0.196388	0.198853
1380	0.199675	0.139027	0.196881	0.19836
1381	0.19836	0.143794	0.19458	0.198196
1382	0.199182	0.143465	0.197538	0.199018
1383	0.198853	0.141657	0.194416	0.197374
1384	0.196223	0.146588	0.195566	0.20099
1385	0.197374	0.151025	0.194744	0.200168
1386	0.196717	0.150861	0.197374	0.200825
1387	0.202962	0.155627	0.195073	0.198031
1388	0.197703	0.158914	0.19458	0.200004
1389	0.197703	0.157764	0.197867	0.198196
1390	0.200004	0.157107	0.196388	0.199839
1391	0.203948	0.16138	0.19573	0.200168
1392	0.198196	0.16253	0.196552	0.200332
1393	0.200497	0.164174	0.197045	0.198524
1394	0.200661	0.167954	0.19573	0.203784
1395	0.202469	0.16779	0.197045	0.200825
1396	0.196717	0.171406	0.195566	0.200661
1397	0.197374	0.170091	0.196717	0.199346
1398	0.202469	0.173214	0.192936	0.199346
1399	0.199018	0.170091	0.195237	0.197045
1400	0.197867	0.173707	0.193758	0.200825
1401	0.197867	0.172556	0.194744	0.197374
1402	0.199675	0.172392	0.193594	0.197374
1403	0.198689	0.17535	0.19721	0.200825
1404	0.200661	0.177158	0.191786	0.200825
1405	0.201154	0.174857	0.19721	0.19836
1406	0.200332	0.180445	0.195073	0.203291
1407	0.199346	0.180281	0.194744	0.200004
1408	0.200332	0.179459	0.200332	0.198853
1409	0.199182	0.183897	0.192608	0.198853
1410	0.200825	0.177158	0.196059	0.200004
1411	0.199182	0.18439	0.194087	0.198689
1412	0.196717	0.184883	0.196223	0.199182
1413	0.204113	0.183732	0.195895	0.20214
1414	0.201154	0.183404	0.196717	0.199182
1415	0.200497	0.188006	0.194744	0.200004
1416	0.20099	0.183897	0.197867	0.200497
1417	0.20214	0.184718	0.189978	0.197867
1418	0.197703	0.189814	0.193429	0.198031
1419	0.199839	0.186691	0.192936	0.195237
1420	0.195402	0.186691	0.190964	0.19836
1421	0.200168	0.185869	0.19195	0.196552
1422	0.193922	0.187841	0.191128	0.199675
1423	0.196388	0.188334	0.193922	0.196223
1424	0.195566	0.18439	0.183404	0.20477
1425	0.200661	0.187513	0.170748	0.199675
1426	0.200168	0.193265	0.153491	0.201154
1427	0.199675	0.192772	0.146095	0.200004
1428	0.203455	0.193594	0.128837	0.200332
1429	0.196223	0.191457	0.116675	0.201812
1430	0.202962	0.193758	0.10139	0.199346
1431	0.198689	0.192115	0.097774	0.200004
1432	0.197374	0.18817	0.068354	0.19721
1433	0.200004	0.189814	0.069833	0.199346
1434	0.197867	0.191293	0.065395	0.195895
1435	0.200004	0.189814	0.06556	0.200004
1436	0.202305	0.191457	0.065067	0.197538
1437	0.19721	0.192279	0.065231	0.199839
1438	0.20099	0.192608	0.063094	0.198853
1439	0.19836	0.19721	0.056027	0.199675
1440	0.197867	0.192608	0.056191	0.199182
1441	0.197538	0.197538	0.05652	0.200332
1442	0.19573	0.195073	0.045672	0.199018
1443	0.198853	0.199346	0.05011	0.19836
1444	0.200332	0.196388	0.054219	0.200497
1445	0.198524	0.195895	0.052411	0.201976
1446	0.200332	0.196059	0.052247	0.200004
1447	0.200168	0.196388	0.055534	0.196223
1448	0.200168	0.196223	0.056027	0.202798
1449	0.20362	0.194744	0.052411	0.198196
1450	0.199675	0.19458	0.04748	0.200004
1451	0.200825	0.19573	0.041564	0.199839
1452	0.199675	0.193758	0.046001	0.197538
1453	0.200004	0.196059	0.045179	0.199018
1454	0.198524	0.196388	0.045672	0.199018
1455	0.20099	0.194251	0.038441	0.197538
1456	0.195402	0.19836	0.038441	0.201812
1457	0.198524	0.195073	0.018225	0.199182
1458	0.195237	0.196717	0.023156	0.19836
1459	0.200661	0.19573	0.028908	0.200497
1460	0.199182	0.196059	0.025128	0.201154
1461	0.201154	0.196717	0.024306	0.201319
1462	0.19721	0.197867	0.022498	0.200332
1463	0.195895	0.195073	0.028251	0.20099
1464	0.198689	0.197867	0.020197	0.199675
1465	0.198689	0.199675	0.019868	0.200004
1466	0.201483	0.194416	0.018389	0.198524
1467	0.197045	0.194909	0.013294	0.197867
1468	0.200825	0.199182	0.016088	0.197045
1469	0.198853	0.196881	0.018389	0.197703
1470	0.201812	0.195073	0.022498	0.198524
1471	0.196717	0.202633	0.019375	0.200004
1472	0.197703	0.193922	0.018389	0.200332
1473	0.199182	0.199675	0.015595	0.198853
1474	0.200497	0.196552	0.016253	0.201154
1475	0.199346	0.198853	0.019211	0.199839
1476	0.198031	0.198689	0.02332	0.200332
1477	0.20099	0.199839	0.023977	0.198853
1478	0.200004	0.199675	0.018882	0.197374
1479	0.196717	0.200661	0.012308	0.196388
1480	0.201483	0.197538	0.014773	0.202798
1481	0.202962	0.199182	0.015595	0.198524
1482	0.196881	0.196223	0.013623	0.200168
1483	0.204606	0.193101	0.015595	0.198689
1484	0.198196	0.202305	0.011322	0.198031
1485	0.198031	0.19721	-0.002813	0.196388
1486	0.194416	0.19721	0.012308	0.19836
1487	0.197045	0.198196	0.014445	0.19721
1488	0.194416	0.201483	0.017074	0.19836
1489	0.196223	0.197538	0.019868	0.198524
1490	0.195566	0.20362	0.019868	0.198524
1491	0.196388	0.200825	0.022827	0.199182
1492	0.199346	0.197045	0.023156	0.199346
1493	0.197867	0.19836	0.026443	0.201319
1494	0.202305	0.19721	0.022663	0.198853
1495	0.199511	0.19721	0.026936	0.198853
1496	0.200661	0.197703	0.014938	0.196388
1497	0.202469	0.200332	0.022663	0.19458
1498	0.202305	0.199511	0.02595	0.196717
1499	0.200497	0.20099	0.017732	0.198524
1500	0.201647	0.197538	0.02069	0.196717
1501	0.200332	0.202305	0.01954	0.20099
1502	0.201812	0.196223	0.023813	0.19836
1503	0.20099	0.199346	0.02069	0.200661
1504	0.19721	0.198196	0.023156	0.199511
1505	0.202633	0.198196	0.019868	0.199182
1506	0.198524	0.196717	0.019704	0.199346
1507	0.195895	0.196881	0.008199	0.203291
1508	0.199018	0.199675	0.0105	0.200168
1509	0.19836	0.200825	0.01313	0.198689
1510	0.196881	0.198689	0.0105	0.201812
1511	0.200497	0.197703	0.003104	0.198689
1512	0.198853	0.201647	0.003597	0.197867
1513	0.192608	0.198196	0.002447	0.19721
1514	0.199675	0.199346	0.002775	0.201154
1515	0.200332	0.199346	0.001625	0.200168
1516	0.197703	0.19836	-0.000841	0.200004
1517	0.199346	0.195073	-0.000676	0.197867
1518	0.197045	0.197867	0.000146	0.201976
1519	0.200332	0.198689	-0.001005	0.200332
1520	0.198196	0.200497	-1.9e-05	0.199182
1521	0.19836	0.197867	0.000803	0.199675
1522	0.197374	0.195895	-1.9e-05	0.200661
1523	0.201154	0.19721	0.000146	0.199182
1524	0.200497	0.197045	-1.9e-05	0.198031
1525	0.198196	0.107964	0.000474	0.20099
1526	0.19836	0.114867	-0.000512	0.19836
1527	0.199839	0.113223	-1.9e-05	0.198853
1528	0.200004	0.118318	-0.000512	0.19836
1529	0.196059	0.120126	-0.001169	0.198524
1530	0.199675	0.125057	0.000146	0.197374
1531	0.198853	0.130481	0.000146	0.199018
1532	0.200004	0.129495	0.00031	0.197045
1533	0.199018	0.135083	-1.9e-05	0.200332
1534	0.200497	0.139849	0.000146	0.197703
1535	0.19721	0.143465	-1.9e-05	0.198524
1536	0.194251	0.141821	0.000474	0.199346
1537	0.194744	0.146588	-0.000512	0.199018
1538	0.195402	0.147738	-0.000512	0.199346
1539	0.197867	0.147738	-0.000676	0.198853
1540	0.196388	0.151847	-0.000512	0.201812
1541	0.200661	0.150368	-0.000183	0.198031
1542	0.198031	0.150861	0.000146	0.199839
1543	0.200332	0.153162	-1.9e-05	0.196881
1544	0.19836	0.158093	0.000146	0.197867
1545	0.202305	0.159079	-1.9e-05	0.194087
1546	0.199346	0.162859	0.000474	0.195237
1547	0.202469	0.159901	-1.9e-05	0.194251
1548	0.199346	0.163023	-0.000347	0.196388
1549	0.201319	0.168118	-0.000676	0.198689
1550	0.201647	0.168447	-0.000676	0.200168
1551	0.199511	0.167461	-0.001005	0.202305
1552	0.200004	0.17272	-0.000676	0.199182
1553	0.199675	0.170419	-0.000183	0.200168
1554	0.199346	0.173214	-1.9e-05	0.197045
1555	0.197374	0.173049	0.000474	0.200004
1556	0.200661	0.177322	0.00031	0.19836
1557	0.198689	0.17272	0.00031	0.200004
1558	0.200825	0.177322	-1.9e-05	0.201319
1559	0.198689	0.177158	-0.000676	0.201647
1560	0.201647	0.177322	-0.000512	0.199511
1561	0.197045	0.178966	-0.000841	0.201812
1562	0.201812	0.177158	-0.000841	0.197867
1563	0.200661	0.182089	-0.000347	0.197867
1564	0.198031	0.18061	-0.000183	0.198853
1565	0.198031	0.182253	0.000146	0.19836
1566	0.198689	0.183239	0.000146	0.200168
1567	0.200004	0.185376	0.000146	0.20214
1568	0.197538	0.185705	0.000146	0.201319
1569	0.198853	0.185705	-1.9e-05	0.202798
1570	0.199182	0.183239	-0.000183	0.204934
1571	0.199511	0.188334	-0.000347	0.19836
1572	0.19721	0.187019	-0.000347	0.204113
1573	0.200661	0.183897	-0.000676	0.199346
1574	0.197374	0.186198	-0.000512	0.199346
1575	0.200332	0.186033	-1.9e-05	0.200825
1576	0.196881	0.187184	0.000146	0.199675
1577	0.199182	0.185869	0.000146	0.195402
1578	0.197703	0.1908	0.000146	0.198524
1579	0.198853	0.186855	0.000474	0.194087
1580	0.198689	0.191457	0.000474	0.19836
1581	0.198689	0.186526	-0.000347	0.198853
1582	0.200332	0.189156	-0.000347	0.198196
1583	0.197045	0.189814	-0.000512	0.20099
1584	0.199018	0.191457	-0.000676	0.201647
1585	0.196223	0.191293	-0.000347	0.203291
1586	0.197374	0.194744	-0.000183	0.198196
1587	0.196717	0.193265	0.000474	0.201483
1588	0.19836	0.193594	0.000474	0.199675
1589	0.19836	0.195073	0.000639	0.203455
1590	0.201154	0.192772	0.01428	0.194909
1591	0.20099	0.190142	0.01576	0.203455
1592	0.204113	0.190142	0.023813	0.201647
1593	0.200661	0.194087	0.03351	0.198524
1594	0.200004	0.192608	0.041399	0.192608
1595	0.200004	0.192279	0.047316	0.196388
1596	0.202633	0.197703	0.051096	0.196223
1597	0.19458	0.19721	0.058985	0.196223
1598	0.196223	0.192936	0.067696	0.19836
1599	0.200004	0.194744	0.068354	0.197538
1600	0.197867	0.197867	0.078544	0.200661
1601	0.199182	0.193922	0.080845	0.198031
1602	0.198524	0.195402	0.08331	0.200661
1603	0.198689	0.197538	0.091528	0.201812
1604	0.198524	0.197045	0.097445	0.200661
1605	0.200661	0.194744	0.10254	0.196717
1606	0.198196	0.19721	0.09876	0.199839
1607	0.201976	0.192608	0.106978	0.19836
1608	0.200168	0.194416	0.10895	0.20099
1609	0.200497	0.194744	0.112237	0.198196
1610	0.199511	0.195566	0.116346	0.199018
1611	0.200497	0.19458	0.119962	0.19836
1612	0.198524	0.195402	0.121441	0.197374
1613	0.204277	0.194744	0.127358	0.198196
1614	0.201319	0.19836	0.129495	0.200168
1615	0.201154	0.195237	0.132617	0.198689
1616	0.197703	0.196223	0.136069	0.19836
1617	0.196717	0.194251	0.139685	0.205427
1618	0.200332	0.198196	0.14215	0.197867
1619	0.199346	0.199018	0.146095	0.198853
1620	0.199346	0.196059	0.147081	0.199182
1621	0.199182	0.198853	0.147409	0.20099
1622	0.20214	0.197867	0.15234	0.199675
1623	0.197045	0.198031	0.150861	0.202962
1624	0.202798	0.196552	0.152669	0.201812
1625	0.198031	0.198853	0.156449	0.19721
1626	0.199346	0.196717	0.159079	0.200661
1627	0.197867	0.198853	0.156613	0.198689
1628	0.198689	0.196881	0.16138	0.199182
1629	0.197867	0.198853	0.161873	0.198689
1630	0.199018	0.196223	0.16401	0.196552
1631	0.198853	0.199018	0.162366	0.196388
1632	0.196059	0.196717	0.166475	0.198689
1633	0.200497	0.193594	0.167625	0.19836
1634	0.200332	0.198689	0.168776	0.202633
1635	0.198196	0.196059	0.169105	0.201483
1636	0.195895	0.201319	0.172063	0.204277
1637	0.200332	0.200661	0.175186	0.199511
1638	0.197538	0.197867	0.173707	0.202305
1639	0.196552	0.198853	0.176172	0.202962
1640	0.199018	0.200332	0.176829	0.199839
1641	0.20099	0.196552	0.176994	0.198689
1642	0.201319	0.200825	0.176336	0.197374
1643	0.201976	0.203948	0.179295	0.196717
1644	0.200825	0.201154	0.178309	0.193265
1645	0.199182	0.197374	0.181596	0.200004
1646	0.197045	0.199018	0.179788	0.19836
1647	0.197867	0.199018	0.18061	0.199182
1648	0.199018	0.199839	0.182253	0.201154
1649	0.19836	0.197867	0.180938	0.20362
1650	0.198196	0.198031	0.184061	0.199346
1651	0.199511	0.199511	0.191128	0.198524
1652	0.198524	0.200661	0.183239	0.198853
1653	0.197374	0.198524	0.182089	0.199018
1654	0.201647	0.199511	0.184225	0.201319
1655	0.199346	0.193265	0.186691	0.198524
1656	0.200332	0.200825	0.1908	0.200332
1657	0.200497	0.201319	0.188499	0.200497
1658	0.201319	0.19721	0.190307	0.200004
1659	0.200004	0.199018	0.18932	0.198853
1660	0.199182	0.196552	0.1908	0.199839
1661	0.20099	0.20214	0.189485	0.196552
1662	0.197867	0.199182	0.193101	0.197538
1663	0.201483	0.201647	0.186691	0.192936
1664	0.197703	0.198689	0.190635	0.19573
1665	0.201319	0.198031	0.191786	0.193101
1666	0.198031	0.196881	0.191786	0.194744
1667	0.200661	0.199182	0.189485	0.188663
1668	0.196717	0.201976	0.189814	0.18932
1669	0.198853	0.199675	0.194909	0.187184
1670	0.197703	0.198524	0.191128	0.186033
1671	0.197867	0.196059	0.187841	0.184883
1672	0.197538	0.19721	0.189978	0.182582
1673	0.200497	0.195895	0.195073	0.181431
1674	0.199182	0.196388	0.190964	0.183404
1675	0.198524	0.197703	0.193265	0.179623
1676	0.198524	0.201647	0.191621	0.180116
1677	0.198524	0.198524	0.19458	0.17913
1678	0.20477	0.200661	0.19458	0.180281
1679	0.19573	0.199839	0.193265	0.179952
1680	0.200661	0.198853	0.195402	0.173214
1681	0.198196	0.199346	0.195073	0.169598
1682	0.197867	0.196717	0.195237	0.138863
1683	0.197867	0.195237	0.194087	0.140506
1684	0.202798	0.19721	0.198196	0.084625
1685	0.197374	0.200168	0.19721	0.059478
1686	0.200168	0.198196	0.196717	0.041892
1687	0.197867	0.199018	0.193101	0.041892
1688	0.198031	0.193758	0.196388	0.038934
1689	0.197045	0.197867	0.194416	0.021019
1690	0.198689	0.198031	0.196717	0.011979
1691	0.198853	0.201647	0.196388	0.014445
1692	0.198196	0.199018	0.198524	0.015102
1693	0.198689	0.201319	0.196717	0.007049
1694	0.201976	0.197538	0.197867	0.014116
1695	0.199346	0.201319	0.198196	0.013952
1696	0.197703	0.200332	0.198196	0.023484
1697	0.202633	0.198031	0.198524	0.02595
1698	0.199346	0.199839	0.196552	0.027429
1699	0.198524	0.199839	0.19721	0.024142
1700	0.201483	0.198524	0.197703	0.021183
1701	0.199182	0.199018	0.198031	0.027265
1702	0.197538	0.198853	0.194744	0.031867
1703	0.201154	0.194909	0.195402	0.033674
1704	0.195895	0.199511	0.193265	0.03992
1705	0.199839	0.19721	0.196552	0.021183
1706	0.199182	0.200825	0.193922	0.007706
1707	0.197538	0.201647	0.19836	0.014445
1708	0.200825	0.20099	0.19721	0.011815
1709	0.197538	0.200661	0.20214	0.022827
1710	0.198853	0.202305	0.203126	0.026278
1711	0.196717	0.199346	0.200168	0.03236
1712	0.201812	0.200332	0.198524	0.034332
1713	0.198524	0.201154	0.200497	0.030059
1714	0.193101	0.198689	0.198853	0.027758
1715	0.19458	0.2074	0.19458	0.032195
1716	0.198853	0.196717	0.198524	0.041235
1717	0.196388	0.201976	0.19573	0.040742
1718	0.19836	0.199346	0.193922	0.046987
1719	0.19836	0.19836	0.194744	0.05389
1720	0.198524	0.198196	0.197045	0.046001
1721	0.197703	0.200332	0.193265	0.051589
1722	0.197374	0.19458	0.199839	0.057999
1723	0.199346	0.196717	0.196881	0.060465
1724	0.19836	0.198853	0.200661	0.063094
1725	0.199346	0.200168	0.201154	0.052247
1726	0.200332	0.200332	0.198689	0.060793
1727	0.204277	0.200332	0.199511	0.064574
1728	0.200661	0.200168	0.200497	0.068682
1729	0.201483	0.200332	0.198853	0.07049
1730	0.200497	0.201647	0.200497	0.073942
1731	0.200661	0.198524	0.207235	0.073778
1732	0.198853	0.200332	0.200497	0.0769
1733	0.191786	0.195402	0.199675	0.082817
1734	0.20099	0.197045	0.198689	0.089391
1735	0.198689	0.196717	0.199182	0.086104
1736	0.194416	0.197703	0.196059	0.085447
1737	0.19573	0.197374	0.200661	0.080516
1738	0.196388	0.199018	0.198031	0.078215
1739	0.199018	0.197374	0.197538	0.085118
1740	0.199675	0.199675	0.19836	0.087584
1741	0.198196	0.200332	0.199018	0.090213
1742	0.199511	0.196881	0.199346	0.040084
1743	0.199511	0.199018	0.200661	0.016746
1744	0.199018	0.195237	0.200004	0.021676
1745	0.200497	0.196059	0.199675	0.029401
1746	0.204934	0.198524	0.201647	0.00935
1747	0.198196	0.199346	0.198524	0.018882
1748	0.201483	0.199675	0.201976	0.024635
1749	0.200497	0.201812	0.19836	0.021183
1750	0.201319	0.198853	0.199182	0.027922
1751	0.198524	0.199182	0.196223	0.041399
1752	0.200825	0.198853	0.197867	0.048795
1753	0.199182	0.197538	0.195402	0.05389
1754	0.197374	0.195566	0.197045	0.058821
1755	0.200825	0.195895	0.195895	0.051425
1756	0.200825	0.199346	0.198031	0.058492
1757	0.199346	0.198196	0.201319	0.055041
1758	0.197867	0.198853	0.198196	0.056684
1759	0.199675	0.199182	0.196388	0.059972
1760	0.195566	0.19836	0.199675	0.058164
1761	0.19836	0.200497	0.203948	0.068025
1762	0.199182	0.199839	0.196059	0.072463
1763	0.201647	0.20099	0.19836	0.081502
1764	0.20099	0.195073	0.196059	0.08857
1765	0.200332	0.199182	0.200332	0.084954
1766	0.20099	0.202962	0.196881	0.093007
1767	0.200661	0.19836	0.196388	0.099253
1768	0.197045	0.203291	0.197045	0.100075
1769	0.200168	0.193265	0.199182	0.100896
1770	0.199839	0.199346	0.197538	0.103526
1771	0.197374	0.194416	0.199018	0.103362
1772	0.199182	0.193922	0.195895	0.105992
1773	0.198031	0.197045	0.199018	0.112237
1774	0.200004	0.197867	0.199182	0.113552
1775	0.195402	0.19836	0.199182	0.118811
1776	0.198853	0.199839	0.200004	0.118318
1777	0.198853	0.200004	0.19836	0.122592
1778	0.202633	0.199182	0.200661	0.114538
1779	0.197703	0.199182	0.197703	0.109443
1780	0.202305	0.199018	0.196717	0.098267
1781	0.198524	0.201483	0.201154	0.084296
1782	0.19721	0.199018	0.19836	0.063916
1783	0.194909	0.19721	0.200168	0.003104
1784	0.196388	0.19458	0.197045	0.001954
1785	0.198031	0.19836	0.199511	0.001789
1786	0.196223	0.194744	0.199346	0.000803
1787	0.200168	0.198689	0.19721	-0.001005
1788	0.195566	0.197867	0.200004	-1.9e-05
1789	0.204441	0.198524	0.196717	-0.001169
1790	0.198031	0.196552	0.199511	0.001625
1791	0.202633	0.198689	0.199182	-0.001662
1792	0.195566	0.199511	0.198853	0.00031
1793	0.200004	0.197374	0.201812	-0.001005
1794	0.19836	0.201976	0.198689	-0.000347
1795	0.19836	0.196223	0.200168	0.000146
1796	0.196717	0.203948	0.200661	0.001296
1797	0.196388	0.198689	0.201319	0.000639
1798	0.20099	0.203126	0.198689	0.001625
1799	0.199018	0.199018	0.200825	0.000803
1800	0.200661	0.201154	0.199511	0.000639
1801	0.200661	0.196717	0.201319	-0.000183
1802	0.201812	0.199018	0.200168	-0.000347
1803	0.198031	0.200661	0.199182	-0.000347
1804	0.200004	0.194909	0.198689	-0.000676
1805	0.198853	0.195237	0.200661	-0.001334
1806	0.199675	0.198524	0.197703	-1.9e-05
1807	0.200497	0.199018	0.198524	0.000639
1808	0.198031	0.198689	0.199839	-0.000347
1809	0.197867	0.20214	0.199018	0.000967
1810	0.199839	0.197538	0.202305	0.00031
1811	0.200497	0.200168	0.202469	0.001132
1812	0.198196	0.198524	0.205263	-0.000183
1813	0.200332	0.200661	0.204113	-0.000183
1814	0.201483	0.200497	0.198853	-0.000512
1815	0.206414	0.197703	0.201812	-0.000347
1816	0.200825	0.200332	0.207071	-0.000841
1817	0.20099	0.199839	0.195402	-1.9e-05
1818	0.201812	0.197045	0.198196	0.000146
1819	0.198853	0.199018	0.199018	-0.000512
1820	0.200168	0.197045	0.200004	0.000146
1821	0.202305	0.196059	0.198524	0.000803
1822	0.199675	0.198853	0.195237	0.000639
1823	0.201483	0.198524	0.200497	-0.000841
1824	0.19836	0.201483	0.200332	-0.000512
1825	0.199675	0.198689	0.202305	-0.000347
1826	0.197045	0.198031	0.198689	-1.9e-05
1827	0.20099	0.198031	0.201647	-0.001334
1828	0.199182	0.20477	0.200825	-0.000347
1829	0.199182	0.199346	0.202798	0.000474
1830	0.197703	0.196717	0.201483	0.000639
1831	0.201154	0.198524	0.204606	0.000474
1832	0.199839	0.200825	0.200004	0.000639
1833	0.200825	0.199346	0.201647	0.000967
1834	0.199675	0.19836	0.195073	0.000474
1835	0.198689	0.195402	0.203784	0.000803
1836	0.200825	0.201812	0.201154	-0.000183
1837	0.198524	0.199839	0.201647	-0.000183
1838	0.200168	0.199839	0.202305	-0.001498
1839	0.198196	0.201154	0.196717	0.001789
1840	0.199511	0.200004	0.201812	0.004419
1841	0.198524	0.199511	0.199018	0.004912
1842	0.200332	0.198196	0.20099	-0.000841
1843	0.198689	0.200825	0.199018	0.004583
1844	0.203291	0.196717	0.199675	0.000474
1845	0.198689	0.199182	0.200004	0.002611
1846	0.200004	0.203784	0.199675	0.00409
1847	0.199182	0.198524	0.199346	0.005405
1848	0.198689	0.198031	0.200004	0.013623
1849	0.201483	0.201483	0.199675	0.018389
1850	0.199182	0.200168	0.200168	0.026771
1851	0.201812	0.200661	0.200661	0.03351
1852	0.197374	0.199018	0.199346	0.041399
1853	0.203291	0.199675	0.200497	0.045837
1854	0.199839	0.200332	0.199182	0.055041
1855	0.197703	0.196881	0.200497	0.057342
1856	0.198031	0.201483	0.200168	0.067039
1857	0.201976	0.195237	0.202469	0.071641
1858	0.197867	0.199346	0.199511	0.076407
1859	0.199675	0.199182	0.197867	0.078873
1860	0.199182	0.199839	0.196059	0.087748
1861	0.197703	0.198853	0.199018	0.093336
1862	0.199675	0.20099	0.191786	0.091035
1863	0.199018	0.197374	0.19721	0.096294
1864	0.200332	0.199675	0.19836	0.102047
1865	0.200168	0.197867	0.19721	0.10517
1866	0.201812	0.196717	0.200497	0.106649
1867	0.200497	0.192936	0.201483	0.114045
1868	0.201154	0.19573	0.200004	0.116839
1869	0.196223	0.198524	0.196388	0.124071
1870	0.194744	0.195237	0.20214	0.125221
1871	0.198853	0.200661	0.196881	0.131631
1872	0.198689	0.198031	0.20099	0.130481
1873	0.196059	0.201647	0.193922	0.134097
1874	0.199839	0.200825	0.201154	0.136726
1875	0.200332	0.203126	0.199675	0.137548
1876	0.200332	0.199839	0.201319	0.141493
1877	0.200168	0.196388	0.19836	0.140342
1878	0.199346	0.198196	0.200661	0.14593
1879	0.20099	0.198524	0.195237	0.145602
1880	0.196881	0.199675	0.196223	0.145602
1881	0.200004	0.195566	0.19573	0.153326
1882	0.198689	0.201483	0.196223	0.155792
1883	0.197867	0.200004	0.200168	0.152505
1884	0.201154	0.204441	0.198524	0.155792
1885	0.19721	0.197045	0.202633	0.157271
1886	0.199346	0.201647	0.199839	0.162037
1887	0.201483	0.199346	0.201812	0.16253
1888	0.197374	0.199839	0.199511	0.163845
1889	0.200004	0.199346	0.202469	0.166146
1890	0.208715	0.200168	0.199018	0.166311
1891	0.20214	0.199018	0.200004	0.166639
1892	0.200825	0.199018	0.202305	0.167954
1893	0.201812	0.201483	0.204113	0.17157
1894	0.200661	0.200332	0.196223	0.169598
1895	0.199675	0.197538	0.200004	0.172063
1896	0.201976	0.202798	0.199346	0.173871
1897	0.201812	0.197045	0.198031	0.172227
1898	0.200497	0.196059	0.199675	0.176008
1899	0.196717	0.198196	0.197703	0.175679
1900	0.203126	0.196223	0.202962	0.176994
1901	0.199839	0.199511	0.199346	0.179623
1902	0.198524	0.199018	0.200168	0.180774
1903	0.198689	0.199675	0.199675	0.182746
1904	0.199346	0.199675	0.202305	0.183075
1905	0.201319	0.198853	0.199182	0.182089
1906	0.20099	0.200332	0.198689	0.184718
1907	0.200332	0.200332	0.198196	0.183897
1908	0.202633	0.199182	0.204277	0.184883
1909	0.201319	0.198853	0.202962	0.184883
1910	0.200661	0.198689	0.198853	0.183075
1911	0.202469	0.194744	0.202469	0.185047
1912	0.199182	0.199182	0.202469	0.187677
1913	0.199675	0.196223	0.198031	0.190635
1914	0.198689	0.193101	0.198524	0.18817
1915	0.201154	0.199346	0.199839	0.188499
1916	0.199182	0.196059	0.197045	0.189649
1917	0.200825	0.198196	0.201647	0.186526
1918	0.197374	0.199675	0.200332	0.189978
1919	0.208715	0.198031	0.197538	0.190142
1920	0.202798	0.198031	0.197045	0.189814
1921	0.200661	0.19573	0.200168	0.192608
1922	0.20099	0.198031	0.199346	0.1908
1923	0.202305	0.196881	0.20099	0.189978
1924	0.199511	0.195402	0.196388	0.194909
1925	0.202798	0.193101	0.202469	0.191293
1926	0.202798	0.200825	0.202305	0.192608
1927	0.198689	0.197538	0.196717	0.194909
1928	0.202962	0.197045	0.201976	0.193429
1929	0.200497	0.195402	0.195237	0.191786
1930	0.202633	0.196223	0.20099	0.192443
1931	0.200004	0.197867	0.200332	0.194251
1932	0.200661	0.196388	0.202798	0.191457
1933	0.199182	0.195895	0.203291	0.19573
1934	0.20214	0.195402	0.201154	0.193922
1935	0.197374	0.201483	0.199839	0.195237
1936	0.196059	0.198853	0.201319	0.191621
1937	0.199182	0.20362	0.199839	0.194744
1938	0.199182	0.197045	0.200332	0.198524
1939	0.192115	0.199182	0.199511	0.196881
1940	0.191621	0.199182	0.202469	0.19836
1941	0.201647	0.200661	0.200004	0.197374
1942	0.199182	0.198853	0.201483	0.193758
1943	0.201647	0.195237	0.200661	0.193594
1944	0.200168	0.201976	0.198031	0.197538
1945	0.2074	0.198689	0.203291	0.193758
1946	0.198031	0.199346	0.200168	0.195402
1947	0.201647	0.195073	0.196552	0.197703
1948	0.200825	0.196717	0.202798	0.199675
1949	0.200497	0.197867	0.20099	0.19458
1950	0.199346	0.19836	0.19836	0.196388
1951	0.20214	0.195237	0.200168	0.196223
1952	0.199182	0.20214	0.197703	0.195566
1953	0.20214	0.199018	0.198524	0.19836
1954	0.201319	0.198853	0.197867	0.197867
1955	0.19573	0.199018	0.201319	0.199346
1956	0.210358	0.200497	0.200497	0.19836
1957	0.196059	0.199511	0.201483	0.199511
1958	0.201976	0.200825	0.195402	0.199018
1959	0.200004	0.200825	0.202305	0.199511
1960	0.200825	0.199182	0.199675	0.199018
1961	0.199839	0.199675	0.197867	0.206249
1962	0.203291	0.197867	0.204441	0.197374
1963	0.201976	0.200661	0.202305	0.197374
1964	0.200497	0.198196	0.199675	0.198031
1965	0.201812	0.198853	0.199675	0.198031
1966	0.200497	0.20362	0.201483	0.197538
1967	0.203126	0.204113	0.196881	0.198031
1968	0.19721	0.195566	0.19836	0.197703
1969	0.194416	0.199675	0.197374	0.197045
1970	0.195073	0.19721	0.199018	0.198196
1971	0.199839	0.198524	0.198196	0.198196
1972	0.200332	0.198524	0.199346	0.199675
1973	0.202962	0.196881	0.201319	0.199839
1974	0.201812	0.201976	0.199346	0.198689
1975	0.203291	0.198196	0.199675	0.199182
1976	0.200004	0.198196	0.199839	0.201483
1977	0.201154	0.19836	0.201319	0.197703
1978	0.196223	0.200332	0.200661	0.199839
1979	0.198524	0.198196	0.205921	0.201154
1980	0.200497	0.201319	0.20477	0.199839
1981	0.201812	0.20099	0.196388	0.199839
1982	0.19573	0.201319	0.197867	0.197045
1983	0.199511	0.19836	0.196881	0.199018
1984	0.199018	0.196223	0.195566	0.199675
1985	0.199839	0.197867	0.202962	0.196388
1986	0.197374	0.198196	0.196223	0.200332
1987	0.198689	0.196223	0.197867	0.200004
1988	0.198031	0.197374	0.201812	0.199346
1989	0.184883	0.201483	0.199182	0.198031
1990	0.206742	0.195895	0.200004	0.19721
1991	0.202469	0.200168	0.199839	0.200332
1992	0.200661	0.202962	0.199839	0.203784
1993	0.20099	0.20099	0.199018	0.198524
1994	0.201812	0.199018	0.200168	0.194909
1995	0.20214	0.199346	0.199182	0.201647
1996	0.204113	0.201647	0.202469	0.195895
1997	0.199675	0.19721	0.199511	0.196388
1998	0.205427	0.19573	0.202469	0.200004
1999	0.200825	0.199839	0.199018	0.197538
2000	0.187513	0.200661	0.203784	0.198689
2001	0.198031	0.193429	0.199018	0.199675
2002	0.198031	0.202798	0.199018	0.19836
2003	0.199346	0.201647	0.19836	0.201154
2004	0.199182	0.198524	0.197374	0.197045
2005	0.199018	0.19836	0.195073	0.198031
2006	0.201976	0.198196	0.201154	0.203455
2007	0.201647	0.196059	0.202798	0.198031
2008	0.197538	0.198524	0.19836	0.200332
2009	0.202469	0.196059	0.199018	0.198031
2010	0.19836	0.196717	0.201812	0.203948
2011	0.197045	0.197374	0.202469	0.200004
2012	0.19721	0.199182	0.19836	0.200004
2013	0.199511	0.197867	0.204277	0.197867
2014	0.200825	0.200661	0.201976	0.203455
2015	0.201483	0.197045	0.199511	0.200497
2016	0.200332	0.195402	0.200661	0.200332
2017	0.199675	0.193758	0.200168	0.201154
2018	0.203455	0.19573	0.197374	0.200168
2019	0.200825	0.193101	0.19836	0.200825
2020	0.200661	0.188499	0.197703	0.199675
2021	0.194251	0.19721	0.198524	0.200497
2022	0.197374	0.196223	0.197867	0.199346
2023	0.196059	0.196388	0.198196	0.203126
2024	0.198031	0.197538	0.201976	0.200497
2025	0.19721	0.196059	0.201976	0.198031
2026	0.199839	0.19573	0.198689	0.198524
2027	0.199675	0.195895	0.200332	0.199018
2028	0.200497	0.196388	0.205099	0.199839
2029	0.20099	0.199675	0.198031	0.199839
2030	0.201483	0.196717	0.200661	0.199839
2031	0.200332	0.198524	0.200004	0.200332
2032	0.201319	0.196717	0.20214	0.201647
2033	0.197867	0.198031	0.200825	0.201647
2034	0.195237	0.202962	0.204934	0.202962
2035	0.197703	0.199182	0.205427	0.198031
2036	0.197703	0.199182	0.199675	0.200661
2037	0.200332	0.199018	0.200497	0.198031
2038	0.200661	0.197045	0.198853	0.201483
2039	0.203291	0.191621	0.197867	0.198524
2040	0.196881	0.200497	0.197867	0.199511
2041	0.199839	0.19573	0.20099	0.194251
2042	0.19721	0.196223	0.196223	0.199018
2043	0.199675	0.197374	0.201154	0.202633
2044	0.199839	0.200332	0.199018	0.198196
2045	0.199018	0.197045	0.201647	0.199018
2046	0.199839	0.205921	0.200168	0.201319
2047	0.200004	0.197538	0.204113	0.197703
2048	0.200332	0.202305	0.200332	0.201319
2049	0.199675	0.198196	0.201319	0.201647
2050	0.200004	0.205592	0.200661	0.199018
2051	0.198031	0.206249	0.19836	0.20362
2052	0.20099	0.198853	0.200004	0.196388
2053	0.199182	0.200332	0.198689	0.201812
2054	0.20099	0.197703	0.199018	0.20099
2055	0.203784	0.193594	0.199346	0.200168
2056	0.198031	0.196388	0.199346	0.200332
2057	0.19721	0.202305	0.197374	0.199018
2058	0.200497	0.195073	0.205427	0.200004
2059	0.196552	0.201154	0.19836	0.198031
2060	0.199182	0.197703	0.198689	0.196223
2061	0.200004	0.199182	0.200825	0.194087
2062	0.199182	0.204606	0.196881	0.199839
2063	0.199018	0.198853	0.197374	0.202962
2064	0.198524	0.199346	0.199346	0.19836
2065	0.200168	0.199511	0.201647	0.200004
2066	0.201319	0.201154	0.20099	0.200661
2067	0.198853	0.198524	0.202962	0.199675
2068	0.19195	0.201319	0.198689	0.201647
2069	0.201154	0.201319	0.199839	0.201483
2070	0.199511	0.199018	0.19721	0.199018
2071	0.201976	0.196717	0.198196	0.20099
2072	0.19721	0.198853	0.196552	0.199346
2073	0.199182	0.204277	0.199018	0.198031
2074	0.196881	0.200661	0.19836	0.199675
2075	0.199346	0.195566	0.198853	0.197703
2076	0.19836	0.199346	0.199839	0.199675
2077	0.198031	0.198524	0.202305	0.199182
2078	0.200004	0.199839	0.198853	0.199182
2079	0.197374	0.19836	0.198031	0.200332
2080	0.199675	0.20099	0.203126	0.199018
2081	0.199018	0.201647	0.199182	0.200661
2082	0.200332	0.201647	0.199511	0.200004
2083	0.194744	0.200168	0.201647	0.200497
2084	0.200168	0.205756	0.204277	0.199675
2085	0.198031	0.198031	0.199182	0.202305
2086	0.200497	0.202798	0.198689	0.199675
2087	0.200825	0.199346	0.200825	0.200661
2088	0.197703	0.199182	0.200168	0.203948
2089	0.197045	0.200825	0.199182	0.201647
2090	0.198689	0.199839	0.198853	0.198689
2091	0.200332	0.200497	0.206249	0.198031
2092	0.202798	0.198031	0.195073	0.192772
2093	0.202305	0.203126	0.199346	0.197538
2094	0.198524	0.198524	0.199346	0.197538
2095	0.200332	0.200497	0.199675	0.191786
2096	0.199346	0.201647	0.20099	0.198524
2097	0.199675	0.198196	0.201976	0.19721
2098	0.199182	0.202633	0.202633	0.201154
2099	0.200332	0.199182	0.201154	0.199675
2100	0.201154	0.194251	0.201812	0.202469
2101	0.201154	0.195895	0.201812	0.198853
2102	0.199182	0.200004	0.203291	0.203784
2103	0.202469	0.191621	0.199018	0.199511
2104	0.200661	0.202469	0.198689	0.200825
2105	0.201812	0.198689	0.200004	0.199839
2106	0.200661	0.194251	0.195402	0.200004
2107	0.199839	0.196881	0.198853	0.199346
2108	0.199675	0.199675	0.200004	0.196552
2109	0.199182	0.199346	0.199182	0.200168
2110	0.199675	0.195895	0.198853	0.19721
2111	0.202305	0.204606	0.20099	0.201647
2112	0.199511	0.202305	0.19836	0.196717
2113	0.198524	0.200168	0.195895	0.198853
2114	0.197703	0.201812	0.199839	0.196717
2115	0.200497	0.199839	0.198524	0.197867
2116	0.200825	0.20099	0.199839	0.199839
2117	0.198031	0.191457	0.196388	0.200004
2118	0.204277	0.196059	0.199839	0.200661
2119	0.198524	0.198689	0.197867	0.201319
2120	0.202633	0.197703	0.200168	0.201812
2121	0.204113	0.198524	0.197867	0.201319
2122	0.204441	0.19573	0.201483	0.200825
2123	0.199346	0.199675	0.200332	0.198853
2124	0.200825	0.200661	0.189814	0.201647
2125	0.199839	0.200332	0.19721	0.197867
2126	0.200825	0.200661	0.197703	0.199346
2127	0.199675	0.201154	0.197538	0.197045
2128	0.196881	0.190307	0.195402	0.199675
2129	0.199839	0.19458	0.197045	0.197867
2130	0.19836	0.200497	0.200004	0.200168
2131	0.200497	0.201319	0.20099	0.199346
2132	0.199182	0.200004	0.199182	0.199018
2133	0.200004	0.198853	0.199511	0.199511
2134	0.196881	0.20099	0.196881	0.200168
2135	0.198689	0.196881	0.186362	0.201812
2136	0.198853	0.201812	0.195895	0.201154
2137	0.198196	0.201647	0.200497	0.19721
2138	0.194744	0.200661	0.197867	0.199346
2139	0.196717	0.194744	0.004748	0.198853
2140	0.202469	0.199182	0.014609	0.198031
2141	0.197867	0.205427	0.022169	0.198689
2142	0.19836	0.201976	0.030716	0.197867
2143	0.196717	0.202798	0.037619	0.195237
2144	0.200332	0.201154	0.040084	0.197703
2145	0.197374	0.198689	0.009185	0.198196
2146	0.200168	0.199839	0.010336	0.192279
2147	0.197703	0.201154	0.024799	0.199839
2148	0.20099	0.200168	0.037455	0.201319
2149	0.200168	0.202469	0.037619	0.197538
2150	0.196388	0.199346	0.046494	0.200168
2151	0.201976	0.19721	0.050768	0.201976
2152	0.200168	0.196552	0.0603	0.201483
2153	0.201483	0.200004	0.065067	0.202305
2154	0.201647	0.198524	0.07197	0.20099
2155	0.201319	0.200825	0.076079	0.200332
2156	0.199018	0.199675	0.079201	0.201483
2157	0.200661	0.199839	0.083639	0.203784
2158	0.199675	0.203291	0.086926	0.201812
2159	0.200661	0.200168	0.093007	0.198524
2160	0.19836	0.19573	0.097774	0.203455
2161	0.198524	0.20099	0.102704	0.20214
2162	0.198853	0.195895	0.104184	0.201319
2163	0.200825	0.197374	0.111415	0.199182
2164	0.199182	0.197703	0.113716	0.202798
2165	0.200332	0.197867	0.117332	0.20214
2166	0.199182	0.200825	0.119469	0.204606
2167	0.200825	0.19573	0.122592	0.201812
2168	0.200004	0.196388	0.126372	0.197867
2169	0.197703	0.199018	0.125386	0.204606
2170	0.202305	0.197703	0.126207	0.198853
2171	0.197867	0.195402	0.13952	0.199182
2172	0.200661	0.199018	0.135247	0.197867
2173	0.202962	0.195073	0.136891	0.202962
2174	0.201647	0.193101	0.148067	0.199182
2175	0.200825	0.196388	0.145766	0.201154
2176	0.200332	0.18439	0.147574	0.199018
2177	0.200004	0.18439	0.148067	0.200661
2178	0.203455	0.170913	0.149053	0.20099
2179	0.199182	0.143301	0.152011	0.199839
2180	0.199675	0.117003	0.155463	0.198196
2181	0.197538	0.0935	0.153655	0.200168
2182	0.200661	0.069669	0.15875	0.199182
2183	0.198031	0.05915	0.159901	0.199511
2184	0.198853	0.04107	0.161051	0.199511
2185	0.20214	0.034989	0.16401	0.198524
2186	0.199018	0.031045	0.169105	0.202798
2187	0.197374	0.026114	0.168283	0.20214
2188	0.195237	0.023813	0.170913	0.202469
2189	0.137219	0.024799	0.170419	0.200825
2190	0.126865	0.016581	0.172227	0.203291
2191	0.06556	0.018554	0.171734	0.198853
2192	0.025785	0.015595	0.170419	0.198853
2193	0.013459	0.014938	0.175021	0.19721
2194	0.010664	0.018554	0.174528	0.197374
2195	0.004748	0.01576	0.177322	0.196717
2196	0.003926	0.020197	0.176829	0.19573
2197	0.001954	0.024142	0.180774	0.196059
2198	0.010171	0.028251	0.179623	0.203291
2199	0.015266	0.030552	0.179295	0.202305
2200	0.013294	0.03236	0.176501	0.199346
2201	0.008692	0.033839	0.180281	0.202962
2202	0.006391	0.03992	0.17913	0.199182
2203	0.005076	0.04255	0.182089	0.201483
2204	0.00935	0.046166	0.185212	0.200497
2205	0.007706	0.052247	0.185705	0.200332
2206	0.005241	0.057342	0.18439	0.199839
2207	0.005734	0.063423	0.185212	0.199675
2208	0.011815	0.067696	0.188334	0.200825
2209	0.010007	0.073449	0.187513	0.206249
2210	0.003433	0.079037	0.189156	0.206249
2211	0.003104	0.081995	0.187348	0.200497
2212	0.002118	0.087748	0.186691	0.205099
2213	0.00031	0.0935	0.184061	0.20099
2214	0.000803	0.094815	0.183568	0.200332
2215	-0.000183	0.09991	0.187513	0.199182
2216	-1.9e-05	0.097445	0.187513	0.197374
2217	-0.001991	0.103362	0.184718	0.196059
2218	-0.000676	0.10632	0.188663	0.197867
2219	-0.000512	0.109443	0.189649	0.197538
2220	-0.000183	0.112073	0.189978	0.201647
2221	0.00146	0.121605	0.189156	0.20099
2222	0.000639	0.123906	0.189485	0.199018
2223	0.00146	0.125386	0.193429	0.197867
2224	0.000803	0.13196	0.191621	0.203126
2225	0.000639	0.133768	0.193594	0.197374
2226	0.001132	0.137877	0.191293	0.200825
2227	0.000146	0.137055	0.193922	0.198689
2228	-0.000676	0.143629	0.193265	0.20214
2229	0.00146	0.144615	0.196717	0.199675
2230	-0.000841	0.145602	0.196223	0.199839
2231	0.000146	0.144615	0.191457	0.20477
2232	-0.001827	0.149546	0.195895	0.202962
2233	0.000146	0.147903	0.194744	0.199346
2234	-0.002813	0.152998	0.193265	0.200497
2235	0.00146	0.154641	0.19458	0.198196
2236	-0.001662	0.156778	0.197045	0.195566
2237	0.001132	0.158914	0.191457	0.201319
2238	0.005405	0.158257	0.195237	0.199182
2239	-0.000183	0.164667	0.194744	0.199346
2240	0.000639	0.164667	0.196388	0.198689
2241	-0.000512	0.164831	0.197045	0.203126
2242	0.000803	0.169926	0.198853	0.201812
2243	0.00031	0.172885	0.197045	0.201976
2244	-0.000183	0.165489	0.198031	0.198689
2245	-0.000676	0.172227	0.197703	0.200332
2246	0.000803	0.173049	0.197538	0.199018
2247	0.00146	0.175679	0.196059	0.194416
2248	0.001789	0.174528	0.196059	0.201319
2249	-0.001334	0.175843	0.194251	0.201483
2250	0.000146	0.176008	0.194909	0.200825
2251	-0.000347	0.176008	0.195895	0.199675
2252	-0.000841	0.176336	0.194251	0.200825
2253	0.002447	0.176008	0.199346	0.199675
2254	0.003104	0.179623	0.191786	0.201319
2255	0.00031	0.179295	0.19721	0.198853
2256	-0.000183	0.181596	0.195566	0.200661
2257	0.000803	0.180938	0.199511	0.199018
2258	0.003926	0.183568	0.196552	0.20362
2259	-0.001498	0.187184	0.197703	0.203291
2260	-0.000841	0.187019	0.199346	0.202305
2261	0.001625	0.190635	0.199346	0.201976
2262	0.000146	0.191293	0.196717	0.198689
2263	0.00031	0.183075	0.194909	0.203455
2264	0.00294	0.186362	0.195402	0.201483
2265	0.004583	0.186855	0.197374	0.199018
2266	0.000474	0.184883	0.196388	0.201483
2267	-0.000676	0.18176	0.196223	0.200168
2268	0.003104	0.190471	0.197045	0.200497
2269	-0.001169	0.186198	0.19573	0.200661
2270	-0.002977	0.187348	0.196717	0.199018
2271	0.00031	0.188499	0.194909	0.20099
2272	-0.003963	0.190964	0.196881	0.19836
2273	0.00146	0.192936	0.198689	0.198853
2274	0.000474	0.19195	0.19836	0.200332
2275	-0.000841	0.1908	0.199018	0.201647
2276	-0.001498	0.193594	0.199675	0.201647
2277	0.002282	0.191786	0.19721	0.200497
2278	0.012472	0.193101	0.195895	0.203126
2279	0.018389	0.193265	0.199018	0.200004
2280	0.016088	0.193594	0.199018	0.201812
2281	0.013294	0.194744	0.199675	0.199346
2282	0.012965	0.194087	0.197867	0.201812
2283	0.008528	0.194744	0.19836	0.199511
2284	0.00146	0.193922	0.20099	0.199018
2285	0.001296	0.193429	0.198196	0.204113
2286	-0.000676	0.19458	0.198196	0.199346
2287	-0.001827	0.196059	0.195402	0.197374
2288	0.005241	0.190635	0.195073	0.199839
2289	0.004748	0.193429	0.196223	0.198689
2290	0.00787	0.192608	0.201647	0.196388
2291	0.007213	0.19195	0.197867	0.19836
2292	0.010007	0.195237	0.198524	0.20099
2293	0.009843	0.195895	0.200004	0.201976
2294	0.00935	0.197703	0.197867	0.199018
2295	0.008857	0.194087	0.201976	0.199018
2296	0.017403	0.196388	0.199675	0.202798
2297	0.020197	0.194909	0.201154	0.201647
2298	0.026278	0.196717	0.199182	0.200168
2299	0.021019	0.199675	0.197867	0.204113
2300	0.018554	0.192279	0.200332	0.200497
2301	0.013294	0.199346	0.19836	0.201319
2302	0.009021	0.196388	0.19836	0.201319
2303	0.002775	0.195402	0.197703	0.201483
2304	0.002118	0.198853	0.198031	0.199018
2305	-0.000183	0.199182	0.195073	0.200332
2306	0.000803	0.19458	0.200332	0.199346
2307	-0.001498	0.199182	0.197045	0.200497
2308	-1.9e-05	0.19836	0.200332	0.201812
2309	-0.002813	0.200332	0.200661	0.201976
2310	-0.000183	0.194744	0.199182	0.199839
2311	0.001132	0.197045	0.199675	0.200661
2312	0.000803	0.195895	0.198853	0.199346
2313	0.000474	0.195073	0.193758	0.196223
2314	0.000474	0.199511	0.200497	0.202798
2315	0.000639	0.197867	0.198196	0.200004
2316	-0.000183	0.201319	0.197703	0.204113
2317	-0.000512	0.193429	0.199839	0.201976
2318	-0.000512	0.200332	0.196388	0.202469
2319	-0.000512	0.197867	0.198524	0.202633
2320	-0.000676	0.19836	0.196552	0.200825
2321	-1.9e-05	0.197045	0.20214	0.19721
2322	-0.000183	0.198524	0.199675	0.203455
2323	0.00031	0.199182	0.20214	0.198853
2324	0.000146	0.196388	0.199018	0.19721
2325	0.000146	0.200661	0.199346	0.19836
2326	0.000474	0.197538	0.198689	0.200332
2327	-0.000183	0.198689	0.19836	0.200168
2328	-0.000347	0.199018	0.198689	0.197867
2329	-0.000512	0.199511	0.194416	0.199346
2330	-0.000512	0.198853	0.199675	0.20099
2331	-0.000512	0.199675	0.199346	0.20214
2332	-0.000183	0.200004	0.198689	0.200004
2333	0.000146	0.199675	0.199839	0.206249
2334	0.000474	0.162366	0.203948	0.197374
2335	-1.9e-05	0.161051	0.199018	0.202798
2336	0.000146	0.160065	0.199182	0.204606
2337	0.000146	0.163516	0.197374	0.199839
2338	-0.000676	0.168612	0.197703	0.19721
2339	-0.000676	0.165489	0.201812	0.20099
2340	-0.000347	0.166639	0.198689	0.201812
2341	-0.000841	0.168776	0.200004	0.194909
2342	-1.9e-05	0.163516	0.198524	0.203455
2343	-0.000183	0.165982	0.199839	0.201483
2344	0.000474	0.172885	0.198524	0.203291
2345	0.000146	0.163845	0.203291	0.193265
2346	0.000146	0.172227	0.195566	0.199839
2347	0.000474	0.175515	0.201647	0.198853
2348	0.000146	0.176008	0.201483	0.201319
2349	-0.000183	0.178144	0.198524	0.203291
2350	-0.000347	0.178966	0.199675	0.201483
2351	-0.000512	0.17798	0.201976	0.203784
2352	-0.000512	0.180281	0.201812	0.20099
2353	-0.000183	0.177487	0.203784	0.20362
2354	-0.000183	0.182746	0.199839	0.200825
2355	0.000146	0.182582	0.200661	0.206578
2356	-1.9e-05	0.185047	0.201812	0.198524
2357	0.00031	0.182089	0.200332	0.199018
2358	-1.9e-05	0.183897	0.198853	0.202305
2359	-1.9e-05	0.175186	0.19836	0.201319
2360	-1.9e-05	0.181431	0.198524	0.19836
2361	0.000146	0.183897	0.198031	0.198853
2362	0.000146	0.182746	0.196059	0.20099
2363	-0.003142	0.190142	0.201647	0.199346
2364	0.00409	0.18932	0.201647	0.199675
2365	0.015102	0.188827	0.198853	0.201319
2366	0.020526	0.190142	0.200825	0.205921
2367	0.029237	0.190142	0.199018	0.197703
2368	0.036304	0.188499	0.20362	0.196717
2369	0.043371	0.190471	0.198689	0.198853
2370	0.048467	0.190307	0.200497	0.19836
2371	0.055205	0.189978	0.201154	0.201319
2372	0.061286	0.189978	0.200661	0.200332
2373	0.066546	0.1908	0.200168	0.201154
2374	0.072463	0.192279	0.19836	0.203126
2375	0.076407	0.190142	0.199018	0.198689
2376	0.082982	0.191621	0.200332	0.204934
2377	0.089227	0.191128	0.200825	0.200825
2378	0.091364	0.193265	0.200497	0.200332
2379	0.097609	0.194087	0.197374	0.198689
2380	0.099746	0.195402	0.196717	0.200661
2381	0.105005	0.192115	0.200332	0.200825
2382	0.108293	0.193922	0.197703	0.199839
2383	0.111087	0.194087	0.199018	0.201812
2384	0.113059	0.195895	0.196223	0.200825
2385	0.118976	0.19458	0.203126	0.202469
2386	0.123085	0.194909	0.201319	0.200825
2387	0.127522	0.194909	0.200004	0.201976
2388	0.126207	0.197045	0.202305	0.201812
2389	0.129988	0.197045	0.205921	0.200825
2390	0.13837	0.196881	0.201319	0.200825
2391	0.137548	0.199018	0.198689	0.199675
2392	0.138863	0.198689	0.202469	0.200661
2393	0.144451	0.195895	0.198524	0.202469
2394	0.143301	0.194909	0.197045	0.201976
2395	0.147409	0.196717	0.198524	0.200497
2396	0.150697	0.195073	0.200825	0.197867
2397	0.149382	0.200497	0.200004	0.202798
2398	0.153819	0.198196	0.199675	0.199182
2399	0.151518	0.197374	0.198524	0.198524
2400	0.157107	0.197867	0.198524	0.201812
2401	0.155792	0.198031	0.202305	0.200661
2402	0.159736	0.200332	0.203291	0.203291
2403	0.164174	0.197703	0.201319	0.201319
2404	0.161544	0.200661	0.199346	0.20362
2405	0.16779	0.198031	0.203291	0.200004
2406	0.165653	0.199018	0.197045	0.206249
2407	0.169433	0.19721	0.201319	0.200332
2408	0.170913	0.193922	0.199839	0.205099
2409	0.171734	0.197045	0.199182	0.199675
2410	0.170091	0.197538	0.199675	0.192443
2411	0.17272	0.197538	0.200661	0.196881
2412	0.172556	0.197867	0.198689	0.199182
2413	0.177158	0.200497	0.203291	0.198853
2414	0.174035	0.194744	0.199675	0.19836
2415	0.176994	0.193758	0.200332	0.200661
2416	0.177651	0.199675	0.196881	0.200168
2417	0.176829	0.197045	0.200825	0.201154
2418	0.181267	0.196223	0.202962	0.197867
2419	0.179459	0.197538	0.199511	0.203948
2420	0.181103	0.199018	0.201319	0.201483
2421	0.18061	0.198031	0.200825	0.195895
2422	0.182089	0.197374	0.200004	0.200661
2423	0.178637	0.197867	0.197703	0.202469
2424	0.185869	0.195237	0.197538	0.198524
2425	0.182253	0.200004	0.198196	0.201319
2426	0.186691	0.19836	0.20099	0.197374
2427	0.184883	0.198853	0.200168	0.200168
2428	0.188663	0.198031	0.205427	0.20477
2429	0.188992	0.20099	0.198524	0.202469
2430	0.186362	0.197703	0.201647	0.199346
2431	0.186691	0.201483	0.199346	0.20099
2432	0.186198	0.197703	0.199018	0.189649
2433	0.187184	0.200332	0.20362	0.199018
2434	0.189814	0.199675	0.201319	0.196388
2435	0.189814	0.200004	0.202469	0.201319
2436	0.188827	0.203784	0.201976	0.202305
2437	0.190471	0.200661	0.203291	0.199018
2438	0.188334	0.199018	0.200825	0.204441
2439	0.191786	0.197045	0.204113	0.200332
2440	0.190142	0.200825	0.202305	0.201976
2441	0.188992	0.198689	0.20099	0.199839
2442	0.188827	0.204113	0.199839	0.201812
2443	0.196059	0.198524	0.200825	0.193101
2444	0.193758	0.201154	0.200332	0.199182
2445	0.191786	0.200825	0.20099	0.201647
2446	0.192443	0.201976	0.200332	0.200825
2447	0.189156	0.199182	0.200168	0.198853
2448	0.193594	0.201647	0.198196	0.201154
2449	0.192279	0.198853	0.201154	0.203948
2450	0.193922	0.198524	0.197703	0.19836
2451	0.194744	0.199346	0.194744	0.20214
2452	0.19573	0.199675	0.203126	0.203291
2453	0.193594	0.199346	0.200332	0.201154
2454	0.19573	0.199675	0.199511	0.196388
2455	0.195402	0.19836	0.201319	0.207235
2456	0.197374	0.199511	0.200332	0.199839
2457	0.191457	0.196881	0.195566	0.200825
2458	0.196388	0.199839	0.20362	0.202798
2459	0.198853	0.205592	0.200004	0.201319
2460	0.196881	0.201154	0.201976	0.201483
2461	0.198689	0.201154	0.197374	0.200004
2462	0.195566	0.200004	0.206085	0.199675
2463	0.201976	0.199346	0.199675	0.198524
2464	0.195402	0.200497	0.200825	0.20214
2465	0.197045	0.202633	0.20214	0.196552
2466	0.197045	0.198524	0.199346	0.200497
2467	0.196059	0.199511	0.198524	0.199182
2468	0.195073	0.200168	0.197374	0.202798
2469	0.196717	0.196717	0.200825	0.203948
2470	0.19721	0.201647	0.197703	0.202962
2471	0.197045	0.191786	0.200332	0.205592
2472	0.195073	0.201976	0.200332	0.20362
2473	0.198031	0.199182	0.200168	0.201483
2474	0.197867	0.199839	0.199346	0.201647
2475	0.199018	0.198689	0.202305	0.201154
2476	0.198689	0.200661	0.201647	0.200004
2477	0.199675	0.20099	0.201154	0.202633
2478	0.199182	0.202469	0.20214	0.198689
2479	0.201319	0.202469	0.203784	0.199675
2480	0.195237	0.200661	0.201154	0.200661
2481	0.196552	0.201976	0.201483	0.203784
2482	0.200004	0.199675	0.201976	0.202962
2483	0.198524	0.200825	0.200497	0.202305
2484	0.198031	0.201319	0.204113	0.200661
2485	0.197867	0.198524	0.199675	0.202962
2486	0.197045	0.198853	0.201319	0.200168
2487	0.19836	0.199839	0.199675	0.200497
2488	0.198031	0.199182	0.20099	0.201154
2489	0.196552	0.201483	0.199182	0.199182
2490	0.197045	0.201154	0.197867	0.200825
2491	0.199182	0.200661	0.195237	0.200661
2492	0.201319	0.198196	0.197867	0.202962
2493	0.199182	0.20477	0.202633	0.201647
2494	0.200004	0.199675	0.200661	0.200168
2495	0.201319	0.203948	0.202305	0.199346
2496	0.197703	0.20214	0.201483	0.200825
2497	0.196717	0.199182	0.203126	0.200332
2498	0.20214	0.202798	0.202305	0.201812
2499	0.199182	0.201647	0.199346	0.200004
