Ladekurvenmessung
Zeit: 2018_05_04 09.59.31
Info: FVA3, v = 1.05, T = 23, F = 20, h = 587.3
Ladewiderstand[Ohm]: 1012700
Störkapazität[pF]: 0.000000
Entladezeit[ms]: 200
Abtastrate[Hz]: 250000
Anzahl der Messwerte: 2500.000000
Verzögerung[ms]: 3
Ladespannung[V]: 0.200000
	Kurve_1	Kurve_2	Kurve_3	Kurve_4	Kurve_5
0	0.003761	-1.9e-05	-0.002648	-0.002155	-0.001169
1	0.005898	0.001625	-0.001334	0.000967	-0.003142
2	-0.000183	0.001296	-0.000512	-0.000841	-0.00347
3	0.003433	-0.001498	0.000639	-0.001827	-0.003963
4	0.001789	0.00031	0.000639	0.00031	-0.003799
5	-0.001169	-0.004128	-0.00347	-0.00988	-0.003963
6	-0.001498	0.000146	-0.006922	-0.003963	-0.005443
7	-0.000347	-0.003142	-0.001005	-0.002155	-0.005114
8	-0.000841	-0.001662	0.000146	-0.000183	-0.007744
9	-0.000347	-0.003306	0.000803	-0.000676	-0.004292
10	-0.001005	-0.001827	-1.9e-05	0.001132	-0.003306
11	-0.004456	-0.002813	-0.000841	0.001954	-0.004621
12	0.000967	-0.002648	-0.001334	0.001296	-0.007415
13	0.001132	-0.001005	-0.004128	0.001789	-0.003142
14	-0.001005	-0.004128	0.001132	0.00146	-0.006264
15	-0.000841	-0.002813	-0.000676	-1.9e-05	-0.006593
16	0.00031	-0.003142	-0.001334	0.00031	-0.004949
17	-0.001662	0.00031	-0.001498	0.000474	-0.005443
18	0.002118	-0.001005	0.00146	-0.001169	-0.008565
19	-0.001005	0.001296	-0.001169	0.000146	-0.006757
20	0.000639	0.000474	0.00146	-0.002155	-0.006429
21	0.001625	-0.001334	-0.000676	-0.007086	-0.005607
22	-0.002484	0.003597	0.000639	-0.000347	-0.008072
23	-1.9e-05	0.00294	0.001789	-0.001169	-0.005607
24	-1.9e-05	-0.002648	0.000146	-0.000676	-0.002977
25	-0.000347	-1.9e-05	0.00146	-0.000676	-0.005771
26	-0.002813	-0.000347	0.003761	0.000474	-0.005443
27	-0.00232	-1.9e-05	0.001132	0.003268	-0.005607
28	-0.005114	-0.001334	0.000146	-0.002648	-0.005936
29	-0.002977	-0.001334	0.004255	0.002282	-0.003142
30	-0.002977	-0.001662	0.000639	0.002282	-0.003963
31	-0.00232	-0.003635	0.001625	0.000967	-0.001005
32	-0.002648	0.000967	0.003597	0.001625	-0.001498
33	0.002447	-0.000841	0.004583	0.001625	-0.002813
34	-0.001991	0.001625	0.000639	0.000146	-0.002813
35	-0.001662	-0.001005	0.00031	0.001132	0.00146
36	0.000474	-0.001991	0.000803	0.001132	-0.001991
37	0.00031	-0.000183	-0.001169	-0.000676	-0.006757
38	-0.000183	-0.000841	-0.002155	0.001132	-0.002155
39	-1.9e-05	-0.001498	0.002447	-0.00232	-0.004785
40	-0.000841	0.000474	0.002775	-0.001334	-0.003963
41	-0.002648	0.003268	0.000639	-0.001334	-0.003635
42	-0.001827	-0.00725	0.000803	-0.000183	-0.003799
43	-0.000676	-0.000841	0.001625	-0.00347	-0.002484
44	-0.000841	-0.005607	0.000803	0.001789	-0.002977
45	-0.002648	-0.004456	0.000146	-0.001169	-0.001498
46	0.007213	-0.000676	-0.000183	-0.001662	0.00294
47	0.003597	-0.001827	0.003104	0.000967	-0.00232
48	0.001296	-0.001662	0.00146	0.000146	-0.003306
49	0.001789	0.002775	0.000146	0.00031	-0.001991
50	0.000803	0.001132	0.00146	0.002447	-0.003306
51	-0.003799	-0.001334	-0.001498	0.002611	-0.001334
52	0.000146	-0.000676	0.001789	0.000639	-0.008072
53	0.00031	-0.000183	0.000474	0.001296	-0.00347
54	0.000146	-0.003142	-0.004785	-0.002977	0.001296
55	-1.9e-05	-0.000676	-0.004292	-0.002648	-0.003142
56	0.000967	-0.000347	-0.001334	-0.000676	-0.001827
57	-0.000347	0.002118	-0.000512	-0.001334	-0.007415
58	0.002611	-0.003799	0.000146	-0.004292	-0.004621
59	0.003104	-0.000841	0.000474	0.000146	-0.000512
60	-0.001991	0.00146	-0.000512	-0.000183	-0.001005
61	0.001954	-0.004621	0.005076	-0.001334	-0.008894
62	-0.000512	-0.004292	-0.000841	-0.002813	-0.001005
63	0.000639	-0.002648	0.002775	-0.000347	-0.005278
64	-0.000512	-0.001498	0.008199	-0.002977	-0.005114
65	0.000146	-0.004456	0.006556	-0.000183	-0.002155
66	0.000967	0.001625	0.002118	-0.003799	-0.001498
67	-0.000183	-0.002155	0.000967	-0.00232	-0.002648
68	0.003433	-0.000676	0.001296	0.000967	-0.012839
69	-0.000512	-0.000347	0.000803	-0.000183	-0.00232
70	0.003104	0.000803	0.000967	0.000474	0.001625
71	0.001132	-1.9e-05	-0.001991	0.002611	-0.001662
72	0.002611	-0.000676	0.003433	0.003597	-0.001498
73	0.000967	-0.0061	0.001132	-0.001169	-0.003963
74	0.001954	-0.002977	0.00146	0.003104	-0.000183
75	0.003433	0.000474	0.001625	0.002118	-0.00232
76	0.003926	-0.003799	0.003104	0.003268	-0.002155
77	0.001625	-0.001662	0.004419	-0.004949	-1.9e-05
78	0.006062	-0.000676	0.00294	0.000639	-0.004292
79	-0.001334	-0.000347	0.002118	0.001954	-0.003799
80	-0.000347	-0.001991	0.004583	-0.001991	-0.003142
81	-0.002484	-0.000676	-0.000347	0.000146	-0.001169
82	-0.000841	-0.000347	-0.002155	-1.9e-05	-0.001827
83	0.001954	0.000639	0.003268	0.002447	0.000803
84	-0.000676	-0.004128	0.002447	-0.001662	-0.001991
85	-0.000347	-0.00232	0.001296	-0.000512	0.00031
86	0.002447	-0.003306	0.00294	0.00031	-0.001498
87	0.003104	-0.00232	0.000803	0.00031	-0.001334
88	0.004748	-0.003306	0.001296	-0.001169	-0.001334
89	0.002447	0.000474	0.003433	-1.9e-05	-0.000183
90	0.003104	0.004419	0.006884	-0.001498	-0.004128
91	0.005898	-1.9e-05	0.003268	-0.000347	-0.003306
92	0.002611	-1.9e-05	0.000146	-0.002484	-0.003142
93	0.004419	0.001296	0.003104	0.000474	-0.001005
94	0.004583	-0.000676	0.001954	-1.9e-05	-0.001334
95	0.006884	-0.002484	0.006062	0.000146	-0.000183
96	0.004419	-0.001827	0.004255	-0.003963	-0.001334
97	0.002118	-0.000512	0.00409	-0.003142	-0.002484
98	0.004583	-0.001498	0.002611	0.00031	-1.9e-05
99	0.003761	-0.003306	0.004419	-0.003963	-0.001005
100	0.001789	0.003761	0.003104	-0.007086	0.000803
101	0.005569	-0.001169	0.006391	-0.001827	-0.001498
102	0.011158	0.00031	0.00294	0.001625	-0.005278
103	0.009678	-0.00347	0.002447	-0.001169	-0.002813
104	0.006227	0.001296	-0.000841	0.000803	0.000803
105	0.007049	-0.001498	-0.00232	-0.001005	-0.001662
106	0.007049	-0.001827	0.005405	0.000967	-0.002484
107	0.004419	-0.001334	0.001789	-0.001991	-0.001991
108	0.007377	-0.001169	0.005734	-0.001334	-0.00347
109	0.004255	-0.002813	0.001296	-0.003306	-0.003963
110	0.001132	-0.003142	0.005076	-0.002484	0.000146
111	0.001625	-0.001334	0.004583	-0.001827	-0.00725
112	0.002447	-0.002484	0.00294	0.002118	-0.001827
113	0.000967	-0.002648	0.010171	-0.002977	0.001132
114	0.003433	-0.001991	0.00672	-0.000183	-0.008237
115	-0.000347	0.001296	0.003597	-0.003799	-0.002813
116	0.000474	0.000639	0.006062	-1.9e-05	-0.003306
117	0.00031	0.00031	0.005241	0.002447	-0.005443
118	0.000146	-0.002648	0.004748	0.000803	-0.004128
119	0.002447	0.00031	0.005898	-0.001005	0.00031
120	0.003268	-0.001991	0.004912	0.00031	-0.004456
121	0.004255	-0.003306	0.008857	0.001789	0.000146
122	0.006556	-1.9e-05	0.003433	-0.009223	-0.00347
123	0.004583	-0.000841	0.00672	0.001625	-0.003799
124	-0.005114	-0.001498	0.004255	-0.000841	-0.001005
125	-0.007415	-0.002484	0.006884	-0.000183	-0.004949
126	-0.006264	0.002118	0.004419	-0.001169	-0.00232
127	-0.003799	-0.000183	0.007706	0.00031	-0.001334
128	-0.00347	-0.002155	0.007049	-0.00232	-0.005114
129	-1.9e-05	-0.003799	0.003761	-0.000676	-0.002813
130	-0.003142	0.00146	0.005569	-0.002155	-0.000347
131	-0.000347	-0.002813	0.007542	0.000967	-0.001662
132	-0.00347	-0.002813	0.005241	0.003104	-0.000841
133	-0.002155	-0.002484	0.007049	-0.002977	-0.00232
134	0.000146	-0.002484	0.007542	0.000474	-0.000512
135	-0.000841	-0.00232	0.004748	-0.008072	-0.000676
136	-0.009387	-0.002155	0.009678	0.004255	0.001789
137	-0.001334	-0.003635	0.007213	0.002282	-0.002484
138	0.001954	-0.002484	0.009185	0.003433	-0.002648
139	-0.000347	-0.004456	0.009021	0.000474	-0.000841
140	0.003433	-0.001662	0.009843	0.00146	-0.000512
141	0.006062	-0.000512	0.008199	-0.001334	-0.000347
142	0.008857	-0.00232	0.007377	0.000146	-0.000676
143	0.005405	-0.004785	0.00787	0.000639	-0.001334
144	0.008692	0.001625	0.00787	-0.000676	-0.001169
145	0.008199	0.000474	0.010007	-0.00347	-0.001005
146	0.005241	-0.001662	0.005898	0.002447	-0.001334
147	-0.000841	-0.001169	0.010336	-0.001005	-0.000676
148	0.008035	-0.003799	0.0105	-0.001498	-0.000676
149	0.00787	0.001132	0.007377	0.003433	-1.9e-05
150	0.010993	0.001296	0.010007	-0.004456	-0.000676
151	0.014938	-0.00232	0.009678	-0.002813	-0.000347
152	0.012965	-0.000347	0.01313	-0.004456	-0.001169
153	0.01428	-0.000676	0.008363	-0.002813	-0.000183
154	0.013294	-0.005771	0.004912	-0.003306	-0.000841
155	0.01313	-0.000512	0.005734	-0.001827	-0.001334
156	0.010993	-0.002977	0.007049	-0.000183	-0.001169
157	0.010171	-0.004949	0.006391	0.000803	-0.001005
158	0.010829	-0.003142	0.005898	-0.001169	-0.000676
159	0.006556	0.000803	0.005076	0.001789	-0.000841
160	0.011322	-0.004785	0.00672	0.001132	-0.000676
161	0.008363	-0.002155	0.006391	0.000146	-0.000347
162	0.009021	-0.001334	0.006884	-0.000676	-0.000183
163	0.000474	-0.004128	0.014445	-0.001827	-0.000676
164	0.000146	-0.00232	0.005734	-0.000676	-0.000347
165	0.002118	-0.004785	0.003926	-0.000512	-0.000841
166	0.003597	0.003597	0.008528	0.003104	-0.001334
167	0.001625	0.000639	0.00672	0.002775	-0.001169
168	0.003433	-0.000676	0.010171	0.003268	-0.001169
169	0.00031	-0.000512	0.00935	-0.001334	-0.000841
170	0.001625	-0.000841	0.011979	0.00146	-0.000347
171	-0.002648	-0.001991	0.007542	-0.000676	-0.000512
172	0.001789	-0.002155	0.010171	0.000967	-0.000347
173	0.00409	-0.00232	0.0105	0.003926	-0.000512
174	0.002447	-0.001662	0.006391	-0.000183	-0.000676
175	0.001625	0.005241	0.006062	-0.001169	-0.000512
176	0.001132	-0.002813	0.012965	0.001296	-0.001334
177	-0.001169	-1.9e-05	0.009843	0.001954	-0.001005
178	0.001132	-0.001334	0.008363	-0.00232	-0.001334
179	-0.001169	-0.000841	0.009185	0.001625	-0.001169
180	0.001132	-0.002484	0.011158	-0.000676	-0.001005
181	-0.000841	0.00294	0.01428	-0.000676	-0.000512
182	-0.001991	-0.001827	0.011979	0.001296	-0.000347
183	-0.002155	-0.00232	0.012965	0.000146	-0.000347
184	-0.001005	-0.001169	0.011815	-0.001005	-0.000183
185	-0.001498	-1.9e-05	0.000967	0.000146	-0.000183
186	-0.001991	-0.001498	0.010829	0.00146	-0.000676
187	-0.001991	-0.000841	0.014116	0.000967	-0.001005
188	-0.001498	-0.001005	0.013623	-0.001005	-0.001005
189	-0.001991	-0.004456	0.016746	0.006884	-0.001169
190	-0.00347	-0.00232	0.015266	-0.003142	-0.000676
191	-0.001498	-0.003963	0.013952	0.000803	-0.000676
192	-0.001005	-0.000841	0.01313	-0.000347	-0.000512
193	0.001789	-0.004621	0.015595	-0.000512	-0.000512
194	-0.001662	-0.002648	0.014445	-0.000676	-0.000512
195	-0.000676	-0.001827	0.014445	-0.005278	-0.000183
196	0.00031	-0.000676	0.010829	0.000474	-0.000347
197	0.000803	-0.003306	0.012965	-0.002155	-0.001005
198	0.003926	0.000146	0.016417	0.001296	-0.000841
199	0.001625	0.003104	0.015266	-0.001334	-0.001334
200	0.005241	0.004419	0.017403	0.003104	-0.001498
201	0.002611	-0.000676	0.014773	-0.001991	-0.001005
202	-0.000841	-0.001169	0.017732	-0.000676	0.000146
203	0.003433	0.000639	0.019047	-0.003963	-0.001334
204	0.000474	-0.003142	0.014609	-0.004456	0.000146
205	-0.000347	0.000146	0.018389	-0.001662	-0.000183
206	0.003104	-0.002813	0.02069	-0.002813	-0.000183
207	0.001954	-0.004128	0.017239	-0.001991	0.00031
208	0.001296	-0.005936	0.018225	-0.000347	-0.001005
209	0.000803	-0.003963	0.015102	-1.9e-05	-0.000347
210	0.005076	-0.003306	0.020197	-0.000676	-0.001662
211	0.002118	-0.004292	0.019704	0.003104	-0.001005
212	0.001954	-0.001334	0.013952	0.001954	-0.001498
213	0.000146	-0.000183	0.018718	0.001625	-0.001005
214	-0.000841	-0.002648	0.014773	-0.000512	-0.003963
215	0.002447	-0.003306	0.021841	0.002282	0.000639
216	-0.001827	0.000639	0.019704	0.002775	-0.001498
217	0.001625	0.003433	0.022498	-1.9e-05	-0.002155
218	0.001789	-0.001334	0.022005	-0.001005	-0.000183
219	-0.000512	-1.9e-05	0.022498	0.000803	-0.000841
220	-0.001827	0.00031	0.023156	-0.001827	-0.001498
221	0.002282	-0.001498	0.023484	-0.001827	-0.000183
222	-0.002813	0.000146	0.021676	0.004419	-0.001005
223	-0.001169	0.000146	0.02332	0.003104	-0.001827
224	0.00146	0.002611	0.024635	0.003104	-0.000183
225	0.002447	-0.005771	0.021676	-0.001169	-0.002977
226	0.000146	-0.004292	0.023813	0.005076	0.00031
227	0.00146	-0.005443	0.020033	-0.001005	-0.000676
228	-0.000676	-0.00347	0.022169	0.001954	-0.001334
229	-0.001169	-0.003799	0.020033	0.00031	0.002611
230	0.000474	-0.001498	0.019704	0.002775	0.000474
231	-1.9e-05	-0.002155	0.020033	0.000146	-0.001498
232	0.00672	0.001625	0.019868	0.003597	0.002775
233	-0.002977	-0.001827	0.016746	-0.001169	-0.00347
234	-0.002977	0.000146	0.018225	0.000639	0.002447
235	-0.000512	0.002447	0.015595	-0.001662	-0.001827
236	0.002775	-0.000841	0.01691	0.001132	-0.003635
237	-0.001169	0.002611	0.015431	0.00031	-0.003142
238	-0.001498	-0.001827	0.014609	-0.000676	-0.005607
239	-0.001005	0.001625	0.014938	-0.002813	-0.001498
240	-0.00232	-0.005278	0.012308	-0.00347	-0.002484
241	-0.000841	-0.002155	0.010993	-0.000183	0.002282
242	-0.002813	-0.003142	0.006227	0.000474	-0.000676
243	0.002775	-0.001005	0.008528	0.002611	0.001132
244	-0.001169	-0.000512	0.003433	0.005076	0.000474
245	-0.003306	-0.001498	0.006062	-0.000183	-0.000183
246	-0.000841	-0.002155	0.004419	-0.001498	0.00031
247	0.002282	-0.001169	0.002611	0.003926	-0.001991
248	-0.000841	-0.000183	0.00146	-0.000841	0.00031
249	0.002282	-0.000183	0.002611	0.003104	-0.002813
250	-0.001334	-0.002155	-0.001662	0.004255	-0.003306
251	0.001132	-0.002813	0.000146	0.002447	-0.001991
252	-0.000347	0.000474	-0.000512	0.00031	0.003433
253	0.003926	-0.003799	-0.00347	-0.001498	-0.000512
254	0.002775	0.000803	-0.0061	-1.9e-05	0.001132
255	-1.9e-05	-0.000347	-0.006593	-0.000183	-0.000183
256	0.00146	-0.001827	-0.006922	-0.000183	-0.000183
257	-0.001005	-0.001991	-0.006757	-0.004621	-0.002484
258	0.003104	-0.000183	-0.005607	-0.000347	0.000967
259	-0.002813	-0.005771	-0.007908	-0.000512	0.000146
260	-0.000512	-0.002484	-0.003142	-0.002155	-1.9e-05
261	-0.001991	-0.005443	-0.00232	-0.002155	0.001132
262	-0.000512	-0.004621	-0.007579	-0.000183	-0.000512
263	-0.001498	-0.002813	-0.00347	-0.001169	0.000967
264	-0.002648	-0.005278	-0.010373	0.00294	-0.0061
265	-0.000347	-0.002648	-0.00347	-1.9e-05	-0.000183
266	-0.000347	-0.004785	-0.000676	0.005405	-0.00347
267	-0.000347	-0.001334	-0.009387	-0.001169	-0.001827
268	0.000474	-0.002813	-0.004621	0.000967	-0.003799
269	0.000639	0.000639	-0.004621	-1.9e-05	-0.001169
270	0.000639	-0.002484	-0.005771	0.00031	-0.004949
271	-0.001334	-0.001334	-0.002484	-0.001662	-0.00232
272	-0.002484	-0.003963	-0.006264	0.000474	-0.001991
273	-0.002648	-0.000512	-0.005936	0.000146	-0.002977
274	-0.001334	0.001296	-0.004785	-0.004292	0.004255
275	-0.001498	-0.005278	-0.005114	-0.002813	-0.004785
276	-0.002813	-0.004785	-0.007086	-0.004292	-0.001169
277	-1.9e-05	-0.003142	-0.005936	-0.000347	0.002118
278	-0.001005	-0.004949	-0.009223	-0.000512	0.000803
279	-0.004292	-0.003799	-0.00725	0.00146	-0.00232
280	-0.003799	-0.002648	-0.00873	0.000474	0.001789
281	-0.000512	-0.003799	-0.006264	0.002775	-0.000347
282	-0.001991	-0.000347	-0.005443	-0.002155	0.000146
283	-0.001827	-0.005278	-0.004621	0.002118	0.001132
284	-0.001827	-0.002813	-0.009058	0.001296	0.001625
285	0.00031	-0.001662	-0.004949	0.001132	-0.002484
286	0.002611	-0.004128	-0.005443	0.001132	-0.002977
287	-0.001005	0.002447	-0.009223	-0.003799	0.000639
288	0.00031	0.00294	-0.005771	0.003926	-0.000512
289	0.002611	-0.001005	-0.009223	-0.005114	-0.001334
290	-0.000512	-1.9e-05	-0.00988	-0.000183	-0.000841
291	0.003761	-0.000676	-0.012017	-0.004128	-0.001991
292	0.001296	-0.004456	-0.006429	0.000146	0.003433
293	-0.001991	-0.003799	-0.00988	-0.002155	-0.001991
294	0.003433	-0.005278	-0.007744	0.002118	0.000474
295	-0.006757	0.001132	-0.009387	-0.001334	0.000146
296	0.001132	-0.007086	-0.0061	0.004583	0.003433
297	0.00031	-0.001662	-0.010373	0.000474	0.00146
298	0.001625	-0.001827	-0.00988	0.000474	-0.002484
299	0.001954	-0.002155	-0.011195	0.001296	0.000146
300	0.001954	-0.004621	-0.010702	0.005076	-0.002648
301	0.000146	-0.002813	-0.011852	0.006062	-0.000347
302	0.000146	-0.001169	-0.012181	-0.003142	-0.00347
303	0.001789	-0.00347	-0.011524	0.004583	0.001132
304	0.000967	-0.003799	-0.01366	-0.000676	0.000474
305	-0.001991	-0.000512	-0.016783	-0.002977	-0.000183
306	-0.001662	-0.002155	-0.017934	-0.00232	-0.001169
307	-0.001169	-0.001827	-0.013496	0.002775	-0.000841
308	-0.001662	-0.001005	-0.015797	-0.004785	0.00146
309	0.00031	-0.003635	-0.016126	-0.002648	-0.000676
310	-0.00232	-0.003963	-0.01629	-0.000841	0.00146
311	0.00031	-0.003799	-0.01366	0.001132	0.000474
312	-0.001498	-0.004456	-0.01629	-0.000512	0.000803
313	-0.000841	-0.002813	-0.013825	0.000639	-0.001498
314	-0.002155	-0.003635	-0.015797	0.003433	-0.006264
315	-0.001005	-0.005607	-0.016126	-1.9e-05	-0.004785
316	-0.000676	-0.005278	-0.012674	0.002282	0.001296
317	0.001625	-0.005443	-0.016126	-0.002813	-0.003963
318	0.000803	-0.002648	-0.01514	0.001625	0.00031
319	0.000639	-0.002648	-0.016619	-0.003142	0.000474
320	0.001954	0.000967	-0.024672	-0.00347	0.000803
321	0.00031	-0.001662	-0.021878	0.000639	-0.001498
322	0.004748	0.00031	-0.018098	0.001132	0.001954
323	0.002282	-0.001662	-0.021878	-0.000676	0.002282
324	0.000474	-0.001991	-0.020563	-0.003635	0.001789
325	0.000474	-0.001169	-0.019084	0.00031	-1.9e-05
326	0.001296	-0.002484	-0.018098	0.001132	-0.000183
327	-0.004785	-0.003306	-0.022207	-0.002813	0.002447
328	-0.001334	0.001132	-0.02007	-0.001005	-0.001005
329	-0.0061	-1.9e-05	-0.023686	0.000639	0.00146
330	-0.003306	-1.9e-05	-0.021221	-0.001169	-0.001991
331	-0.001827	0.005569	-0.023851	-0.000183	0.001789
332	-0.001005	-0.003306	-0.024015	0.00294	-0.000183
333	0.000967	0.001132	-0.020563	0.001789	0.003104
334	-0.000676	-0.001991	-0.022207	0.001296	0.000474
335	0.001296	-0.004621	-0.022536	0.002282	0.001296
336	0.000474	-0.004456	-0.02007	-0.001827	0.007377
337	0.001132	0.000474	-0.024508	-0.000676	0.000639
338	-1.9e-05	-0.000841	-0.02155	-0.000183	0.002118
339	0.001296	-0.001662	-0.022536	0.001132	-0.001169
340	-0.000512	-1.9e-05	-0.028617	-0.004456	0.00146
341	0.000146	-0.000183	-0.021221	-0.002813	0.001132
342	-0.00232	-0.000183	-0.024672	-0.003635	0.001625
343	0.002118	-0.001169	-0.019906	-0.000347	-0.000841
344	0.003268	-0.000183	-0.021714	-0.00232	0.002447
345	-0.005771	-0.002648	-0.020563	-0.001498	-0.001169
346	0.000803	-0.000676	-0.022371	-0.000347	-0.001169
347	-0.001169	-0.001169	-0.021714	0.001132	0.000146
348	-0.000676	-0.000841	-0.017934	0.000146	-0.003142
349	-1.9e-05	-0.007744	-0.021221	0.000639	0.000803
350	0.002775	-0.002977	-0.019249	0.000146	-0.001827
351	-0.001498	-0.000676	-0.019742	0.001789	-0.001005
352	-0.001498	-0.000512	-0.021056	0.001789	0.000474
353	0.000474	-0.001498	-0.02155	-0.001005	-0.004456
354	-0.000676	-0.000347	-0.019084	0.003597	0.000146
355	-0.004456	-0.000841	-0.020563	-0.002977	-1.9e-05
356	0.001132	-0.001827	-0.019742	0.001132	-0.001169
357	-0.003306	-0.000841	-0.024015	-0.003635	-1.9e-05
358	-0.001662	-0.003635	-0.019742	0.002611	0.000146
359	-0.001005	-0.002155	-0.021056	-0.000676	0.000967
360	-0.002155	-0.004949	-0.020563	-0.000347	-0.000183
361	-0.00232	-0.001169	-0.016783	0.000474	-0.000676
362	-0.003306	0.00031	-0.015961	-0.002484	-0.002484
363	-0.004621	0.001296	-0.016126	-0.001169	0.000474
364	-0.003635	-0.000183	-0.015961	-0.00347	-0.000347
365	-0.002484	0.004255	-0.014482	0.006556	-0.000347
366	-0.004456	-0.001827	-0.014482	0.002282	0.004255
367	-0.002484	-0.001498	-0.016454	-0.001498	0.001789
368	-0.003963	-0.000841	-0.021056	0.000146	-0.001991
369	-0.003963	-0.004456	-0.014647	0.001789	0.000474
370	-0.002155	-0.001005	-0.014482	-0.003963	0.000474
371	-0.001169	-0.002977	-0.015304	0.001132	0.000803
372	-0.001827	-0.001005	-0.015304	0.000146	0.002447
373	-0.001169	-0.001991	-0.010702	-1.9e-05	0.004255
374	-0.004128	0.00146	-0.016783	-0.000841	0.003761
375	-0.004292	-0.000183	-0.01251	0.003926	-1.9e-05
376	-0.001169	0.001132	-0.011195	0.005405	0.002611
377	-0.003963	0.000967	-0.009551	0.000474	-0.000347
378	-0.005114	0.004748	-0.012181	0.001625	-0.000183
379	-0.004292	0.000474	-0.013167	0.001789	-0.001827
380	-0.00232	-0.000183	-0.010045	0.00146	-0.001334
381	-0.000183	-0.000512	-0.010702	-0.002648	-0.001498
382	-0.002648	-0.000676	-0.008072	-1.9e-05	0.00031
383	-0.002648	-0.003142	-0.013496	-0.001991	0.000146
384	0.001132	-0.001334	-0.009716	-0.000512	0.007377
385	-0.001827	-0.000183	-0.011359	-0.00232	0.001789
386	-0.000512	-0.005114	-0.009223	0.000639	-0.000183
387	-0.002155	-0.001169	-0.010702	-0.000676	0.002282
388	0.00031	-0.000347	-0.008894	0.00031	-0.000512
389	-0.001498	-0.001991	-0.012346	-0.001005	0.000474
390	0.000474	-0.003963	-0.008401	0.000803	-1.9e-05
391	-0.000512	-1.9e-05	-0.008401	-0.000347	0.000639
392	-0.000183	-0.001498	-0.009551	-0.00347	-0.002155
393	-0.000676	-0.000841	-0.006593	-0.003142	-0.001005
394	-0.000347	-0.001827	-0.009551	0.00031	-0.002484
395	-0.002648	0.000146	-0.004621	-0.004621	0.001296
396	-0.000347	-0.000183	-0.009551	-0.001005	-0.000512
397	-0.001005	-0.00232	-0.008401	0.002282	-0.000841
398	-0.001827	0.001789	-0.0061	-0.001334	-0.003635
399	-0.000183	0.002611	-0.005607	0.000146	-0.001498
400	-0.001334	0.000474	-0.006264	-0.000676	-0.002813
401	-1.9e-05	-0.000676	-0.007086	0.004255	-0.000676
402	-0.000512	-0.001169	-0.006593	-0.00232	0.003597
403	-0.000512	-0.003142	-0.004785	-0.001662	0.001625
404	-0.000347	-0.00347	-0.003799	-0.000676	-0.001498
405	0.00031	-0.001827	-0.006593	-0.001005	-0.003306
406	-0.000183	-0.000512	-0.003635	-0.002484	-0.000183
407	0.000146	-0.003799	-0.008401	0.00031	-0.003142
408	-0.000841	-0.004949	-0.007579	0.001296	-0.002648
409	-0.000676	-0.000676	-0.007908	0.000967	-0.001991
410	-0.001005	0.000639	-0.005936	0.000967	-0.00347
411	-0.001005	-0.001827	-0.007415	-1.9e-05	-0.005114
412	-0.001169	0.002447	-0.003963	-0.001991	-0.002813
413	-0.000676	-0.002977	-0.00347	0.00146	-0.004949
414	-0.001005	-0.003306	-0.003799	0.000474	-0.004785
415	-0.000512	-0.000347	-0.004292	-0.001827	-0.002977
416	-0.000512	0.001132	-0.001827	0.003268	0.000803
417	-0.000512	0.001132	-0.005443	-0.001334	0.00146
418	-0.000347	0.000803	-0.005114	-0.001991	-0.005443
419	-0.000676	-0.000841	-0.005443	-0.000183	-0.001169
420	-0.000676	0.001789	-0.00232	0.001132	-0.003799
421	-0.001005	-0.001827	-0.004621	-0.003142	-0.003799
422	-0.001005	-0.002813	-0.004456	0.003433	-0.004292
423	-0.001005	0.002775	-0.004621	0.00146	0.00146
424	-0.000512	-0.001991	-0.003306	0.00409	-0.002648
425	-0.000512	-0.001169	-0.002648	0.000803	-0.00232
426	-0.000183	-0.001498	-0.000676	0.000639	-0.001991
427	-0.000347	0.002118	-0.001334	-0.001334	-0.000347
428	-0.000183	0.000474	-0.005114	-0.002155	-0.001169
429	-0.000841	-0.001005	-0.002977	-1.9e-05	-0.002977
430	-0.000676	-0.001991	-0.002484	-0.001005	-0.005936
431	-0.000841	0.001296	-0.003635	0.000146	-0.002977
432	-0.001169	-0.000183	-0.002648	-0.002155	-0.003306
433	-0.001169	-0.000183	-0.001005	-0.001991	-0.00232
434	-0.001005	0.004912	-0.007744	-1.9e-05	-0.001662
435	-0.000676	-0.001662	-0.001827	0.003268	-0.003963
436	-0.000512	-0.002813	-0.001498	-0.00232	-0.002484
437	-0.000183	-0.001827	-0.002648	-0.001334	-0.002155
438	-0.000512	0.00031	-0.001991	-0.001005	-1.9e-05
439	-0.000183	-0.002484	-0.001827	0.000639	-0.001991
440	-0.000512	0.001296	-0.004292	0.000967	0.005734
441	-0.000347	-0.003963	-0.003963	0.002775	-0.004128
442	-0.000841	0.001296	-0.005114	0.001954	-0.000676
443	-0.001005	-0.000183	-0.003799	-0.000512	-0.002155
444	-0.001169	0.001789	-0.003963	0.001625	-1.9e-05
445	-0.001005	0.007049	-0.005278	-0.000676	-0.00347
446	-0.000676	-0.000347	-1.9e-05	0.005076	-0.001991
447	-0.000676	0.000967	-0.00347	-0.002484	-0.001662
448	-0.000512	0.003104	-0.001991	-1.9e-05	-0.004949
449	-0.000512	0.001132	-0.004456	-0.002155	-0.001827
450	-0.000183	0.000639	0.000146	0.002447	-0.00347
451	-0.000512	0.000803	-0.005771	-0.002813	-0.000512
452	-0.000512	-0.005278	0.000146	-0.000841	-0.003306
453	-0.000841	-0.000347	-0.00232	-0.001169	-0.000512
454	-0.001334	0.001789	-0.002977	-0.003635	0.002118
455	-0.001334	0.00146	-0.005607	0.001625	0.000803
456	-0.001005	0.005405	-0.005114	-0.000183	-0.000841
457	-0.000841	-0.000512	-0.002813	-0.000183	0.00031
458	-0.000676	-0.002484	-0.004292	-0.002648	-0.000841
459	-0.000347	-0.003635	-0.003635	0.001954	0.000146
460	-0.000347	-0.000183	-0.004621	-0.001334	-0.001005
461	-0.000347	0.000146	-0.004949	0.001789	-0.002648
462	-0.000676	-0.000183	-0.003799	-0.003142	-0.002648
463	-0.000676	-0.000841	0.000146	-0.000183	-0.000841
464	-0.000841	0.001625	-0.003142	-0.000183	-0.001662
465	-0.001169	0.000474	-0.003306	0.001296	-0.006264
466	-0.001169	-0.000183	-0.001662	0.00294	0.002118
467	-0.001005	0.004255	-0.001005	0.001625	-0.002484
468	-0.000676	0.001132	0.000639	0.000967	-0.004128
469	-0.000512	-0.001005	-0.002813	0.000803	-0.002155
470	-0.000676	0.002447	0.002118	-0.000841	-0.001991
471	-0.000347	0.001132	-0.000841	0.000803	-0.003635
472	-0.000512	0.000967	-0.000676	-1.9e-05	-0.002155
473	-0.000512	0.000146	-0.000183	0.000146	-0.000347
474	-0.000841	0.001296	-0.000676	0.001625	-0.001498
475	-0.000841	0.001132	-0.002648	-0.000512	-0.000183
476	-0.000841	0.004583	0.001132	0.000474	-1.9e-05
477	-0.000676	0.00031	-0.000183	-0.006429	0.00031
478	0.00031	-0.000183	-0.000841	-0.000347	-0.001498
479	-0.001991	-0.00232	-0.004128	-0.001169	-0.003306
480	0.002611	-0.001005	0.004255	-0.000676	-0.001827
481	0.003433	0.001954	-0.002977	-0.001662	0.000967
482	0.00409	-0.000841	-0.002484	-0.000512	-0.000512
483	0.002282	0.002775	0.000639	-0.002977	0.00031
484	0.004255	0.003268	-0.00232	0.001625	0.000803
485	0.003926	0.003433	-0.001991	0.000146	0.004583
486	-0.000841	0.002282	-0.00347	-0.00232	0.002611
487	-0.001169	0.004255	-0.001991	0.001296	0.002447
488	-0.001498	0.002118	-1.9e-05	-0.001991	0.000474
489	-0.002155	-0.003142	-0.006593	-0.000347	-1.9e-05
490	-0.003635	-0.002155	-0.004128	-0.00347	-0.000841
491	-0.000347	-0.000512	-0.001498	0.002118	0.001625
492	-1.9e-05	0.00031	-0.006264	0.001625	0.000146
493	-0.000676	-1.9e-05	0.001954	0.003104	0.003104
494	-0.002155	-0.001662	-0.002484	-0.001498	-1.9e-05
495	0.002447	-0.000841	-0.001662	-0.000183	-0.001005
496	-1.9e-05	0.000146	-0.002648	0.000967	0.004912
497	-0.001498	-1.9e-05	-0.002484	0.000803	-0.001498
498	0.000639	-0.003142	-0.00232	0.001132	0.003104
499	-1.9e-05	-0.000841	-0.000183	-0.000183	-0.003963
500	-0.001169	-0.005443	-0.001991	-0.000183	-0.001991
501	-0.001662	-0.005771	-0.001005	-0.005443	-0.000183
502	-0.001498	0.00031	-0.002155	-0.004128	0.001789
503	0.002282	0.00146	-0.000183	-1.9e-05	-0.001662
504	-0.00232	-0.001991	-1.9e-05	-0.001827	-0.004128
505	-1.9e-05	-0.001005	-0.000512	-0.003142	-0.003799
506	-0.000183	-0.001169	-0.001662	0.001132	-1.9e-05
507	-0.003142	-0.002155	-0.0061	0.000967	-0.001169
508	-0.000347	-0.005278	-0.003142	-0.004128	0.001954
509	-0.001991	-0.002484	-0.001827	0.000639	0.004583
510	-0.005607	-0.004621	-0.001005	-0.001169	0.000146
511	-0.00347	-0.012017	0.000474	-0.002648	0.002447
512	-0.000841	-0.005936	-0.001005	-0.002648	-0.001005
513	-0.001498	-0.002813	-0.001169	-0.001334	0.002447
514	0.004748	-0.000183	-0.000183	0.00031	0.002282
515	-0.001334	-0.00232	-0.001169	-0.002155	0.000803
516	0.000803	0.00031	-1.9e-05	0.000146	0.00031
517	0.00031	-0.003306	-0.003142	0.005241	0.000474
518	0.000474	-0.002155	-0.001334	0.001954	-0.00725
519	0.005569	-0.001498	0.000967	0.000474	-0.002484
520	-0.000183	-0.002977	0.002775	0.001789	0.004912
521	0.002447	-0.001662	-0.001498	0.000639	-0.004456
522	-0.000512	-0.010866	0.00294	-0.001169	-0.005771
523	0.000803	-0.003306	0.001954	-0.001169	0.00146
524	-0.004785	-0.004292	-0.003799	-0.000183	0.000967
525	0.000639	-0.003306	0.003268	-0.002155	0.000967
526	-0.001498	-0.004292	-0.000512	0.000803	0.003104
527	-0.002484	-0.003306	0.001954	-0.003142	0.00031
528	0.000803	-0.002155	-0.000512	-0.002484	0.002282
529	0.000474	-0.008237	-0.001005	0.003268	0.002775
530	0.001132	-0.004292	-0.001169	-0.000841	0.005569
531	0.000803	-0.004785	-0.000347	0.001789	0.003597
532	0.00031	-0.002648	-0.001827	0.001789	0.002447
533	0.003104	-0.010866	-0.002155	-0.002155	0.00146
534	0.001789	-0.001498	-0.000841	-0.001662	0.00409
535	-0.001827	-1.9e-05	0.001132	-0.000841	-0.001169
536	-1.9e-05	-0.001827	0.000639	0.002118	0.00146
537	-0.000841	-0.001169	0.000967	-0.001827	0.00031
538	0.00031	0.000639	-1.9e-05	-0.002155	-0.001498
539	0.00031	-0.004292	-1.9e-05	-0.002977	0.003597
540	-0.000676	-0.00232	0.001625	-0.001662	0.00146
541	0.00031	-0.002813	-0.000676	-0.001991	0.002282
542	0.003761	-0.004949	0.002118	-0.001827	0.004419
543	-0.001005	-0.002977	-0.001827	-0.000676	0.00031
544	0.001625	-0.012674	0.00146	0.000146	0.001625
545	0.002118	-0.005114	0.002775	-0.004456	0.00409
546	0.005076	-0.003963	-0.000512	-0.001498	0.002611
547	0.005898	-0.000183	-0.001005	0.00031	0.006062
548	0.003104	-0.001991	0.000967	0.000967	-1.9e-05
549	0.00294	-0.00232	-0.00347	0.000639	0.002282
550	0.001296	-0.001005	-0.000512	-0.003635	0.000639
551	0.001954	-0.002155	-0.000183	-0.002484	0.003268
552	0.002611	-0.000676	-0.002484	-0.005771	0.004912
553	0.003104	0.002118	0.002118	-0.001334	0.002118
554	0.000803	-0.004292	-0.002977	-0.000676	0.002447
555	0.005405	-0.006429	-0.002155	-0.00232	0.001625
556	-0.002155	-0.004128	0.000474	-0.006593	0.004255
557	-0.002484	-0.003306	0.006556	-0.003306	0.002775
558	-0.006264	-0.005114	-0.001005	-0.001991	0.002447
559	0.00031	-0.005278	-0.003799	0.000803	0.000146
560	-0.000841	-0.002977	0.002447	0.000803	0.003433
561	-0.003306	-0.0061	0.00146	0.001625	0.004255
562	0.000474	-0.001991	-0.000841	-0.001991	0.005241
563	0.001954	-0.003799	0.000474	0.001954	0.001789
564	0.001296	0.00031	-0.000512	0.00409	0.006062
565	-1.9e-05	-0.004292	-0.002155	0.001296	0.000967
566	0.003926	-0.00347	-1.9e-05	0.00409	0.00146
567	0.001954	-0.001005	-0.002484	-0.001498	0.000803
568	0.004912	-0.00232	-0.000347	0.002282	-0.001005
569	0.005076	-0.000841	-0.001334	0.002775	0.00146
570	0.006556	0.001954	0.00409	0.002447	-0.004785
571	0.001954	-0.001169	0.000803	0.00146	0.001954
572	0.001625	-0.001169	-0.000676	0.001954	0.000639
573	0.004255	-0.000512	0.000474	0.00031	0.001625
574	0.002611	-0.003799	-0.003142	0.000967	-0.000512
575	-0.001498	0.000474	-0.003142	0.00031	0.001296
576	0.002282	-0.004621	-0.001498	-0.000676	-0.001662
577	-0.001334	-0.002813	0.001789	0.000146	-0.004949
578	0.000474	-0.004456	0.000474	0.00146	-0.002813
579	0.001296	-0.002813	0.001625	0.005405	-0.004785
580	-0.005936	-0.002813	-0.000512	0.002447	-0.005771
581	-0.001005	0.001625	-0.000512	0.004255	-0.00347
582	-0.001498	0.000639	-0.000347	0.003597	-0.005114
583	0.001296	-0.001827	-0.001334	0.003761	-0.004949
584	-0.001005	-0.002155	-0.00232	0.001132	-0.004785
585	0.005405	0.000146	-0.000841	0.005734	-0.004456
586	-0.002813	-0.001827	-0.001498	0.002447	-0.003142
587	0.003104	0.001789	0.00409	0.003268	-0.008894
588	-1.9e-05	0.002611	0.000474	0.001132	-0.003635
589	-0.000841	-0.002813	-0.001991	-0.002484	-0.005607
590	-0.000183	-0.002155	-0.001498	-0.002813	-0.004128
591	-0.000512	-0.003799	-0.002484	0.000474	-0.006429
592	-0.005607	-0.000512	0.002282	-0.00232	-0.004128
593	0.002118	-0.00347	0.000146	0.00031	-0.00347
594	-0.00232	-0.001991	-0.001334	-0.000841	0.001954
595	-0.004621	-0.001498	0.001625	0.003433	-0.00347
596	0.00031	-0.004949	0.000146	0.003104	-0.002648
597	-0.001169	-0.004456	-0.001662	0.000803	0.00409
598	0.00146	-0.000676	0.001625	0.003926	-0.002977
599	-0.001991	-0.005607	0.001296	0.000967	-0.002977
600	-0.001498	-0.004456	-0.000512	0.001296	-0.004128
601	-0.002648	-0.004128	0.000146	0.002282	-0.001827
602	-0.00347	-0.001169	-0.001334	0.002611	-0.004785
603	-0.001827	-0.001169	-0.001991	0.000967	-0.002484
604	-0.001498	-0.001005	0.00146	0.003761	-0.005114
605	-0.000512	0.00146	-0.001827	0.002611	-0.001991
606	-0.001005	-0.003142	-0.004621	0.001625	-0.002648
607	-0.002977	-0.001334	-0.005114	0.000474	-0.001991
608	-0.005278	-0.002977	-0.001005	0.001132	0.000146
609	-0.002484	-0.000183	-0.003142	0.003433	-0.002155
610	0.000474	-0.003142	-0.001498	0.003268	-0.000512
611	-0.004456	-0.005278	-0.000347	0.002282	-0.001827
612	-0.004292	-0.004785	0.000803	0.000639	-0.002648
613	-0.003142	-0.001662	0.001296	0.003433	-0.000512
614	-0.005936	-0.000841	-0.000841	0.004255	-0.001169
615	-0.002813	-0.001169	0.000474	0.005898	0.000146
616	-0.006429	-0.001169	-0.000841	-0.005278	-0.00232
617	-0.007744	-0.00347	-1.9e-05	-0.008894	-0.001827
618	-0.003306	-0.005443	0.000474	-0.004621	-0.003799
619	-0.001169	-0.003142	-0.000512	-0.002155	0.00031
620	-0.002155	-0.000841	0.001132	-0.003799	-0.004785
621	0.001625	-0.001991	-0.000512	-0.000183	-0.003142
622	-0.003799	-0.002977	-0.003635	-0.004785	-0.001991
623	-0.002813	-0.003142	-0.001334	-0.007415	-0.005443
624	-0.00347	0.002118	0.000967	-0.002648	0.000146
625	-0.002813	-0.002648	-0.001169	-0.001498	-0.002648
626	-0.000676	0.000639	0.001954	0.002447	0.000474
627	-0.004292	-0.00232	-0.000512	0.000474	-0.001334
628	-0.008565	-0.001169	-0.001169	0.005405	-0.002484
629	-0.007086	-0.001169	-0.001005	-0.000841	0.003433
630	-0.008072	-0.000183	0.000474	-0.000183	-1.9e-05
631	-0.006757	-0.005771	-1.9e-05	-0.001991	-0.002484
632	-0.001498	-0.004621	-0.002155	-0.001991	-0.00232
633	-0.005114	-0.001662	0.001132	-0.00873	0.00146
634	-0.00232	-0.002155	-0.001334	-0.003306	-0.003963
635	-0.003635	-0.000512	-0.000676	-0.002484	-0.00347
636	-0.003306	0.000967	0.001625	0.001132	-0.003142
637	-0.002155	0.000146	0.00031	-0.001334	-0.002977
638	-0.000512	-0.002484	-0.002813	0.00146	-0.002484
639	-0.001991	-0.002484	-0.002813	-0.004292	-0.003142
640	-0.001827	-1.9e-05	-0.001005	-0.00232	-0.002155
641	-0.001334	-0.000512	-0.002155	0.002447	-0.007415
642	-0.001827	-0.004292	-0.001005	-0.002484	-0.0061
643	0.000639	-0.007086	0.000803	-0.001991	-0.003306
644	-0.004949	-0.004949	-0.003963	-0.00873	-0.001991
645	-0.00347	-0.001991	-0.000512	-0.004456	-0.002977
646	-0.004292	-0.003635	-0.000347	-0.001991	-0.001498
647	-0.006593	-0.001169	-0.000676	0.003104	-0.001991
648	-0.0061	-0.000676	-0.001827	-0.001498	-0.002484
649	0.000146	-0.001005	0.001625	0.000803	-0.001498
650	-0.004292	-0.002813	-0.001169	0.000967	-0.0061
651	-0.001005	-0.001498	-0.000676	-1.9e-05	-0.003306
652	-0.001498	-0.000183	0.000803	0.000639	-0.009716
653	0.001296	-0.000841	-0.000676	0.002118	-0.005443
654	-0.001169	-0.001991	-0.002813	-0.002813	-0.002648
655	-0.001005	-0.002813	-0.003635	-0.011688	-0.003306
656	0.000474	-0.002155	-0.000676	-0.005278	-0.000183
657	-0.000347	-0.002648	-0.003142	-0.005114	0.000803
658	0.001625	-0.002648	-0.001662	-0.001827	-0.000841
659	0.001625	-0.003142	-0.001169	-0.002813	0.00146
660	0.002611	-0.001827	-0.001169	-0.001169	0.002447
661	-0.002484	-0.004128	-0.001169	-0.003635	-0.001498
662	-0.000512	0.001789	-0.001169	-0.001334	-0.001169
663	-0.001005	0.001789	-1.9e-05	-0.001334	-0.010373
664	-0.000676	-0.003799	-0.003142	-0.001334	-0.003635
665	-0.001827	-0.002813	-0.001005	-0.004456	-0.003306
666	-0.000676	-0.000841	-0.000841	-0.010045	-0.002648
667	-0.005443	-0.001005	-0.000841	-0.000841	-0.004785
668	-0.00347	-0.002155	0.003268	-0.00347	-0.003799
669	-0.00232	-0.000183	0.000146	-0.002155	-0.000347
670	-0.001498	-0.002155	0.000639	-0.002977	-0.002648
671	0.000474	-0.003306	-0.000512	-0.004456	0.000639
672	-0.001005	-0.008072	-1.9e-05	-0.001005	0.000803
673	0.000639	-0.002155	-0.000512	-0.001498	0.000803
674	0.000639	-0.003142	-0.002484	-0.003799	-0.002977
675	0.00146	-0.000347	0.000474	-0.002813	-0.001334
676	-0.001005	-0.002648	-0.000512	-0.002648	-0.001169
677	0.000146	-0.000183	-0.000347	-0.013332	-0.001334
678	-0.001169	0.001296	-0.001005	-0.003799	0.000474
679	-0.001498	-0.001005	0.000639	-0.005771	-0.002648
680	0.000967	-1.9e-05	-0.000676	-0.006757	-0.004456
681	0.00146	-0.002155	0.000639	-0.004456	0.001789
682	-0.005771	-0.000841	-0.004785	-0.004785	0.000639
683	-0.001662	-0.001991	0.001789	-0.005607	-1.9e-05
684	-0.000841	0.001132	-0.001334	-0.005771	0.000967
685	-0.002977	-0.000347	-1.9e-05	-0.001827	-0.001334
686	0.000639	-0.001169	0.00146	-0.003963	-0.00347
687	-0.000347	-0.001991	-0.000676	-0.001334	-0.003142
688	-0.002155	0.002447	-0.001827	-0.00988	0.000967
689	0.000639	-0.002977	0.00294	-0.003635	0.000803
690	0.002775	0.000146	-0.001334	-0.002648	-0.001169
691	0.002447	-0.000841	-0.002155	-0.002155	0.000639
692	-0.001334	0.002447	-0.002155	-0.002155	-0.005936
693	-0.00232	0.001132	-0.001991	-0.005114	-0.000347
694	0.002447	-0.001169	-0.000183	-0.000183	0.00294
695	0.00031	-1.9e-05	-0.001827	-0.003142	-0.001334
696	0.002118	-0.001005	-0.001005	0.000967	0.000967
697	0.002775	0.002611	-0.000512	-0.006593	-0.003799
698	-0.001498	-0.001991	0.001132	-0.001334	-0.003799
699	-0.003963	-0.001169	-0.000841	-0.004456	-0.001005
700	-0.001827	-0.000183	0.003926	-0.002484	-0.003306
701	-0.001991	-0.002648	0.000474	-0.001498	-0.001498
702	-0.002155	-0.002977	0.006062	-0.00347	-0.001827
703	0.000146	-0.001498	0.001132	-0.002155	0.002282
704	-0.001662	-0.002155	-0.004456	-0.005607	0.000639
705	0.000474	-0.000347	0.000639	-0.003306	-0.001005
706	0.003433	-0.002484	-0.001169	-0.00347	-0.000183
707	0.000146	-0.002155	-0.001991	-0.00232	-0.001334
708	0.002118	-0.00347	-0.003306	-0.002813	-0.002813
709	0.003268	-0.001169	-0.000841	-0.00347	-0.002977
710	0.000474	0.000967	-0.004456	-0.000347	-0.004456
711	-0.000512	-0.004785	-0.001498	-0.00232	-0.000841
712	-0.001169	-0.002155	-0.001991	-0.004128	-0.002155
713	0.000803	-0.002484	0.002447	-0.001334	-0.001498
714	-0.002813	-0.000512	0.001625	-0.001334	-0.003306
715	0.001789	-0.001662	-0.002977	-0.00232	-0.00232
716	-0.001662	0.000474	0.002775	-0.002648	0.001296
717	-0.001498	-1.9e-05	0.001625	0.000146	-0.002813
718	-0.000347	-0.000183	0.002282	0.002611	-0.001005
719	0.000639	-0.001005	0.00146	-0.001334	-0.002484
720	-1.9e-05	-0.001005	0.003268	0.000803	0.000967
721	-0.002155	-0.002813	-0.001991	-0.001005	-0.000183
722	0.001954	-0.001662	-1.9e-05	-0.002484	0.003268
723	-0.000676	-0.002813	0.002282	-0.001334	0.001789
724	0.000146	-0.002484	-0.000347	0.000474	0.002447
725	-0.001662	-0.001991	0.000146	-0.003635	0.001954
726	0.000146	0.000803	-0.002155	0.000146	0.001954
727	-0.002813	-0.000347	-0.003142	0.001789	0.005076
728	0.003761	0.000474	0.000803	0.00031	-0.000512
729	0.001789	0.000474	-0.002648	0.001625	0.001954
730	-0.001169	0.001132	-0.000183	-0.002484	0.00294
731	0.000639	0.003761	-0.000512	-0.004128	-0.001169
732	-0.001498	0.001954	0.002282	-0.000512	-0.002648
733	-0.000183	0.002447	0.004583	-0.001662	0.002447
734	0.000803	-0.001005	0.004748	-0.002484	-0.001005
735	-0.001005	-1.9e-05	0.004419	-0.001169	-0.001827
736	-0.000841	0.000474	0.003926	-0.004621	0.000967
737	-0.001498	-0.000676	0.00031	0.000146	0.002282
738	-0.000841	-0.000841	0.000803	-0.001169	0.002282
739	0.003268	0.000146	0.00146	-0.000512	0.00409
740	-0.001334	-0.001827	-0.002648	-0.000347	0.001132
741	0.002611	-0.002977	0.002118	0.001132	0.004255
742	0.005405	-0.003306	-0.001827	0.001296	0.003433
743	-0.000183	-0.003635	0.002282	0.001789	0.000967
744	0.004748	-0.00347	-0.002155	-1.9e-05	0.002775
745	0.003104	-0.001169	0.000803	0.000474	0.001954
746	-0.001334	-0.000841	-0.000183	0.000639	0.003268
747	0.005734	0.000967	0.001296	-0.000347	0.00146
748	0.001296	0.003433	0.000639	0.002611	0.002447
749	0.001954	-0.000512	0.001296	-0.004292	0.006884
750	0.002447	0.004419	0.001789	-0.006264	-0.001827
751	0.005734	0.002118	0.005569	0.004255	0.005405
752	0.011486	0.013623	0.012965	0.007213	0.015924
753	0.0271	0.01954	0.021019	0.018882	0.019868
754	0.027429	0.027429	0.02973	0.029401	0.03088
755	0.034168	0.034168	0.033674	0.02973	0.036304
756	0.044193	0.034332	0.04107	0.039427	0.044851
757	0.046166	0.045508	0.047316	0.045508	0.052082
758	0.053726	0.051096	0.058821	0.053233	0.056027
759	0.060958	0.056849	0.05537	0.058164	0.065888
760	0.066217	0.062273	0.065724	0.068025	0.067696
761	0.069011	0.072956	0.071477	0.070819	0.07312
762	0.076407	0.076736	0.080352	0.079037	0.07575
763	0.080352	0.081995	0.077722	0.084954	0.086433
764	0.084954	0.08709	0.090871	0.088405	0.085611
765	0.095966	0.092021	0.093172	0.094651	0.093172
766	0.094322	0.09235	0.097116	0.096459	0.095308
767	0.103362	0.101718	0.103033	0.094815	0.102869
768	0.10254	0.103197	0.10517	0.100568	0.10254
769	0.109443	0.108621	0.110922	0.108128	0.108128
770	0.113388	0.115031	0.109607	0.110265	0.113552
771	0.118976	0.112566	0.117496	0.117003	0.117496
772	0.117661	0.121277	0.117003	0.116839	0.123249
773	0.122756	0.118811	0.124728	0.121605	0.123578
774	0.124071	0.123085	0.126043	0.126865	0.129495
775	0.117496	0.12818	0.130809	0.130481	0.130645
776	0.130481	0.12818	0.132453	0.132946	0.136398
777	0.134754	0.131631	0.135411	0.137548	0.135247
778	0.134754	0.138534	0.137712	0.138699	0.139685
779	0.136233	0.137219	0.138534	0.141	0.135904
780	0.140671	0.142807	0.150697	0.143958	0.14215
781	0.143629	0.143301	0.139849	0.140178	0.142807
782	0.148067	0.143465	0.145437	0.148889	0.150039
783	0.151025	0.150039	0.145766	0.147574	0.150532
784	0.153819	0.154312	0.149217	0.152505	0.15497
785	0.154148	0.15234	0.150039	0.151354	0.155134
786	0.149546	0.156449	0.153819	0.153819	0.153491
787	0.157271	0.154641	0.156449	0.152998	0.158421
788	0.159901	0.1576	0.1576	0.160558	0.160887
789	0.159572	0.160229	0.160887	0.157928	0.163188
790	0.163681	0.156449	0.163845	0.161051	0.161873
791	0.16401	0.164338	0.16779	0.166475	0.164503
792	0.166968	0.165489	0.164503	0.164503	0.165653
793	0.165489	0.166311	0.169926	0.166968	0.167625
794	0.169105	0.170255	0.166639	0.168447	0.168118
795	0.171077	0.170255	0.16894	0.170584	0.172392
796	0.174035	0.170091	0.173049	0.173542	0.17272
797	0.170748	0.171734	0.171406	0.172885	0.176829
798	0.173378	0.171406	0.169598	0.170748	0.00787
799	0.176665	0.174528	0.176172	0.176829	0.006062
800	0.168283	0.174364	0.173049	0.176172	0.001132
801	0.182911	0.175843	0.176008	0.175515	0.010664
802	0.180445	0.176501	0.1742	0.173707	0.018061
803	0.178144	0.178144	0.176829	0.175679	0.022498
804	0.182253	0.175843	0.176994	0.178473	0.027429
805	0.179459	0.178802	0.177815	0.175843	0.037783
806	0.180774	0.178637	0.178144	0.179623	0.046659
807	0.183897	0.178309	0.182911	0.180774	0.047973
808	0.18439	0.18061	0.182089	0.18554	0.058985
809	0.180938	0.180774	0.181103	0.184883	0.064574
810	0.182911	0.182746	0.182089	0.187348	0.070983
811	0.180281	0.180445	0.182253	0.186033	0.079694
812	0.183075	0.185376	0.186362	0.18554	0.078215
813	0.186362	0.183897	0.173707	0.187184	0.084296
814	0.184883	0.183897	0.181267	0.188499	0.091528
815	0.190471	0.185705	0.183404	0.185869	0.092021
816	0.191128	0.186855	0.192279	0.189814	0.096294
817	0.189649	0.188006	0.182417	0.187348	0.099417
818	0.193758	0.189978	0.191457	0.189485	0.102869
819	0.192936	0.186855	0.187677	0.186691	0.106978
820	0.189978	0.187348	0.187184	0.188992	0.109607
821	0.191128	0.190142	0.190471	0.189978	0.115195
822	0.191293	0.191457	0.191293	0.187841	0.115853
823	0.18932	0.196717	0.19195	0.193429	0.124564
824	0.191128	0.1908	0.18176	0.188827	0.123085
825	0.190307	0.189156	0.190142	0.191786	0.129001
826	0.189649	0.193758	0.193265	0.1908	0.132289
827	0.188827	0.193594	0.190307	0.192936	0.136069
828	0.190142	0.19195	0.190471	0.193758	0.133932
829	0.195237	0.195237	0.195895	0.19458	0.143301
830	0.19195	0.188992	0.191786	0.193265	0.141328
831	0.192936	0.190142	0.1908	0.194909	0.149217
832	0.190307	0.192279	0.195237	0.197374	0.148067
833	0.196552	0.192936	0.19458	0.199839	0.145602
834	0.195237	0.19458	0.192772	0.195073	0.152011
835	0.19836	0.193922	0.196552	0.194087	0.150697
836	0.194744	0.192608	0.192772	0.193429	0.15497
837	0.193922	0.19573	0.193429	0.192608	0.156778
838	0.191293	0.197867	0.194416	0.190307	0.158421
839	0.194744	0.194087	0.194909	0.197374	0.158586
840	0.195237	0.200168	0.196059	0.194087	0.161873
841	0.19573	0.195237	0.195895	0.194416	0.161544
842	0.19195	0.195895	0.195237	0.193758	0.162859
843	0.195566	0.194416	0.196223	0.169926	0.16401
844	0.196388	0.191786	0.196552	0.169762	0.166311
845	0.193922	0.190635	0.19836	0.170913	0.168283
846	0.197538	0.19458	0.197374	0.172063	0.170913
847	0.194744	0.194744	0.194087	0.174035	0.17157
848	0.193265	0.197045	0.199511	0.173542	0.172063
849	0.19573	0.199018	0.196552	0.176665	0.174857
850	0.198196	0.200661	0.196223	0.179295	0.17272
851	0.196717	0.19573	0.196552	0.179788	0.176336
852	0.199511	0.193758	0.19573	0.180116	0.175515
853	0.198196	0.199511	0.195895	0.177322	0.17913
854	0.198031	0.196552	0.196717	0.180116	0.177158
855	0.197867	0.197867	0.195566	0.178144	0.178802
856	0.199182	0.194744	0.194909	0.179295	0.18176
857	0.197703	0.196881	0.19573	0.177651	0.183897
858	0.195073	0.195073	0.19721	0.183568	0.181431
859	0.197538	0.200004	0.198689	0.188827	0.185376
860	0.198524	0.200497	0.200168	0.182746	0.180938
861	0.196223	0.195073	0.204441	0.18932	0.182746
862	0.196059	0.194744	0.198689	0.186691	0.187841
863	0.197374	0.197045	0.202962	0.187513	0.179623
864	0.196552	0.19836	0.203455	0.187019	0.18554
865	0.196552	0.197703	0.200332	0.19195	0.186198
866	0.196717	0.19721	0.200168	0.186198	0.187348
867	0.198853	0.198031	0.200332	0.188663	0.184554
868	0.198524	0.198853	0.198689	0.189814	0.183404
869	0.198031	0.197867	0.196552	0.190471	0.191457
870	0.196717	0.202633	0.195895	0.1908	0.187348
871	0.20099	0.199675	0.198524	0.187513	0.190307
872	0.203291	0.196059	0.201154	0.196552	0.191457
873	0.198689	0.195237	0.197703	0.196388	0.186033
874	0.196388	0.201154	0.200661	0.193758	0.1908
875	0.197045	0.198196	0.19836	0.191786	0.189485
876	0.198689	0.198689	0.20099	0.19573	0.188992
877	0.196388	0.199839	0.199511	0.1908	0.193594
878	0.196717	0.197867	0.20214	0.192936	0.195402
879	0.194251	0.198524	0.200004	0.192936	0.193101
880	0.19836	0.199182	0.205099	0.18817	0.194744
881	0.192772	0.198853	0.199346	0.195237	0.193101
882	0.196881	0.201647	0.201483	0.193594	0.191293
883	0.200168	0.199675	0.198196	0.196059	0.19836
884	0.20099	0.197374	0.200661	0.196223	0.195402
885	0.198689	0.20099	0.19573	0.196059	0.19573
886	0.20214	0.197045	0.196881	0.197045	0.193922
887	0.199511	0.198524	0.197867	0.197045	0.195895
888	0.200661	0.199346	0.195237	0.19573	0.198031
889	0.201483	0.199182	0.19836	0.195237	0.193594
890	0.198853	0.199182	0.199839	0.193101	0.192115
891	0.200825	0.195566	0.200168	0.197703	0.196223
892	0.197374	0.200825	0.200825	0.194909	0.194087
893	0.20099	0.20214	0.198853	0.194416	0.195073
894	0.199182	0.200497	0.199018	0.19195	0.198689
895	0.199346	0.202305	0.202305	0.195402	0.19573
896	0.199839	0.197538	0.198853	0.195073	0.198031
897	0.202305	0.198689	0.201154	0.195073	0.196388
898	0.199018	0.199511	0.200825	0.197045	0.002118
899	0.198689	0.195895	0.20099	0.19721	0.010171
900	0.199182	0.19836	0.200497	0.196059	0.02069
901	0.200661	0.199675	0.200168	0.198031	0.024964
902	0.201812	0.200497	0.20099	0.19836	0.03729
903	0.196223	0.203291	0.197045	0.195566	0.041235
904	0.198689	0.200497	0.197045	0.198689	0.049288
905	0.205263	0.199675	0.198196	0.197374	0.053562
906	0.200661	0.199018	0.19836	0.198524	0.061122
907	0.200168	0.198853	0.195895	0.196223	0.066053
908	0.205921	0.201647	0.202633	0.196223	0.068847
909	0.199511	0.195073	0.201154	0.197045	0.075914
910	0.199511	0.200661	0.198196	0.19721	0.08331
911	0.199675	0.199346	0.199346	0.195895	0.081502
912	0.199675	0.198031	0.201483	0.19836	0.087419
913	0.199839	0.200004	0.19836	0.197045	0.098267
914	0.200332	0.199511	0.19836	0.198853	0.098431
915	0.199018	0.197867	0.201812	0.198031	0.107635
916	0.200168	0.197045	0.20214	0.200497	0.107306
917	0.199346	0.199346	0.199839	0.199839	0.111744
918	0.201976	0.19721	0.200004	0.200004	0.113552
919	0.202798	0.201812	0.199675	0.199346	0.119962
920	0.201976	0.199675	0.200168	0.200168	0.117825
921	0.201647	0.200497	0.200661	0.200497	0.129495
922	0.202633	0.199346	0.199839	0.200168	0.122592
923	0.204113	0.200004	0.202305	0.196059	0.126865
924	0.19836	0.199182	0.199511	0.199018	0.129659
925	0.200332	0.199675	0.201154	0.200168	0.00031
926	0.199511	0.200497	0.199346	0.198689	0.005569
927	0.199839	0.200004	0.200661	0.20099	-1.9e-05
928	0.202305	0.201647	0.204277	0.198689	0.008035
929	0.194087	0.198853	0.199839	0.200168	0.017239
930	0.199839	0.20477	0.19836	0.198031	0.011158
931	0.202469	0.198031	0.200497	0.200497	0.00935
932	0.198689	0.200004	0.198196	0.198524	0.021512
933	0.200332	0.197867	0.20099	0.19573	0.005076
934	0.201483	0.201647	0.198524	0.202962	-0.001334
935	0.201154	0.199018	0.202469	0.197374	0.003926
936	0.202798	0.198196	0.202798	0.199346	0.00787
937	0.202305	0.199018	0.201647	0.201647	0.008528
938	0.202962	0.201319	0.198853	0.20099	0.013294
939	0.20214	0.200825	0.201647	0.199675	0.017567
940	0.202798	0.198853	0.20099	0.205263	0.021841
941	0.202798	0.201812	0.196552	0.196881	0.028908
942	0.202469	0.201483	0.201483	0.199018	0.031702
943	0.199675	0.199839	0.199018	0.198031	0.038276
944	0.20214	0.198853	0.200004	0.203948	0.045837
945	0.20214	0.200497	0.198031	0.200332	0.054383
946	0.201483	0.195402	0.201976	0.200497	0.058164
947	0.199511	0.201647	0.200497	0.199511	0.06671
948	0.201647	0.197703	0.200168	0.200497	0.015102
949	0.200661	0.200825	0.199182	0.201647	0.0105
950	0.201319	0.201812	0.203455	0.197703	0.018389
951	0.200332	0.200004	0.200825	0.203455	0.027758
952	0.20099	0.200004	0.199018	0.197538	0.033346
953	0.202962	0.200168	0.200168	0.201319	0.042221
954	0.198689	0.200661	0.200497	0.19573	0.047973
955	0.202633	0.201483	0.199675	0.197867	0.053726
956	0.200825	0.19573	0.199839	0.197703	0.059478
957	0.20099	0.201483	0.200825	0.20099	0.066217
958	0.199018	0.199018	0.198196	0.200661	0.071641
959	0.202305	0.196881	0.201483	0.200332	0.077558
960	0.20214	0.203291	0.201154	0.203126	0.082488
961	0.203291	0.196552	0.19721	0.202469	0.087748
962	0.199018	0.203948	0.200497	0.200168	0.089391
963	0.201319	0.201483	0.199346	0.200332	0.093336
964	0.198196	0.199839	0.201319	0.200497	0.100568
965	0.196717	0.201812	0.197867	0.199182	0.099746
966	0.197703	0.200497	0.200497	0.199511	0.107142
967	0.199018	0.20099	0.200168	0.199182	0.114702
968	0.197867	0.201976	0.203455	0.201812	0.114867
969	0.197045	0.197867	0.199675	0.201319	0.119633
970	0.200332	0.200004	0.201154	0.203455	0.120784
971	0.200168	0.200497	0.199839	0.203455	0.129823
972	0.199839	0.20099	0.201812	0.201812	0.129823
973	0.197703	0.203784	0.199839	0.197045	0.133439
974	0.201319	0.204934	0.200497	0.204934	0.13459
975	0.194909	0.202798	0.200825	0.198853	0.138863
976	0.199511	0.199675	0.201319	0.200661	0.140506
977	0.196388	0.202633	0.199018	0.199675	0.143465
978	0.198524	0.199675	0.199018	0.201319	0.143136
979	0.195237	0.199839	0.202962	0.201154	0.149053
980	0.193758	0.199839	0.197703	0.200825	0.147738
981	0.197703	0.201154	0.193429	0.201812	0.153655
982	0.19836	0.200661	0.200332	0.202962	0.154806
983	0.198524	0.203126	0.198689	0.203948	0.150532
984	0.200825	0.201483	0.200825	0.197538	0.155299
985	0.196552	0.199511	0.204441	0.203126	0.157764
986	0.194909	0.20214	0.20477	0.201647	0.160394
987	0.200661	0.199675	0.201976	0.199675	0.161215
988	0.195566	0.200168	0.200332	0.200497	0.164338
989	0.197374	0.197867	0.199018	0.201812	0.166804
990	0.196059	0.202305	0.199182	0.198689	0.169762
991	0.197374	0.198524	0.201483	0.201647	0.169433
992	0.198853	0.20099	0.19836	0.204934	0.171406
993	0.199511	0.20099	0.199511	0.205756	0.171077
994	0.19836	0.20099	0.199675	0.203784	0.174693
995	0.199182	0.192115	0.197703	0.196717	0.172227
996	0.200332	0.191621	0.200168	0.202633	0.174364
997	0.195402	0.192443	0.20099	0.201812	0.174528
998	0.198524	0.192772	0.202633	0.196223	0.176172
999	0.197703	0.192936	0.200661	0.200332	0.174693
1000	0.196881	0.193265	0.199839	0.199839	0.175021
1001	0.198524	0.190635	0.201976	0.19836	0.183239
1002	0.199182	0.191128	0.203291	0.201976	0.177815
1003	0.199182	0.191293	0.197867	0.201976	0.180774
1004	0.201812	0.192443	0.204277	0.202798	0.185047
1005	0.200004	0.192115	0.197374	0.197867	0.186198
1006	0.197374	0.19195	0.200332	0.201319	0.183568
1007	0.198196	0.191293	0.200825	0.200332	0.186855
1008	0.199346	0.189978	0.199675	0.199511	0.18439
1009	0.19836	0.190635	0.195402	0.198031	0.189156
1010	0.198196	0.188827	0.200825	0.201976	0.188334
1011	0.199346	0.192608	0.198853	0.204277	0.194416
1012	0.19836	0.192936	0.199018	0.197538	0.190635
1013	0.199346	0.193101	0.200661	0.202962	0.187513
1014	0.199182	0.192115	0.200661	0.201647	0.189814
1015	0.200661	0.198031	0.201812	0.20362	0.189978
1016	0.196552	0.193594	0.198524	0.199839	0.191293
1017	0.198196	0.197374	0.197538	0.204277	0.187677
1018	0.20099	0.201154	0.200332	0.197703	0.187513
1019	0.197045	0.194416	0.202469	0.203455	0.186691
1020	0.195566	0.200825	0.199182	0.198524	0.190635
1021	0.199346	0.193429	0.204606	0.201647	0.189649
1022	0.193429	0.195895	0.20099	0.200168	0.192115
1023	0.197045	0.194909	0.203126	0.199346	0.192115
1024	0.195073	0.198524	0.201483	0.204277	0.196881
1025	0.199511	0.194416	0.200004	0.205263	0.192443
1026	0.201154	0.198853	0.200661	0.203455	0.195237
1027	0.198689	0.196223	0.200168	0.203126	0.190964
1028	0.199182	0.197045	0.200168	0.201976	0.197867
1029	0.200661	0.196552	0.198689	0.200168	0.193922
1030	0.197374	0.196552	0.200004	0.206578	0.195073
1031	0.196388	0.196717	0.201976	0.201319	0.195237
1032	0.199182	0.19836	0.202469	0.202962	0.195566
1033	0.199346	0.199346	0.200332	0.200497	0.19721
1034	0.202962	0.19721	0.205756	0.203126	0.17157
1035	0.199182	0.197538	0.200332	0.197867	0.173378
1036	0.203455	0.193265	0.200661	0.203784	0.170255
1037	0.198689	0.199346	0.194909	0.198853	0.17535
1038	0.202469	0.196059	0.201319	0.197045	0.171899
1039	0.201647	0.200332	0.200825	0.203948	0.176336
1040	0.200661	0.200825	0.19721	0.199182	0.177322
1041	0.200497	0.196388	0.20099	0.201976	0.178637
1042	0.199182	0.193101	0.200825	0.201812	0.176336
1043	0.204441	0.200825	0.198524	0.199511	0.180281
1044	0.20099	0.19458	0.199511	0.202633	0.181267
1045	0.202633	0.196388	0.199511	0.205756	0.181267
1046	0.201483	0.199675	0.200004	0.201154	0.17535
1047	0.205592	0.193922	0.199182	0.204934	0.132782
1048	0.201976	0.196881	0.196552	0.200332	0.112237
1049	0.203784	0.198853	0.203291	0.204113	0.112566
1050	0.201319	0.198853	0.199018	0.197374	0.110593
1051	0.199018	0.203455	0.199018	0.204606	0.111908
1052	0.200004	0.197538	0.20099	0.197045	0.077065
1053	0.200661	0.197538	0.200168	0.195073	-0.001334
1054	0.194416	0.197045	0.19836	0.202633	0.010993
1055	0.199018	0.198031	0.201812	0.197045	0.022827
1056	0.200168	0.198524	0.199346	0.199018	0.02973
1057	0.199675	0.196059	0.196717	0.197703	0.034168
1058	0.20477	0.194251	0.201319	0.202305	0.043043
1059	0.201812	0.193594	0.196881	0.203126	0.04748
1060	0.202305	0.198031	0.199511	0.201154	0.044686
1061	0.200497	0.195237	0.198853	0.203455	0.029894
1062	0.201812	0.202469	0.199182	0.201647	0.004419
1063	0.20099	0.194744	0.201812	0.201647	0.008528
1064	0.204113	0.200661	0.200332	0.201976	0.014116
1065	0.198853	0.196552	0.203455	0.200661	0.021676
1066	0.20477	0.200497	0.203948	0.202305	0.028908
1067	0.202469	0.195402	0.199018	0.201812	0.001789
1068	0.20214	0.198689	0.199346	0.20099	0.00935
1069	0.203948	0.197538	0.198853	0.20099	0.022169
1070	0.20362	0.19836	0.200661	0.199182	0.025621
1071	0.201483	0.201812	0.203455	0.203291	0.032853
1072	0.205263	0.199675	0.205263	0.201483	0.032031
1073	0.206742	0.198031	0.198689	0.202305	0.042221
1074	0.200825	0.197374	0.202633	0.199839	0.04748
1075	0.209208	0.201483	0.201319	0.203455	0.056027
1076	0.204606	0.197374	0.199018	0.201319	0.062437
1077	0.200497	0.200332	0.202633	0.20099	0.068847
1078	0.199511	0.201812	0.202633	0.201483	0.073449
1079	0.198031	0.197374	0.198689	0.203784	0.076407
1080	0.201647	0.197538	0.201154	0.200497	0.074928
1081	0.201647	0.200661	0.204441	0.204113	0.075257
1082	0.200661	0.200825	0.199018	0.202962	0.077229
1083	0.204441	0.200004	0.202633	0.202305	0.072956
1084	0.201154	0.188827	0.19836	0.201647	0.060958
1085	0.20214	0.199182	0.201647	0.201976	0.060465
1086	0.201154	0.200332	0.198689	0.201647	0.069011
1087	0.200332	0.199839	0.201812	0.196552	0.072791
1088	0.201812	0.200825	0.204441	0.200168	0.081995
1089	0.201483	0.202633	0.20214	0.200168	0.082488
1090	0.196059	0.203291	0.201976	0.200168	0.088898
1091	0.202469	0.195237	0.200661	0.197703	0.092679
1092	0.20099	0.203126	0.202798	0.197703	0.098595
1093	0.199511	0.198196	0.199018	0.198853	0.107635
1094	0.200661	0.199182	0.202962	0.202305	0.106649
1095	0.200497	0.192443	0.199182	0.195073	0.109772
1096	0.196717	0.197538	0.20099	0.202633	0.109279
1097	0.200332	0.197045	0.202962	0.19836	0.118318
1098	0.205921	0.201319	0.200661	0.201647	0.119304
1099	0.200332	0.20099	0.201812	0.199182	0.127194
1100	0.20477	0.199018	0.196223	0.202633	0.124399
1101	0.202633	0.201319	0.198524	0.20214	0.129823
1102	0.20362	0.199839	0.199182	0.199018	0.132453
1103	0.204441	0.20362	0.200168	0.199346	0.136562
1104	0.20214	0.198853	0.19836	0.197867	0.138863
1105	0.199182	0.203455	0.197703	0.199346	0.138534
1106	0.202633	0.200004	0.197703	0.20099	0.140835
1107	0.198524	0.199346	0.202633	0.199675	0.143794
1108	0.19836	0.198853	0.204113	0.196223	0.14856
1109	0.201483	0.199018	0.203291	0.204277	0.149382
1110	0.197867	0.19836	0.201154	0.197538	0.153162
1111	0.200825	0.197867	0.205427	0.203126	0.157764
1112	0.197045	0.197374	0.199511	0.19721	0.162202
1113	0.151025	0.197867	0.201812	0.201483	0.157764
1114	0.137219	0.202469	0.20214	0.199511	0.159079
1115	0.105334	0.200332	0.203948	0.204113	0.148724
1116	0.111908	0.20362	0.20099	0.201812	0.161873
1117	0.00787	0.201812	0.199182	0.200661	0.161544
1118	0.013787	0.20099	0.201483	0.208057	0.164503
1119	0.023813	0.201647	0.200004	0.19836	0.166146
1120	0.03236	0.198689	0.200661	0.200661	0.167461
1121	0.04107	0.201976	0.197374	0.199346	0.169105
1122	0.044358	0.202798	0.20362	0.19836	0.172556
1123	0.052575	0.19721	0.199018	0.199018	0.170748
1124	0.05915	0.200825	0.200332	0.200332	0.171734
1125	0.057999	0.202798	0.199511	0.192279	0.17272
1126	0.06293	0.201647	0.198031	0.201647	0.16516
1127	0.071805	0.202469	0.202962	0.198031	0.175843
1128	0.075914	0.201647	0.201483	0.201976	0.177651
1129	0.080187	0.199839	0.201812	0.205427	0.17913
1130	0.085776	0.200661	0.205263	0.200661	0.178144
1131	0.095144	0.201154	0.203784	0.202962	0.180774
1132	0.098595	0.199839	0.200168	0.203291	0.179788
1133	0.103526	0.202962	0.201319	0.201647	0.182582
1134	0.108786	0.198524	0.200497	0.201319	0.181103
1135	0.047973	0.201647	0.198196	0.202469	0.178473
1136	0.056027	0.20362	0.199346	0.199018	0.179952
1137	0.061615	0.201976	0.199511	0.202305	0.185376
1138	0.065231	0.202469	0.200497	0.20099	0.178144
1139	0.072463	0.204934	0.19836	0.201812	0.18554
1140	0.074599	0.203455	0.196717	0.196881	0.18439
1141	0.081338	0.197374	0.197045	0.201319	0.186526
1142	0.084954	0.200168	0.19836	0.200332	0.187841
1143	0.090871	0.199182	0.20214	0.206907	0.186033
1144	0.092186	0.19721	0.199839	0.200332	0.191457
1145	0.100239	-0.000512	0.204934	0.203126	0.188006
1146	0.106649	0.009843	0.201976	0.209043	0.189814
1147	0.103691	0.018882	0.199511	0.200661	0.190635
1148	0.109279	0.029072	0.20362	0.202798	0.191621
1149	0.114702	0.034661	0.19836	0.206907	0.188663
1150	0.116182	0.044029	0.202469	0.204441	0.193758
1151	0.12177	0.0105	0.202305	0.18817	0.192115
1152	0.125057	0.017732	0.201154	0.199675	0.196223
1153	0.050274	0.025128	0.201319	0.19836	0.190142
1154	0.062601	0.002118	0.199018	0.201319	0.195237
1155	0.067861	-0.002648	0.199018	0.199511	0.196059
1156	0.071312	0.007542	0.19836	0.200497	0.192279
1157	0.075914	0.011486	0.195073	0.202305	0.197374
1158	0.080187	0.026278	0.197867	0.20214	0.193265
1159	0.082982	0.031373	0.197374	0.199675	0.194744
1160	0.089227	0.035811	0.200168	0.203455	0.192443
1161	0.094487	0.044029	0.201154	0.20099	0.200497
1162	0.095473	0.053233	0.203291	0.19458	0.197374
1163	0.100403	0.058328	0.201976	0.196717	0.197538
1164	0.105498	0.063423	0.202798	0.202633	0.19721
1165	0.1101	0.072463	0.203126	0.201483	0.196717
1166	0.111744	0.073778	0.204113	0.200332	0.194744
1167	0.119469	0.083968	0.200168	0.198853	0.199839
1168	0.124399	0.084625	0.201319	0.200332	0.194909
1169	0.125221	0.090871	0.200497	0.204277	0.200332
1170	0.129823	0.096788	0.199839	0.203291	0.200004
1171	0.131302	0.100075	0.200661	0.205756	0.196717
1172	0.132453	0.105005	0.198853	0.201647	0.199675
1173	0.136069	0.108621	0.204934	0.200825	0.198853
1174	0.135576	0.106649	0.198031	0.203291	0.198524
1175	0.139849	0.115195	0.200332	0.20362	0.198853
1176	0.147081	0.118811	0.201319	0.199018	0.20214
1177	0.14593	0.120619	0.200497	0.201483	0.198524
1178	0.147738	0.129001	0.198853	0.200332	0.202305
1179	0.152833	0.125221	0.202962	0.200661	0.20099
1180	0.151025	0.132124	0.202633	0.199346	0.201154
1181	0.154148	0.133275	0.203948	0.20362	0.203291
1182	0.155627	0.137055	0.20362	0.202633	0.20099
1183	0.159079	0.137055	0.203455	0.198853	0.200661
1184	0.159736	0.142643	0.201154	0.203455	0.203784
1185	0.16138	0.141821	0.199839	0.200332	0.201976
1186	0.164667	0.144287	0.201154	0.202469	0.20362
1187	0.164831	0.146423	0.199182	0.200825	0.206249
1188	0.16894	0.148724	0.19836	0.203291	0.201976
1189	0.169105	0.153491	0.191293	0.200825	0.206907
1190	0.173049	0.155956	0.199839	0.201976	0.200004
1191	0.170419	0.152176	0.198031	0.202798	0.205427
1192	0.172227	0.154312	0.196223	0.206742	0.201319
1193	0.173542	0.16138	0.198689	0.202305	0.204113
1194	0.174857	0.156778	0.200168	0.203291	0.20214
1195	0.173049	0.163845	0.200661	0.202469	0.203948
1196	0.176665	0.16253	0.203126	0.198031	0.202305
1197	0.176501	0.165982	0.20099	0.197538	0.204113
1198	0.180116	0.166146	0.198196	0.197703	0.201812
1199	0.048467	0.169598	0.202305	0.19836	0.203948
1200	0.054712	0.164996	0.201319	0.198524	0.20477
1201	0.061779	0.166639	0.200825	0.203455	0.206249
1202	0.066053	0.17157	0.198853	0.198031	0.206414
1203	0.07197	0.170255	0.202962	0.201812	0.206414
1204	0.07838	0.173214	0.198853	0.20362	0.206907
1205	0.08594	0.172885	0.202305	0.199839	0.205099
1206	0.090378	0.173707	0.202633	0.201319	0.208222
1207	0.095637	0.175021	0.198689	0.199675	0.203455
1208	0.096623	0.177158	0.19721	0.201319	0.20855
1209	0.096952	0.179623	0.200004	0.203126	0.205921
1210	0.098924	0.179952	0.200497	0.199839	0.204113
1211	0.106978	0.177322	0.196717	0.199182	0.205263
1212	0.109114	0.183404	0.199182	0.201154	0.209701
1213	0.110265	0.182417	0.199839	0.19836	0.202962
1214	0.115853	0.183075	0.20214	0.202469	0.205921
1215	0.116839	0.183568	0.200497	0.199346	0.204277
1216	0.124399	0.182746	0.206742	0.200661	0.202305
1217	0.12292	0.184718	0.200004	0.199511	0.205263
1218	0.130316	0.183897	0.203291	0.199346	0.205427
1219	0.131467	0.184554	0.201647	0.198031	0.203126
1220	0.130974	0.18554	0.20214	0.199182	0.204606
1221	0.13311	0.185047	0.203126	0.200168	0.206414
1222	0.140506	0.185376	0.199839	0.201647	0.208057
1223	0.142807	0.187348	0.198853	0.200004	0.207564
1224	0.14593	0.186198	0.199839	0.204606	0.205756
1225	0.149053	0.18932	0.198689	0.201976	0.207235
1226	0.148231	0.187677	0.199675	0.202305	0.203784
1227	0.151683	0.190635	0.202305	0.201483	0.203126
1228	0.149053	0.191293	0.201154	0.200825	0.204113
1229	0.153655	0.189814	0.201647	0.200497	0.206085
1230	0.15234	0.18932	0.202305	0.198031	0.203455
1231	0.157764	0.195402	0.205921	0.201319	0.204934
1232	0.160229	0.18817	0.203126	0.197867	0.203291
1233	0.164338	0.191293	0.202305	0.201154	0.204113
1234	0.160558	0.192443	0.200825	0.199346	0.205263
1235	0.165324	0.190142	0.20214	0.199839	0.202469
1236	0.163845	0.189978	0.197374	0.200661	0.2074
1237	0.166146	0.189485	0.201812	0.201483	0.212002
1238	0.175679	0.190964	0.202469	0.199018	0.204441
1239	0.168612	0.193594	0.196552	0.204113	0.203126
1240	0.133275	0.194087	0.203948	0.20099	0.20477
1241	0.134261	0.184225	0.202962	0.20362	0.202305
1242	0.138041	0.187513	0.200004	0.199839	0.203291
1243	0.140671	0.187841	0.201812	0.199182	0.201154
1244	0.144451	0.188827	0.200332	0.202633	0.20099
1245	0.142807	0.188827	0.198524	0.19836	0.200497
1246	0.147574	0.191621	0.202305	0.200168	0.204277
1247	0.14856	0.190307	0.200004	0.200004	0.199018
1248	0.150368	0.191293	0.20214	0.20362	0.199018
1249	0.160229	0.18817	0.204606	0.198853	0.200168
1250	0.154477	0.1908	0.200825	0.201976	0.197703
1251	0.154641	0.189814	0.201154	0.199018	0.196223
1252	0.157928	0.1908	0.203126	0.199018	0.197538
1253	0.1576	0.191457	0.196881	0.198689	0.197703
1254	0.156449	0.190635	0.200332	0.199839	0.198689
1255	0.161709	0.192608	0.200661	0.202305	0.199346
1256	0.163845	0.189814	0.201483	0.200661	0.200332
1257	0.164503	0.193101	0.199182	0.197867	0.200661
1258	0.169105	0.19195	0.20362	0.199511	0.194744
1259	0.170091	0.191621	0.201483	0.197703	0.199675
1260	0.170913	0.189978	0.199346	0.20099	0.196717
1261	0.167297	0.195237	0.200332	0.20362	0.197867
1262	0.168447	0.190964	0.200168	0.200661	0.193922
1263	0.176172	0.196717	0.202469	0.200497	0.194909
1264	0.169105	0.195073	0.201976	0.200661	0.194909
1265	0.176665	0.193265	0.201976	0.200497	0.190635
1266	0.174364	0.197703	0.199018	0.199675	0.194416
1267	0.172885	0.192443	0.200825	0.202469	0.191128
1268	0.17913	0.196552	0.203784	0.200332	0.192936
1269	0.177487	0.193429	0.202962	0.201812	0.196552
1270	0.176829	0.19721	0.200497	0.196388	0.194087
1271	0.175679	0.195237	0.202962	0.203784	0.191128
1272	0.18061	0.198689	0.200497	0.199839	0.196388
1273	0.181431	0.191293	0.20099	0.203126	0.195895
1274	0.184061	0.195237	0.20099	0.201319	0.196717
1275	0.184061	0.196552	0.201812	0.201647	0.193922
1276	0.181924	0.198689	0.201154	0.205099	0.190307
1277	0.178966	0.196717	0.198853	0.202305	0.192279
1278	0.184883	0.197867	0.201812	0.201483	0.193265
1279	0.186033	0.198853	0.196223	0.201976	0.194087
1280	0.186033	0.199018	0.202469	0.202305	0.193429
1281	0.187841	0.198196	0.202798	0.202305	0.193922
1282	0.183075	0.200168	0.202305	0.201483	0.192936
1283	0.18817	0.201812	0.199511	0.197703	0.192772
1284	0.189156	0.194416	0.203784	0.20362	0.191786
1285	0.188006	0.200497	0.200332	0.198031	0.195073
1286	0.188827	0.194416	0.202633	0.199675	0.192772
1287	0.18817	0.193922	0.201812	0.198524	0.195073
1288	0.189978	0.198031	0.200004	0.199346	0.188827
1289	0.189814	0.199839	0.202962	0.200825	0.195073
1290	0.191621	0.199839	0.203291	0.201976	0.192936
1291	0.193922	0.197703	0.203948	0.199839	0.193429
1292	0.191457	0.19721	0.201154	0.199675	0.195073
1293	0.188006	0.197538	0.202962	0.204113	0.19573
1294	0.190964	0.198196	0.199346	0.200004	0.195566
1295	0.193594	0.19721	0.202305	0.200332	0.193265
1296	0.194416	0.198689	0.200497	0.199511	0.194251
1297	0.194087	0.198689	0.196717	0.20477	0.194416
1298	0.190635	0.198853	0.201483	0.201647	0.193758
1299	0.19458	0.19721	0.201483	0.202305	0.195402
1300	0.192772	0.200497	0.199182	0.197867	0.194416
1301	0.19458	0.202633	0.202305	0.198689	0.192936
1302	0.192443	0.201483	0.200168	0.198689	0.19573
1303	0.195402	0.198524	0.199511	0.198689	0.194251
1304	0.180938	0.196881	0.200497	0.198689	0.191786
1305	0.188992	0.198689	0.199839	0.199018	0.196881
1306	0.197374	0.195402	0.201647	0.203126	0.195895
1307	0.194087	0.196223	0.202798	0.19836	0.194416
1308	0.196881	0.19836	0.20214	0.19836	0.200168
1309	0.19458	0.193265	0.205756	0.060958	0.19836
1310	0.196223	0.197703	0.200004	0.070983	0.196223
1311	0.195566	0.194909	0.200497	0.075585	0.195566
1312	0.19836	0.196881	0.202305	0.082324	0.194909
1313	0.195895	0.20214	0.197538	0.08594	0.19573
1314	0.198853	0.204113	0.203126	0.095144	0.194416
1315	0.185212	0.200332	0.202469	0.092843	0.194251
1316	0.198689	0.199182	0.200004	0.101554	0.196552
1317	0.199839	0.20099	0.202469	0.104019	0.195237
1318	0.197867	0.197703	0.200497	0.108621	0.192772
1319	0.193429	0.200497	0.203455	0.113716	0.196388
1320	0.198196	0.199346	0.207564	0.115031	0.194909
1321	0.199511	0.199018	0.200332	0.119797	0.197867
1322	0.198853	0.198031	0.200332	0.121277	0.195895
1323	0.200332	0.201154	0.202305	0.1267	0.200168
1324	0.195566	0.195402	0.200004	0.129823	0.197703
1325	0.201154	0.202305	0.202305	0.130645	0.196881
1326	0.189978	0.197538	0.201319	0.134754	0.198524
1327	0.193429	0.199018	0.201319	0.140835	0.196552
1328	0.201483	0.199182	0.202305	0.141986	0.195402
1329	0.200004	0.197374	0.198853	0.146423	0.197538
1330	0.199839	0.200004	0.196717	0.143794	0.198031
1331	0.203291	0.198031	0.209372	0.148724	0.197703
1332	0.199346	0.199346	0.19836	0.147903	0.200825
1333	0.199839	0.197867	0.199018	0.152505	0.197703
1334	0.200332	0.200661	0.201483	0.15234	0.199839
1335	0.196388	0.198853	0.200168	0.155463	0.197867
1336	0.205427	0.202469	0.20099	0.15612	0.201319
1337	0.191293	0.199346	0.200332	0.1576	0.194251
1338	0.198853	0.201154	0.200004	0.160065	0.191293
1339	0.196881	0.196388	0.200332	0.164996	0.19836
1340	0.199839	0.202798	0.200168	0.160065	0.19836
1341	0.198853	0.200004	0.202469	0.16138	0.19836
1342	0.198524	0.202633	0.204934	0.164667	0.200497
1343	0.200497	0.199511	0.197538	0.165489	0.201647
1344	0.201154	0.195402	0.202305	0.169105	0.201319
1345	0.199018	0.198524	0.199182	0.168776	0.20099
1346	0.202962	0.191457	0.200497	0.175021	0.19836
1347	0.201483	0.191457	0.199182	0.173214	0.20362
1348	0.194251	0.18932	0.200497	0.172392	0.199182
1349	0.195237	0.18817	0.199511	0.1742	0.203291
1350	0.201154	0.075421	0.202798	0.176501	0.199346
1351	0.199511	0.013952	0.199182	0.174857	0.199675
1352	0.200825	0.020362	0.20099	0.174857	0.198853
1353	0.20099	0.015431	0.197045	0.178637	0.19836
1354	0.197867	0.02069	0.193429	0.17798	0.196059
1355	0.196388	0.030223	0.199018	0.178802	0.200168
1356	0.199839	-1.9e-05	0.201154	0.179295	0.19836
1357	0.201319	-0.000347	0.198689	0.18439	0.200168
1358	0.198689	-0.000512	0.198524	0.18176	0.203126
1359	0.197045	-0.000512	0.202798	0.185705	0.199346
1360	0.196059	-0.000512	0.200004	0.185212	0.19721
1361	0.201976	-0.002155	0.202469	0.188827	0.198031
1362	0.201319	0.001789	0.200004	0.18554	0.202305
1363	0.200497	0.007542	0.203455	0.188499	0.198524
1364	0.201154	0.019047	0.192936	0.187513	0.198689
1365	0.201976	0.029401	0.200661	0.189156	0.198853
1366	0.201154	0.032688	0.201812	0.188827	0.199511
1367	0.201812	0.024635	0.197538	0.186033	0.199182
1368	0.203455	0.003433	0.201154	0.191621	0.199182
1369	0.200661	0.011651	0.199182	0.18932	0.197374
1370	0.20099	0.021512	0.20214	0.191128	0.19721
1371	0.202633	0.026771	0.200168	0.189978	0.198853
1372	0.202633	0.00031	0.201154	0.193922	0.198196
1373	0.203455	0.002282	0.202633	0.189814	0.20099
1374	0.200497	0.012637	0.201319	0.192608	0.198689
1375	0.199346	-0.00232	0.188663	0.189156	0.200497
1376	0.200661	0.005569	0.202962	0.194087	0.200004
1377	0.19573	-0.001827	0.200497	0.193922	0.205921
1378	0.203455	0.002447	0.202469	0.193594	0.199018
1379	0.196223	-0.000512	0.201319	0.197703	0.200332
1380	0.201319	-0.000676	0.198196	0.194744	0.198853
1381	0.203126	-0.000841	0.197374	0.196059	0.202305
1382	0.19836	0.005405	0.199839	0.195566	0.198853
1383	0.201812	-1.9e-05	0.20362	0.196388	0.199675
1384	0.202633	0.000967	0.197374	0.195402	0.203948
1385	0.206085	0.008035	0.202305	0.19573	0.199675
1386	0.200497	0.000803	0.187841	0.195237	0.198689
1387	0.202305	0.009021	0.199839	0.196881	0.201154
1388	0.201647	-0.001662	0.200004	0.192279	0.200332
1389	0.203455	0.004583	0.200004	0.196223	0.199675
1390	0.20214	0.010336	0.199346	0.192279	0.202633
1391	0.201154	0.005076	0.200168	0.195566	0.202305
1392	0.198853	0.005076	0.197045	0.194251	0.203784
1393	0.203455	0.005405	0.200004	0.196059	0.201319
1394	0.202962	0.006062	0.20099	0.195402	0.20099
1395	0.201154	0.004583	0.198689	0.196388	0.200332
1396	0.201319	0.005569	0.201319	0.198196	0.202962
1397	0.202633	0.000474	0.191457	0.196881	0.200004
1398	0.206085	0.010829	0.196881	0.198689	0.203126
1399	0.201483	0.000967	0.199839	0.195237	0.204606
1400	0.202469	0.012965	0.201154	0.200168	0.202798
1401	0.202469	-0.000347	0.201319	0.198853	0.202633
1402	0.202305	0.000146	0.200332	0.198689	0.201812
1403	0.201647	-0.00873	0.198524	0.198524	0.199675
1404	0.199182	-0.001169	0.197867	0.199018	0.202305
1405	0.19721	0.003761	0.19573	0.197703	0.199018
1406	0.202305	0.012144	0.200661	0.197538	0.200497
1407	0.195895	0.023484	0.197703	0.195895	0.201812
1408	0.201647	0.000146	0.193429	0.199675	0.200004
1409	0.199511	0.004583	0.195895	0.198689	0.203948
1410	0.199511	0.012637	0.199511	0.198689	0.196881
1411	0.199182	0.022498	0.203784	0.19836	0.20477
1412	0.198853	0.023649	0.19836	0.200661	0.202962
1413	0.199839	-0.001005	0.203126	0.200825	0.202962
1414	0.197703	0.000474	0.200004	0.200497	0.20214
1415	0.199182	0.003433	0.199182	0.200497	0.202962
1416	0.199839	-0.000183	0.200661	0.20099	0.200497
1417	0.198689	0.004255	0.201647	0.200168	0.202962
1418	0.200825	0.012308	0.198853	0.197045	0.200497
1419	0.200825	0.021019	0.201647	0.201976	0.20214
1420	0.200497	0.000146	0.196388	0.199182	0.200825
1421	0.205427	0.004912	0.201647	0.199018	0.200168
1422	0.20099	0.020526	0.19836	0.199511	0.20362
1423	0.20214	0.010829	0.200825	0.200004	0.201976
1424	0.200497	0.008692	0.200825	0.200825	0.204113
1425	0.197045	0.001296	0.199018	0.199675	0.199182
1426	0.196223	-0.000512	0.202633	0.201647	0.201647
1427	0.198689	0.003433	0.201812	0.200332	0.202469
1428	0.191457	-0.000183	0.203291	0.199675	0.2074
1429	0.189978	0.000146	0.201319	0.200168	0.204277
1430	0.196552	-0.000183	0.200497	0.201976	0.202305
1431	0.197538	-0.001498	0.194909	0.201647	0.203455
1432	0.200332	0.006227	0.202962	0.201154	0.204441
1433	0.19458	-0.001169	0.199675	0.201647	0.203455
1434	0.200497	0.002611	0.200661	0.203291	0.20362
1435	0.199675	-0.000676	0.200332	0.200332	0.204441
1436	0.200497	0.005734	0.201154	0.202305	0.201483
1437	0.198031	-0.000512	0.197703	0.201154	0.20214
1438	0.201319	0.004583	0.206578	0.202633	0.201976
1439	0.197374	0.000146	0.199182	0.200332	0.204606
1440	0.202305	0.002282	0.200168	0.19836	0.203126
1441	0.199675	0.000146	0.198031	0.196388	0.203784
1442	0.198031	0.003597	0.194416	0.200497	0.203784
1443	0.203126	-0.000183	0.203455	0.19836	0.204277
1444	0.19836	-0.000183	0.202962	0.196059	0.202633
1445	0.195895	-0.000512	0.200661	0.204113	0.201647
1446	0.192115	0.003268	0.20214	0.199675	0.203126
1447	0.199346	-1.9e-05	0.202962	0.202305	0.200661
1448	0.196223	0.010993	0.199182	0.200168	0.199675
1449	0.200661	0.003104	0.204441	0.20362	0.204277
1450	0.197538	0.007377	0.198689	0.206249	0.202305
1451	0.199511	0.001625	0.202469	0.204606	0.202962
1452	0.199346	-0.002648	0.202962	0.199675	0.20362
1453	0.201647	-0.000183	0.202305	0.202305	0.202962
1454	0.195566	0.002611	0.200168	0.198853	0.205921
1455	0.201647	0.006391	0.198853	0.200825	0.202469
1456	0.199675	0.007049	0.198031	0.199018	0.20362
1457	0.200168	0.003926	0.197538	0.200168	0.202962
1458	0.200004	0.018882	0.198689	0.200661	0.203126
1459	0.199839	0.022498	0.197374	0.203455	0.203948
1460	0.202633	0.029566	0.199511	0.202469	0.207071
1461	0.197538	0.034496	0.201812	0.199018	0.200661
1462	0.199182	0.039756	0.201154	0.200825	0.20362
1463	0.196388	0.032688	0.200004	0.199346	0.200332
1464	0.201647	0.037783	0.198853	0.201483	0.201812
1465	0.195895	0.047316	0.19836	0.200661	0.203455
1466	0.203126	0.051096	0.203455	0.203948	0.201976
1467	0.199675	0.058328	0.197703	0.205592	0.203784
1468	0.200661	0.063259	0.204441	0.20362	0.202469
1469	0.200004	0.069504	0.203126	0.202798	0.205427
1470	0.20099	0.020033	0.198853	0.202962	0.201647
1471	0.205592	0.028415	0.203455	0.202305	0.205592
1472	0.203291	0.034825	0.200661	0.20214	0.203291
1473	0.202305	0.042714	0.199018	0.20214	0.202633
1474	0.203455	0.046823	0.199346	0.200825	0.199511
1475	0.20099	0.054055	0.202962	0.200332	0.200004
1476	0.196881	0.0603	0.197538	0.205099	0.195566
1477	0.201976	0.067203	0.201812	0.202633	0.198031
1478	0.198524	0.07049	0.201319	0.204934	0.196388
1479	0.198031	0.007542	0.20099	0.201154	0.201812
1480	0.203291	0.018389	0.202633	0.201812	0.198524
1481	0.203784	0.023484	0.205921	0.202633	0.198524
1482	0.199018	0.03088	0.201483	0.199346	0.198853
1483	0.202798	0.036633	0.203126	0.202798	0.197867
1484	0.199675	0.041235	0.201976	0.199346	0.199018
1485	0.199675	0.051096	0.203126	0.202305	0.19836
1486	0.20099	0.057177	0.201319	0.201154	0.200825
1487	0.20099	0.063094	0.196552	0.201647	0.198853
1488	0.202469	0.068847	0.201319	0.201647	0.20099
1489	0.204606	0.072298	0.198031	0.202798	0.199182
1490	0.20214	0.079694	0.198524	0.20099	0.20214
1491	0.200825	0.085611	0.197045	0.196223	0.196717
1492	0.203126	0.088405	0.199182	0.201483	0.197045
1493	0.201976	0.091692	0.203291	0.201319	0.195237
1494	0.199675	0.096952	0.207235	0.200332	0.198031
1495	0.198196	0.101225	0.199346	0.199511	0.19573
1496	0.205592	0.106485	0.203291	0.201812	0.197045
1497	0.198524	0.110593	0.199675	0.200004	0.200661
1498	0.19836	0.11273	0.200825	0.201647	0.191293
1499	0.199182	0.118318	0.203291	0.203291	0.200004
1500	0.200825	0.120784	0.203455	0.201319	0.19573
1501	0.201154	0.123249	0.202305	0.19573	0.19836
1502	0.199675	0.124728	0.202469	0.198524	0.197867
1503	0.201647	0.13196	0.200004	0.200661	0.197045
1504	0.198196	0.13311	0.200168	0.201647	0.196552
1505	0.200661	0.135083	0.201319	0.200168	0.199839
1506	0.201647	0.137548	0.199675	0.199346	0.197374
1507	0.200168	0.139356	0.201319	0.201812	0.199675
1508	0.20099	0.13952	0.200004	0.199018	0.199511
1509	0.200661	0.143794	0.200497	0.203948	0.199675
1510	0.196552	0.145766	0.199511	0.200825	0.199675
1511	0.203784	0.15234	0.201812	0.20099	0.196388
1512	0.200332	0.152505	0.200004	0.203948	0.196388
1513	0.20099	0.155463	0.199346	0.202305	0.195402
1514	0.201154	0.162037	0.198689	0.198196	0.194251
1515	0.199675	0.154477	0.204113	0.199675	0.193594
1516	0.199182	0.157928	0.203455	0.200332	0.197538
1517	0.201812	0.16138	0.203455	0.200825	0.190964
1518	0.19836	0.163188	0.202469	0.20099	0.199182
1519	0.198524	0.163516	0.203455	0.200661	0.195237
1520	0.200661	0.166804	0.201154	0.201319	0.194416
1521	0.203126	0.163516	0.200168	0.202305	0.194744
1522	0.20477	0.166475	0.202305	0.203126	0.198031
1523	0.200332	0.165817	0.199675	0.201812	0.196881
1524	0.201154	0.172556	0.200661	0.202633	0.197703
1525	0.201483	0.17272	0.198853	0.200004	0.196552
1526	0.199511	0.170748	0.20477	0.204606	0.196223
1527	0.197867	0.174857	0.198853	0.20214	0.195237
1528	0.203126	0.175679	0.202633	0.202633	0.196552
1529	0.199839	0.176665	0.199839	0.202469	0.200004
1530	0.205427	0.177815	0.200004	0.203784	0.193594
1531	0.199018	0.180281	0.206414	0.199346	0.197374
1532	0.198853	0.176008	0.205756	0.202305	0.195895
1533	0.201483	0.182253	0.203291	0.201319	0.199182
1534	0.201154	0.18061	0.204277	0.198524	0.196717
1535	0.199182	0.182911	0.201976	0.202633	0.19721
1536	0.203126	0.184718	0.201154	0.198031	0.196881
1537	0.201154	0.182746	0.202962	0.204934	0.198689
1538	0.201483	0.179952	0.200497	0.197867	0.198031
1539	0.201976	0.187019	0.20099	0.20099	0.199839
1540	0.200168	0.184718	0.198689	0.200004	0.202305
1541	0.200497	0.186198	0.202962	0.198853	0.19458
1542	0.197045	0.188499	0.200168	0.19836	0.19836
1543	0.202798	0.183404	0.205263	0.20477	0.197703
1544	0.202962	0.18932	0.200168	0.201319	0.197703
1545	0.205427	0.18932	0.200661	0.202305	0.197867
1546	0.202962	0.188334	0.199511	0.201154	0.199839
1547	0.182089	0.188992	0.198524	0.200168	0.197045
1548	0.175186	0.19195	0.199839	0.20214	0.197374
1549	0.178637	0.189649	0.20099	0.199675	0.194744
1550	0.178144	0.19195	0.203784	0.198031	0.200168
1551	0.176008	0.191128	0.200825	0.194251	0.197867
1552	0.183075	0.191128	0.20477	0.199346	0.196388
1553	0.177487	0.192279	0.199839	0.197045	0.198853
1554	0.183239	0.191457	0.201319	0.201647	0.201976
1555	0.182582	0.192443	0.198689	0.199182	0.201976
1556	0.185705	0.191128	0.203291	0.203291	0.199675
1557	0.182746	0.191128	0.197703	0.198196	0.145602
1558	0.187019	0.189978	0.198196	0.207235	0.145766
1559	0.184061	0.1908	0.201319	0.203455	0.148396
1560	0.186526	0.192772	0.201483	0.202962	0.146095
1561	0.186033	0.198689	0.20099	0.203126	0.049288
1562	0.188992	0.195237	0.201647	0.202798	0.056684
1563	0.186362	0.197045	0.202305	0.201647	0.061779
1564	0.188006	0.197538	0.204113	0.200825	0.068189
1565	0.19195	0.19458	0.20362	0.19836	0.071312
1566	0.188499	0.195566	0.202305	0.200825	0.074435
1567	0.19195	0.198524	0.202633	0.200168	0.08709
1568	0.190307	0.195402	0.200825	0.198853	0.089227
1569	0.192279	0.198689	0.201319	0.202305	0.090049
1570	0.189485	0.195566	0.202305	0.203126	0.097445
1571	0.192608	0.197703	0.201976	0.199346	0.10254
1572	0.192772	0.195895	0.199839	0.199839	0.107142
1573	0.191293	0.196717	0.202305	0.201976	0.114209
1574	0.189156	0.19836	0.202962	0.199182	0.115689
1575	0.19195	0.197374	0.201154	0.20477	0.119304
1576	0.193101	0.194416	0.200661	0.205099	0.123906
1577	0.193429	0.195237	0.201483	0.204441	0.126207
1578	0.194087	0.200004	0.198853	0.202305	0.079366
1579	0.196388	0.195895	0.200332	0.204441	0.001296
1580	0.197703	0.200168	0.199346	0.203784	0.012801
1581	0.189978	0.196881	0.199018	0.202962	0.01954
1582	0.188663	0.199018	0.203126	0.201154	0.027922
1583	0.190307	0.19721	0.203948	0.200004	0.033346
1584	0.191786	0.199839	0.203784	0.200497	0.044522
1585	0.19195	0.198853	0.201976	0.199346	0.048467
1586	0.194909	0.200661	0.201319	0.201319	0.057506
1587	0.19458	0.200497	0.201319	0.203948	0.061451
1588	0.194744	0.199511	0.202962	0.194909	0.06934
1589	0.1908	0.198524	0.198196	0.200004	0.076572
1590	0.19458	0.197703	0.203291	0.202305	0.079859
1591	0.195402	0.194416	0.200497	0.199018	0.083639
1592	0.193429	0.200004	0.202798	0.200004	0.085447
1593	0.19195	0.200168	0.202469	0.198689	0.099417
1594	0.196223	0.197045	0.201647	0.202633	0.097774
1595	0.19836	0.199018	0.19721	0.201812	0.109114
1596	0.195402	0.197538	0.201812	0.20214	0.109772
1597	0.198524	0.198853	0.19836	0.203126	0.026771
1598	0.198853	0.199511	0.199018	0.20099	0.03351
1599	0.196717	0.201483	0.200497	0.20099	0.038112
1600	0.194744	0.199018	0.19573	0.197374	0.042878
1601	0.197374	0.201483	0.198689	0.199182	0.053726
1602	0.186691	0.200497	0.195237	0.201319	0.054876
1603	0.18554	0.199675	0.202633	0.20362	0.062437
1604	0.186526	0.200825	0.201483	0.197374	0.068847
1605	0.186855	0.199839	0.197703	0.200332	0.073778
1606	0.007706	0.195237	0.202305	0.200497	0.080023
1607	0.011486	0.197374	0.203291	0.199675	0.083639
1608	0.019211	0.195402	0.199182	0.201647	0.091528
1609	0.034661	0.193922	0.200168	0.202305	0.096623
1610	0.034825	0.196881	0.201483	0.200497	0.100732
1611	0.042221	0.198031	0.202305	0.204113	0.104512
1612	0.051589	0.202962	0.201812	0.202962	0.105992
1613	0.057999	0.196717	0.20099	0.204606	0.056027
1614	0.062766	0.200004	0.202962	0.200825	0.060793
1615	0.068189	0.198689	0.199346	0.198689	0.066217
1616	0.076572	0.200004	0.202798	0.203126	0.070162
1617	0.079366	0.202469	0.199018	0.199346	0.078215
1618	0.086269	0.203455	0.204113	0.200825	0.080681
1619	0.090049	0.201483	0.19721	0.201812	0.084954
1620	0.094487	0.200661	0.20362	0.201812	0.085611
1621	0.093993	0.207071	0.199675	0.197538	0.090378
1622	0.099582	0.20214	0.202305	0.202798	0.009514
1623	0.107306	0.202633	0.200661	0.201319	0.016581
1624	0.111087	0.203291	0.203291	0.202469	0.027593
1625	0.11158	0.199839	0.203126	0.202633	0.031209
1626	0.117168	0.198853	0.203126	0.201154	0.03729
1627	0.116346	0.200661	0.202305	0.202633	0.047809
1628	0.066546	0.199839	0.201647	0.205756	0.050439
1629	0.068025	0.201154	0.20477	0.201812	0.065888
1630	0.07197	0.19836	0.200168	0.202305	0.06408
1631	0.064245	0.204277	0.201483	0.202633	0.071805
1632	0.061286	0.200825	0.197538	0.198031	0.077229
1633	0.065724	0.201812	0.198853	0.203455	0.080187
1634	0.017239	0.201976	0.199182	0.201319	0.083803
1635	0.025292	0.20477	0.199839	0.201319	0.089227
1636	0.029566	0.200168	0.20099	0.20214	0.093007
1637	0.035975	0.202469	0.201647	0.200661	0.096459
1638	0.04255	0.20477	0.200168	0.199346	0.102704
1639	0.00409	0.202305	0.200332	0.201976	0.105663
1640	0.009021	0.198031	0.202962	0.199018	0.109114
1641	0.025292	0.197045	0.20362	0.19836	0.116017
1642	0.025621	0.196223	0.198689	0.201154	0.117496
1643	-0.001334	0.200332	0.204934	0.193429	0.124235
1644	0.011322	0.197538	0.20362	0.203126	0.128015
1645	0.018225	0.199018	0.196881	0.201483	0.128344
1646	0.007049	0.202305	0.201647	0.202469	0.134918
1647	0.002118	0.196223	0.202469	0.202469	0.135411
1648	0.010664	0.200661	0.202798	0.201647	0.136562
1649	0.018554	0.200661	0.202305	0.20099	0.140178
1650	0.027758	0.203948	0.20362	0.201812	0.140506
1651	0.034989	0.197538	0.200168	0.199839	0.140013
1652	0.042221	0.202305	0.198524	0.203455	0.145273
1653	0.045344	0.202469	0.195895	0.201483	0.150697
1654	0.05011	0.20099	0.200332	0.199182	0.150204
1655	0.055534	0.203948	0.198196	0.199346	0.153819
1656	0.0603	0.194087	0.199018	0.198853	0.153162
1657	0.064738	0.199675	0.20099	0.200497	0.159408
1658	0.00409	0.195566	0.205099	0.201976	0.153162
1659	0.011486	0.199182	0.200497	0.19836	0.159408
1660	0.017403	0.197374	0.204277	0.200497	0.161051
1661	0.028579	0.198689	0.203126	0.202305	0.164503
1662	0.028086	0.197703	0.200661	0.202305	0.161544
1663	0.0105	0.200825	0.201154	0.20477	0.164831
1664	0.022005	0.200332	0.199675	0.202798	0.165324
1665	0.026607	0.201319	0.199675	0.202305	0.16894
1666	0.025785	0.201647	0.200168	0.202962	0.165817
1667	0.038112	0.201154	0.200004	0.20362	0.168118
1668	0.034989	0.202305	0.20099	0.200661	0.176994
1669	0.037619	0.201647	0.203784	0.202962	0.171077
1670	0.039427	0.199839	0.201154	0.201647	0.174035
1671	0.019047	0.201483	0.199018	0.20214	0.176829
1672	0.027922	0.202305	0.202798	0.198524	0.174528
1673	0.035811	0.197538	0.20099	0.201812	0.176501
1674	0.040413	0.201647	0.201812	0.202305	0.180116
1675	0.046001	0.202469	0.201647	0.201647	0.177158
1676	0.053069	0.202633	0.203948	0.199511	0.180281
1677	0.057013	0.200497	0.200332	0.199182	0.18176
1678	0.062766	0.198853	0.203291	0.201647	0.180281
1679	0.071148	0.203784	0.202469	0.199018	0.182253
1680	0.075585	0.199182	0.20477	0.201812	0.186362
1681	0.07953	0.199346	0.203784	0.200332	0.18439
1682	0.084296	0.199839	0.205427	0.200825	0.185376
1683	0.093336	0.199839	0.200497	0.200004	0.188827
1684	0.096294	0.198031	0.203455	0.201154	0.187513
1685	0.100075	0.20362	0.199182	0.201154	0.191293
1686	0.107142	0.167297	0.200332	0.202469	0.18817
1687	0.109443	0.175515	0.19836	0.199839	0.187841
1688	0.112073	0.171899	0.19836	0.201154	0.191457
1689	0.116017	0.175186	0.202305	0.200497	0.188992
1690	0.117168	0.177158	0.202305	0.200332	0.18554
1691	0.122263	0.179295	0.204113	0.202633	0.191293
1692	0.123906	0.178966	0.200497	0.19836	0.188334
1693	0.125879	0.179788	0.202633	0.199018	0.190471
1694	0.128344	0.178966	0.201976	0.200168	0.191457
1695	0.132946	0.181431	0.201647	0.19836	0.190964
1696	0.133439	0.180938	0.199182	0.198031	0.192772
1697	0.139356	0.182746	0.204606	0.203948	0.194909
1698	0.140178	0.183239	0.204606	0.198031	0.192115
1699	0.141986	0.183075	0.20362	0.20362	0.194909
1700	0.144451	0.182746	0.204606	0.201154	0.193758
1701	0.148067	0.183568	0.20099	0.204277	0.192443
1702	0.148396	0.185212	0.202305	0.203948	0.195895
1703	0.155956	0.183075	0.200332	0.19836	0.194909
1704	0.156613	0.187513	0.199511	0.197867	0.196223
1705	0.1576	0.187348	0.197703	0.198524	0.194251
1706	0.158586	0.189156	0.199182	0.198031	0.195895
1707	0.15875	0.18439	0.197538	0.197703	0.195402
1708	0.160722	0.186855	0.200004	0.199511	0.195566
1709	0.160887	0.191293	0.19836	0.201812	0.19458
1710	0.164174	0.18932	0.198196	0.200497	0.196388
1711	0.165817	0.18932	0.201319	0.199346	0.193922
1712	0.167461	0.187184	0.205099	0.200497	0.196388
1713	0.165489	0.192115	0.199018	0.199346	0.19573
1714	0.169762	0.191457	0.205263	0.20099	0.191786
1715	0.168612	0.1908	0.201647	0.200825	0.195895
1716	0.171077	0.1908	0.20214	0.202633	0.196223
1717	0.17535	0.190471	0.203126	0.202962	0.197538
1718	0.174693	0.191786	0.20099	0.200661	0.195402
1719	0.177322	0.19195	0.201319	0.203784	0.201976
1720	0.176172	0.189978	0.198853	0.201319	0.197045
1721	0.177487	0.195073	0.200661	0.203784	0.200661
1722	0.174857	0.193922	0.196552	0.202798	0.197867
1723	0.179623	0.198853	0.20362	0.203291	0.195895
1724	0.176336	0.192936	0.202305	0.200004	0.199675
1725	0.178966	0.199839	0.202962	0.199018	0.194416
1726	0.181596	0.193594	0.200661	0.198689	0.194909
1727	0.181596	0.198031	0.202962	0.203291	0.198689
1728	0.183239	0.197374	0.201483	0.19721	0.197538
1729	0.185047	0.19458	0.200497	0.200332	0.199839
1730	0.180938	0.194909	0.201154	0.200168	0.19836
1731	0.187019	0.198196	0.20362	0.199675	0.197538
1732	0.18554	0.198689	0.201154	0.202305	0.200825
1733	0.187184	0.193101	0.200661	0.201319	0.197374
1734	0.187841	0.196881	0.206907	0.202633	0.199675
1735	0.181431	0.194087	0.202469	0.200661	0.20099
1736	0.189156	0.196059	0.199839	0.200661	0.197538
1737	0.185047	0.19458	0.200332	0.200661	0.198031
1738	0.188992	0.196388	0.204113	0.202305	0.198524
1739	0.190142	0.195895	0.200825	0.200168	0.199018
1740	0.192936	0.195566	0.200825	0.203126	0.19836
1741	0.192936	0.195237	0.199839	0.201483	0.19836
1742	0.195402	0.20214	0.201319	0.204606	0.197374
1743	0.194087	0.19721	0.199346	0.201976	0.198689
1744	0.192115	0.19836	0.20099	0.200661	0.196059
1745	0.192608	0.202633	0.202469	0.199511	0.197703
1746	0.191293	0.194909	0.205592	0.202798	0.197867
1747	0.191786	0.203455	0.202962	0.198689	0.199346
1748	0.195237	0.200004	0.203126	0.20099	0.195566
1749	0.190471	0.199018	0.202305	0.198031	0.198524
1750	0.189814	0.199182	0.202798	0.200004	0.196388
1751	0.193101	0.197538	0.201976	0.199346	0.200004
1752	0.192443	0.195402	0.200825	0.200004	0.19721
1753	0.196059	0.200825	0.201154	0.197867	0.198689
1754	0.196388	0.19721	0.197538	0.197374	0.192608
1755	0.193922	0.196717	0.202798	0.203455	0.195402
1756	0.19458	0.195895	0.204934	0.197703	0.196059
1757	0.194909	0.197703	0.20099	0.201812	0.196059
1758	0.193922	0.197867	0.199346	0.198196	0.19573
1759	0.19721	0.196552	0.20099	0.20214	0.199675
1760	0.195402	0.200332	0.200332	0.199511	0.196717
1761	0.195566	0.200332	0.200004	0.202633	0.196059
1762	0.195895	0.201319	0.200661	0.19458	0.199346
1763	0.195237	0.200825	0.199182	0.200004	0.195895
1764	0.195073	0.202798	0.200825	0.199511	0.200332
1765	0.196388	0.202962	0.201647	0.199839	0.199675
1766	0.19458	0.198689	0.20362	0.201483	0.197374
1767	0.196552	0.194909	0.203126	0.200332	0.196552
1768	0.196552	0.199346	0.204277	0.20099	0.198853
1769	0.195237	0.200332	0.202469	0.201319	0.195895
1770	0.197703	0.199018	0.204934	0.200661	0.198853
1771	0.198031	0.198853	0.198524	0.201154	0.196059
1772	0.20099	0.200004	0.201483	0.202633	0.198196
1773	0.192936	0.201812	0.201812	0.20099	0.199346
1774	0.196552	0.201154	0.202962	0.204441	0.200661
1775	0.196059	0.20362	0.199675	0.193922	0.199675
1776	0.19836	0.201647	0.201319	0.203784	0.202305
1777	0.197374	0.200497	0.19721	0.200497	0.199182
1778	0.201483	0.192115	0.198524	0.198853	0.196388
1779	0.200497	0.201812	0.199018	0.201154	0.200004
1780	0.197045	0.200168	0.200497	0.200825	0.199511
1781	0.197045	0.199346	0.200497	0.198524	0.201976
1782	0.198196	0.200661	0.199675	0.200661	0.192608
1783	0.196552	0.203455	0.20099	0.20099	0.198853
1784	0.197538	0.201647	0.200004	0.199346	0.201483
1785	0.193758	0.203948	0.199675	0.199346	0.195073
1786	0.196881	0.201154	0.199675	0.201812	0.198689
1787	0.200168	0.20362	0.20099	0.200332	0.207071
1788	0.199346	0.201483	-0.000183	0.200168	0.195402
1789	0.200168	0.19458	0.003268	0.201976	0.200497
1790	0.19836	0.200168	0.005569	0.19836	0.200825
1791	0.206578	0.201647	0.016088	0.202962	0.198196
1792	0.200661	0.203126	0.02069	0.199839	0.202469
1793	0.202798	0.201976	0.028086	0.202633	0.196717
1794	0.200168	0.203126	0.034003	0.20099	0.200497
1795	0.201976	0.204441	0.037783	0.201319	0.199182
1796	0.198853	0.20477	0.045837	0.20099	0.199675
1797	0.199839	0.207071	0.04896	0.199182	0.198196
1798	0.200825	0.207071	0.057671	0.196223	0.201812
1799	0.200004	0.205756	0.060958	0.202305	0.195073
1800	0.199511	0.204934	0.01428	0.197538	0.197703
1801	0.19836	0.202305	0.00409	0.19721	0.198524
1802	0.198689	0.203126	-0.000512	0.197045	0.198031
1803	0.198031	0.202305	-0.000512	0.197703	0.199346
1804	0.199018	0.201976	-0.000841	0.200661	0.201154
1805	0.19836	0.20099	0.001132	0.197374	0.201812
1806	0.201483	0.200825	-0.000183	0.2074	0.205099
1807	0.195073	0.201812	-1.9e-05	0.200168	0.205263
1808	0.201812	0.202798	-1.9e-05	0.201976	0.198853
1809	0.202633	0.20477	0.000146	0.203126	0.190964
1810	0.202798	0.203948	0.000639	0.20099	0.198853
1811	0.203784	0.20362	0.004583	0.20099	0.200168
1812	0.200661	0.203948	-0.000183	0.201812	0.199839
1813	0.202305	0.205099	0.012965	0.197703	0.199675
1814	0.199839	0.203784	0.015102	0.198031	0.199018
1815	0.201976	0.207071	0.028251	0.19836	0.196717
1816	0.20099	0.205592	0.033674	0.200168	0.196552
1817	0.202305	0.211509	0.039098	0.201154	0.19836
1818	0.19721	0.205756	0.046823	0.197867	0.016417
1819	0.202633	0.206249	0.053397	0.201319	0.026278
1820	0.199675	0.207564	0.058492	0.198524	0.025292
1821	0.20477	0.209372	0.067368	0.200825	0.042057
1822	0.203784	0.203291	0.069504	0.200661	0.049946
1823	0.20214	0.203948	0.074599	0.206249	0.055863
1824	0.200332	0.205427	0.085283	0.196552	0.063094
1825	0.203291	0.207235	0.081338	0.204277	0.067368
1826	0.200004	0.207728	0.010171	0.20214	0.074435
1827	0.203784	0.203784	-0.00873	0.201483	0.077722
1828	0.203784	0.206085	-0.001662	0.201647	0.087419
1829	0.198031	0.203291	0.008857	0.202305	0.088077
1830	0.203948	0.20855	0.019211	0.203455	0.0935
1831	0.202633	0.20477	0.026278	0.198853	0.094487
1832	0.203455	0.207893	0.034003	0.203455	0.105334
1833	0.200661	0.206578	0.039756	0.199839	0.104841
1834	0.201319	0.206085	0.04633	0.201154	0.108293
1835	0.200168	0.20477	0.053562	0.192443	0.119304
1836	0.206085	0.203455	0.061944	0.200168	0.120126
1837	0.203948	0.203291	0.046823	0.198524	0.118976
1838	0.20362	0.204113	0.064738	0.19721	0.125057
1839	0.200497	0.203784	0.065231	0.198853	0.12818
1840	0.196223	0.203455	0.07312	0.200661	0.133275
1841	0.200168	0.20362	0.076572	0.19721	0.13459
1842	0.205756	0.203455	0.079859	0.200332	0.133932
1843	0.202305	0.207893	0.084625	0.198853	0.141986
1844	0.203948	0.200168	0.090378	0.202962	0.140506
1845	0.203455	0.203126	0.09498	0.1908	0.14215
1846	0.203784	0.200497	0.099253	0.197538	0.147903
1847	0.207893	0.201319	0.105663	0.203126	0.149217
1848	0.203455	0.205263	0.107306	0.198689	0.148231
1849	0.20362	0.204441	0.113716	0.200004	0.150532
1850	0.20362	0.201812	0.114045	0.199675	0.151025
1851	0.202305	0.204113	0.119469	0.199675	0.153655
1852	0.202798	0.205921	0.120948	0.19573	0.160229
1853	0.20362	0.203126	0.128015	0.200497	0.160065
1854	0.205427	0.201154	0.129988	0.197045	0.160229
1855	0.206085	0.203126	0.132782	0.202633	0.155956
1856	0.20099	0.20099	0.132124	0.192443	0.121934
1857	0.202305	0.198524	0.14215	0.200168	0.002447
1858	0.203291	0.201647	0.142643	0.201812	0.015266
1859	0.202798	0.197867	0.139849	0.20477	0.020197
1860	0.204934	0.199018	0.14478	0.202469	0.03088
1861	0.202305	0.195237	0.147574	0.20099	0.035975
1862	0.20099	0.198689	0.150861	0.201976	0.045015
1863	0.204277	0.200004	0.151683	0.200332	0.047645
1864	0.205263	0.199511	0.155627	0.201976	0.055041
1865	0.202469	0.200168	0.153162	0.200661	0.059314
1866	0.205756	0.203126	0.161873	0.204113	0.064574
1867	0.201319	0.199346	0.161051	0.195237	0.070655
1868	0.204113	0.196223	0.16138	0.199675	0.074764
1869	0.202798	0.196881	0.165489	0.199675	0.082653
1870	0.202469	0.193429	0.166475	0.200661	0.085611
1871	0.198689	0.197045	0.172063	0.197703	0.094322
1872	0.20099	0.19573	0.169269	0.198853	0.097281
1873	0.200168	0.19573	0.172063	0.204277	0.102047
1874	0.199839	0.199346	0.174364	0.202962	0.105498
1875	0.200332	0.196059	0.175679	0.201319	0.111251
1876	0.200332	0.193429	0.17535	0.20214	0.113552
1877	0.20214	0.197045	0.176665	0.201812	0.118154
1878	0.196717	0.19721	0.179788	0.200497	0.120455
1879	0.201647	0.194251	0.180281	0.200661	0.124893
1880	0.200168	0.194251	0.179459	0.199675	0.126043
1881	0.204934	0.194251	0.18439	0.202962	0.12818
1882	0.195895	0.19195	0.180281	0.199675	0.128673
1883	0.203948	0.194251	0.18439	0.202305	0.129659
1884	0.197703	0.193429	0.182911	0.201812	0.123249
1885	0.202962	0.195237	0.185869	0.20099	0.127522
1886	0.205427	0.196223	0.189978	0.193594	0.135576
1887	0.200497	0.192443	0.188663	0.199511	0.136069
1888	0.201812	0.19573	0.189485	0.199511	0.136891
1889	0.197374	0.19573	0.190307	0.198853	0.141164
1890	0.196552	0.193922	0.192115	0.199182	0.144451
1891	0.195237	0.192279	0.192443	0.199839	0.144451
1892	0.195237	0.192443	0.19573	0.204441	0.150697
1893	0.19458	0.192443	0.193922	0.194744	0.150204
1894	0.199675	0.196552	0.194087	0.202798	0.155134
1895	0.196717	0.191457	0.192936	0.200825	0.154312
1896	0.197703	0.192443	0.196388	0.200004	0.158093
1897	0.19836	0.193429	0.199346	0.200332	0.160394
1898	0.200004	0.192772	0.198524	0.203126	0.158914
1899	0.201154	0.192443	0.194416	0.201976	0.162037
1900	0.19721	0.195237	0.199018	0.199346	0.158914
1901	0.19721	0.192115	0.197045	0.201812	0.163352
1902	0.199839	0.192279	0.195237	0.198853	0.163516
1903	0.197538	0.195895	0.199018	0.196881	0.161873
1904	0.191621	0.192279	0.200661	0.200168	0.163516
1905	0.196717	0.197374	0.198196	0.198196	0.169926
1906	0.192936	0.19195	0.201319	0.200004	0.167132
1907	0.195402	0.194087	0.204441	0.194416	0.176008
1908	0.195895	0.189156	0.20477	0.200497	0.174035
1909	0.195895	0.193265	0.210029	0.2074	0.176994
1910	0.193594	0.192443	0.204441	0.198853	0.178144
1911	0.195237	0.192772	0.205263	0.199018	0.177651
1912	0.194251	0.191128	0.205099	0.201647	0.17798
1913	0.19573	0.190635	0.2074	0.204113	0.177815
1914	0.195402	0.191293	0.205921	0.201812	0.178637
1915	0.198196	0.191128	0.209208	0.199182	0.174693
1916	0.197045	0.19195	0.204606	0.20099	0.182746
1917	0.197374	0.192772	0.207564	0.203126	0.177815
1918	0.197538	0.196388	0.205756	0.199839	0.180281
1919	0.198689	0.194416	0.2074	0.201647	0.183732
1920	0.198196	0.199675	0.207235	0.200825	0.186855
1921	0.189814	0.196552	0.205427	0.20099	0.183239
1922	0.19458	0.198196	0.208879	0.200168	0.185869
1923	0.192443	0.193101	0.21118	0.198689	0.184554
1924	0.194909	0.196223	0.206907	0.196223	0.185869
1925	0.192115	0.194087	0.209865	0.197867	0.186198
1926	0.193101	0.196881	0.219891	0.202469	0.187841
1927	0.195073	0.19458	0.206085	0.199511	0.188334
1928	0.199839	0.196717	0.212659	0.200168	0.189978
1929	0.196223	0.195895	0.212824	0.20099	0.189814
1930	0.197703	0.195895	0.210851	0.203291	0.18817
1931	0.196388	0.197045	0.212495	0.202962	0.194909
1932	0.191293	0.19458	0.212495	0.203291	0.19195
1933	0.197538	0.197374	0.212166	0.200825	0.192608
1934	0.200168	0.194909	0.212166	0.20477	0.190635
1935	0.198196	0.198196	0.21381	0.200332	0.18932
1936	0.202798	0.196388	0.209865	0.198524	0.187348
1937	0.202305	0.198524	0.213645	0.201319	0.1908
1938	0.202798	0.198031	0.211344	0.200497	0.189649
1939	0.199675	0.199018	0.2074	0.201154	0.193429
1940	0.198196	0.194744	0.213152	0.198689	0.189978
1941	0.200004	0.199018	0.214467	0.201483	0.194087
1942	0.196388	0.197374	0.212824	0.200661	0.195566
1943	0.19721	0.197538	0.217097	0.204441	0.19195
1944	0.195402	0.194744	0.213317	0.201319	0.195402
1945	0.198689	0.195402	0.218083	0.204606	0.193758
1946	0.198031	0.198031	0.216604	0.20099	0.192279
1947	0.19836	0.199346	0.218247	0.201812	0.197045
1948	0.19573	0.202633	0.208879	0.20362	0.194416
1949	0.195566	0.198031	0.216275	0.202633	0.193429
1950	0.197867	0.199839	0.215453	0.198031	0.197538
1951	0.200661	0.197703	0.216111	0.199182	0.19458
1952	0.203291	0.198196	0.217097	0.201483	0.193429
1953	0.200004	0.19836	0.216111	0.19836	0.195402
1954	0.198524	0.200332	0.217426	0.198853	0.196717
1955	0.19721	0.196059	0.212495	0.19573	0.194416
1956	0.201647	0.19721	0.212166	0.203455	0.199511
1957	0.196223	0.196717	0.207071	0.204113	0.200825
1958	0.199182	0.196881	0.217097	0.194251	0.192279
1959	0.196059	0.197538	0.20099	0.194416	0.198031
1960	0.201812	0.197703	0.209536	0.200168	0.195237
1961	0.196388	0.200661	0.214796	0.197374	0.196059
1962	0.199511	0.197867	0.216932	0.20099	0.197374
1963	0.199182	0.195895	0.214138	0.201976	0.197045
1964	0.198196	0.199182	0.21759	0.20362	0.196388
1965	0.199018	0.200332	0.216439	0.201319	0.199346
1966	0.197045	0.198689	0.21381	0.201647	0.194909
1967	0.200004	0.201976	0.217097	0.203455	0.19836
1968	0.199839	0.198031	0.212988	0.204277	0.196059
1969	0.201154	0.202305	0.214303	0.206414	0.197538
1970	0.198853	0.19721	0.210194	0.202962	0.195402
1971	0.200168	0.197045	0.212824	0.206249	0.199182
1972	0.196223	0.198689	0.211509	0.202305	0.199511
1973	0.198853	0.201154	0.212659	0.199511	0.198031
1974	0.198196	0.198196	0.211673	0.201812	0.199018
1975	0.197538	0.201154	0.212659	0.201319	0.197538
1976	0.200332	0.199839	0.212988	0.199675	0.198689
1977	0.19721	0.198853	0.209701	0.20214	0.198524
1978	0.19573	0.200661	0.211673	0.201812	0.198853
1979	0.19836	0.200661	0.212824	0.199839	0.199018
1980	0.196717	0.198524	0.209701	0.201154	0.197867
1981	0.197538	0.198689	0.209043	0.200497	0.198196
1982	0.199018	0.201154	0.208222	0.202305	0.201154
1983	0.200332	0.195402	0.205263	0.201319	0.200825
1984	0.202633	0.200004	0.209701	0.202798	0.202469
1985	0.201154	0.199182	0.206085	0.200825	0.202469
1986	0.200332	0.199511	0.205263	0.201319	0.20099
1987	0.19836	0.198524	0.197045	0.201319	0.200168
1988	0.203455	0.200825	0.203948	0.203291	0.200497
1989	0.199018	0.197703	0.204277	0.201154	0.199675
1990	0.201483	0.199839	0.199839	0.20099	0.200332
1991	0.202633	0.200168	0.199839	0.201812	0.199675
1992	0.198524	0.198031	0.198524	0.200825	0.198853
1993	0.200168	0.202305	0.197045	0.200168	0.201319
1994	0.200661	0.197867	0.199675	0.201812	0.199018
1995	0.198196	0.200332	0.197374	0.198524	0.20362
1996	0.200332	0.197867	0.197538	0.199182	0.198853
1997	0.199018	0.202633	0.197538	0.197867	0.207893
1998	0.195895	0.196881	0.197045	0.195073	0.198689
1999	0.203126	0.203291	0.195402	0.199675	0.200497
2000	0.197374	0.199018	0.194087	0.197703	0.20099
2001	0.202633	0.199839	0.194251	0.199675	0.201483
2002	0.19836	0.199839	0.190471	0.199675	0.203784
2003	0.200004	0.199018	0.19195	0.200332	0.204934
2004	0.200004	0.199511	0.186362	0.195402	0.204113
2005	0.201154	0.192772	0.187019	0.202633	0.203291
2006	0.197538	0.199346	0.183897	0.19836	0.202962
2007	0.200497	0.198853	0.187513	0.20099	0.199675
2008	0.198196	0.196388	0.186526	0.197867	0.197045
2009	0.201647	0.198853	0.187348	0.201812	0.200661
2010	0.192279	0.201647	0.191621	0.200168	0.200004
2011	0.199182	0.198524	0.190142	0.20214	0.198031
2012	0.197538	0.200825	0.187348	0.197703	0.203455
2013	0.196717	0.199675	0.188663	0.200168	0.199346
2014	0.198031	0.202305	0.184061	0.200497	0.204934
2015	0.199018	0.202798	0.185869	0.198524	0.201647
2016	0.197867	0.202962	0.185705	0.200661	0.203948
2017	0.199182	0.203291	0.18176	0.196552	0.200825
2018	0.197703	0.202305	0.184061	0.200825	0.203784
2019	0.199018	0.195237	0.181431	0.194416	0.202798
2020	0.19836	0.199346	0.183568	0.199839	0.201976
2021	0.200332	0.201812	0.181267	0.200497	0.202798
2022	0.198031	0.199182	0.184554	0.202962	0.200004
2023	0.195895	0.201154	0.18061	0.198524	0.202962
2024	0.197374	0.199675	0.184225	0.200825	0.202305
2025	0.19836	0.201483	0.181103	0.199675	0.202469
2026	0.197045	0.200497	0.183732	0.201483	0.202962
2027	0.195073	0.202305	0.181267	0.200497	0.203126
2028	0.20214	0.201483	0.181431	0.199346	0.201319
2029	0.200825	0.201976	0.183239	0.200332	0.206085
2030	0.198689	0.200825	0.182089	0.202962	0.202469
2031	0.200497	0.201812	0.180774	0.199839	0.200825
2032	0.200661	0.201812	0.181924	0.200661	0.201647
2033	0.198689	0.200004	0.183239	0.20099	0.201647
2034	0.197703	0.198196	0.180938	0.198853	0.203291
2035	0.200332	0.199346	0.184554	0.200497	0.206249
2036	0.199018	0.199675	0.18176	0.200004	0.208057
2037	0.197867	0.195895	0.184718	0.200825	0.207564
2038	0.197374	0.200497	0.183897	0.199675	0.205099
2039	0.200825	0.199675	0.185376	0.203291	0.20477
2040	0.199511	0.201319	0.18176	0.20214	0.20362
2041	0.20099	0.200661	0.183732	0.201154	0.203948
2042	0.199346	0.201812	0.188334	0.202633	0.202798
2043	0.201812	0.201154	0.180774	0.20099	0.201647
2044	0.201483	0.203455	0.180938	0.200497	0.204606
2045	0.19573	0.20099	0.185047	0.200332	0.20214
2046	0.201154	0.206414	0.183239	0.197867	0.204277
2047	0.199839	0.201647	0.184554	0.200497	0.201976
2048	0.201812	0.198689	0.186526	0.203291	0.201812
2049	0.195073	0.198524	0.182417	0.197538	0.201483
2050	0.198853	0.202633	0.183075	0.204606	0.202633
2051	0.200332	0.20099	0.182089	0.199839	0.203784
2052	0.199511	0.202469	0.183897	0.201483	0.205427
2053	0.198196	0.202305	0.181267	0.200825	0.203455
2054	0.202962	0.200497	0.185376	0.201812	0.201812
2055	0.195566	0.199018	0.184225	0.199018	0.205592
2056	0.198853	0.19836	0.186198	0.201319	0.200332
2057	0.199182	0.202305	0.185047	0.20099	0.202633
2058	0.20099	0.200497	0.186855	0.201483	0.199018
2059	0.199511	0.20099	0.189156	0.202305	0.204934
2060	0.200168	0.198689	0.187677	0.201483	0.201483
2061	0.201976	0.200825	0.184225	0.200497	0.201483
2062	0.199839	0.201483	0.184061	0.199182	0.200168
2063	0.203291	0.205427	0.187019	0.201812	0.196388
2064	0.199839	0.20099	0.185212	0.199182	0.195402
2065	0.199182	0.206085	0.18554	0.203784	0.196717
2066	0.201154	0.20099	0.187184	0.199018	0.014773
2067	0.200825	0.200332	0.189156	0.203455	0.022991
2068	0.196059	0.202305	0.186855	0.203455	0.033674
2069	0.201647	0.199346	0.190635	0.206414	0.039756
2070	0.198031	0.20362	0.187513	0.203784	0.047316
2071	0.199511	0.201812	0.191128	0.204277	0.055041
2072	0.200332	0.203784	0.188992	0.200004	0.059972
2073	0.201483	0.198689	0.18554	0.203126	0.062437
2074	0.196552	0.207071	0.187677	0.203784	0.073942
2075	0.199346	0.199511	0.188499	0.201812	0.073613
2076	0.20214	0.203126	0.188006	0.20477	0.081667
2077	0.19836	0.202305	0.187841	0.20099	0.084461
2078	0.199675	0.203126	0.191457	0.201483	0.089063
2079	0.201319	0.200661	0.188827	0.200497	0.094487
2080	0.201976	0.203126	0.191621	0.201319	0.101554
2081	0.200825	0.201483	0.191128	0.199675	0.103197
2082	0.201976	0.20099	0.188499	0.202798	0.109114
2083	0.200497	0.204277	0.187841	0.202305	0.108621
2084	0.201812	0.202469	0.191128	0.20362	0.112073
2085	0.19836	0.20099	0.18817	0.199018	0.119797
2086	0.200661	0.199182	0.193101	0.20099	0.120948
2087	0.199018	0.201976	0.188663	0.203291	0.12555
2088	0.199018	0.199511	0.191621	0.202469	0.125879
2089	0.200004	0.200661	0.194087	0.199018	0.132289
2090	0.199839	0.199511	0.195895	0.201483	0.130809
2091	0.201483	0.202633	0.19458	0.199839	0.133275
2092	0.199675	0.20099	0.194744	0.201812	0.136726
2093	0.200497	0.197538	0.193594	0.202798	0.141821
2094	0.200825	0.199675	0.193265	0.199018	0.144615
2095	0.202962	0.201647	0.192772	0.202798	0.143301
2096	0.203126	0.200825	0.195402	0.200497	0.146752
2097	0.204277	0.203291	0.191293	0.201154	0.148231
2098	0.204606	0.203291	0.192772	0.196717	0.147574
2099	0.205592	0.194909	0.193594	0.196388	0.14971
2100	0.205592	0.199511	0.193429	0.196717	0.153984
2101	0.198689	0.198031	0.196552	0.199839	0.156942
2102	0.200004	0.20099	0.190964	0.198031	0.159572
2103	0.200661	0.199018	0.196881	0.197374	0.158421
2104	0.196717	0.200661	0.194416	0.201154	0.161873
2105	0.199675	0.201319	0.19573	0.198524	0.163681
2106	0.200497	0.199675	0.198196	0.201154	0.162037
2107	0.200004	0.19458	0.19458	0.201976	0.166475
2108	0.199675	0.199675	0.197703	0.203126	0.170419
2109	0.200004	0.197374	0.19573	0.202469	0.171406
2110	0.200168	0.197538	0.194416	0.20099	0.166639
2111	0.199511	0.197538	0.192936	0.19836	0.169433
2112	0.201319	0.196059	0.196552	0.203291	0.172063
2113	0.202469	0.199675	0.194251	0.199839	0.16779
2114	0.20214	0.200661	0.198196	0.201319	0.175843
2115	0.199346	0.196552	0.194087	0.201812	0.1742
2116	0.20362	0.19721	0.198689	0.199839	0.173871
2117	0.201483	0.202305	0.196881	0.198196	0.177487
2118	0.200004	0.194416	0.195566	0.203784	0.174364
2119	0.198689	0.199018	0.197703	0.202633	0.18061
2120	0.197867	0.155792	0.196388	0.196881	0.179295
2121	0.199182	0.081009	0.198853	0.017896	0.180774
2122	0.198524	0.085776	0.200004	0.03351	0.179952
2123	0.20099	0.093993	0.199018	0.040249	0.183404
2124	0.19458	0.097281	0.196059	0.047316	0.182089
2125	0.198196	0.101718	0.198689	0.054219	0.184225
2126	0.197374	0.105992	0.196388	0.060629	0.186691
2127	0.201319	0.106978	0.19836	0.06408	0.18554
2128	0.19836	0.115195	0.198524	0.071805	0.183897
2129	0.198031	0.116839	0.197703	0.081009	0.183732
2130	0.195073	0.121441	0.195237	0.079694	0.187677
2131	0.204606	0.007706	0.198031	0.088734	0.188006
2132	0.201319	-0.001334	0.197374	0.093829	0.187184
2133	0.199839	0.004255	0.199511	0.096788	0.188827
2134	0.201483	0.010336	0.197703	0.099253	0.1908
2135	0.200004	0.014938	0.199511	0.103691	0.185047
2136	0.200661	0.021019	0.20099	0.107799	0.190307
2137	0.197703	0.013787	0.196552	0.1101	0.191786
2138	0.200825	-0.000183	0.196881	0.116675	0.189978
2139	0.201319	0.009185	0.196059	0.121112	0.192443
2140	0.201154	0.017403	0.200004	0.124399	0.19195
2141	0.200332	-0.000841	0.197045	0.124728	0.190635
2142	0.203784	-0.000841	0.199839	0.129823	0.193265
2143	0.200825	-0.002813	0.199182	0.131138	0.188334
2144	0.200825	-0.001827	0.200004	0.135247	0.192936
2145	0.201647	0.000803	0.197045	0.139027	0.195402
2146	0.201483	0.00146	0.199182	0.141657	0.192772
2147	0.197538	0.008363	0.197703	0.147409	0.194416
2148	0.199839	0.016253	0.197538	0.144615	0.191293
2149	0.198524	0.020855	0.196881	0.147081	0.191457
2150	0.195895	0.035154	0.199346	0.150532	0.192608
2151	0.200168	0.037455	0.197703	0.151683	0.197374
2152	0.20099	0.035811	0.196059	0.151683	0.194416
2153	0.199675	0.046494	0.198031	0.153655	0.193594
2154	0.20477	0.033181	0.198689	0.157764	0.191621
2155	0.196388	0.040413	0.201154	0.157928	0.194251
2156	0.199511	0.045179	0.19573	0.160558	0.192936
2157	0.201483	0.053562	0.198853	0.164174	0.197045
2158	0.200497	0.056027	0.196552	0.162859	0.196717
2159	0.20099	0.063259	0.201647	0.166804	0.194251
2160	0.199511	0.069669	0.197045	0.167625	0.195566
2161	0.201976	0.069833	0.202633	0.171406	0.19836
2162	0.198853	0.068189	0.201154	0.171077	0.196552
2163	0.202469	0.071148	0.201483	0.173707	0.196059
2164	0.203126	0.0769	0.197703	0.172227	0.197045
2165	0.20099	0.076079	0.20099	0.177158	0.193265
2166	0.199182	0.08331	0.199018	0.175679	0.196388
2167	0.200332	0.080352	0.199839	0.178637	0.196717
2168	0.202469	0.086597	0.199182	0.180774	0.195073
2169	0.199182	0.085776	0.200004	0.179623	0.195402
2170	0.202633	0.096788	0.19836	0.184225	0.195237
2171	0.197867	0.100075	0.199346	0.186033	0.195566
2172	0.198031	0.050274	0.200332	0.043536	0.197867
2173	0.199839	0.060793	0.200332	0.006884	0.19721
2174	0.199675	0.056849	0.201647	0.015431	0.19721
2175	0.200168	0.064902	0.197045	0.025457	0.19836
2176	0.204606	0.070162	0.202798	0.03351	0.199511
2177	0.198853	0.074928	0.199018	0.038441	0.199182
2178	0.20362	0.080845	0.201976	0.046659	0.199018
2179	0.205263	0.084789	0.199511	0.052247	0.199346
2180	0.199346	0.088898	0.198853	0.059643	0.200168
2181	0.20099	0.099582	0.198524	0.066381	0.200168
2182	0.200332	0.094158	0.197538	0.073778	0.199018
2183	0.201812	0.103362	0.198853	0.078215	0.199018
2184	0.201976	0.107799	0.196059	0.081995	0.199346
2185	0.201976	0.112237	0.197538	0.085447	0.199511
2186	0.200825	0.113388	0.197045	0.088898	0.193101
2187	0.200661	0.118483	0.201647	0.097938	0.199182
2188	0.199018	0.123249	0.197374	0.097774	0.198031
2189	0.202305	0.125386	0.197538	0.104677	0.198196
2190	0.200004	0.12933	0.195895	0.105498	0.200004
2191	0.199839	0.129001	0.199839	0.113552	0.198853
2192	0.196059	0.137712	0.19721	0.114702	0.200497
2193	0.201812	0.137219	0.199182	0.117496	0.20099
2194	0.199018	0.140013	0.200497	0.12555	0.198031
2195	0.201812	0.142479	0.197045	0.126536	0.20477
2196	0.19721	0.145602	0.200332	0.127029	0.199839
2197	0.198524	0.146588	0.198689	0.131796	0.198853
2198	0.199675	0.148724	0.199675	0.138699	0.200825
2199	0.200661	0.149053	0.199182	0.135576	0.196881
2200	0.205263	0.149546	0.197867	0.13574	0.199675
2201	0.205099	0.152505	0.198853	0.13952	0.201319
2202	0.203784	0.158421	0.197538	0.149382	0.200497
2203	0.199511	0.10895	0.198031	0.143465	0.194087
2204	0.202798	0.110758	0.201976	0.152505	0.199675
2205	0.199839	0.115689	0.197374	0.152011	0.197045
2206	0.201483	0.115524	0.193922	0.155134	0.199346
2207	0.199511	0.12292	0.193594	0.15612	0.200004
2208	0.201812	0.12555	0.199839	0.158914	0.198196
2209	0.199018	0.039098	0.19721	0.159736	0.199675
2210	0.19836	0.047973	0.198031	0.161544	0.201647
2211	0.201483	0.054876	0.200661	0.163023	0.202798
2212	0.200497	0.060629	0.199346	0.165653	0.20362
2213	0.198689	0.066875	0.197867	0.169105	0.20362
2214	0.200661	0.067696	0.200168	0.171077	0.200332
2215	0.200497	0.076407	0.198196	0.172227	0.199675
2216	0.201319	0.081338	0.197538	0.173707	0.200825
2217	0.201647	0.087255	0.199346	0.178802	0.202962
2218	0.201812	0.090378	0.196552	0.174035	0.197045
2219	0.203291	0.102704	0.198524	0.178802	0.198689
2220	0.199018	0.100403	0.197538	0.176008	0.196717
2221	0.201812	0.105827	0.200825	0.176501	0.198853
2222	0.196881	0.112237	0.197045	0.177651	0.198853
2223	0.200497	0.110593	0.199839	0.179295	0.200497
2224	0.198031	0.114867	0.198031	0.178966	0.200332
2225	0.196717	0.114867	0.196717	0.182253	0.199182
2226	0.199839	0.114374	0.198196	0.185705	0.204606
2227	0.201647	0.107799	0.199346	0.182582	0.200004
2228	0.199675	0.08331	0.199018	0.184883	0.206249
2229	0.203784	0.081174	0.198524	0.188499	0.20214
2230	0.202962	0.093007	0.196717	0.184883	0.202305
2231	0.199675	0.084296	0.201647	0.189485	0.200825
2232	0.198196	0.086269	0.199182	0.192936	0.202798
2233	0.194416	0.08709	0.197374	0.188499	0.200497
2234	0.190635	0.091857	0.200497	0.195073	0.201976
2235	0.194087	0.095801	0.198689	0.188663	0.197374
2236	0.196059	0.094487	0.197703	0.194909	0.196059
2237	0.19721	0.103197	0.196717	0.192443	0.201647
2238	0.198524	0.105663	0.199018	0.193758	0.200497
2239	0.192443	0.108293	0.196881	0.193922	0.201154
2240	0.19836	0.110922	0.193429	0.19458	0.198689
2241	0.197538	0.114538	0.195566	0.193101	0.200332
2242	0.195895	0.111908	0.197867	0.198524	0.197045
2243	0.195073	0.120619	0.198853	0.195237	0.20362
2244	0.19836	0.121112	0.200168	0.196717	0.199511
2245	0.193265	0.125714	0.19836	0.199018	0.200825
2246	0.196059	0.127522	0.202633	0.199839	0.198689
2247	0.203126	0.13196	0.199346	0.199675	0.201976
2248	0.198031	0.132782	0.199182	0.199346	0.200332
2249	0.197374	0.137055	0.200497	0.200661	0.201976
2250	0.197703	0.135411	0.198853	0.202305	0.199839
2251	0.197045	0.137219	0.199511	0.204441	0.199675
2252	0.197045	0.137712	0.196223	0.20214	0.201812
2253	0.197045	0.140506	0.200004	0.203291	0.196059
2254	0.196223	0.146752	0.196388	0.197703	0.199675
2255	0.198853	0.147574	0.193101	0.202469	0.199018
2256	0.198853	0.146095	0.194416	0.202305	0.199675
2257	0.199182	0.152669	0.196717	0.200661	0.199182
2258	0.199182	0.156942	0.19836	0.20099	0.201319
2259	0.199346	0.151683	0.198031	0.208386	0.197867
2260	0.198031	0.159572	0.200004	0.199346	0.203784
2261	0.198031	0.159572	0.200332	0.203291	0.199839
2262	0.194744	0.160887	0.196881	0.206414	0.199018
2263	0.199839	0.156942	0.196881	0.203784	0.199675
2264	0.197045	0.159736	0.20362	0.206249	0.200332
2265	0.196223	0.161709	0.200497	0.203126	0.200661
2266	0.203126	0.167625	0.200661	0.206414	0.198524
2267	0.19836	0.165982	0.200332	0.199839	0.198689
2268	0.199511	0.168118	0.200497	0.207564	0.198853
2269	0.195895	0.170419	0.200497	0.206742	0.201319
2270	0.202962	0.169926	0.201319	0.206249	0.196223
2271	0.198853	0.173707	0.198689	0.201483	0.199839
2272	0.199018	0.173542	0.197538	0.210358	0.200661
2273	0.198689	0.1742	0.197538	0.209536	0.200004
2274	0.201154	0.164503	0.199346	0.207728	0.200168
2275	0.197703	0.174528	0.199182	0.208715	0.201647
2276	0.196881	0.176172	0.199839	0.207564	0.196717
2277	0.19836	0.180774	0.20099	0.206414	0.200168
2278	0.195402	0.179623	0.200497	0.205099	0.200497
2279	0.196717	0.180281	0.200497	0.207564	0.199675
2280	0.199839	0.18176	0.199675	0.205756	0.20099
2281	0.202798	0.179459	0.205921	0.208879	0.201976
2282	0.198689	0.182417	0.201976	0.203784	0.19721
2283	0.201483	0.185047	0.20362	0.20855	0.201647
2284	0.199511	0.181431	0.200825	0.207071	0.199511
2285	0.199839	0.178473	0.205099	0.207071	0.198196
2286	0.199018	0.180116	0.201647	0.209372	0.198031
2287	0.199675	0.185376	0.202633	0.205592	0.199511
2288	0.200661	0.188499	0.199839	0.206249	0.202305
2289	0.201976	0.186855	0.19836	0.208222	0.19836
2290	0.19721	0.1908	0.193594	0.206085	0.200497
2291	0.20214	0.186855	0.197374	0.206249	0.20214
2292	0.205592	0.184718	0.198196	0.205756	0.197045
2293	0.198524	0.189485	0.197538	0.204606	0.197703
2294	0.201976	0.189978	0.200332	0.206742	0.202798
2295	0.201812	0.189814	0.199511	0.204606	0.200004
2296	0.205263	0.185212	0.201647	0.206414	0.198853
2297	0.198853	0.189156	0.201812	0.209208	0.199839
2298	0.200168	0.193922	0.202305	0.205099	0.199018
2299	0.200332	0.192608	0.198031	0.204606	0.196388
2300	0.200332	0.188334	0.201647	0.207893	0.200497
2301	0.196059	0.191621	0.200825	0.203455	0.199018
2302	0.204277	0.190142	0.198196	0.203126	0.20214
2303	0.205592	0.192936	0.19721	0.20099	0.200825
2304	0.197045	0.18817	0.198524	0.201154	0.19836
2305	0.200497	0.19573	0.192608	0.200004	0.202469
2306	0.202633	0.191128	0.195895	0.202305	0.202469
2307	0.201483	0.186526	0.19836	0.202962	0.200661
2308	0.199675	0.190471	0.200497	0.202469	0.200004
2309	0.200825	0.193922	0.201319	0.200825	0.201812
2310	0.19836	0.191293	0.198196	0.199675	0.198524
2311	0.201154	0.191293	0.201976	0.200332	0.200332
2312	0.199182	0.195566	0.200168	0.199018	0.192608
2313	0.203455	0.197045	0.201812	0.20099	0.197374
2314	0.201154	0.192608	0.203948	0.197374	0.196223
2315	0.201319	0.193101	0.203784	0.199346	0.197374
2316	0.198196	0.195895	0.200825	0.19721	0.201483
2317	0.200168	0.195895	0.202798	0.200825	0.199018
2318	0.201483	0.196223	0.202798	0.196388	0.198524
2319	0.19836	0.192443	0.204606	0.200497	0.201647
2320	0.197703	0.198196	0.200332	0.197374	0.204277
2321	0.199346	0.194087	0.200825	0.19836	0.199511
2322	0.199182	0.198031	0.200168	0.199839	0.203455
2323	0.201647	0.194416	0.200004	0.195566	0.199018
2324	0.20099	0.194416	0.198689	0.199839	0.202633
2325	0.202305	0.196717	0.199346	0.195073	0.20362
2326	0.204277	0.19721	0.200825	0.197867	0.199675
2327	0.199182	0.197867	0.198031	0.196059	0.199675
2328	0.203291	0.198524	0.201483	0.197374	0.199511
2329	0.197867	0.196388	0.199675	0.195566	0.197867
2330	0.198196	0.19721	0.198853	0.196881	0.19836
2331	0.200168	0.198689	0.204277	0.193758	0.201154
2332	0.20099	0.19573	0.201319	0.198031	0.198853
2333	0.19836	0.198853	0.202633	0.193265	0.202633
2334	0.201319	0.198689	0.205263	0.193101	0.198524
2335	0.200004	0.19836	0.199018	0.192936	0.201154
2336	0.199839	0.19721	0.201154	0.195237	0.199018
2337	0.201483	0.198031	0.199675	0.19573	0.206414
2338	0.20099	0.195402	0.199018	0.194251	0.201483
2339	0.202962	0.199346	0.200004	0.193758	0.202305
2340	0.201647	0.198524	0.19836	0.196552	0.200661
2341	0.200497	0.201483	0.200825	0.196717	0.201319
2342	0.200004	0.195402	0.197703	0.192443	0.201976
2343	0.202305	0.196552	0.200004	0.194744	0.201483
2344	0.199839	0.199346	0.198689	0.196388	0.201483
2345	0.202798	0.196059	0.203126	0.193429	0.200168
2346	0.204113	0.199182	0.196059	0.193429	0.202633
2347	0.198196	0.199511	0.200332	0.193594	0.19836
2348	0.201812	0.200168	0.197703	0.191293	0.198689
2349	0.200661	0.198689	0.201647	0.191293	0.200661
2350	0.199839	0.196552	0.200825	0.186198	0.199511
2351	0.207235	0.196059	0.202633	0.190471	0.200004
2352	0.199675	0.196717	0.198853	0.190964	0.202469
2353	0.200825	0.197538	0.199511	0.187019	0.198196
2354	0.198689	0.196059	0.199346	0.18932	0.201976
2355	0.199018	0.195237	0.192936	0.19195	0.199182
2356	0.202305	0.196552	0.199182	0.191128	0.200825
2357	0.196388	0.19195	0.195566	0.191786	0.204113
2358	0.200825	0.194416	0.197867	0.192115	0.20362
2359	0.201154	0.196059	0.200004	0.189156	0.200497
2360	0.20099	0.19721	0.200497	0.193922	0.203291
2361	0.200332	0.19836	0.19836	0.189814	0.199346
2362	0.202798	0.19573	0.203455	0.19458	0.196223
2363	0.200661	0.19721	0.197374	0.190964	0.202798
2364	0.20214	0.193758	0.204113	0.189485	0.19836
2365	0.20099	0.196717	0.197867	0.186198	0.198524
2366	0.202469	0.196717	0.199675	0.192443	0.198524
2367	0.201483	0.201483	0.201319	0.192608	0.201812
2368	0.199346	0.197538	0.200661	0.189814	0.19836
2369	0.20214	0.197374	0.200332	0.190635	0.197867
2370	0.199346	0.200661	0.199839	0.188992	0.201812
2371	0.198853	0.196223	0.201812	0.191457	0.206085
2372	0.200004	0.19573	0.199182	0.188499	0.200004
2373	0.199018	0.196059	0.202798	0.188334	0.201154
2374	0.194087	0.196717	0.201812	0.187348	0.201812
2375	0.198853	0.198196	0.197374	0.193758	0.205756
2376	0.200497	0.198524	0.201812	0.189814	0.205263
2377	0.201483	0.197538	0.201154	0.194087	0.20099
2378	0.201154	0.200168	0.19836	0.193265	0.201483
2379	0.206414	0.196388	0.199839	0.192936	0.202962
2380	0.196223	0.197867	0.193922	0.193922	0.199182
2381	0.203784	0.198689	0.199839	0.193265	0.201319
2382	0.202962	0.200168	0.199675	0.192115	0.207728
2383	0.199511	0.195566	0.199675	0.19195	0.198031
2384	0.201319	0.201647	0.202305	0.192115	0.202305
2385	0.200332	0.198524	0.198196	0.191786	0.198196
2386	0.201154	0.200497	0.200004	0.192279	0.200497
2387	0.200168	0.19836	0.196223	0.191128	0.202469
2388	0.201483	0.197538	0.202633	0.194909	0.202798
2389	0.198853	0.193594	0.195895	0.192936	0.201319
2390	0.200825	0.196717	0.19573	0.194251	0.204934
2391	0.198196	0.195566	0.19721	0.194744	0.201976
2392	0.20099	0.196552	0.199182	0.19573	0.203291
2393	0.200004	0.197867	0.199182	0.196059	0.208222
2394	0.202469	0.19721	0.200661	0.20477	0.200168
2395	0.202305	0.199675	0.199346	0.196059	0.201154
2396	0.19721	0.19721	0.196059	0.199511	0.200168
2397	0.199346	0.197374	0.200004	0.197703	0.203291
2398	0.200497	0.196223	0.198853	0.195237	0.199675
2399	0.201647	0.199346	0.200825	0.192608	0.202962
2400	0.199839	0.19836	0.20099	0.189978	0.199675
2401	0.202633	0.201647	0.200004	0.189814	0.206085
2402	0.199182	0.197538	0.197867	0.193265	0.202962
2403	0.197374	0.202305	0.199182	0.192936	0.200168
2404	0.199018	0.196223	0.197045	0.192936	0.200661
2405	0.199346	0.196552	0.194909	0.198031	0.201976
2406	0.19836	0.19721	0.196552	0.196059	0.204277
2407	0.197538	0.197374	0.19836	0.199018	0.202469
2408	0.202305	0.196552	0.197374	0.192772	0.202469
2409	0.198196	0.195073	0.201483	0.19836	0.204441
2410	0.203291	0.196717	0.20099	0.197374	0.203948
2411	0.200004	0.196223	0.200497	0.198853	0.20214
2412	0.202633	0.199182	0.199346	0.198524	0.208222
2413	0.196059	0.198689	0.199675	0.197703	0.205099
2414	0.204277	0.198853	0.199511	0.199182	0.205099
2415	0.20362	0.196223	0.196059	0.19721	0.192608
2416	0.200497	0.200168	0.197538	0.20099	0.199511
2417	0.201319	0.199182	0.197045	0.197703	0.203291
2418	0.201976	0.202798	0.195237	0.200825	0.20099
2419	0.199839	0.199018	0.199675	0.19721	0.199839
2420	0.199675	0.198853	0.200332	0.197045	0.202305
2421	0.19721	0.199182	0.199511	0.194909	0.203291
2422	0.200497	0.20099	0.203126	0.198853	0.20362
2423	0.201154	0.198524	0.19836	0.199346	0.205592
2424	0.19721	0.197703	0.202798	0.20214	0.207728
2425	0.196717	0.197867	0.200004	0.198524	0.206249
2426	0.20099	0.195566	0.20477	0.200825	0.196717
2427	0.199675	0.198031	0.199511	0.200004	0.204606
2428	0.199346	0.196223	0.203126	0.200497	0.201647
2429	0.204113	0.199346	0.20099	0.200661	0.208879
2430	0.202305	0.197703	0.197703	0.19721	0.202962
2431	0.203291	0.196881	0.20099	0.196388	0.206085
2432	0.20099	0.197374	0.200497	0.197045	0.206085
2433	0.20214	0.201647	0.200661	0.196059	0.203784
2434	0.198196	0.199511	0.19721	0.197703	0.20477
2435	0.200661	0.199675	0.200661	0.199511	0.205921
2436	0.20099	0.200825	0.198689	0.196881	0.206414
2437	0.202633	0.199675	0.198689	0.199839	0.201647
2438	0.200168	0.201976	0.197703	0.197045	0.203455
2439	0.200497	0.194744	0.201319	0.199511	0.204934
2440	0.19721	0.200661	0.192608	0.196881	0.205592
2441	0.200825	0.196059	0.200332	0.19836	0.203126
2442	0.199018	0.198853	0.199675	0.19836	0.205921
2443	0.197703	0.196059	0.201812	0.196388	0.204441
2444	0.199346	0.200661	0.198853	0.198689	0.204934
2445	0.196552	0.198524	0.199839	0.200661	0.206742
2446	0.195895	0.198524	0.201483	0.198196	0.206414
2447	0.200497	0.199018	0.198689	0.197045	0.204934
2448	0.202305	0.198524	0.200661	0.201647	0.20477
2449	0.203126	0.193265	0.199018	0.202962	0.202633
2450	0.204934	0.197374	0.201319	0.199675	0.202305
2451	0.199839	0.198196	0.198853	0.19573	0.205263
2452	0.200168	0.200332	0.202469	0.198196	0.206742
2453	0.20099	0.197867	0.198689	0.198031	0.199018
2454	0.204441	0.198853	0.200004	0.197703	0.197703
2455	0.200332	0.197538	0.196059	0.196552	0.19836
2456	0.201483	0.196059	0.196388	0.201483	0.198031
2457	0.19836	0.201812	0.199346	0.198031	0.200332
2458	0.203455	0.196223	0.199839	0.199182	0.196059
2459	0.198031	0.19836	0.199839	0.20099	0.199346
2460	0.199839	0.19721	0.201647	0.201976	0.197374
2461	0.202633	0.199018	0.204934	0.201154	0.200332
2462	0.198524	0.196059	0.196552	0.203784	0.198689
2463	0.202469	0.200661	0.201976	0.199839	0.195073
2464	0.198524	0.194744	0.201483	0.202633	0.197045
2465	0.203784	0.195895	0.200661	0.204606	0.196881
2466	0.202962	0.196388	0.19836	0.202305	0.196059
2467	0.204606	0.197374	0.201647	0.202962	0.196717
2468	0.202305	0.198524	0.199839	0.200332	0.197045
2469	0.200004	0.198689	0.201154	0.201976	0.199675
2470	0.201483	0.200661	0.197538	0.200497	0.198031
2471	0.199511	0.199675	0.201812	0.202962	0.197045
2472	0.196223	0.200497	0.200661	0.200168	0.194416
2473	0.199839	0.199839	0.199346	0.209043	0.199675
2474	0.199018	0.199346	0.19836	0.201483	0.19573
2475	0.198031	0.196223	0.200825	0.19836	0.193922
2476	0.199346	0.19721	0.202633	0.203126	0.197867
2477	0.199675	0.198853	0.202305	0.199182	0.195073
2478	0.200497	0.19836	0.202962	0.202962	0.19836
2479	0.20099	0.196388	0.203948	0.202305	0.196717
2480	0.208222	0.199511	0.202633	0.201483	0.066381
2481	0.202798	0.196552	0.198524	0.202469	0.018389
2482	0.204934	0.200004	0.203784	0.204606	0.020855
2483	0.203126	0.198689	0.199839	0.201319	0.02973
2484	0.200004	0.198853	0.199675	0.206907	0.034332
2485	0.201319	0.198689	0.196717	0.200825	0.044686
2486	0.201647	0.199182	0.201976	0.20362	0.052904
2487	0.200004	0.201976	0.19836	0.201812	0.053726
2488	0.203291	0.199511	0.199018	0.20362	0.058821
2489	0.202798	0.199346	0.196881	0.200168	0.064245
2490	0.200497	0.198689	0.198689	0.202305	0.066875
2491	0.201483	0.20099	0.201483	0.201812	0.074271
2492	0.200825	0.196881	0.201483	0.205592	0.077722
2493	0.200825	0.199346	0.203291	0.203126	0.081502
2494	0.202798	0.200004	0.201483	0.200332	0.087419
2495	0.197374	0.201483	0.199839	0.194744	0.093829
2496	0.200004	0.198031	0.200661	0.200661	0.095473
2497	0.202962	0.198853	0.201647	0.202305	0.102211
2498	0.200497	0.197867	0.19836	0.201319	0.104348
2499	0.203126	0.193101	0.198196	0.204277	0.108457
