Ladekurvenmessung

Zeit: 2018_05_04 09.00.42

Info: FVA3, v = 0.382, T = 23, F = 20, h = 314.9

Ladewiderstand[Ohm]: 1012700

Störkapazität[pF]: 0.000000

Entladezeit[ms]: 200

Abtastrate[Hz]: 250000

Anzahl der Messwerte: 2500.000000

Verzögerung[ms]: 3

Ladespannung[V]: 0.200000


Kurve 1

0.003268
0.003433
0.000803
0.006884
0.007706
0.004419
0.005241
0.009514
0.000639
0.005569
0.003926
0.003761
0.000146
-0.000676
0.001789
0.003104
0.000474
0.000803
0.003761
-0.000183
0.00294
0.001132
0.001954
0.000967
-0.000841
0.002611
0.003268
0.001296
0.006062
0.007049
-0.000183
0.001789
0.003926
0.003104
0.000474
0.002611
0.003104
0.003433
-0.000183
-1.9e-05
0.005734
0.003104
0.001625
0.00409
0.002775
0.003597
0.001789
0.003433
0.00294
0.002118
0.002447
0.006062
0.00146
-0.001169
0.002118
0.000639
0.002118
0.002282
0.003761
-0.001662
0.003597
0.00031
-0.001498
-1.9e-05
0.000146
0.000146
0.00031
-0.002813
0.000474
-0.006429
-0.006593
-0.002484
-0.006264
-0.005278
-0.002813
-0.000512
0.001296
0.000803
-0.000347
-0.004456
-1.9e-05
0.000803
0.000146
-0.001498
-0.002484
-0.001662
-1.9e-05
-0.000676
-0.000347
-0.003635
-1.9e-05
-0.000841
-0.000183
0.000639
0.000803
-1.9e-05
-0.001169
-0.000347
-0.000512
0.002118
0.002611
0.002611
0.001296
0.001789
0.000146
0.002118
-0.000676
0.00294
0.002611
0.003268
0.001296
0.001954
0.000639
0.000967
0.002447
0.001132
0.001132
-0.000347
-0.001991
0.001132
-0.001498
-1.9e-05
0.000967
-0.001498
0.001132
0.000639
-0.000183
0.000474
0.000803
0.000639
-0.001169
0.002775
-0.000676
0.001954
-0.001498
0.000967
0.002118
0.000146
0.000803
0.00031
-0.002648
-0.00347
-0.003306
-0.001991
-0.001005
-0.005443
-0.000347
-0.000183
-1.9e-05
-0.00232
-0.001334
-0.001169
-0.000676
-0.000841
-0.000841
0.00031
-0.002155
-0.002155
0.001132
-0.000676
-0.001827
0.00146
0.000803
-0.003635
-0.00232
0.001132
0.000146
-0.000512
0.000803
-1.9e-05
0.001789
-0.000183
0.000474
0.002282
0.001296
-0.003799
-0.000841
-0.003963
0.002282
-0.000676
0.001132
-0.000183
0.00031
0.000474
0.000146
-0.000347
0.001132
0.000967
0.000803
-1.9e-05
-1.9e-05
-0.000183
-0.001334
-1.9e-05
-0.002813
-0.001827
-0.002813
-0.000676
0.000146
0.003104
-1.9e-05
0.001132
-0.000183
0.000967
0.002282
0.00146
0.000474
-0.003142
-0.00232
-0.001005
0.000803
-0.001334
-0.000183
-0.001662
-0.000512
-0.000676
0.000474
0.002611
0.000146
-0.003142
0.00146
0.001296
0.001625
0.004419
0.000967
0.001296
0.00031
-0.001005
-0.001991
-0.000841
-0.001498
-0.002813
-0.004456
-0.003142
0.001789
0.000474
-0.000841
0.001132
0.001625
-0.000676
0.001625
-0.001827
-0.000841
-0.001991
-0.002977
-0.002155
-0.002977
-0.00347
0.000639
0.00146
-0.000841
0.000474
-0.000676
0.000639
-0.001991
0.000474
0.000146
-0.000512
-0.001662
0.000474
0.000803
-0.001662
-0.001827
0.001789
-0.001662
-0.001498
-0.000512
-0.000512
0.001296
-0.001498
0.002118
0.000146
0.00409
0.00031
0.003761
-0.002155
-0.001005
-0.002484
0.000146
-0.000676
-0.002155
-0.000676
-0.001169
0.001789
-0.001827
0.001625
-0.000841
-0.000676
-0.001169
0.001132
0.000474
0.001625
-0.000841
0.000967
-0.002977
-0.00232
-0.001169
-0.005936
-0.001827
-0.001005
0.000803
-0.001169
0.000967
0.000146
0.000967
-0.002155
0.000474
-0.001827
-0.000841
0.001789
-0.000347
0.000803
-0.001827
0.002775
-0.000676
0.001789
-0.000183
0.000146
-0.001005
-0.001169
-0.001334
-0.000676
0.00294
0.003433
0.000146
-0.000183
0.000639
-0.004621
-0.000841
0.000146
-0.000512
-0.001498
0.002447
0.002118
0.001625
0.000474
0.000639
-0.002813
-0.000841
-0.001662
-0.001991
-0.002155
-0.002648
-0.001169
-0.002648
-0.001498
-0.000347
-0.001662
-0.001498
-0.002155
0.00146
0.000803
-0.00232
0.000474
-0.001334
-0.001498
-1.9e-05
-0.002484
0.002775
0.000639
-0.000347
-0.000512
0.001296
-0.001827
0.00409
-0.001334
0.000639
0.00031
0.000474
0.001132
0.00031
-0.001005
-0.001169
0.00409
-0.000841
0.000146
-0.001827
-0.001169
-0.001169
0.00031
-0.000347
0.00146
0.000639
0.00031
0.00031
-0.001005
-0.001334
-0.003142
-0.000841
0.002447
-0.000183
-0.004949
-0.001662
-0.002648
-0.002813
-0.002484
0.00146
-0.001005
-0.000183
0.000639
0.000474
0.001789
0.000639
0.001789
-0.001991
-0.000512
-0.002813
0.00031
0.002118
-1.9e-05
-0.000676
0.00031
-0.000841
0.000146
0.001789
0.000639
0.000639
0.00031
-0.001005
0.00031
0.000474
-0.000347
0.001954
-0.00232
0.002775
-0.000676
-0.000347
-0.001498
-0.001662
-0.001005
-0.001005
-0.000676
0.000803
0.002447
-0.001498
-0.001169
-0.000512
-0.001827
-1.9e-05
0.000146
-0.001005
-1.9e-05
-0.004456
0.000639
-0.001827
0.00409
0.00031
-0.001005
0.001132
-0.000183
0.00146
-0.000347
0.001132
-0.001169
0.001625
0.000146
0.003597
0.00146
0.00294
-0.001334
-0.000512
-0.001169
-0.000841
0.00031
-0.002484
0.000639
0.000474
0.001296
0.000474
0.002282
-1.9e-05
0.001296
-0.003963
-0.001005
-0.002155
-0.000841
-0.001005
-0.000676
0.00031
-0.000676
0.002118
-0.000512
-1.9e-05
-0.000183
-0.002813
-0.003142
-0.000512
0.000803
0.001954
0.000639
-0.000183
0.003104
-0.002155
-0.001005
-0.004621
0.000803
-0.001498
-0.001169
0.000803
0.00031
-1.9e-05
-1.9e-05
0.00146
-0.000183
-0.000512
0.000639
-0.000183
0.000803
-0.000512
-0.000512
-0.000183
0.00031
-0.000183
0.002282
-0.000512
-0.001005
0.000474
-0.002155
0.001954
-0.000676
0.002775
-0.000512
0.004583
-0.000183
-0.000841
-0.000347
-0.000347
-0.000676
-0.002155
0.00146
-0.000512
0.001789
-0.000676
0.001132
-0.001169
0.002118
0.002775
0.00146
0.001789
0.002611
0.000146
-0.001827
0.00031
-0.003963
-0.005278
-0.000841
0.003268
-0.001169
0.000639
0.000474
0.000803
-0.000512
-0.000841
0.000639
0.00146
0.000967
-0.000676
0.00146
0.000967
-0.000183
0.001296
0.001954
0.00146
0.002118
-0.000841
0.000803
-0.000347
-1.9e-05
-0.000676
-1.9e-05
0.00146
0.00031
0.002447
0.003926
0.003926
0.000639
0.001789
-0.000183
0.002282
-0.001662
0.00146
-0.001662
-0.001005
0.001132
0.001954
-0.000512
0.003104
0.001296
0.000803
-0.001169
-0.001334
-0.002813
-0.002648
-0.000347
-0.003635
0.002282
-1.9e-05
0.001132
0.001296
-0.002977
0.000146
0.000803
-0.000676
-1.9e-05
-1.9e-05
-0.001334
0.004748
0.002447
0.001296
-0.000841
0.00294
0.000967
0.000639
-0.000183
0.00031
0.000639
-1.9e-05
0.000803
-0.000183
-0.001991
0.00294
-0.000841
0.000803
0.000967
-0.003142
0.002282
-1.9e-05
0.000639
0.000146
0.001132
-0.000347
0.00146
-0.000841
-1.9e-05
0.000803
-0.002155
-0.000347
-0.001005
-0.000676
-0.005278
0.001789
-0.001498
-0.001005
-0.003306
-0.00232
-0.002813
-0.001662
-0.001827
0.000639
0.001296
0.00031
0.001954
0.000146
0.000803
-0.000841
-0.002648
-0.001662
-0.000841
-0.002155
-0.002155
-0.001827
0.000967
0.00031
0.00146
0.000967
0.000803
0.002118
-0.000347
0.000474
-0.000841
0.002447
-0.001169
0.002611
0.000146
-0.00347
-0.000841
-0.002813
-0.00347
-0.002155
-0.001498
-0.001169
0.000803
-0.000347
0.001625
-0.001662
0.001296
0.000639
0.000803
-0.001827
-0.005114
-0.000183
0.000803
-0.002977
-0.005607
-1.9e-05
0.00031
-0.001005
-0.003142
0.000474
-0.003306
0.000146
-0.000347
0.001625
-0.000512
0.00031
-0.001334
0.000803
-0.000841
-0.000183
-0.000512
-0.007908
-0.001334
0.000639
0.00031
-0.002155
0.000146
-0.000841
0.00294
0.000146
0.001954
0.001789
-0.005607
0.001132
0.000803
0.002447
0.001954
-1.9e-05
-0.002155
0.000967
-0.003306
0.003433
0.000639
-0.008565
-0.001498
-1.9e-05
-0.000676
0.000967
0.000803
-0.000512
-0.002155
-0.004128
-0.001169
-0.000512
-0.005114
-0.005443
-0.000841
-0.000347
0.000803
0.001954
0.001625
0.003268
0.007049
0.015924
0.021512
0.029072
0.033346
0.042385
0.047316
0.055698
0.058821
0.065231
0.07197
0.077886
0.081174
0.086926
0.09235
0.093665
0.101061
0.105663
0.107142
0.112894
0.113881
0.120784
0.124399
0.124893
0.12933
0.134918
0.133439
0.137219
0.137548
0.138863
0.14593
0.143958
0.14971
0.150697
0.155299
0.15497
0.160394
0.1576
0.159901
0.160887
0.160558
0.165324
0.16401
0.166639
0.167625
0.170913
0.170419
0.176994
0.170913
0.171899
0.178144
0.175679
0.179952
0.177487
0.181431
0.180281
0.183239
0.180281
0.186033
0.183075
0.185705
0.184718
0.184883
0.184225
0.184554
0.187019
0.187348
0.188499
0.18554
0.189485
0.186691
0.189485
0.189814
0.191128
0.187841
0.191293
0.189814
0.194087
0.19573
0.191457
0.191457
0.186855
0.184554
0.183404
0.186526
0.187348
0.186855
0.187019
0.188499
0.187513
0.19195
0.187677
0.1908
0.189156
0.188992
0.190635
0.190964
0.191786
0.191786
0.197374
0.18817
0.191621
0.193922
0.193594
0.192772
0.191457
0.194909
0.195402
0.19458
0.197867
0.196552
0.196059
0.198031
0.197045
0.199182
0.194744
0.196059
0.196717
0.197045
0.195895
0.197703
0.19721
0.196881
0.197703
0.19836
0.196717
0.19721
0.197703
0.19836
0.196717
0.199018
0.200332
0.199018
0.198853
0.198853
0.199839
0.196223
0.198689
0.196388
0.197538
0.197374
0.194416
0.199511
0.198689
0.197045
0.19573
0.20099
0.199839
0.201319
0.197374
0.201154
0.200825
0.199675
0.19836
0.200168
0.199018
0.198031
0.199675
0.197374
0.200168
0.199839
0.197867
0.199511
0.20099
0.199839
0.200825
0.199182
0.200168
0.198853
0.19836
0.198031
0.199675
0.200661
0.197867
0.197703
0.19836
0.201154
0.203126
0.19836
0.19721
0.198524
0.197045
0.20099
0.198031
0.200825
0.198196
0.198524
0.199346
0.19836
0.195566
0.198524
0.197867
0.195895
0.197538
0.197703
0.200168
0.198853
0.199675
0.195237
0.197374
0.200825
0.196552
0.198031
0.196552
0.199675
0.199018
0.199018
0.197538
0.200825
0.198524
0.20099
0.198031
0.200497
0.19721
0.199182
0.199182
0.201154
0.197045
0.199182
0.201319
0.199182
0.201154
0.198853
0.200497
0.198196
0.19836
0.196881
0.200661
0.192115
0.195402
0.202798
0.197538
0.194909
0.199675
0.201154
0.19836
0.200168
0.198524
0.200825
0.196552
0.198853
0.196881
0.197538
0.196388
0.199018
0.197703
0.198031
0.197703
0.200332
0.20099
0.19836
0.201812
0.202469
0.201647
0.198031
0.20362
0.198853
0.199346
0.199675
0.199511
0.19836
0.198853
0.198853
0.199346
0.199182
0.199182
0.200004
0.199511
0.199346
0.199182
0.200825
0.198031
0.201154
0.200332
0.200332
0.199839
0.199511
0.200661
0.200661
0.197045
0.199511
0.203126
0.200004
0.200004
0.198524
0.199511
0.198031
0.201812
0.19836
0.20362
0.19721
0.198689
0.199839
0.198031
0.197867
0.19836
0.20362
0.201319
0.201319
0.199839
0.201483
0.197703
0.201319
0.197703
0.199839
0.197703
0.199182
0.200497
0.200004
0.200168
0.200332
0.199182
0.197867
0.199511
0.200004
0.199675
0.19721
0.199346
0.198524
0.199511
0.200168
0.200168
0.199839
0.199182
0.199346
0.199511
0.197538
0.196717
0.199346
0.195402
0.198524
0.19836
0.201154
0.198853
0.199182
0.199018
0.199346
0.199182
0.19836
0.199346
0.199839
0.196717
0.198031
0.20099
0.197045
0.19836
0.194909
0.202633
0.198031
0.200004
0.197703
0.199839
0.195566
0.199675
0.199839
0.201319
0.199675
0.200497
0.199675
0.199346
0.201812
0.198689
0.200825
0.199182
0.201319
0.201647
0.200332
0.199346
0.200332
0.199675
0.199839
0.199675
0.198689
0.200332
0.199675
0.202305
0.200661
0.201319
0.198524
0.200332
0.199346
0.199182
0.198524
0.199018
0.196717
0.197374
0.204113
0.199511
0.199346
0.196059
0.199182
0.197703
0.197867
0.19836
0.199839
0.200825
0.201647
0.196717
0.200004
0.200168
0.199182
0.199018
0.20214
0.202469
0.199182
0.200332
0.200168
0.20099
0.197703
0.202305
0.200168
0.200497
0.200661
0.200332
0.200168
0.201483
0.199346
0.200497
0.201647
0.20214
0.199839
0.198524
0.200497
0.198196
0.198853
0.198031
0.200825
0.199346
0.200661
0.200661
0.202962
0.199511
0.200332
0.199511
0.199182
0.198853
0.198524
0.199839
0.197045
0.200497
0.199675
0.199346
0.196552
0.199346
0.200661
0.201154
0.198853
0.198689
0.202633
0.200168
0.200168
0.200497
0.202798
0.199839
0.20099
0.198689
0.200168
0.199182
0.202633
0.199346
0.201976
0.200332
0.20099
0.203126
0.200168
0.202633
0.200825
0.201976
0.203784
0.200497
0.200497
0.20099
0.20099
0.202633
0.196881
0.198689
0.199839
0.199182
0.199346
0.200661
0.203126
0.202469
0.200497
0.201154
0.201483
0.200004
0.202633
0.201647
0.201319
0.19836
0.198689
0.197538
0.201154
0.19836
0.197867
0.199511
0.19836
0.200497
0.201319
0.199346
0.200497
0.201647
0.199182
0.201812
0.197538
0.201647
0.200661
0.201483
0.200168
0.202798
0.200168
0.200004
0.201319
0.199346
0.200497
0.200497
0.200661
0.200332
0.20477
0.198853
0.203948
0.200332
0.201319
0.202305
0.199346
0.199675
0.199675
0.200661
0.195402
0.20099
0.200825
0.203948
0.199182
0.200004
0.198689
0.200825
0.200168
0.201319
0.202633
0.201319
0.200825
0.19836
0.200825
0.198524
0.197374
0.197703
0.196717
0.198853
0.201483
0.198853
0.200497
0.19836
0.198689
0.203126
0.198853
0.202798
0.202469
0.203455
0.200497
0.20099
0.200497
0.200825
0.199346
0.200497
0.200332
0.200661
0.19836
0.199346
0.200497
0.201976
0.200332
0.200661
0.201647
0.202469
0.202798
0.20362
0.19721
0.20099
0.199346
0.199839
0.202305
0.200332
0.200661
0.200497
0.199839
0.199346
0.200332
0.20099
0.197703
0.198196
0.199018
0.201647
0.197867
0.200168
0.199675
0.201976
0.199511
0.197538
0.198031
0.199839
0.199018
0.197867
0.200332
0.198524
0.201976
0.202962
0.20214
0.199346
0.201319
0.200004
0.201483
0.200004
0.202305
0.201647
0.199346
0.200004
0.200168
0.199182
0.200332
0.19836
0.199346
0.199346
0.198853
0.200497
0.200168
0.202469
0.199511
0.201976
0.199346
0.200004
0.198689
0.200497
0.199511
0.197374
0.197703
0.199839
0.199675
0.201483
0.200332
0.194416
0.198853
0.197045
0.198524
0.19721
0.199511
0.199839
0.199839
0.19836
0.19721
0.198524
0.198031
0.198031
0.191621
0.003433
0.011322
0.023484
0.027758
0.032853
0.043371
0.050932
0.056027
0.059807
0.068847
0.073284
0.076572
0.083475
0.086926
0.091199
0.098267
0.101883
0.105498
0.106813
0.111087
0.112894
0.117661
0.120126
0.124728
0.127522
0.132124
0.132946
0.139356
0.136069
0.13952
0.142807
0.143958
0.147738
0.148396
0.154312
0.150368
0.155463
0.153162
0.158257
0.161215
0.158093
0.16138
0.161873
0.16401
0.168612
0.167461
0.169269
0.170419
0.171406
0.175679
0.1742
0.173542
0.174364
0.170419
0.172392
0.176501
0.177815
0.179788
0.179788
0.181924
0.183075
0.182417
0.186033
0.182911
0.178309
0.183568
0.186362
0.186855
0.18554
0.185212
0.186691
0.18554
0.186362
0.185869
0.187348
0.182089
0.188499
0.186526
0.186691
0.188006
0.18932
0.191457
0.191457
0.191786
0.190964
0.191293
0.187184
0.188827
0.186691
0.189649
0.189814
0.187513
0.19195
0.192608
0.195073
0.190471
0.193922
0.194744
0.193101
0.194909
0.193265
0.192772
0.196223
0.192772
0.191786
0.195566
0.195895
0.196223
0.197045
0.195566
0.193758
0.195073
0.19458
0.196059
0.194087
0.198853
0.195073
0.201319
0.198031
0.199675
0.192936
0.195073
0.194087
0.195895
0.194087
0.193594
0.19721
0.194909
0.194087
0.19721
0.202633
0.19721
0.195566
0.19721
0.198196
0.195566
0.193265
0.195566
0.193429
0.195566
0.195073
0.200004
0.194416
0.197045
0.198524
0.199839
0.198196
0.198853
0.19836
0.200004
0.199182
0.199018
0.198524
0.195895
0.198196
0.19836
0.199346
0.199018
0.195895
0.197867
0.199511
0.197374
0.197867
0.197538
0.197374
0.199018
0.196388
0.201812
0.198196
0.198031
0.197538
0.198196
0.196552
0.198031
0.19836
0.197867
0.197045
0.197703
0.198524
0.200168
0.197703
0.197374
0.201154
0.19721
0.198196
0.197045
0.196059
0.193101
0.200332
0.196059
0.197374
0.196059
0.199018
0.197538
0.194744
0.197867
0.199839
0.199018
0.196717
0.199346
0.197045
0.19836
0.194087
0.200168
0.198031
0.20214
0.197867
0.201812
0.194909
0.198031
0.196059
0.197703
0.196552
0.196223
0.19721
0.196059
0.197045
0.198031
0.197538
0.197045
0.197867
0.196881
0.200004
0.197703
0.128015
0.054548
0.060136
0.069176
0.072627
0.077065
0.078708
0.087419
0.090049
0.096623
0.098267
0.102704
0.110758
0.1101
0.113223
0.119304
0.120455
0.122756
0.127029
0.130645
0.135576
0.12933
0.137712
0.141657
0.142643
0.144615
0.148396
0.149546
0.150697
0.153655
0.156449
0.158257
0.159736
0.160722
0.161709
0.163188
0.166804
0.167297
0.16894
0.16894
0.170255
0.169926
0.169433
0.177158
0.169598
0.175843
0.176336
0.176665
0.178637
0.180938
0.179623
0.18061
0.182746
0.180445
0.182746
0.181924
0.183897
0.183897
0.185212
0.182911
0.187841
0.185869
0.189156
0.18554
0.185212
0.188663
0.185869
0.189814
0.188827
0.194087
0.193594
0.194744
0.188663
0.193429
0.188334
0.190635
0.19195
0.191786
0.19195
0.191457
0.194251
0.192772
0.194416
0.195237
0.191128
0.196717
0.197374
0.194416
0.196552
0.195402
0.201319
0.197045
0.195402
0.19721
0.194251
0.194087
0.194251
0.194251
0.194744
0.193922
0.193922
0.197867
0.194251
0.197045
0.196717
0.198524
0.195402
0.197538
0.197045
0.197374
0.196388
0.19458
0.193429
0.194744
0.195237
0.195237
0.197703
0.195566
0.196223
0.196717
0.196717
0.199018
0.200497
0.201647
0.199182
0.197867
0.200004
0.197703
0.194909
0.199675
0.195895
0.197045
0.194087
0.198196
0.194416
0.198689
0.197867
0.198196
0.19573
0.198689
0.198524
0.197703
0.19836
0.197374
0.197045
0.188006
0.190142
0.188334
0.178144
0.173049
0.175679
0.174364
0.176665
0.179952
0.179459
0.180116
0.183075
0.180445
0.181431
0.183897
0.183897
0.181431
0.178802
0.182253
0.182911
0.155956
-0.000183
0.006391
0.00935
0.00787
0.013623
0.017896
0.026607
0.031702
0.008528
0.015924
0.001625
0.00672
0.015595
0.001789
-0.000347
0.003597
0.010007
0.016417
0.022498
0.033674
0.035811
0.042221
0.048302
0.054055
0.0603
0.067039
0.072298
0.077722
0.081667
0.089063
0.089556
0.096459
0.099089
0.103526
0.105992
0.1101
0.117825
0.11651
0.119797
0.12292
0.125386
0.12555
0.130316
0.132124
0.13837
0.138534
0.142972
0.144287
0.145766
0.145273
0.146095
0.148396
0.153655
0.15234
0.156613
0.162202
0.160229
0.162695
0.163681
0.166475
0.168612
0.168283
0.169598
0.170091
0.170584
0.17157
0.173871
0.175679
0.17535
0.175679
0.176665
0.178309
0.17798
0.179459
0.182582
0.179295
0.182746
0.184554
0.184554
0.184554
0.18554
0.18061
0.184883
0.185869
0.186362
0.188006
0.187513
0.187841
0.188663
0.188992
0.186198
0.189485
0.190142
0.190964
0.187677
0.191293
0.190964
0.190635
0.188663
0.19195
0.192279
0.189978
0.193101
0.193429
0.195073
0.189814
0.191786
0.193429
0.192608
0.192608
0.1908
0.195566
0.196059
0.19721
0.19573
0.196059
0.195402
0.196059
0.195402
0.19721
0.194087
0.197374
0.196059
0.198031
0.194416
0.197538
0.194744
0.197374
0.193101
0.198524
0.196881
0.199182
0.196881
0.196059
0.19836
0.19573
0.200168
0.197045
0.197374
0.196881
0.197703
0.19573
0.196717
0.198031
0.196388
0.196552
0.196717
0.197045
0.193594
0.198689
0.19721
0.199018
0.198031
0.19836
0.199182
0.201154
0.198031
0.200497
0.200332
0.200004
0.197867
0.196552
0.19195
0.193429
0.193429
0.196881
0.197703
0.196717
0.197538
0.199675
0.198689
0.19721
0.199182
0.19721
0.199675
0.196223
0.197045
0.198524
0.196717
0.199675
0.198853
0.195895
0.193265
0.20099
0.195237
0.199182
0.198689
0.199511
0.198196
0.200661
0.199346
0.199182
0.198524
0.197374
0.19721
0.19458
0.194909
0.19573
0.197045
0.19458
0.197374
0.199839
0.20214
0.197045
0.201319
0.199839
0.198031
0.201483
0.197045
0.199511
0.193594
0.199346
0.200825
0.197538
0.196059
0.198524
0.196388
0.200661
0.197867
0.198031
0.200497
0.20099
0.199346
0.199018
0.201319
0.197045
0.198524
0.198853
0.198196
0.196388
0.197538
0.197045
0.197867
0.194909
0.195566
0.198853
0.19721
0.20099
0.196552
0.197703
0.200332
0.198524
0.200168
0.200332
0.197867
0.200332
0.200004
0.199182
0.196881
0.196059
0.196223
0.197045
0.195895
0.195566
0.198853
0.198689
0.199839
0.200332
0.201483
0.199018
0.200661
0.196223
0.203784
0.200332
0.199839
0.199511
0.200825
0.199182
0.196223
0.200332
0.19836
0.200497
0.199182
0.198689
0.197045
0.200661
0.198031
0.201976
0.200497
0.199346
0.198853
0.200497
0.198689
0.195566
0.201483
0.197045
0.199675
0.198524
0.199018
0.198031
0.198853
0.197045
0.200825
0.196388
0.200004
0.189156
0.188992
0.183568
0.183897
0.184883
0.184554
0.181431
0.185705
0.188499
0.187019
0.187348
0.187841
0.189814
0.18932
0.192443
0.192115
0.193265
0.189814
0.193922
0.193758
0.192608
0.192936
0.193922
0.189485
0.193429
0.193101
0.192115
0.193429
0.190964
0.194087
0.194251
0.193922
0.196552
0.196388
0.199675
0.197703
0.196881
0.194744
0.199346
0.195073
0.194251
0.197703
0.195073
0.193101
0.19836
0.195566
0.19573
0.196552
0.195895
0.197045
0.193429
0.195402
0.198524
0.196717
0.192936
0.200004
0.199018
0.199675
0.197538
0.197703
0.194087
0.196059
0.195895
0.196223
0.19573
0.196717
0.199675
0.199346
0.193758
0.198031
0.198196
0.191786
0.199346
0.197867
0.199839
0.198524
0.19836
0.197867
0.199018
0.195895
0.198853
0.199511
0.189485
0.200332
0.194909
0.195566
0.194909
0.199018
0.19458
0.197538
0.197045
0.198524
0.197045
0.188663
0.196059
0.197538
0.19573
0.197538
0.199675
0.198196
0.197045
0.195402
0.19721
0.197045
0.19195
0.19573
0.202305
0.197703
0.197703
0.198196
0.199182
0.200168
0.200825
0.200332
0.197867
0.199018
0.19573
0.198524
0.196552
0.19573
0.197538
0.200332
0.199018
0.200004
0.200825
0.199675
0.204606
0.199839
0.19573
0.197374
0.199675
0.198689
0.199675
0.196881
0.197374
0.194744
0.19836
0.204277
0.196881
0.19836
0.201647
0.200497
0.200825
0.202469
0.20099
0.200497
0.198524
0.200168
0.202962
0.198031
0.196552
0.197538
0.19573
0.197374
0.197867
0.195566
0.20099
0.199511
0.200332
0.201483
0.199346
0.195073
0.198524
0.197538
0.200004
0.199675
0.199839
0.19836
0.20099
0.196388
0.200332
0.196059
0.197374
0.198853
0.198031
0.19836
0.197867
0.202469
0.196881
0.201154
0.199182
0.200004
0.199511
0.197045
0.192279
0.198524
0.198196
0.196059
0.199346
0.199182
0.198524
0.195566
0.199346
0.196881
0.197703
0.198853
0.199182
0.199182
0.19836
0.201319
0.199675
0.197538
0.196881
0.197703
0.195895
0.195895
0.194744
0.199018
0.197374
0.196059
0.200168
0.201976
0.196552
0.201976
0.200332
0.19721
0.198524
0.201812
0.198853
0.199346
0.196223
0.198689
0.199675
0.197045
0.200661
0.200332
0.196388
0.198196
0.199346
0.199675
0.20099
0.197374
0.203126
0.199018
0.196552
0.20099
0.200004
0.198853
0.197374
0.197867
0.19573
0.19721
0.196388
0.202305
0.196881
0.200332
0.199182
0.201154
0.198524
0.198689
0.195073
0.195237
0.199182
0.195895
0.196223
0.199182
0.199018
0.197374
0.199675
0.197374
0.200168
0.200332
0.200004
0.199675
0.200497
0.199346
0.200168
0.203455
0.19836
0.201647
0.197045
0.202469
0.19836
0.199018
0.19836
0.200168
0.200004
0.197867
0.198853
0.20099
0.200332
0.198853
0.197867
0.198853
0.200497
0.200825
0.199675
0.199675
0.200497
0.19836
0.199182
0.199675
0.203784
0.197538
0.199839
0.199346
0.196059
0.200661
0.199839
0.197538
0.196223
0.196223
0.20099
0.196388
0.196059
0.199182
0.199182
0.199511
0.198853
0.195402
0.199346
0.199018
0.199839
0.200004
0.199018
0.197538
0.198689
0.198689
0.201976
0.199346
0.203291
0.199839
0.201976
0.198031
0.200004
0.198524
0.200004
0.195566
0.198689
0.201483
0.196223
0.198524
0.196717
0.198524
0.202469
0.20099
0.198853
0.200825
0.19721
0.198524
0.200332
0.197538
0.201319
0.197374
0.198524
0.199346
0.196059
0.19721
0.198689
0.196552
0.197867
0.196223
0.199675
0.198524
0.19836
0.197374
0.199511
0.197703
0.198689
0.19721
0.197374
0.198031
0.197703
0.196552
0.195073
0.201319
0.197045
0.199018
0.201647
0.200004
0.200168
0.20099
0.199675
0.200168
0.199018
0.198853
0.200825
0.200825
0.197703
0.200825
0.197538
0.197703
0.198524
0.19721
0.200661
0.199511
0.200825
0.199511
0.197703
0.198524
0.202305
0.199839
0.196223
0.197374
0.195402
0.199018
0.196552
0.200332
0.19721
0.200004
0.197045
0.197045
0.196552
0.197374
0.19721
0.196388
0.197867
0.200661
0.200168
0.201976
0.201976

Kurve 2

0.004583
-0.001334
-0.000347
-0.001334
0.000474
-0.000512
0.001296
0.000803
0.002447
-0.00232
0.001954
-0.001334
0.000639
0.000803
0.000474
-0.000183
-0.000183
-0.000841
-0.000676
-0.000347
0.000474
0.00031
-0.002155
-0.000512
-1.9e-05
0.001789
-0.000183
0.002118
0.00031
0.000639
0.000474
-0.000841
-0.000841
0.003926
-0.001005
-0.000512
-0.001005
-0.001662
0.00031
-0.001334
-0.001991
-0.001334
0.00031
0.001132
0.000967
0.000803
-0.000183
0.000146
0.000967
0.003761
0.003268
-0.001334
0.000146
0.001296
-0.003963
0.000803
-0.001827
0.002447
-1.9e-05
-0.000676
0.002447
-0.001334
-0.002484
-0.000347
0.000803
-0.000676
0.001132
0.00294
0.00146
0.000967
0.00031
-0.001334
0.001789
-0.002813
0.000967
0.000474
0.000146
0.003268
0.003761
0.000146
0.001296
0.002611
-1.9e-05
0.003926
0.001132
0.005241
0.002282
0.002775
-0.001169
0.004583
-0.001498
-0.001169
-1.9e-05
-0.001498
0.001625
-0.002484
0.002282
0.00031
0.003761
0.000967
0.002447
0.001132
0.00146
0.001132
0.000803
-0.002155
-0.002648
-0.002484
-0.002648
-0.003306
-0.004128
0.00031
0.000474
0.000146
0.00031
0.002775
0.000803
0.002611
-0.000512
0.002118
0.002282
0.000967
0.001954
-1.9e-05
-0.000183
-0.002155
-0.000512
-0.000512
-1.9e-05
0.00146
-1.9e-05
0.000474
0.003104
0.004419
0.002282
0.000803
0.002611
0.00294
0.002447
-1.9e-05
0.000803
0.000967
0.001132
-0.000347
0.000146
0.000967
-0.000183
0.000639
0.000803
0.00409
0.00146
0.004419
0.002282
0.00146
0.001132
0.000803
0.000967
-0.00232
0.001296
-0.001991
0.002611
-0.001498
0.004255
-0.000676
0.002118
0.001789
0.001296
0.001132
-0.000183
0.002118
0.002611
0.002775
0.000474
0.00409
0.002447
0.002611
0.00146
0.003433
-0.001169
0.001625
0.000146
0.000146
0.000639
0.00146
0.003926
0.000639
0.002118
0.001132
0.003761
-0.000183
0.002118
0.00031
0.001954
0.000639
0.000639
0.00031
0.000474
0.000967
-0.002484
0.000639
-0.001169
-0.001169
-0.000676
0.000474
-0.000841
0.000803
-0.000512
0.000639
-0.000512
0.001789
0.00294
-0.001005
-0.003799
0.002118
-0.001662
-0.000183
0.001296
-0.000183
0.000146
0.00146
0.000474
-0.001662
0.000639
0.001296
0.003761
0.001132
0.003104
0.003597
0.000803
0.001132
-0.001005
-0.001169
-0.001334
0.001625
-0.001169
0.001625
-0.001662
0.003926
0.003268
0.003926
-0.001169
0.002118
0.000639
-0.001334
0.000474
0.00031
-0.002155
-0.001169
0.002775
0.003597
0.002118
-0.000347
0.001296
-0.002813
-0.004128
-0.001334
0.000146
-0.002813
-0.001498
0.00146
-0.001334
-0.002155
-0.004128
-1.9e-05
-0.002977
-0.001662
-0.001005
0.000474
-0.000347
-0.000841
0.000146
0.00146
-0.001498
-0.001991
0.00031
-0.001005
-0.000841
0.002118
-0.000512
-0.001662
0.001296
-0.000512
0.003104
-0.000347
0.002282
-0.001991
-0.007579
-0.002813
-0.000676
-0.000841
-0.000183
0.000146
0.001625
0.000474
0.002118
0.001625
-0.00232
-0.007744
-0.002648
0.000803
0.003761
0.00031
-0.001005
0.002282
-0.000347
-0.002977
-0.000676
-1.9e-05
-0.011524
-0.003306
-0.003799
-0.003963
-0.002648
-0.00347
0.002447
-0.000512
0.003926
-1.9e-05
0.00146
-0.006264
-0.001169
-0.002155
-0.002648
-0.001991
-0.001005
-0.000183
-0.001827
0.001625
-0.000512
0.000474
0.000146
0.000146
0.000803
-0.000676
0.001132
-0.000512
-0.001005
0.000474
-0.000676
-0.001169
-0.001334
0.002775
-0.001169
-0.002484
-0.001827
-0.001169
0.00031
-0.001991
0.003597
-0.000347
0.002118
0.002447
0.005734
-0.000183
-0.001334
-0.001991
-0.004128
-0.000841
-0.004785
-0.001662
-0.001498
-0.000676
-0.000347
0.006227
0.00146
-0.000841
0.001132
0.001132
0.000146
-0.001169
0.003268
0.001296
0.000146
-0.001334
0.000803
-0.002813
0.001954
-0.002977
-0.000676
-0.001169
-0.000347
0.002118
0.00146
-0.000512
-0.002155
0.000639
-0.000183
0.000967
-0.001991
0.000639
-0.001005
-0.001169
-0.001991
-0.000512
-0.000841
-0.001991
-0.001827
-0.001169
0.000146
-0.002484
-0.001827
0.000146
-0.000841
-0.000183
0.001789
-1.9e-05
-0.001334
-0.003306
-0.003799
-0.002484
-0.002977
-0.002977
-0.001498
0.002447
0.001625
0.00146
0.001789
0.000967
0.000967
0.00146
0.00031
0.004255
-0.001005
0.001789
-0.00232
0.001132
-0.001334
-0.000841
-0.001334
0.001296
-0.000512
-0.002155
0.000803
-0.002648
0.002118
0.001625
0.002118
0.000967
0.001296
-0.000841
0.002775
-1.9e-05
-0.002813
-0.001005
-0.001498
-0.001662
-0.00347
0.001789
0.001296
0.003761
-0.0061
-0.001005
-0.003306
0.001132
-0.001498
0.000146
-0.001498
-0.001169
-0.003306
-0.001334
-0.000841
-0.001662
-0.003142
0.00031
-0.002484
-0.001662
0.00031
-0.001662
-0.001662
0.000474
0.002118
0.000639
0.002775
0.000639
0.000967
0.002447
-0.001334
0.00031
-0.000347
-0.00232
-0.000512
0.00146
0.001132
0.001789
-0.000512
0.000146
-0.001169
0.00031
-0.001662
-0.001662
-0.001498
0.002611
0.000803
-0.001169
-0.000183
-0.000512
-0.001827
-0.002813
0.001132
-0.002484
0.003104
-0.000676
-1.9e-05
0.00031
-0.000347
-0.001169
0.000474
-0.003799
-0.000676
-0.000183
-0.004128
0.000146
-0.001005
0.001954
-0.00232
-0.001169
-0.002648
0.000639
-0.004292
-0.005607
-0.000512
-0.000841
-0.000347
-0.000183
0.000803
0.000803
0.000967
-0.001334
0.001296
-0.001334
0.002611
-0.002977
-0.000183
-0.004621
-0.001498
-0.000841
-0.001991
-1.9e-05
-0.001827
0.002447
-0.00232
-0.000512
-0.001005
0.000474
-0.001498
-0.000183
-0.003963
-0.000183
0.000146
-0.000183
-0.000512
-0.004621
-0.001662
-0.001005
0.00031
-0.001498
-0.001005
-0.000512
-0.000676
-0.001169
0.00146
-0.001334
-1.9e-05
0.001625
-0.002648
-0.001991
-1.9e-05
-0.003306
-0.002155
-0.001334
-0.001498
-0.000676
-0.000676
0.000639
-0.001662
-0.001005
-0.001169
0.001625
-0.000347
0.002118
-1.9e-05
0.000967
0.002282
0.001954
0.001625
-0.001169
-0.000676
0.000474
0.000146
-0.001827
0.002447
-0.001334
0.000146
-0.000512
0.001296
-0.001169
0.001789
0.000967
-0.000183
0.000803
0.001296
-0.001169
-0.001169
0.000474
-0.001662
0.002118
-0.002648
-0.001498
-0.001334
-0.001169
-0.003142
-0.000512
0.003268
0.002282
0.002611
0.001625
0.004583
0.002447
0.005405
0.000803
0.003104
0.003433
-0.000183
-0.001169
0.001789
-0.000183
-1.9e-05
-0.00347
-0.004949
-0.001005
-0.000183
-0.001662
0.001296
0.00146
0.000474
0.001296
-1.9e-05
0.002282
0.000967
0.000474
-0.001827
0.001789
-0.002155
-0.001005
-0.000841
0.000639
0.00146
0.002118
0.00146
0.00031
0.002447
-0.000512
0.002447
0.001132
0.001132
0.000639
-0.000183
-0.000841
0.003104
-0.001662
-0.001005
-0.000183
-0.003142
0.002282
-0.000183
0.001625
-0.000841
0.001954
0.000967
0.003926
0.000803
0.000803
0.00146
0.00146
0.000967
0.00031
-0.002155
0.003268
0.000474
0.000803
0.002611
0.00031
0.001132
0.001132
0.002611
-0.000841
0.001296
0.00031
0.000474
0.000967
0.000639
-0.001334
-1.9e-05
0.001132
-0.001827
0.00031
-0.002813
0.000639
-0.001662
-0.001334
0.000474
0.000967
0.000639
0.001625
0.000146
-0.001498
-0.001498
-0.004456
-0.004621
-0.003799
-0.002484
-0.000841
0.001296
-0.001169
0.000146
-0.000841
0.000474
-0.002813
0.001954
0.00031
0.001625
-0.000347
0.001789
0.000967
-0.001827
0.004748
0.000639
0.001954
-0.004949
-0.000841
-0.001005
-0.000676
-0.003306
0.001296
-0.000676
0.00031
0.00146
-1.9e-05
-0.002648
0.000803
0.001296
-0.001827
-0.000347
-0.002977
0.000474
-0.000183
-0.000347
-0.001991
0.00146
-0.001827
-0.001334
0.004583
0.013294
0.017567
0.024964
0.034168
0.038934
0.052575
0.05011
0.059807
0.06408
0.069997
0.076572
0.082982
0.085118
0.089885
0.095308
0.098595
0.103691
0.107635
0.112894
0.112237
0.117496
0.121441
0.125879
0.126865
0.130809
0.130481
0.138205
0.140671
0.142479
0.142807
0.145437
0.146916
0.149382
0.151683
0.151354
0.154148
0.156285
0.159079
0.160558
0.162366
0.162037
0.164338
0.165817
0.170748
0.167954
0.169598
0.16894
0.170913
0.172885
0.173049
0.176829
0.173707
0.177487
0.17535
0.176172
0.176501
0.180445
0.172885
0.168283
0.099089
0.10139
0.078873
0.033839
0.028251
0.035811
0.043865
0.050274
0.05537
0.003761
0.003597
0.004748
0.013623
0.021019
0.027922
0.03088
0.043371
0.048631
0.045672
0.051425
0.00146
0.002447
-1.9e-05
-0.000183
-0.000841
0.001132
-0.000183
0.000146
-0.001005
0.000474
0.001296
0.000474
-0.000183
-0.000347
-0.000183
-0.000347
-0.000347
0.000146
-1.9e-05
-1.9e-05
0.000146
0.000146
0.000146
-0.000183
-0.000347
-0.000347
-0.000347
-0.000347
-1.9e-05
0.000146
0.00031
0.000146
0.000146
0.00031
-0.000347
-0.000512
-0.000183
-0.000512
-0.000183
0.000146
-1.9e-05
0.000146
0.000146
0.000146
0.000146
-1.9e-05
-0.000512
-0.000512
-0.000347
-0.000347
0.000146
0.00031
0.00031
0.000146
0.00031
-1.9e-05
-1.9e-05
-0.000183
-0.000347
-0.000512
-0.000183
-1.9e-05
-1.9e-05
0.000146
0.000146
0.000146
-0.000183
-0.000183
-0.000183
-0.000347
-0.000512
-0.000183
-0.000183
0.000146
0.000146
0.000146
0.00031
-0.000347
-0.000183
-0.000347
-0.000183
-0.000183
-0.000347
0.000146
-1.9e-05
0.000146
0.000146
0.000146
-1.9e-05
-0.000183
-0.000183
-0.000512
-0.000512
-0.000183
0.000146
-1.9e-05
0.000474
0.00031
0.000474
-1.9e-05
-0.000183
-0.000347
-0.000512
-0.000183
-0.000183
-1.9e-05
0.000146
0.000146
0.000474
0.00031
-0.000347
-0.000183
-0.000183
-0.000512
-0.000347
-0.000183
0.000967
-0.000676
0.001625
0.00031
0.002118
0.001625
0.00031
0.00146
0.00031
-0.001498
-0.000841
0.000803
-0.001498
-0.000183
-0.000183
0.002447
-0.000676
0.000803
0.00031
0.00031
-0.000841
0.001296
0.000639
0.001625
0.001954
0.00146
0.002447
-0.000183
-0.001498
0.000639
0.00031
-0.001498
-0.000841
-0.000183
0.002447
0.000474
0.001625
0.002282
0.003433
0.00146
0.000803
0.001296
-0.000183
-0.000183
-1.9e-05
0.00031
0.000803
0.001132
0.000639
0.002611
0.00031
-0.001169
0.000967
-1.9e-05
0.000803
0.002118
0.001625
0.004583
0.00787
0.005734
0.00935
0.006227
0.009514
0.019868
0.024306
0.031373
0.040249
0.045672
0.051425
0.058164
0.064738
0.071477
0.074271
0.080681
0.084296
0.090706
0.092186
0.095801
0.104019
0.107306
0.113223
0.115031
0.118483
0.124235
0.124564
0.128015
0.131467
0.131138
0.137219
0.13574
0.141164
0.14215
0.146095
0.147245
0.151354
0.152669
0.153984
0.155627
0.157435
0.1576
0.158586
0.163188
0.162366
0.166146
0.165982
0.170913
0.16894
0.169105
0.169926
0.171734
0.1742
0.171899
0.173214
0.176665
0.179788
0.176172
0.178966
0.178637
0.18176
0.179952
0.180774
0.180938
0.183897
0.183404
0.185047
0.186855
0.185869
0.188334
0.190471
0.189814
0.182911
0.188992
0.188992
0.189485
0.186198
0.188006
0.189978
0.192115
0.19195
0.192772
0.1908
0.180774
0.189978
0.19195
0.192443
0.190307
0.193594
0.192608
0.196552
0.192608
0.196388
0.194251
0.187841
0.19573
0.194744
0.193594
0.194744
0.193265
0.195402
0.195073
0.194909
0.197045
0.19458
0.193594
0.194087
0.198196
0.197538
0.198689
0.196881
0.198689
0.199346
0.197374
0.196881
0.197374
0.199675
0.19721
0.196717
0.19836
0.200825
0.197538
0.199018
0.199018
0.200168
0.196388
0.199839
0.200497
0.198853
0.198689
0.199018
0.198524
0.198031
0.197045
0.19573
0.202633
0.19573
0.19836
0.200168
0.196223
0.197703
0.19836
0.198853
0.200168
0.197538
0.199346
0.197374
0.197045
0.197045
0.195073
0.197703
0.19573
0.198196
0.196059
0.197538
0.195237
0.197867
0.197867
0.197538
0.198853
0.200332
0.198196
0.199018
0.199182
0.198196
0.198853
0.198689
0.202305
0.199675
0.200004
0.200661
0.20099
0.197374
0.199018
0.196223
0.199182
0.198689
0.199675
0.202798
0.200004
0.200825
0.197703
0.203455
0.195895
0.198524
0.197374
0.197703
0.196059
0.196059
0.198689
0.195895
0.195073
0.200332
0.199839
0.198853
0.199018
0.19836
0.199182
0.196881
0.192936
0.197703
0.197538
0.196717
0.193922
0.196388
0.19195
0.193265
0.193922
0.194087
0.192936
0.194251
0.194744
0.186198
0.12555
0.120948
0.123249
0.128508
0.12818
0.132946
0.135411
0.139027
0.136398
0.14215
0.143465
0.091199
0.097445
0.102376
0.10517
-0.00347
0.003761
0.011486
0.021348
0.028579
0.036304
0.039098
0.04748
0.049781
0.056191
0.061122
0.066381
0.071148
0.074764
0.082653
0.081338
0.091035
0.097445
0.104184
0.102869
0.108457
0.110922
0.11158
0.115689
0.120948
0.121934
0.124399
0.124728
0.132946
0.134754
0.138041
0.140506
0.142807
0.144451
0.145437
0.149382
0.151025
0.153326
0.155627
0.156285
0.157271
0.162366
0.166475
0.162366
0.165982
0.16516
0.166311
0.166146
0.16779
0.16894
0.170913
0.168776
0.170748
0.173378
0.1742
0.174693
0.177158
0.176172
0.177651
0.17798
0.179295
0.179952
0.181267
0.182253
0.182582
0.181924
0.18061
0.184718
0.183239
0.183568
0.184554
0.185376
0.183897
0.186198
0.188992
0.189649
0.185047
0.183897
0.190307
0.188499
0.189814
0.190142
0.192443
0.191293
0.190964
0.1908
0.191128
0.193101
0.191457
0.192443
0.191621
0.193429
0.195402
0.196717
0.194087
0.196223
0.193922
0.196059
0.193101
0.196881
0.193265
0.192279
0.195073
0.195895
0.19721
0.196388
0.19573
0.196059
0.196717
0.193758
0.19721
0.196223
0.19836
0.195895
0.197045
0.19573
0.195566
0.195566
0.195073
0.19721
0.192772
0.194251
0.195895
0.197045
0.195073
0.19721
0.196552
0.196881
0.199018
0.199182
0.19836
0.200004
0.198853
0.197374
0.197538
0.198853
0.198031
0.198853
0.197374
0.194909
0.200168
0.195895
0.195237
0.197374
0.199346
0.197703
0.200168
0.198196
0.199839
0.201812
0.199182
0.198031
0.200004
0.200168
0.200332
0.200497
0.197374
0.199675
0.196059
0.198689
0.199182
0.20099
0.199675
0.198853
0.20099
0.19721
0.198196
0.199182
0.198689
0.196717
0.198853
0.196388
0.19836
0.196388
0.196717
0.195073
0.19721
0.199675
0.199675
0.199839
0.199018
0.203291
0.19836
0.199182
0.199675
0.201319
0.199839
0.199018
0.199675
0.199675
0.198196
0.198524
0.196717
0.197538
0.198689
0.198524
0.201812
0.197538
0.199018
0.199511
0.199839
0.199182
0.199018
0.197374
0.204113
0.197867
0.197045
0.199346
0.197703
0.196552
0.198853
0.200332
0.197374
0.198031
0.204934
0.200004
0.199018
0.201812
0.198524
0.199839
0.198689
0.19836
0.197045
0.198031
0.19721
0.198031
0.199346
0.199346
0.199675
0.199018
0.199675
0.19836
0.200332
0.199839
0.200497
0.199675
0.201483
0.198853
0.202798
0.199182
0.199839
0.203126
0.201319
0.200661
0.199182
0.199018
0.197538
0.200825
0.198689
0.201647
0.197538
0.201647
0.197703
0.200332
0.199182
0.195895
0.198196
0.195895
0.198689
0.199018
0.199675
0.198524
0.201319
0.197045
0.201483
0.200497
0.199182
0.197703
0.199511
0.199839
0.19836
0.197538
0.199839
0.200661
0.196223
0.200168
0.19836
0.198196
0.198196
0.198689
0.199182
0.200825
0.19836
0.198853
0.199839
0.199511
0.199839
0.199839
0.197045
0.199346
0.199675
0.196552
0.198689
0.200332
0.20099
0.199346
0.199018
0.199182
0.199018
0.200004
0.197045
0.198689
0.200168
0.198853
0.199839
0.197374
0.199018
0.200004
0.198031
0.199346
0.199839
0.199182
0.193758
0.199511
0.199346
0.200168
0.198524
0.19836
0.197703
0.197703
0.196059
0.195402
0.198689
0.197045
0.198524
0.195566
0.19721
0.196059
0.200825
0.198689
0.196223
0.196881
0.199675
0.197867
0.19721
0.200004
0.199018
0.199839
0.199675
0.201812
0.200497
0.198853
0.198196
0.196223
0.195895
0.198853
0.19721
0.198196
0.199511
0.200004
0.200168
0.199182
0.199018
0.197867
0.200004
0.19721
0.197374
0.201812
0.201976
0.198524
0.201154
0.199182
0.198689
0.192115
0.201483
0.200168
0.195895
0.198196
0.199346
0.199839
0.195566
0.198689
0.200497
0.197538
0.196717
0.200168
0.200168
0.201976
0.198689
0.201319
0.200825
0.199346
0.20099
0.20099
0.198689
0.198689
0.197374
0.199182
0.199182
0.19573
0.199182
0.197867
0.202469
0.199839
0.203784
0.199675
0.201319
0.201154
0.198853
0.200661
0.195895
0.20214
0.200168
0.198853
0.195566
0.200661
0.197703
0.200004
0.200497
0.199511
0.199511
0.197374
0.198196
0.199675
0.199839
0.198524
0.201812
0.198196
0.199839
0.198853
0.201154
0.193265
0.194251
0.198689
0.197538
0.193922
0.197703
0.201483
0.197703
0.198524
0.199839
0.200497
0.198689
0.200004
0.199182
0.200825
0.199346
0.198031
0.198031
0.199839
0.197374
0.200168
0.19836
0.196059
0.198196
0.200004
0.199346
0.198853
0.200497
0.198689
0.200168
0.199182
0.200168
0.197867
0.19836
0.198196
0.199018
0.196717
0.197703
0.198031
0.198524
0.199018
0.199182
0.198853
0.199511
0.200497
0.197867
0.20099
0.198031
0.197703
0.198031
0.197045
0.195895
0.196059
0.196717
0.197703
0.201812
0.198524
0.199511
0.198689
0.197538
0.199511
0.198853
0.199018
0.197374
0.196552
0.19836
0.198689
0.198031
0.199675
0.200661
0.198689
0.197703
0.197045
0.197867
0.198853
0.197703
0.199346
0.196059
0.197703
0.196552
0.199018
0.198031
0.19836
0.198524
0.197867
0.199018
0.198524
0.197538
0.198031
0.199018
0.197045
0.200004
0.197703
0.200661
0.198853
0.198031
0.198196
0.197538
0.20099
0.199511
0.201647
0.198524
0.199675
0.198196
0.199839
0.196881
0.199182
0.197374
0.198524
0.199511
0.198689
0.203126
0.196717
0.199018
0.199346
0.19721
0.197867
0.19836
0.198853
0.199346
0.198196
0.200004
0.199839
0.200168
0.198031
0.19836
0.19195
0.198031
0.197867
0.19836
0.197867
0.197374
0.198853
0.200332
0.200168
0.197538
0.200168
0.188499
0.197374
0.198196
0.197703
0.19721
0.197867
0.200004
0.19721
0.199346
0.195237
0.200661
0.187348
0.201812
0.197374
0.198689
0.19573
0.197867
0.200168
0.197703
0.196881
0.197703
0.198196
0.193101
0.196059
0.197374
0.198031
0.197703
0.200004
0.19836
0.20099
0.19836
0.197045
0.199675
0.200497
0.197538
0.199018
0.198196
0.196059
0.198853
0.197538
0.196059
0.197045
0.20099
0.197374
0.204934
0.194909
0.196223
0.19721
0.198031
0.199182
0.199346
0.199675
0.201319
0.198853
0.198689
0.203291
0.19573
0.197045
0.196881
0.198031
0.196059
0.197045
0.200661
0.19836
0.19836
0.199346
0.199018
0.197045
0.198689
0.199018
0.199182
0.198031
0.201154
0.198689
0.199018
0.19836
0.198853
0.197045
0.197374
0.19721
0.197538
0.19836
0.196059
0.198689
0.201154
0.198524
0.198524
0.197867
0.19721
0.197538
0.199182
0.197538
0.19195
0.19721
0.195402
0.195895
0.193922
0.197703
0.193758
0.193594
0.19458
0.193594
0.19458
0.193429
0.194416
0.193922
0.19573
0.192443
0.194087
0.195566
0.194909
0.193594
0.191128
0.188663
0.189649
0.192115
0.190964
0.197867
0.194087
0.194416
0.193758
0.197703
0.192936
0.196717
0.193922
0.194909
0.19573
0.194744
0.195237
0.198524
0.19458
0.19458
0.19721
0.193429
0.196881
0.194416
0.195073
0.197045
0.194909
0.193101
0.197703
0.199018
0.199675
0.19836
0.198031
0.197703
0.194087
0.197374
0.196552
0.195237
0.196223
0.197703
0.196388
0.197703
0.198031
0.196717
0.198524
0.198689
0.197703
0.202469
0.192936
0.19573
0.19836
0.197045
0.199182
0.19721
0.199018
0.191457
0.03236
0.00031
0.011158
0.01428
0.028744
0.034332
0.041892
0.047152
0.05389
0.060958
0.064245
0.072791
0.075257
0.081009
0.084132
0.091857
0.093007
0.099253
0.101883
0.107635
0.110922
0.116346
0.118154
0.119962
0.124893
0.128837
0.133439
0.132124
0.138699
0.138863
0.141164
0.141164
0.143958
0.146423
0.15119
0.149546
0.151518
0.154806
0.154641
0.160229
0.162037
0.159901
0.159079
0.163023
0.163516
0.166475
0.163023
0.164338
0.168118
0.155134
0.15612
0.159572
0.161873
0.160394
0.16401
0.16253
0.16516
0.166311
0.163845
0.162859
0.166146
0.165982
0.167461
0.167132
0.166311
0.165982
0.167297
0.164503
0.166146
0.16516
0.163516
0.16779
0.164667
0.166804
0.166475
0.162037
0.166804
0.167461
0.166475
0.16779
0.16401
0.168447
0.166475
0.167297
0.166804
0.166311
0.167297
0.166311
0.166475
0.164831
0.171077
0.165982
0.171406
0.169762
0.170419
0.171406
0.169598
0.170584
0.171077
0.172227
0.170419
0.171734
0.173049
0.175021
0.175515
0.176829
0.176501
0.177651
0.176008
0.178637
0.179295
0.180281
0.178144
0.182089
0.182746
0.184061
0.18554
0.183732
0.185705
0.185047
0.184554
0.187019
0.183568
0.185212
0.187841
0.18439
0.164174
0.003597
0.004583
0.014445
0.022498
0.029566
0.037619
0.044358
0.050439
0.056849
0.062601
0.068025
0.074435
0.077722
0.081995
0.093336
0.090706
0.092843
0.097609
0.097774
0.10517
0.111087
0.111744
0.11651
0.117496
-0.000512
0.011651
0.018718
0.025621
0.03351
0.038441
0.042221
0.052411
0.05652
0.062108
0.066381
0.072956
0.076572
0.082982
0.087748
0.092679
0.096788
0.100896
-0.000183
-0.000347
-0.000347
0.000474
0.005734
0.014773
0.02332
0.026771
0.03351
0.040084
0.047809
0.054876
0.050439
0.055698
0.062108
0.067368
0.071148
0.077722
0.081831
0.084789
0.08972
0.092514
0.002118
-0.000347
-0.000676
-0.000183
-0.000183
-0.001827
-0.001991
-0.000183
0.000474
0.000146
0.004255
0.009514
0.012144
-0.000347
0.002447
0.013787
0.01576
0.024964
0.028251
0.023649
0.003104
0.008857
0.014609
0.024799
0.029566
0.037619
0.044193
0.048795
0.052904
0.060465
0.066381
0.069669
0.072791
0.079201
0.085776
0.08594
0.082324
-0.007744
0.002447
0.000146
0.00146
-1.9e-05
0.001132
0.000639
-1.9e-05
0.005241
0.013787
0.021348
0.026114
0.037619
0.019868
0.026936
0.032688
0.040742
0.046001
0.052247
0.057013
0.065724
0.072627
0.076407
0.081831
0.087255
0.089391
0.098431
0.099582
0.103691
0.10895
0.111087
0.116182
0.116675
0.125057
0.122098
0.129001
0.129823
0.133275
0.134754
0.137548
0.13952
0.143301
0.146752
0.146588
0.150039
0.150368
0.15612
0.157271
0.158257
0.157435
0.160394
0.161051
0.163352
0.164338
0.164831
0.166311
0.165324
0.168447
0.16894
0.171241
0.172885
0.172392
0.175843
0.176172
0.174528
0.176501
0.175021
0.180938
0.179459
0.17798
0.181596
0.184718
0.182746
0.183732
0.18554
0.182746
0.186691
0.18554
0.186526
0.185869
0.188334
0.187841
0.187184
0.188663
0.191786
0.1908
0.190142
0.189649
0.190635
0.193101
0.188827
0.192443
0.191621
0.192608
0.188663
0.193758
0.193758
0.195402
0.193265
0.197374
0.193101
0.193429
0.193758
0.194909
0.193594
0.194251
0.19573
0.193265
0.195402
0.193101
0.19573
0.193594
0.193594
0.1908
0.192936
0.194416
0.194744
0.19573
0.197045
0.195895
0.193758
0.195073
0.193594
0.194087
0.195895
0.19721
0.19458
0.196388
0.197703
0.197374
0.196552
0.197045
0.198853
0.198196
0.197703
0.198689
0.198689
0.194087
0.199346
0.199018
0.19836
0.197867
0.196552
0.201319
0.197045
0.195073
0.199182
0.19721
0.198031
0.19458
0.198196
0.197045
0.196717
0.200825
0.199675
0.199182
0.193265
0.199511
0.197374
0.19836
0.194087
0.198524
0.199182
0.192936
0.193265
0.199346
0.195237
0.194909
0.198524
0.198031
0.199182
0.195566
0.198196
0.199018
0.198524
0.198689
0.200332
0.197867
0.19721
0.198196
0.197045
0.198031
0.195237
0.200332
0.198031
0.199018
0.198196
0.197538
0.196223
0.19836
0.197374
0.199511
0.198689
0.197045
0.198689
0.197703
0.19836
0.198689
0.19836
0.196388
0.196881
0.196388
0.199511
0.197867
0.196059
0.19836
0.201319
0.19836
0.198689
0.202469
0.19836
0.197867
0.200661
0.200004
0.198689
0.195073
0.19836
0.196552
0.193758
0.192936
0.200497
0.199675
0.196717
0.20214
0.199839
0.199675
0.199018
0.198031
0.199675
0.197703
0.198524
0.199346
0.197703
0.197703
0.199018
0.195402
0.198031
0.194416
0.197703
0.199018
0.198031
0.198853
0.201154
0.199182
0.198031
0.199839
0.197703
0.196059
0.195566
0.197867
0.196223
0.196881
0.196388
0.197374
0.198853
0.19721
0.198689
0.198524
0.19836
0.200825
0.198689
0.197374
0.200661
0.202798
0.200661
0.195895
0.197374
0.195402
0.19573
0.19458
0.193922
0.200332
0.198031
0.202633
0.197703
0.196881
0.199839
0.201154
0.197703
0.200497
0.198031
0.199675
0.198853
0.198031
0.198689
0.198853
0.198689
0.19721
0.198853
0.19721
0.198524
0.199018
0.198031
0.199675
0.199675
0.198524
0.198689
0.19458
0.199018
0.197867
0.196552
0.197045
0.19836
0.19836
0.198031
0.19836
0.196881
0.202469
0.194744
0.196552
0.198689
0.198853
0.195895
