Ladekurvenmessung

Zeit: 2018_05_04 10.03.38

Info: FVA3, v = 0.747, T = 23, F = 20, h = 457.0

Ladewiderstand[Ohm]: 1012700

Störkapazität[pF]: 0.000000

Entladezeit[ms]: 200

Abtastrate[Hz]: 250000

Anzahl der Messwerte: 2500.000000

Verzögerung[ms]: 1

Ladespannung[V]: 0.200000


Kurve 1

-0.001991
0.005569
0.001625
0.002611
-0.001662
0.002118
-0.001662
-0.000512
-0.000841
0.000474
0.000967
-0.001498
0.001296
-0.002648
-0.000347
-0.001169
0.001296
0.000146
0.000967
-0.000841
0.001132
-0.001991
0.001132
0.000474
0.005734
0.000639
0.001132
0.003268
0.002611
0.000803
0.000803
0.001954
-1.9e-05
0.002611
0.000639
0.00146
-0.000183
0.001296
-0.001169
-0.001827
-0.002813
-0.004128
0.000146
0.000639
0.001132
0.001954
0.001296
-0.001662
0.001954
-0.000512
-0.001334
-0.000676
0.001132
-0.001991
-0.001827
-0.003635
-0.002155
-0.001498
-0.000512
0.000474
-0.000183
-0.003635
-0.004456
-1.9e-05
-0.003963
0.002447
0.000803
0.00031
0.001296
0.001789
0.000639
-0.00232
-0.001498
0.000803
0.000803
-0.002484
0.000803
-0.001662
0.001296
0.000146
-0.001827
-1.9e-05
0.002611
0.003104
0.00031
0.002118
-0.000841
-0.000347
-0.001991
0.00031
-0.001169
0.000474
-0.005114
-0.001334
-0.00347
-0.001498
0.002118
0.001954
0.000639
0.002118
0.001789
0.000639
-1.9e-05
-0.004456
-0.001498
-0.001334
-0.003142
0.001296
-1.9e-05
-0.001662
0.004255
-0.003799
-0.0061
-0.00232
-0.001827
-0.001169
0.001954
-0.000512
0.003433
-0.000841
0.001132
0.00146
-0.000347
-0.001991
-0.003963
-0.000183
-0.003306
0.001789
-0.003306
0.000967
0.001789
-1.9e-05
0.00146
0.002611
-1.9e-05
-1.9e-05
0.003268
0.000639
0.001789
-0.001498
0.002118
0.004583
0.002611
-0.001005
0.001789
-0.002977
-0.003306
-0.000676
-0.001169
0.00031
-0.001498
0.000803
0.000474
0.00146
-0.000512
0.00409
0.001625
0.000474
-0.000512
0.000639
0.002611
-0.003799
0.001132
0.001625
-0.001334
0.000803
0.00031
-0.002155
-1.9e-05
-0.00232
0.00146
-0.000512
0.002282
-0.000183
0.003926
0.004255
0.001132
0.000803
0.00031
-0.001169
-0.000347
-0.001498
-0.000512
0.003104
-0.000512
-0.000512
-0.001498
0.002282
-1.9e-05
0.000146
0.001296
-0.001334
0.003268
-0.002648
0.002447
0.000146
0.001296
-0.000512
-1.9e-05
-0.003142
-0.000183
-0.001991
-0.000347
-0.000347
0.002118
0.005076
0.005076
0.000967
0.002118
-0.001005
0.002118
-0.000841
-0.00232
0.000474
-0.000183
0.001132
0.00146
-0.000183
-0.002813
0.000474
-0.000841
0.005405
-0.001334
0.002282
0.003104
0.000803
0.001296
0.002447
0.003926
-0.000183
0.004912
-0.002155
0.005569
-0.002977
0.000639
-0.001662
-0.001498
0.000146
0.003104
0.002611
0.00294
-1.9e-05
-0.004785
-0.000347
-0.002813
0.00031
-0.001827
-0.000347
-0.000512
-0.000676
-0.002813
0.005076
0.011979
0.019375
0.018389
0.035975
0.044522
0.044686
0.053233
0.05652
0.066381
0.067368
0.078708
0.079037
0.08594
0.081995
0.094322
0.097938
0.103197
0.106485
0.111908
0.117332
0.11536
0.119633
0.126207
0.129495
0.125879
0.136726
0.137712
0.137055
0.143301
0.147903
0.148724
0.147738
0.151354
0.149382
0.155463
0.155792
0.157435
0.158093
0.163188
0.162859
0.164174
0.166146
0.166146
0.169105
0.001296
0.000639
0.014938
0.022827
0.029237
0.037126
0.046001
0.051918
0.057835
0.064574
0.065231
0.077558
0.074435
0.083639
0.090049
0.092843
0.096459
0.105498
0.108128
0.112401
0.112237
0.114209
0.118483
0.122756
0.128344
0.130152
0.133932
0.134425
0.140013
0.141657
0.143301
0.14478
0.149546
0.148724
0.150204
0.158421
0.155956
0.159572
0.158914
0.164503
0.162695
0.164996
0.164503
0.169762
0.166639
0.169598
0.172556
0.171734
0.171406
0.173871
0.175186
0.180281
0.180116
0.177815
0.183568
0.180116
0.183075
0.181596
0.185047
0.183897
0.184225
0.183732
0.186855
0.185047
0.185705
0.183897
0.187184
0.188006
0.186526
0.190635
0.187513
0.192443
0.192772
0.193758
0.191293
0.191457
0.193429
0.192443
0.192115
0.192936
0.192936
0.19195
0.194087
0.192772
0.19573
0.193429
0.196717
0.196717
0.198031
0.19721
0.194251
0.197538
0.199839
0.197703
0.196552
0.193594
0.19573
0.19721
0.191457
0.20214
0.198853
0.194251
0.201483
0.19721
0.197538
0.199675
0.19836
0.200497
0.198031
0.200825
0.199839
0.197867
0.197703
0.199182
0.195402
0.195895
0.197867
0.195073
0.199675
0.199675
0.201483
0.199346
0.195566
0.201976
0.207235
0.199182
0.201154
0.196881
0.197703
0.199675
0.198689
0.199675
0.198196
0.199346
0.198031
0.201976
0.197867
0.199018
0.198524
0.200497
0.199018
0.200332
0.201647
0.200168
0.20099
0.198524
0.197374
0.196223
0.199511
0.196717
0.196223
0.194744
0.198524
0.194087
0.199182
0.199018
0.198524
0.201154
0.198853
0.197703
0.201154
0.200332
0.198524
0.197703
0.198853
0.199675
0.198196
0.198031
0.196552
0.198853
0.195073
0.197867
0.19721
0.197703
0.197045
0.199511
0.199182
0.197867
0.204113
0.196717
0.199839
0.200661
0.200661
0.199182
0.200004
0.197538
0.20099
0.19836
0.199839
0.200004
0.198196
0.200004
0.200168
0.200825
0.199182
0.200661
0.197703
0.201319
0.200168
0.20362
0.201483
0.201647
0.201483
0.200168
0.199346
0.200004
0.200825
0.197045
0.19721
0.20099
0.203126
0.196881
0.199182
0.199018
0.198689
0.197045
0.201812
0.202305
0.199839
0.197867
0.198196
0.202633
0.198031
0.199182
0.202469
0.200168
0.200825
0.201483
0.196881
0.202305
0.200497
0.202305
0.200004
0.204606
0.201647
0.201647
0.198524
0.199675
0.200004
0.198524
0.198524
0.199018
0.201812
0.200825
0.200004
0.199182
0.199675
0.199182
0.199839
0.200168
0.20099
0.200332
0.199018
0.205263
0.20214
0.200332
0.199346
0.199511
0.199182
0.201319
0.197867
0.198524
0.197867
0.199018
0.200825
0.200497
0.198524
0.202305
0.204277
0.196717
0.209043
0.199839
0.200497
0.201812
0.202469
0.199675
0.200497
0.197867
0.199675
0.200825
0.19836
0.200661
0.202798
0.199839
0.199182
0.204934
0.200497
0.201647
0.199346
0.20362
0.199511
0.200332
0.196717
0.202633
0.199346
0.19836
0.201647
0.201319
0.201319
0.198689
0.200332
0.199182
0.198853
0.192279
0.200497
0.200332
0.200168
0.202469
0.200497
0.199346
0.201319
0.199182
0.197867
0.200168
0.197703
0.197374
0.198689
0.198689
0.201812
0.200332
0.195402
0.201647
0.201319
0.196388
0.197045
0.201812
0.195895
0.200004
0.201976
0.200825
0.200661
0.199839
0.202469
0.200332
0.199839
0.200168
0.202305
0.199511
0.198524
0.204113
0.202962
0.202633
0.200497
0.201976
0.201647
0.194744
0.200497
0.198524
0.199839
0.204277
0.200497
0.20214
0.199675
0.199182
0.198524
0.200332
0.198689
0.199511
0.202633
0.199018
0.201483
0.201647
0.202962
0.197045
0.199675
0.198031
0.200168
0.194251
0.197045
0.197374
0.196223
0.199839
0.203291
0.199018
0.203784
0.206414
0.200004
0.202305
0.200004
0.201319
0.200168
0.200825
0.201812
0.19836
0.198524
0.200332
0.200825
0.201647
0.199018
0.201812
0.201483
0.200825
0.201154
0.200497
0.203291
0.19836
0.200004
0.197045
0.200332
0.201319
0.19573
0.197045
0.201647
0.201976
0.199182
0.201154
0.199018
0.201976
0.200661
0.206578
0.199675
0.199675
0.199346
0.201154
0.199839
0.198031
0.20099
0.198689
0.19721
0.198524
0.200497
0.201319
0.198031
0.201976
0.20362
0.198524
0.199346
0.199182
0.201154
0.201319
0.202962
0.201319
0.201976
0.198031
0.199182
0.20214
0.200497
0.20099
0.199511
0.197867
0.201812
0.203126
0.200825
0.205099
0.198689
0.205099
0.202962
0.200332
0.200661
0.200004
0.198853
0.200004
0.205756
0.202962
0.206742
0.198031
0.198853
0.197867
0.200332
0.201976
0.201647
0.19836
0.20099
0.200497
0.201976
0.201976
0.196388
0.203291
0.196059
0.198524
0.201483
0.203455
0.200004
0.20214
0.200825
0.197538
0.198524
0.201976
0.202469
0.201976
0.202469
0.20214
0.20362
0.199675
0.20477
0.202962
0.202633
0.192936
0.200497
0.201319
0.202305
0.200168
0.202305
0.203126
0.201812
0.20362
0.204934
0.205756
0.194251
0.201647
0.200825
0.202633
0.205099
0.206742
0.203948
0.202305
0.202305
0.203455
0.200332
0.200497
0.201647
0.200661
0.20099
0.196223
0.203784
0.201976
0.200825
0.200825
0.203455
0.201319
0.207071
0.200497
0.205263
0.203126
0.202798
0.20099
0.202633
0.206085
0.203291
0.204441
0.202305
0.201976
0.200332
0.203948
0.19836
0.205921
0.204441
0.203455
0.201154
0.202305
0.203126
0.200661
0.201319
0.199346
0.199182
0.196388
0.200332
0.199511
0.200168
0.199675
0.201154
0.199511
0.204113
0.202469
0.201319
0.203291
0.197374
0.199182
0.198689
0.19836
0.197045
0.198853
0.197045
0.199018
0.197374
0.19836
0.193922
0.197045
0.196223
0.197045
0.196223
0.197867
0.199346
0.196717
0.198689
0.192443
0.201483
0.197538
0.193594
0.193594
0.197045
0.193594
0.193429
0.197538
0.196223
0.196552
0.198689
0.198853
0.196388
0.196388
0.193758
0.19836
0.195402
0.199182
0.197374
0.195402
0.19458
0.19721
0.195402
0.194416
0.195566
0.196388
0.199182
0.200497
0.199839
0.197538
0.200661
0.196388
0.198031
0.199018
0.200332
0.193265
0.198031
0.195073
0.194416
0.195073
0.196388
0.198196
0.197703
0.200661
0.202962
0.202633
0.197703
0.197703
0.197867
0.19721
0.197538
0.200168
0.194416
0.200661
0.200004
0.198524
0.196059
0.198524
0.198524
0.197538
0.20099
0.197374
0.200825
0.198689
0.200168
0.19836
0.200497
0.201647
0.20362
0.19836
0.198689
0.200332
0.197867
0.19836
0.196552
0.200004
0.200004
0.202633
0.199839
0.199018
0.199839
0.200004
0.198853
0.201647
0.200332
0.198524
0.199511
0.198196
0.199675
0.197538
0.197867
0.198689
0.199675
0.194251
0.204934
0.199018
0.200004
0.200332
0.202633
0.20099
0.201976
0.199839
0.200004
0.205921
0.200004
0.199675
0.202962
0.198031
0.200497
0.203291
0.196059
0.199675
0.197045
0.200332
0.199511
0.200497
0.197703
0.203784
0.201976
0.20099
0.201483
0.198524
0.201319
0.200825
0.199346
0.198031
0.204606
0.19836
0.200168
0.197374
0.199182
0.199018
0.201483
0.201812
0.200168
0.200332
0.199346
0.200332
0.199182
0.201812
0.19721
0.198853
0.196881
0.198853
0.200825
0.199346
0.197867
0.198196
0.200168
0.197538
0.204606
0.198853
0.201647
0.202469
0.202962
0.200004
0.199675
0.198853
0.199346
0.200825
0.198689
0.197045
0.200004
0.198524
0.201647
0.197045
0.196388
0.198853
0.199182
0.199511
0.200004
0.199182
0.200825
0.202469
0.199511
0.200825
0.202962
0.20099
0.195895
0.200332
0.146588
0.00935
0.013294
0.02595
0.035154
0.03992
0.046659
0.052411
0.060465
0.064409
0.070326
0.074928
0.079859
0.082324
0.091364
0.098267
0.098924
0.104677
0.109279
0.113223
0.114702
0.120948
0.120948
0.127194
0.12555
0.130481
0.134261
0.135576
0.139192
0.143629
0.145437
0.145602
0.150039
0.152998
0.153655
0.155463
0.158257
0.156285
0.16253
0.161544
0.164831
0.163188
0.167132
0.167954
0.170419
0.170913
0.173214
0.173049
0.173378
0.176008
0.1742
0.179952
0.177487
0.18061
0.176994
0.179952
0.180116
0.182089
0.184225
0.182417
0.183075
0.18439
0.182417
0.184061
0.185705
0.18554
0.188334
0.187513
0.192936
0.189485
0.190635
0.188992
0.191786
0.189485
0.187184
0.187513
0.191457
0.193758
0.192443
0.197374
0.195566
0.192936
0.192279
0.198196
0.198031
0.199675
0.193758
0.203126
0.19458
0.195566
0.198524
0.195073
0.196388
0.195237
0.19721
0.196388
0.195402
0.192936
0.19836
0.196059
0.198853
0.200661
0.201154
0.197703
0.197867
0.195566
0.196223
0.194251
0.194416
0.194251
0.196223
0.200497
0.198031
0.20362
0.193429
0.200168
0.19836
0.199839
0.197538
0.198853
0.199675
0.198689
0.197703
0.19836
0.199182
0.19836
0.202305
0.199675
0.206907
0.196059
0.199346
0.199018
0.198524
0.197538
0.203291
0.200168
0.20099
0.200004
0.199675
0.203948
0.197045
0.19573
0.200497
0.200168
0.19195
0.200332
0.19721
0.201976
0.200661
0.201154
0.193758
0.199346
0.200825
0.199346
0.199839
0.196717
0.200004
0.196059
0.198524
0.197703
0.197867
0.185212
0.19721
0.200004
0.201976
0.199182
0.200332
0.199675
0.197538
0.200168
0.196881
0.201647
0.194744
0.198031
0.19836
0.199675
0.20099
0.203455
0.198524
0.196388
0.19836
0.199511
0.197867
0.195237
0.198689
0.199018
0.198524
0.198031
0.201154
0.198196
0.19721
0.19721
0.201812
0.200497
0.197867
0.197538
0.202305
0.200661
0.199675
0.198853
0.20214
0.197374
0.199018
0.200825
0.196552
0.201154
0.195566
0.198524
0.19836
0.199182
0.196388
0.197538
0.19721
0.200332
0.199675
0.201483
0.201154
0.198196
0.201483
0.19721
0.198524
0.199182
0.200004
0.198853
0.199839
0.201154
0.200497
0.204277
0.198031
0.197045
0.200497
0.197538
0.194416
0.199346
0.198524
0.198031
0.197867
0.199839
0.198524
0.20099
0.198196
0.199182
0.198853
0.199346
0.199675
0.196881
0.19721
0.20099
0.201812
0.196881
0.202962
0.196388
0.200004
0.197703
0.19721
0.196552
0.19836
0.195402
0.198689
0.199182
0.200497
0.201976
0.199018
0.200332
0.196388
0.196717
0.198524
0.197703
0.19836
0.202962
0.197045
0.198853
0.201647
0.198853
0.199675
0.20099
0.200497
0.199675
0.198853
0.199182
0.201976
0.200168
0.199346
0.200168
0.19721
0.198031
0.198689
0.196717
0.199018
0.199182
0.200004
0.199182
0.198853
0.201154
0.201319
0.200168
0.201483
0.202305
0.200825
0.200332
0.199675
0.198689
0.199018
0.200168
0.19573
0.197867
0.199839
0.195895
0.19836
0.197867
0.199018
0.197867
0.19836
0.202633
0.205592
0.196223
0.20099
0.198689
0.197867
0.19836
0.199018
0.199346
0.197374
0.200004
0.199182
0.201154
0.200004
0.200332
0.199839
0.196223
0.196717
0.204277
0.199346
0.20214
0.201319
0.199839
0.199675
0.202633
0.197867
0.200497
0.201483
0.199346
0.201812
0.197538
0.197867
0.200661
0.201976
0.198031
0.201647
0.200497
0.200497
0.199511
0.199839
0.199346
0.199182
0.19836
0.198196
0.200332
0.19721
0.198524
0.19573
0.200497
0.198524
0.200004
0.199675
0.201483
0.198689
0.201319
0.199182
0.197374
0.201483
0.203126
0.199675
0.199839
0.201154
0.19721
0.201976
0.198196
0.200661
0.198689
0.20099
0.200497
0.200004
0.200661
0.199182
0.199839
0.20099
0.20099
0.200004
0.201154
0.19836
0.201976
0.200825
0.20214
0.198689
0.197867
0.197045
0.197867
0.201647
0.198689
0.20214
0.200825
0.201647
0.20099
0.202962
0.198524
0.200004
0.197374
0.199346
0.19721
0.197538
0.195895
0.199018
0.200168
0.199018
0.200661
0.199018
0.200825
0.198853
0.203291
0.200825
0.206414
0.201319
0.200661
0.201976
0.200168
0.198031
0.19836
0.19836
0.196552
0.197703
0.200168
0.200661
0.199346
0.201812
0.200168
0.202469
0.198689
0.201812
0.199182
0.200661
0.19721
0.196059
0.196059
0.196552
0.197374
0.200004
0.198853
0.198524
0.199182
0.200497
0.199675
0.199839
0.204277
0.193265
0.200332
0.200168
0.198689
0.199346
0.199346
0.199182
0.199182
0.199346
0.199675
0.199346
0.193758
0.203126
0.199182
0.199018
0.194909
0.199346
0.201154
0.197045
0.201647
0.200332
0.200661
0.197374
0.201976
0.199182
0.200497
0.198853
0.200004
0.19836
0.201319
0.195566
0.198524
0.200661
0.197045
0.202962
0.201647
0.201976
0.197374
0.202305
0.199182
0.200332
0.199346
0.20099
0.198031
0.198689
0.200168
0.200004
0.199182
0.198524
0.20099
0.199839
0.199018
0.198853
0.198853
0.197045
0.198689
0.199675
0.202305
0.199511
0.201319
0.203948
0.197374
0.197867
0.201319
0.20099
0.19836
0.200825
0.205263
0.202469
0.200825
0.202633
0.202962
0.199346
0.194744
0.199018
0.201319
0.201483
0.201154
0.201319
0.200661
0.200004
0.199346
0.203784
0.199018
0.200168
0.202798
0.194909
0.199839
0.201483
0.202305
0.195073
0.204277
0.199346
0.201154
0.199182
0.199182
0.199839
0.199675
0.19836
0.199675
0.201154
0.197703
0.200661
0.198196
0.199018
0.196552
0.198853
0.197867
0.196388
0.198689
0.201976
0.202962
0.200332
0.199182
0.200332
0.204113
0.192608
0.197538
0.19836
0.199675
0.198031
0.201319
0.200004
0.199511
0.200661
0.201812
0.205427
0.200168
0.200004
0.198031
0.200332
0.200168
0.199675
0.197867
0.199511
0.191786
0.197703
0.204113
0.194087
0.192936
0.199675
0.199675
0.200497
0.200661
0.200004
0.200497
0.198524
0.198853
0.202633
0.198196
0.196552
0.198031
0.195237
0.196717
0.19721
0.196388
0.197538
0.19836
0.199346
0.197045
0.198689
0.199018
0.20362
0.198031
0.197538
0.194416
0.198689
0.195073
0.195237
0.196717
0.186691
0.199182
0.197703
0.197538
0.200168
0.200332
0.200497
0.199675
0.200332
0.201647
0.199346
0.188663
0.197374
0.198689
0.197045
0.195566
0.198853
0.202469
0.198031
0.202633
0.201812
0.198853
0.198524
0.19721
0.200004
0.200825
0.199182
0.197374
0.199675
0.196223
0.197538
0.198196
0.198853
0.193758
0.194909
0.199182
0.19836
0.198031
0.198031
0.200825
0.19836
0.200004
0.199675
0.203784
0.200004
0.199675
0.199018
0.203291
0.19458
0.198853
0.20099
0.198853
0.197867
0.198524
0.200825
0.197703
0.197703
0.201319
0.197703
0.196552
0.19836
0.200332
0.203126
0.197374
0.200004
0.202962
0.202305
0.199018
0.196717
0.20099
0.193429
0.194087
0.200004
0.199018
0.19573
0.200497
0.199511
0.199675
0.197374
0.199675
0.196717
0.196881
0.20099
0.198689
0.199511
0.197374
0.200004
0.200825
0.200168
0.196717
0.198524
0.195566
0.194087
0.199839
0.198853
0.199839
0.200661
0.202305
0.203948
0.202633
0.198689
0.200825
0.198689
0.199346
0.200497
0.200332
0.196552
0.196552
0.199839
0.199675
0.198689
0.201154
0.201483
0.197703
0.204934
0.200661
0.200825
0.199839
0.202305
0.198524
0.197867
0.202798
0.201976
0.19721
0.200168
0.197045
0.19836
0.199018
0.197045
0.200168
0.201154
0.200497
0.196552
0.20099
0.197867
0.196881
0.197703
0.201154
0.199018
0.197538
0.199018
0.200168
0.197538
0.198196
0.200004
0.196717
0.199839
0.200168
0.204113
0.198689
0.20099
0.201976
0.201812
0.200332
0.200004
0.201154
0.198689
0.197703
0.198196
0.197045
0.198031
0.197867
0.200332
0.205263
0.20214
0.19836
0.202798
0.196388
0.197867
0.202469
0.200168
0.201647
0.200004
0.199018
0.201812
0.198524
0.197867
0.200825
0.199675
0.198524
0.200332
0.198524
0.200332
0.201483
0.196388
0.199346
0.198689
0.197045
0.200332
0.197374
0.196881
0.201154
0.199675
0.200004
0.200661
0.201319
0.198689
0.201154
0.198196
0.202305
0.201154
0.200332
0.200332
0.19836
0.200825
0.200004
0.204113
0.200497
0.197703
0.199839
0.201483
0.199839
0.201483
0.199182
0.202469
0.195895
0.200004
0.199839
0.197867
0.200004
0.199511
0.198031
0.193101
0.199675
0.199018
0.199675
0.199511
0.20099
0.200004
0.201154
0.198196
0.19836
0.199511
0.19721
0.197703
0.196552
0.201812
0.201483
0.199675
0.200332
0.203126
0.197867
0.204113
0.201483
0.201483
0.201483
0.199346
0.197867
0.199346
0.200168
0.200661
0.198853
0.200004
0.201319
0.200168
0.200332
0.199018
0.201976
0.201812
0.202305
0.200497
0.203948
0.203126
0.199839
0.194087
0.198196
0.196552
0.197374
0.195402
0.195566
0.205592
0.188663
0.203126
0.202633
0.204606
0.201154
0.202633
0.195237
0.201976
0.201319
0.199182
0.197867
0.194251
0.197703
0.196881
0.198524
0.197538
0.201812
0.197374
0.199346
0.199675
0.197867
0.199511
0.197867
0.201647
0.198196
0.198031
0.200004
0.195073
0.19573
0.197538
0.195073
0.198196
0.196552
0.199182
0.199346
0.200004
0.198853
0.198853
0.19836
0.200332
0.198853
0.199511
0.199018
0.192443
0.198031
0.196552
0.196388
0.196223
0.197703
0.192443
0.197867
0.200004
0.199018
0.19721
0.195566
0.203455
0.197374
0.199018
0.199839
0.197867
0.195895
0.194909
0.191128
0.197538
0.193922
0.194909
0.197374
0.200497
0.198524
0.199182
0.19836
0.200497
0.199346
0.197045
0.197703
0.197045
0.19458
0.196059
0.199675
0.199346
0.196059
0.197374
0.196223
0.198196
0.196388
0.196881
0.197374
0.197867
0.200497
0.202798
0.199182
0.200661
0.195402
0.194251
0.195237
0.197538
0.19573
0.196552
0.19721
0.199346
0.200332
0.198853
0.197538
0.193429
0.197867
0.194416
0.197045
0.197867
0.196388
0.193758
0.201319
0.200332
0.198853
0.197045
0.198524
0.196223
0.19721
0.195402
0.193101
0.199346
0.197374
0.199839
0.197538
0.200332
0.196717
0.199018
0.196552
0.194087
0.196388
0.19836
0.196881
0.19836
0.201812
0.196552
0.200004
0.197703
0.201483
0.195237
0.196552
0.197867
0.19721
0.198524
0.195566
0.19573
0.194251
0.198031
0.199346
0.198196
0.199675
0.197703
0.197538
0.199675
0.198196
0.196388
0.196717
0.195895
0.195566
0.198524
0.197538
0.198196
0.195073
0.196388
0.19836
0.194416
0.197867
0.197374
0.193922
0.194416
0.204277
0.196388
0.200497
0.197538
0.195402
0.196717
0.196059
0.199182
0.195073
0.190142
0.19836
0.199018
0.19721
0.199511
0.196717
0.200332
0.197374
0.199839
0.197703
0.200661
0.192772
0.196388
0.198196
0.19721
0.199182
0.198031
0.197703
0.192608
0.196717
0.194416
0.196388
0.194416
0.19836
0.197374
0.199018
0.201319
0.197374
0.200332
0.197538
0.196552
0.19721
0.193429
0.191293
0.198524
0.194087
0.196552
0.201154
0.199182
0.200332
0.198524
0.198524
0.200004
0.197867
0.200661
0.199018
0.199346
0.200168
0.1908
0.194416
0.193922
0.198524
0.197867
0.199018
0.198524
0.197703
0.199018
0.199839
0.199018
0.187513
0.197374
0.197045
0.201319
0.19721
0.198853
0.199018
0.201812
0.201812
0.198196
0.198196
0.194744
0.194909
0.197867
0.196552
0.202469
0.197703
0.199346
0.201647
0.201647
0.200332
0.197703
0.199018
0.194909
0.196388
0.19836
0.197538
0.194744
0.19573
0.195402
0.201483
0.199346
0.198689
0.200661
0.198031
0.199839
0.199182
0.199346
0.196881
0.200497
0.200332
0.203291
0.201483
0.19836
0.205263
0.197867
0.194251
0.199511
0.199839
0.19721
0.200004
0.200661
0.200661
0.200661
0.201647
0.198853
0.199839
0.197867
0.203126
0.201319
0.200168
0.198689
0.198524
0.200497
0.198196
0.198689
0.199346
0.20099
0.197538
0.197867
0.197867
0.200661
0.199018
0.19836
0.198524
0.199018
0.19836
0.19721
0.197867
0.196059
0.196552
0.196059
0.199182
0.197045
0.199839
0.19721
0.200168
0.198689
0.200497
0.201812
0.20362
0.199511
0.198689
0.19836
0.199018
0.19721
0.199018
0.199182
0.200661
0.19721
0.201154
0.19836
0.19836
0.199675
0.195402
0.199675
0.199346
0.199018
0.194909
0.19836
0.199839
0.199182
0.197374
0.197703
0.197703
0.198689
0.198196
0.195566
0.199675
0.20099
0.196881
0.192936
0.201154
0.197045
0.196388
0.198853
0.199182
0.197538
0.193101
0.201319
0.198853
0.198689
0.199839
0.200004
0.197867
0.199675
0.198853
0.199182
0.200004
0.199346
0.199675
0.197703
0.199511
0.197045
0.19721
0.197538
0.200004
0.198853
0.199511
0.19836
0.199346
0.198853
0.200332
0.199839
0.196717
0.200004
0.196388
0.201647
0.202798
0.195895
0.198196
0.195237
0.196388
0.201812
0.198689
0.200661
0.199346
0.198196
0.196388
0.196881
0.198524
0.192936
0.20099
0.199675
0.200497
0.199182
0.198853
0.194087
0.198689
0.199511
0.199839
0.195402
0.201976
0.199511
0.199675
0.199839
0.200661
0.198689
0.198031
0.200168
0.195402
0.200661
0.19836
0.199346
0.198689
0.198853
0.199018
0.201319
0.19836
0.200661
0.199675
0.197867
0.198853
0.199675
0.198031
0.197045
0.199018
0.193101
0.199839
0.199182
0.201483
0.19721
0.197045
0.196552
0.200168
0.200661
0.198689
0.200168
0.197374
0.197538
0.200661
0.195895
0.199839
0.201976
0.195237
0.20099
0.200332
0.195073
0.19721
0.201483
0.200004
0.200825
0.200497
0.199346
0.200497
0.199675
0.202962
0.19836
0.200004
0.201154
0.201647
0.197374
0.200004
0.198524
0.197374
0.195895
0.199346
0.198689
0.199511
0.199018
0.200332
0.202469
0.200004
0.200661
0.199511
0.200004
0.196552
0.19836
0.195895
0.197045
0.196059
0.198689
0.200825
0.198031
0.200825
0.199675
0.199182
0.197374
0.201483
0.199675
0.199018
0.198524
0.199839
0.196717
0.192608
0.192608
0.196059
0.19721
0.195566
0.197538
0.198853
0.200497
0.198689
0.20214
0.197867
0.202305
0.201976
0.203784
0.19721
0.200332
0.197045
0.195402
0.200332
0.193922
0.198196
0.200004
0.199346
0.199018
0.201319
0.199675
0.195237
0.199346
0.201647
0.198031
0.198031
0.199182
0.199839
0.200168
0.199346
0.197374
0.197867
0.197538
0.197867
0.197374
0.191786
0.199511
0.199675

Kurve 2

-0.001991
0.001625
-0.002813
-0.000512
0.001132
0.002282
0.000474
0.002611
0.001954
0.002118
0.00146
-0.002484
0.001625
0.003761
0.005898
0.002775
0.001954
0.001954
0.00146
0.002118
0.000639
-0.003306
-0.000676
-0.001005
0.000803
-1.9e-05
-0.00347
0.004419
0.003268
0.003268
0.003268
0.00409
-1.9e-05
0.000146
0.000146
-0.000512
-0.003799
0.002611
-0.003142
0.002118
-0.004292
0.002447
0.001789
0.001132
0.002118
0.000803
0.002118
-0.001005
0.002775
0.000474
0.00031
0.000146
-1.9e-05
-0.003635
-0.001991
-0.001169
0.000967
0.001625
-0.001827
0.00146
-0.000183
0.001296
0.000639
-0.001334
-0.002813
0.002447
0.000803
0.001296
0.004255
-1.9e-05
0.000474
0.000639
-0.000183
-0.000676
0.001296
-0.001334
0.004583
-0.000676
-0.0061
-0.003635
-0.000183
0.000639
0.003597
0.001789
0.000967
0.001625
-0.001662
0.000967
-0.000347
-0.002977
-0.00232
-0.001498
0.001789
-0.000347
-0.003963
0.002447
0.000146
0.001789
-1.9e-05
0.002447
-0.000183
-0.000676
-0.000347
-0.000841
0.001132
-0.001662
-0.000676
-0.001005
-0.002155
-0.001827
0.001132
-0.001827
-1.9e-05
-0.001498
0.000639
-0.000512
0.007377
0.007049
0.003268
0.002611
-1.9e-05
-0.000347
0.000967
0.002775
-0.000183
0.001954
-0.000512
0.000803
-1.9e-05
0.001132
-0.000183
0.000803
0.002118
-0.002813
0.003104
0.000146
0.002447
0.001625
0.006062
0.004255
0.003761
0.000803
0.001132
-0.001991
0.001789
-0.000841
-0.002484
-0.000512
-0.000183
-0.002484
0.005405
-0.001827
-0.008072
-0.001334
-0.002484
0.000803
0.003433
0.000639
0.000967
0.000803
-1.9e-05
0.00031
0.001132
-0.001005
0.000803
-0.000183
0.000803
-0.001498
-0.00347
-0.002648
0.001789
0.000474
0.003268
-0.000512
0.001132
0.00146
0.003597
-0.001169
-1.9e-05
0.000474
-1.9e-05
0.002447
-0.001334
-0.000183
-0.001827
-0.001169
-1.9e-05
0.00146
-0.00232
-0.001334
-0.006429
0.00146
0.001296
-0.000512
0.000639
0.000474
-0.001827
0.000639
-0.001827
-0.004621
-0.002155
-0.00347
0.000474
-0.002813
0.000146
0.000146
0.003761
-0.001991
0.003104
0.003433
-0.000183
0.00294
-0.001662
0.000803
-0.002484
0.000146
0.001954
0.00409
0.003268
0.002611
-0.000676
-0.000512
0.001132
0.00146
0.001296
0.000474
0.001625
0.000146
0.000803
-0.000347
-0.00232
-0.002977
0.002447
-0.001498
-0.000841
-0.000841
-0.001498
-0.004456
-0.002977
0.001789
0.003268
0.002611
-0.000183
0.003926
0.001954
-0.000841
0.00146
0.001954
0.000474
0.001954
-0.002648
0.003926
0.010171
0.017732
0.026771
0.035318
0.04255
0.050439
0.05652
0.061286
0.069176
0.072463
0.077558
0.081338
0.086269
0.090213
0.0935
0.097774
0.103691
0.112401
0.111415
0.116182
0.118976
0.122427
0.125879
0.129823
0.130809
0.13574
0.136891
0.143136
0.14215
0.145437
0.148231
0.148724
0.149382
0.150697
0.15234
0.15875
0.159572
0.161873
0.165324
0.161709
0.164831
0.165982
0.170913
0.166968
0.172227
0.169105
0.175021
0.176008
0.175679
0.176336
0.177651
0.175515
0.174035
0.18061
0.176829
0.183075
0.181103
0.183732
0.182582
0.187841
0.184718
0.187677
0.187677
0.190142
0.191621
0.188663
0.186526
0.184718
0.192443
0.186198
0.194251
0.188334
0.192936
0.190142
0.189814
0.19836
0.189978
0.191786
0.193265
0.192443
0.193594
0.193429
0.191457
0.188006
0.18554
0.185376
0.187184
0.180774
0.181431
0.187019
0.184718
0.185212
0.184554
0.187019
0.187841
0.189485
0.187348
0.192772
0.187184
0.189156
0.187513
0.185212
0.192936
0.189814
0.190635
0.191786
0.193758
0.191786
0.192608
0.192608
0.193101
0.195073
0.192279
0.193429
0.195237
0.194087
0.197045
0.198524
0.194416
0.190964
0.193758
0.195895
0.19573
0.195402
0.192279
0.197045
0.193101
0.198031
0.198853
0.196717
0.187513
0.192772
0.20099
0.196059
0.195237
0.196552
0.197867
0.195895
0.197538
0.199839
0.19721
0.187841
0.19458
0.19836
0.197374
0.199346
0.196552
0.198853
0.197703
0.198689
0.198524
0.198689
0.196388
0.199346
0.196881
0.198853
0.197374
0.200168
0.198689
0.19836
0.200661
0.199675
0.20214
0.198524
0.198689
0.200004
0.200825
0.203291
0.202798
0.200168
0.202469
0.200497
0.200825
0.199511
0.199182
0.200497
0.199182
0.199511
0.19836
0.201483
0.20099
0.19836
0.200825
0.199182
0.197045
0.200825
0.19836
0.198689
0.199839
0.195895
0.201319
0.196223
0.199182
0.200825
0.200825
0.199182
0.202962
0.197703
0.196552
0.197374
0.201812
0.198853
0.198524
0.201812
0.205099
0.200825
0.201154
0.203291
0.202469
0.200004
0.19836
0.201154
0.200497
0.201647
0.199839
0.203126
0.198689
0.198689
0.204441
0.203126
0.20099
0.201812
0.202633
0.199839
0.201976
0.20099
0.204934
0.204934
0.201483
0.199675
0.204113
0.200004
0.198853
0.199675
0.201154
0.20099
0.199511
0.207564
0.201647
0.202633
0.206414
0.207071
0.199511
0.204277
0.20099
0.200825
0.198031
0.203126
0.197374
0.197867
0.20099
0.198689
0.201483
0.197374
0.201976
0.201812
0.202633
0.200825
0.202798
0.202633
0.200661
0.198689
0.200825
0.199839
0.199839
0.201647
0.197045
0.197374
0.198689
0.201154
0.200168
0.20099
0.201319
0.202798
0.200332
0.20214
0.202469
0.201154
0.202633
0.200661
0.20099
0.199346
0.199511
0.200332
0.20362
0.202633
0.203455
0.200332
0.199839
0.201154
0.200004
0.196552
0.200497
0.203126
0.201647
0.202469
0.200168
0.201154
0.19836
0.197867
0.197045
0.200004
0.198689
0.200168
0.201319
0.201812
0.200004
0.203126
0.201154
0.203291
0.205263
0.201647
0.202633
0.201976
0.197374
0.199346
0.20099
0.198524
0.199018
0.195895
0.201154
0.19721
0.200332
0.200497
0.197538
0.20099
0.203126
0.201647
0.204441
0.201647
0.199511
0.200332
0.199182
0.203455
0.201319
0.199182
0.199675
0.20214
0.19721
0.199346
0.20099
0.197374
0.202633
0.203126
0.202305
0.201319
0.199346
0.196388
0.201319
0.197045
0.199018
0.19836
0.199182
0.196223
0.199839
0.199346
0.199182
0.201483
0.197045
0.200497
0.197538
0.201976
0.201319
0.201319
0.198524
0.202305
0.200004
0.200661
0.196552
0.20099
0.196223
0.200661
0.199018
0.197867
0.199018
0.198524
0.201319
0.200332
0.199346
0.196717
0.202798
0.198524
0.204606
0.202798
0.202305
0.199346
0.199346
0.199182
0.199511
0.198689
0.197867
0.201976
0.202305
0.202469
0.199511
0.201976
0.198853
0.199182
0.199018
0.200168
0.196717
0.196552
0.201483
0.20214
0.202305
0.199346
0.199839
0.200168
0.200661
0.195402
0.199182
0.196881
0.19836
0.202798
0.200661
0.200497
0.201319
0.203126
0.19836
0.201647
0.199182
0.200332
0.198689
0.198196
0.200497
0.200332
0.200004
0.200497
0.203126
0.197045
0.20099
0.200332
0.200332
0.205592
0.20214
0.203291
0.20362
0.200497
0.202469
0.199346
0.200168
0.198853
0.199182
0.196717
0.198524
0.201154
0.201154
0.199346
0.198689
0.199675
0.199839
0.199018
0.200497
0.201154
0.199511
0.201483
0.202469
0.205592
0.202962
0.202962
0.200661
0.200825
0.198689
0.200661
0.200168
0.200332
0.200004
0.203455
0.204277
0.200004
0.204441
0.197867
0.202962
0.200497
0.200168
0.19836
0.201483
0.199675
0.204441
0.20362
0.199182
0.199511
0.199018
0.204113
0.201812
0.201319
0.19836
0.202962
0.199346
0.205592
0.202305
0.200825
0.200168
0.198853
0.195073
0.199839
0.197374
0.198853
0.198853
0.198196
0.203948
0.202633
0.20214
0.201647
0.203455
0.201647
0.199839
0.199511
0.204113
0.201319
0.20099
0.204441
0.204277
0.199346
0.200661
0.203455
0.201976
0.200004
0.196552
0.198689
0.200168
0.20099
0.200661
0.202633
0.201812
0.201647
0.202469
0.200661
0.199839
0.199346
0.200497
0.198853
0.201812
0.19573
0.20214
0.202305
0.199511
0.201154
0.199839
0.200004
0.199346
0.198196
0.201483
0.199511
0.201647
0.202305
0.199018
0.199675
0.20099
0.199511
0.19458
0.200497
0.198853
0.199511
0.19836
0.200661
0.195073
0.200661
0.200332
0.200825
0.205921
0.197867
0.20099
0.199018
0.200497
0.199346
0.19836
0.192279
0.20099
0.197538
0.198689
0.202305
0.197867
0.199839
0.203291
0.200332
0.199675
0.201976
0.197703
0.201483
0.200825
0.200825
0.191621
0.196223
0.193594
0.200661
0.193594
0.200004
0.200332
0.196059
0.204441
0.200497
0.200661
0.190635
0.205921
0.200332
0.201319
0.199018
0.199839
0.200497
0.19573
0.197045
0.199675
0.198031
0.196552
0.199675
0.197045
0.200661
0.200497
0.200332
0.201483
0.198853
0.200661
0.20362
0.200661
0.201812
0.199182
0.197703
0.19836
0.199675
0.20099
0.199346
0.200168
0.198853
0.202305
0.201976
0.201483
0.199675
0.200332
0.199839
0.203948
0.199018
0.202633
0.201319
0.193922
0.199511
0.197867
0.199675
0.19836
0.199675
0.199018
0.201483
0.198853
0.200332
0.200004
0.200497
0.200825
0.200825
0.197703
0.193594
0.200497
0.198524
0.196552
0.199018
0.201647
0.203455
0.201647
0.200332
0.202469
0.199018
0.201154
0.200497
0.200661
0.200825
0.201976
0.200825
0.201154
0.205427
0.201483
0.201812
0.201483
0.201976
0.198853
0.199346
0.199839
0.202305
0.199018
0.201812
0.203291
0.201647
0.202469
0.200825
0.203126
0.201483
0.202305
0.200332
0.200168
0.19836
0.204277
0.200168
0.20099
0.197538
0.20214
0.201647
0.199346
0.199675
0.197045
0.193594
0.198689
0.197374
0.200497
0.20362
0.199346
0.201647
0.204441
0.202798
0.198689
0.205427
0.197374
0.201154
0.199182
0.200661
0.20099
0.200825
0.201647
0.203455
0.201483
0.19836
0.201319
0.199182
0.20214
0.199511
0.201483
0.200661
0.200497
0.201319
0.20362
0.19836
0.199018
0.199182
0.200004
0.198853
0.198524
0.200332
0.200661
0.203948
0.205427
0.20477
0.199675
0.202305
0.202469
0.199182
0.201647
0.19721
0.199182
0.20099
0.197045
0.19458
0.201319
0.198031
0.199346
0.200661
0.20099
0.197045
0.201812
0.201976
0.200825
0.201812
0.202305
0.199839
0.200004
0.20099
0.197703
0.20214
0.199839
0.198689
0.197374
0.200004
0.200661
0.200661
0.20099
0.20099
0.200661
0.201154
0.20099
0.200332
0.200004
0.20099
0.200497
0.199182
0.200661
0.19721
0.200332
0.197867
0.197867
0.194087
0.198689
0.197374
0.201812
0.199511
0.201319
0.200497
0.20099
0.201154
0.198196
0.200661
0.195895
0.196717
0.202305
0.205263
0.197703
0.200004
0.19836
0.200332
0.200661
0.201647
0.201154
0.201319
0.202469
0.199839
0.202633
0.198853
0.200661
0.200004
0.200825
0.199018
0.203948
0.199346
0.201319
0.20099
0.19573
0.202798
0.202469
0.20099
0.202469
0.202469
0.198196
0.202469
0.200004
0.20099
0.201483
0.199675
0.199511
0.20099
0.200332
0.202962
0.200497
0.199018
0.198031
0.200661
0.201319
0.200168
0.201154
0.198689
0.204606
0.200168
0.200332
0.199839
0.199675
0.201647
0.199018
0.199675
0.197703
0.197045
0.195237
0.202633
0.198524
0.202798
0.200332
0.200661
0.200332
0.201483
0.201319
0.202469
0.199182
0.203126
0.198689
0.199511
0.200004
0.198524
0.199346
0.201483
0.202469
0.198031
0.201154
0.198196
0.206578
0.203291
0.201812
0.200661
0.20362
0.200497
0.199182
0.199839
0.198524
0.200168
0.197374
0.201647
0.197867
0.202305
0.194909
0.199018
0.197538
0.200332
0.197045
0.20099
0.199018
0.199511
0.200661
0.197703
0.20214
0.200004
0.199018
0.199675
0.200332
0.19836
0.199018
0.197374
0.198689
0.199182
0.203948
0.200168
0.202798
0.201812
0.200168
0.200661
0.198524
0.200497
0.19836
0.187513
0.173542
0.176172
0.172392
0.177487
0.177487
0.176829
0.176994
0.180774
0.184061
0.180281
0.182253
0.182582
0.182089
0.184061
0.187513
0.185869
0.183404
0.184718
0.185212
0.182253
0.184061
0.182089
0.187184
0.187513
0.186526
0.18817
0.187841
0.18817
0.187841
0.190471
0.177158
0.17798
0.176994
0.181431
0.17913
0.179295
0.179623
0.180774
0.17798
0.182911
0.188499
0.186362
0.184718
0.187348
0.186526
0.186855
0.187348
0.187513
0.195402
0.185047
0.189156
0.18932
0.187677
0.187348
0.190964
0.191293
0.188334
0.192279
0.189485
0.191786
0.18932
0.191786
0.193758
0.1908
0.192608
0.190471
0.188499
0.187184
0.189649
0.187348
0.174857
0.186362
0.193265
0.186855
0.189485
0.189156
0.191621
0.191293
0.192279
0.189156
0.191293
0.18439
0.192772
0.192279
0.192936
0.194909
0.19573
0.194087
0.198524
0.195566
0.19573
0.19836
0.189485
0.194909
0.194416
0.198031
0.197867
0.196059
0.19836
0.19836
0.197703
0.198196
0.199018
0.197867
0.198524
0.19573
0.198524
0.198196
0.19836
0.197538
0.199182
0.196881
0.198031
0.197867
0.197538
0.19721
0.198196
0.200661
0.197867
0.194909
0.19836
0.195237
0.197703
0.199182
0.197867
0.19836
0.192443
0.19836
0.196552
0.200168
0.193922
0.196059
0.199346
0.199018
0.201812
0.200497
0.200497
0.198689
0.201976
0.198853
0.204934
0.200004
0.207071
0.19721
0.20099
0.19836
0.19721
0.198689
0.200332
0.199018
0.198524
0.201647
0.201154
0.201812
0.199182
0.202305
0.199839
0.200825
0.200332
0.200825
0.198196
0.199346
0.196552
0.197374
0.199675
0.198689
0.200332
0.199839
0.201154
0.202469
0.205756
0.203948
0.20099
0.199346
0.200168
0.198853
0.19836
0.196059
0.19836
0.196881
0.196881
0.200332
0.194744
0.201976
0.199511
0.199839
0.201976
0.201647
0.198689
0.202633
0.197703
0.197374
0.199675
0.199182
0.198524
0.197703
0.201319
0.200004
0.197374
0.197538
0.203455
0.19721
0.202469
0.200497
0.200168
0.201319
0.200332
0.200661
0.201319
0.199511
0.198853
0.198853
0.198689
0.199346
0.199182
0.20099
0.198196
0.198689
0.196388
0.197867
0.197538
0.198524
0.205921
0.201812
0.19836
0.200332
0.199839
0.196552
0.199018
0.198524
0.198196
0.198853
0.199839
0.200497
0.200332
0.198689
0.200661
0.199346
0.19836
0.198689
0.201812
0.200497
0.199839
0.208222
0.200825
0.199675
0.200825
0.202798
0.199839
0.200497
0.197703
0.200168
0.199018
0.199346
0.199182
0.201976
0.202469
0.200661
0.200825
0.198031
0.201812
0.198853
0.200332
0.199182
0.200825
0.202798
0.200497
0.20099
0.203948
0.199839
0.200497
0.199675
0.195895
0.200825
0.199182
0.198031
0.200497
0.203291
0.200332
0.200825
0.200497
0.199675
0.201319
0.203291
0.200168
0.200497
0.200497
0.201154
0.202305
0.206085
0.202305
0.203455
0.203126
0.199346
0.200332
0.200825
0.201319
0.201319
0.201647
0.205263
0.201976
0.204606
0.198524
0.201483
0.201154
0.201319
0.20214
0.201483
0.200497
0.201812
0.200004
0.202633
0.201812
0.201319
0.201647
0.202798
0.20099
0.199675
0.201976
0.201319
0.202305
0.20099
0.203126
0.193922
0.0105
0.001132
0.010336
0.01954
0.028251
0.03236
0.041728
0.049124
0.057999
0.064409
0.067039
0.0769
0.077886
0.083639
0.090542
0.09498
0.096623
0.102047
0.10517
0.109443
0.116017
0.11914
0.118647
0.126207
0.129001
0.127687
0.133932
0.135247
0.137877
0.140178
0.14593
0.141657
0.147245
0.147081
0.152011
0.149053
0.152833
0.156942
0.157435
0.159408
0.16253
0.165817
0.163681
0.168776
0.164831
0.169105
0.166968
0.17157
0.173542
0.17157
0.166804
0.173707
0.174693
0.172556
0.175515
0.17798
0.178637
0.178309
0.180774
0.181431
0.182089
0.180445
0.183404
0.183075
0.185376
0.181267
0.183239
0.181924
0.184554
0.185705
0.186033
0.184718
0.183568
0.188827
0.186362
0.1908
0.189814
0.191786
0.187513
0.188334
0.190635
0.192443
0.189978
0.190471
0.190307
0.190471
0.191293
0.189978
0.192443
0.190471
0.193758
0.194087
0.196552
0.191128
0.194744
0.193594
0.197538
0.19458
0.197703
0.191293
0.195895
0.193101
0.194744
0.191128
0.194744
0.194251
0.19458
0.197374
0.195073
0.197045
0.193922
0.196059
0.195237
0.200168
0.194744
0.194744
0.196059
0.195566
0.198689
0.197703
0.194909
0.196552
0.198689
0.196223
0.198689
0.195895
0.199675
0.19721
0.200497
0.200497
0.199018
0.198689
0.201483
0.198853
0.196881
0.198031
0.195073
0.198524
0.197538
0.20099
0.198524
0.194744
0.197045
0.198689
0.197045
0.199018
0.199839
0.198853
0.200825
0.206085
0.199182
0.197045
0.201154
0.196059
0.201976
0.194251
0.199511
0.196881
0.20099
0.199182
0.197045
0.199839
0.198853
0.199675
0.198524
0.199018
0.197867
0.197867
0.199346
0.201483
0.199675
0.202633
0.205592
0.202305
0.199182
0.200661
0.20099
0.197867
0.201483
0.199018
0.200168
0.200497
0.200825
0.20099
0.201812
0.196552
0.201647
0.199839
0.200168
0.20099
0.200332
0.196388
0.196881
0.201154
0.199018
0.204113
0.197703
0.200004
0.202305
0.200661
0.199675
0.200825
0.199675
0.199839
0.20099
0.200168
0.197538
0.199675
0.201483
0.200661
0.196223
0.202798
0.200825
0.198689
0.196223
0.199839
0.199839
0.197374
0.203455
0.201976
0.206085
0.198853
0.203291
0.199182
0.199675
0.200168
0.198853
0.200497
0.197538
0.201812
0.198031
0.208386
0.19836
0.200332
0.199839
0.200332
0.200661
0.202305
0.199839
0.204277
0.203784
0.200332
0.204441
0.199511
0.199839
0.200497
0.200168
0.197374
0.204606
0.199511
0.203455
0.201812
0.199346
0.19836
0.200825
0.199675
0.20214
0.201319
0.198853
0.202798
0.199675
0.202962
0.200168
0.202962
0.189649
0.196552
0.202633
0.197374
0.199018
0.201812
0.202962
0.200497
0.202962
0.198196
0.199018
0.188663
0.200825
0.199839
0.203291
0.201647
0.200168
0.201483
0.201976
0.201154
0.201319
0.203126
0.194416
0.198853
0.200825
0.202469
0.202798
0.203455
0.203291
0.203455
0.202633
0.202305
0.203784
0.203784
0.200825
0.204113
0.199839
0.204113
0.200004
0.200497
0.202633
0.20214
0.205263
0.203948
0.205592
0.200661
0.205592
0.20362
0.205263
0.205921
0.202633
0.198524
0.202633
0.201976
0.201319
0.202469
0.202305
0.206085
0.200168
0.200825
0.203784
0.199182
0.195895
0.201647
0.199346
0.199346
0.199511
0.199675
0.196388
0.197703
0.198196
0.196059
0.199511
0.196717
0.197703
0.199675
0.200004
0.200332
0.200332
0.200825
0.204277
0.202305
0.202305
0.204934
0.203455
0.201319
0.199182
0.197703
0.199839
0.200825
0.198031
0.201483
0.200497
0.20099
0.20099
0.201319
0.203126
0.204113
0.200825
0.206414
0.203948
0.200004
0.200004
0.200825
0.20362
0.201976
0.20362
0.201483
0.204934
0.200168
0.205427
0.207728
0.20214
0.204606
0.205921
0.20362
0.207071
0.197538
0.204277
0.202633
0.199675
0.201647
0.203948
0.202305
0.198031
0.202633
0.200497
0.200825
0.200168
0.203126
0.203126
0.203291
0.202305
0.20214
0.20099
0.19721
0.199182
0.197374
0.200497
0.19836
0.19836
0.195895
0.201647
0.200168
0.201154
0.203291
0.200825
0.201319
0.201319
0.201319
0.200661
0.203784
0.199839
0.201812
0.197867
0.198196
0.199182
0.199018
0.196881
0.19836
0.197867
0.199675
0.198196
0.198196
0.201812
0.197538
0.20099
0.196717
0.200825
0.195895
0.203291
0.197703
0.199511
0.201976
0.202798
0.197045
0.198031
0.202962
0.196388
0.198689
0.198031
0.200661
0.198031
0.196223
0.193101
0.196552
0.197867
0.198853
0.197867
0.198524
0.199182
0.197867
0.198031
0.199346
0.19836
0.199675
0.197703
0.198196
0.20099
0.197374
0.199675
0.203126
0.199346
0.197703
0.201976
0.200825
0.200004
0.196881
0.19721
0.200497
0.195566
0.195237
0.191621
0.194744
0.194087
0.195402
0.195237
0.195566
0.197538
0.196388
0.193429
0.195402
0.198689
0.19573
0.196552
0.199182
0.195402
0.194416
0.196881
0.19836
0.195237
0.194416
0.200661
0.187841
0.194744
0.192936
0.19458
0.193758
0.193429
0.195073
0.19573
0.197867
0.195073
0.196059
0.194087
0.196059
0.193922
0.195566
0.194087
0.192443
0.19573
0.193265
0.196717
0.194251
0.196223
0.193265
0.193594
0.195237
0.196388
0.193101
0.192443
0.196388
0.19195
0.191457
0.197538
0.192608
0.193922
0.194087
0.192772
0.192772
0.191786
0.187677
0.19458
0.194744
0.192115
0.196552
0.194416
0.193758
0.192608
0.193594
0.195237
0.190142
0.190142
0.196881
0.194909
0.191457
0.19458
0.191621
0.19195
0.19721
0.191786
0.193101
0.196388
0.1908
0.195566
0.192936
0.194744
0.192443
0.193594
0.192936
0.191457
0.189814
0.193101
0.192443
0.18932
0.199346
0.196717
0.194744
0.194087
0.196388
0.192115
0.19573
0.19458
0.19195
0.204113
0.194416
0.195895
0.195895
0.194744
0.194416
0.196223
0.192772
0.194744
0.194087
0.195895
0.197374
0.196223
0.196223
0.198196
0.194087
0.19458
0.194251
0.199182
0.196881
0.194087
0.193758
0.194416
0.196059
0.195895
0.195566
0.193758
0.196388
0.193758
0.196059
0.196059
0.196388
0.195895
0.201154
0.199182
0.199675
0.200332
0.195073
0.194416
0.199018
0.18932
0.187841
0.1908
0.190142
0.190471
0.192115
0.194744
0.189978
0.194909
0.193758
0.196059
0.1908
0.190142
0.195073
0.192608
0.195237
0.198853
0.19458
0.19195
0.007213
0.010993
0.005898
0.014938
0.022498
0.031867
0.038112
0.015102
0.023484
0.032195
0.032195
0.040413
0.04748
0.054548
0.010993
0.020855
0.027758
0.035154
0.040742
0.053233
0.058492
0.062437
0.068847
0.073778
0.081338
0.084132
0.088898
0.093665
0.101554
0.106978
0.108786
0.116017
0.116017
0.115689
0.120455
0.125057
0.125714
0.130809
0.132124
0.137384
0.138699
0.142807
0.141821
0.144615
0.145602
0.15234
0.153984
0.1576
0.158257
0.158093
0.159408
0.159572
0.162202
0.162859
0.166804
0.166968
0.170091
0.174035
0.170091
0.171406
0.173707
0.17157
0.176994
0.176829
0.177322
0.176665
0.177815
0.181431
0.184883
0.180938
0.180938
0.00031
0.008035
0.015595
0.025621
0.03236
0.040413
0.047809
0.053726
0.066217
0.066053
0.071148
0.076407
0.080516
0.086762
0.089063
0.093993
0.099582
0.104841
0.106978
0.111744
0.112401
0.114702
0.118483
0.123249
0.127029
0.13311
0.131796
0.135904
0.140835
0.140342
0.135576
0.143301
0.147903
0.149053
0.155299
0.152998
0.15612
0.153984
0.16138
0.16138
0.160558
0.157107
0.162859
0.165817
0.166639
0.169762
0.169105
0.172556
0.171077
0.176336
0.174693
0.176008
0.174528
0.176336
0.176008
0.181267
0.181431
0.180774
0.182089
0.179952
0.183732
0.182746
0.186691
0.188827
0.187184
0.185869
0.188499
0.187019
0.186691
0.187513
0.187513
0.187841
0.190142
0.188827
0.189156
0.188499
0.185047
0.19195
0.190142
0.192279
0.190471
0.192936
0.192772
0.195073
0.18817
0.193594
0.192279
0.190471
0.193758
0.191128
0.191128
0.18932
0.192608
0.193265
0.192772
0.190635
0.194087
0.193429
0.195073
0.192936
0.193594
0.195073
0.193101
0.193758
0.193101
0.193758
0.192608
0.192279
0.194416
0.193101
0.192608
0.193101
0.192772
0.194744
0.191457
0.196223
0.193922
0.195073
0.194251
0.196388
0.193101
0.194251
0.193265
0.19195
0.192608
0.1908
0.196223
0.192772
0.191128
0.19458
0.197045
0.193101
0.200168
0.195895
0.197538
0.197867
0.192279
0.196223
0.193758
0.191293
0.192936
0.194909
0.1908
0.193758
0.192443
0.196552
0.195073
0.196388
0.198031
0.201319
0.195895
0.199018
0.201154
0.196717
0.197045
0.194744
0.197374
0.195402
0.197374
0.196059
0.197703
0.19573
0.193429
0.199346
0.196717
0.19721
0.197538
0.197703
0.197867
0.19836
0.196717
0.198031
0.196388
0.19836
0.196717
0.198853
0.193922
0.200004
0.197867
0.195895
0.197538
0.198524
0.196717
0.195237
0.198853
0.193429
0.197867
0.196881
0.198031
0.197538
0.198524
0.195402
0.19721
0.196717
0.197867
0.198031
0.196717
0.198853
0.196388
0.199182
0.199511
0.199675
0.198196
0.19836
0.197703
0.201154
0.199675
0.199839
0.199182
0.200661
0.199018
0.200497
0.202469
0.200004
0.203784
0.201812
0.202962
0.200168
0.200497
0.197867
0.200497
0.20099
0.200168
0.199839
0.20099
0.201483
0.198853
0.199346
0.201154
0.200004
0.199182
0.200004
0.200661
0.205099
0.201319
0.203948
0.204441
0.202469
0.201154
0.206085
0.200004
0.200825
0.200825
0.196717
0.201483
0.200004
0.197703
0.203126
0.202798
0.199346
0.202798
0.198031
0.199018
0.201976
0.204277
0.199346
0.204113
0.201154
0.203291
0.203455
0.200661
0.200004
0.199346
0.198524
0.197045
0.20099
0.199182
0.200004
0.198524
0.200825
0.200004
0.20214
0.200825
0.202633
0.200825
0.198689
0.199346
0.197703
0.201154
0.198524
0.199675
0.202633
0.200004
0.197045
0.199346
0.196881
0.193429
0.196059
0.200497
0.200661
0.196223
0.199346
0.199182
0.201154
0.193922
0.198689

Kurve 3

-0.001005
0.003926
0.00409
0.003268
0.002611
0.001296
0.00146
0.003433
-0.000512
-0.001662
0.002775
-1.9e-05
-0.001827
0.001132
0.001789
0.001954
0.002611
0.001132
0.00146
0.000803
0.002611
0.000967
0.001296
0.000639
0.003761
-0.000841
0.001625
0.001296
0.001296
-0.001169
-0.000347
-0.001991
-0.001169
-0.001662
0.002611
0.000803
-0.000512
0.000146
-0.003635
0.001954
0.002611
0.001132
0.000967
0.000803
-0.001498
0.00031
0.000639
-0.001169
-0.000512
-0.000347
0.000474
0.000474
0.001132
-0.000183
0.00294
0.002611
0.004912
0.002611
0.002118
-0.001005
-0.001662
-0.003799
-0.001498
-0.004785
-0.003306
0.000639
-0.000512
0.002118
0.000146
0.000474
0.00031
0.007049
-0.000183
0.001625
0.000639
0.00146
0.001625
0.000474
0.002611
-0.002813
-0.001005
-0.001005
0.00409
-0.004456
0.003597
-0.001498
-0.000841
-0.000676
-0.001334
-0.003963
0.004583
-0.00232
0.001954
-0.002813
-0.000512
0.000803
-0.000676
0.000146
-0.000183
0.00146
-0.000183
0.000474
-0.001169
0.000967
-0.010045
0.000474
-0.001827
-0.001827
0.000146
-0.001662
-0.003306
0.00031
0.001132
0.00031
-0.001827
-0.007086
-0.000841
-0.002484
0.001789
-0.001334
0.00031
0.002282
0.000474
0.001789
0.002611
0.00146
-1.9e-05
0.00146
0.00031
0.002611
-0.001005
0.000803
0.001789
0.001296
-0.001498
0.005405
-0.002155
-0.000512
0.001954
0.003433
0.001954
0.000639
0.003104
0.000803
0.00146
0.000474
-0.003306
0.003104
0.000967
-1.9e-05
-0.001005
-0.000347
-0.000183
-0.000841
-1.9e-05
-0.003635
-0.001662
0.00409
-0.001005
0.000803
0.001296
0.004583
-0.002484
0.001132
0.001296
0.003104
0.002282
0.001132
-0.001662
0.000967
0.002611
-0.000512
-0.000676
-0.001498
0.001954
-0.001169
0.000803
-0.000512
0.002118
0.000803
0.002118
-0.000183
0.002447
-0.001827
-0.003306
-0.002155
0.000474
-0.002155
-0.001334
0.004583
0.001954
0.004912
0.003104
0.000474
-0.001334
0.001625
0.000803
0.000474
-0.000512
0.000474
0.00146
0.001625
0.001625
-0.004785
0.002447
0.00031
-0.000841
0.002118
0.000803
-0.001005
-0.001169
-0.003635
-0.002648
-0.000512
0.001789
0.00146
0.002118
0.002118
-0.000512
0.00146
0.002775
-0.000841
-0.002155
0.003268
-0.001662
0.001789
0.002118
0.000967
-0.001169
0.001132
-0.000183
0.002118
0.002118
0.002282
0.00672
-0.000512
0.002775
0.001625
-0.000512
0.001789
0.003433
0.00146
0.001132
-0.001169
0.000639
0.00031
-0.000512
0.00031
0.001789
0.000474
-0.000183
0.00672
0.011651
0.021841
0.0271
0.038112
0.046987
0.048631
0.05537
0.06293
0.063587
0.069011
0.078215
0.080681
0.087584
0.093829
0.098431
0.100075
0.106813
0.109114
0.116182
0.114867
0.119633
0.121934
0.127522
0.130645
0.130645
0.133439
0.133439
0.140835
0.141164
0.147903
0.14478
0.152669
0.150368
0.154477
0.15612
0.158257
0.158914
0.16138
0.165653
0.166475
0.165489
0.166146
0.166475
0.167297
0.171406
0.170091
0.17272
0.175515
0.177651
0.177322
0.178144
0.179952
0.180281
0.18176
0.187513
0.183732
0.182089
0.182746
0.17798
0.181267
0.186198
0.182089
0.182253
0.186691
0.186526
0.187019
0.184061
0.191457
0.188334
0.193594
0.1908
0.191621
0.192115
0.191293
0.19195
0.190964
0.192115
0.191457
0.194416
0.189156
0.193429
0.195566
0.190471
0.194087
0.197045
0.19458
0.197538
0.19573
0.196717
0.197045
0.195895
0.196388
0.193429
0.183404
0.159901
0.09235
0.060958
0.043043
0.025457
0.021019
0.018061
0.01954
0.022169
0.019868
0.018389
0.018389
0.011651
0.00787
0.016088
0.014116
0.016088
0.015266
0.014116
0.020197
0.022663
0.023649
0.028744
0.031373
0.030059
0.03351
0.039591
0.044193
0.052411
0.054876
0.063094
0.070819
0.07312
0.080845
0.085611
0.090706
0.092514
0.097609
0.100732
0.104019
0.109772
0.116675
0.11914
0.119797
0.121112
0.129001
0.131467
0.13196
0.13837
0.136891
0.140671
0.143958
0.146752
0.147903
0.149875
0.150532
0.154148
0.155956
0.156449
0.162859
0.160722
0.162202
0.163023
0.167297
0.166146
0.170091
0.168118
0.173049
0.170255
0.175679
0.175515
0.176501
0.176172
0.176172
0.179952
0.177815
0.181267
0.179295
0.18176
0.181431
0.184883
0.183075
0.186691
0.186198
0.185376
0.191457
0.191457
0.186198
0.18932
0.190142
0.185705
0.191457
0.186691
0.190635
0.189485
0.190964
0.190964
0.19458
0.193429
0.194744
0.191621
0.193922
0.193758
0.193594
0.194909
0.194744
0.194416
0.194416
0.193429
0.197374
0.196388
0.197703
0.196388
0.193922
0.196223
0.197045
0.196881
0.197703
0.202469
0.203455
0.198031
0.200332
0.19836
0.197045
0.200825
0.197867
0.196059
0.199839
0.197374
0.200332
0.199182
0.198853
0.199675
0.19836
0.195566
0.199182
0.201812
0.19573
0.201647
0.199018
0.201483
0.200825
0.200825
0.197045
0.204606
0.197538
0.199182
0.199511
0.199018
0.200004
0.202305
0.202798
0.199346
0.200825
0.200168
0.206578
0.19458
0.201647
0.199182
0.20099
0.20362
0.202469
0.201647
0.19836
0.198689
0.199675
0.2074
0.196717
0.199839
0.198031
0.199182
0.199182
0.20362
0.201976
0.201483
0.200497
0.200497
0.20099
0.200004
0.200168
0.198689
0.200004
0.202633
0.204606
0.199182
0.202633
0.200497
0.202962
0.19836
0.20099
0.20099
0.202798
0.201154
0.201319
0.20477
0.201154
0.199511
0.200332
0.202633
0.198853
0.202305
0.196388
0.201647
0.198853
0.201812
0.201483
0.200661
0.200661
0.200661
0.203948
0.208057
0.199346
0.199018
0.199675
0.198689
0.19721
0.198524
0.200004
0.20099
0.198031
0.197867
0.203126
0.200168
0.204934
0.201319
0.202798
0.201647
0.201154
0.201154
0.201154
0.201812
0.199839
0.203126
0.201319
0.203291
0.201483
0.198031
0.201483
0.201647
0.200168
0.203948
0.202305
0.200497
0.207564
0.20214
0.20362
0.199839
0.201976
0.200004
0.201319
0.196388
0.201812
0.199839
0.201812
0.206414
0.201647
0.201319
0.202305
0.204606
0.20099
0.212002
0.193429
0.202962
0.201154
0.201154
0.206249
0.198524
0.200004
0.202633
0.199675
0.203291
0.204606
0.199346
0.206249
0.202469
0.202962
0.201647
0.199346
0.201976
0.202962
0.202633
0.200497
0.203126
0.200168
0.199346
0.202633
0.200661
0.191128
0.199018
0.200004
0.202798
0.199839
0.20477
0.205427
0.203291
0.202305
0.204277
0.20099
0.195073
0.199346
0.198689
0.199511
0.20099
0.200497
0.198853
0.200661
0.200661
0.202305
0.201483
0.201154
0.202633
0.204441
0.200497
0.203784
0.205756
0.203126
0.198031
0.200825
0.205592
0.205099
0.199839
0.202469
0.201647
0.200497
0.203948
0.199182
0.201812
0.200825
0.201812
0.202469
0.204277
0.197867
0.200168
0.200168
0.201319
0.201647
0.200497
0.200825
0.200332
0.202633
0.200661
0.201647
0.202305
0.201154
0.199839
0.201483
0.199346
0.197538
0.200332
0.200004
0.200825
0.20099
0.20099
0.200004
0.20214
0.201976
0.20099
0.198853
0.201812
0.196552
0.198689
0.20214
0.201812
0.198524
0.198689
0.202798
0.200168
0.200661
0.201647
0.201647
0.201154
0.205592
0.198524
0.19721
0.197867
0.20099
0.201647
0.20099
0.20099
0.20214
0.199675
0.200825
0.201812
0.200332
0.203948
0.201647
0.202962
0.200168
0.204113
0.199675
0.201812
0.199675
0.200497
0.197538
0.199182
0.200168
0.200825
0.200661
0.202305
0.200332
0.199018
0.201483
0.200332
0.202305
0.200661
0.201483
0.202305
0.201647
0.20099
0.202305
0.196881
0.193758
0.197374
0.198689
0.20099
0.198196
0.201154
0.202305
0.204113
0.200825
0.204277
0.197538
0.202305
0.197045
0.202469
0.201319
0.199511
0.200825
0.201647
0.204277
0.199839
0.204441
0.200004
0.200332
0.201154
0.202469
0.197703
0.20214
0.202305
0.202798
0.20362
0.19836
0.199346
0.202305
0.199018
0.199511
0.201647
0.200168
0.200168
0.199018
0.201976
0.200332
0.201319
0.201483
0.203455
0.202305
0.201483
0.201319
0.200497
0.199018
0.204934
0.197703
0.198689
0.19836
0.196223
0.200825
0.197703
0.199346
0.200497
0.204277
0.201483
0.199511
0.202305
0.202962
0.205921
0.202962
0.20099
0.198689
0.203455
0.202633
0.20362
0.197867
0.203126
0.200661
0.200497
0.20099
0.201319
0.200825
0.199839
0.202305
0.202962
0.202469
0.198689
0.206414
0.200168
0.202469
0.201647
0.197374
0.201647
0.197867
0.198524
0.198853
0.199675
0.200168
0.20214
0.202798
0.200825
0.201154
0.204113
0.199346
0.202633
0.20362
0.202962
0.200497
0.200497
0.197045
0.200332
0.199346
0.196881
0.200168
0.202633
0.201812
0.199182
0.201483
0.200332
0.206414
0.202469
0.201483
0.201154
0.201319
0.201812
0.200661
0.200825
0.20099
0.198853
0.197374
0.199182
0.201154
0.202305
0.200825
0.202633
0.198031
0.200168
0.198524
0.202305
0.199511
0.198689
0.201154
0.200825
0.20099
0.199675
0.200332
0.203291
0.199346
0.199346
0.201976
0.199018
0.200825
0.200825
0.203948
0.197867
0.197703
0.199839
0.202633
0.199346
0.199839
0.199675
0.197045
0.199511
0.197374
0.204113
0.19836
0.202305
0.200168
0.199018
0.202798
0.19836
0.198853
0.201483
0.199839
0.199511
0.203126
0.200661
0.202962
0.201154
0.201483
0.192443
0.195402
0.197538
0.198853
0.197867
0.197538
0.201154
0.198853
0.200661
0.20214
0.201976
0.200004
0.201647
0.200004
0.20099
0.200168
0.200661
0.198853
0.199839
0.20099
0.202798
0.199675
0.199018
0.201319
0.200661
0.19721
0.198031
0.201647
0.201319
0.200661
0.197538
0.199182
0.199346
0.197703
0.199182
0.200497
0.198853
0.201647
0.199018
0.201976
0.20099
0.199839
0.203784
0.198196
0.198689
0.202305
0.202469
0.200332
0.201976
0.201976
0.201319
0.200497
0.203784
0.197045
0.202962
0.198031
0.197374
0.200332
0.198524
0.201319
0.202962
0.205099
0.200168
0.201154
0.200168
0.204606
0.198031
0.20214
0.199839
0.20099
0.200825
0.203291
0.202469
0.200168
0.200332
0.196388
0.199839
0.197374
0.198689
0.19721
0.204113
0.202305
0.203948
0.203784
0.202633
0.200661
0.200168
0.202469
0.199839
0.202962
0.200168
0.201154
0.199839
0.203784
0.199018
0.201812
0.199839
0.201483
0.20362
0.200661
0.204277
0.199018
0.205099
0.202633
0.205099
0.201483
0.203291
0.203126
0.200497
0.204606
0.199675
0.198524
0.200332
0.199511
0.200332
0.202469
0.203455
0.205263
0.201483
0.205592
0.200497
0.200661
0.202305
0.20099
0.200497
0.200004
0.196059
0.198853
0.198689
0.198689
0.197045
0.196223
0.199018
0.202798
0.202798
0.201976
0.199839
0.200825
0.202305
0.20362
0.202469
0.200661
0.191293
0.197703
0.201154
0.198689
0.199018
0.200825
0.200004
0.199018
0.199346
0.202469
0.202962
0.19573
0.198196
0.201812
0.199511
0.202633
0.199675
0.201319
0.197538
0.198689
0.199839
0.198853
0.200497
0.199182
0.201483
0.199675
0.199346
0.199018
0.20214
0.197867
0.202469
0.202798
0.201154
0.201976
0.200332
0.200332
0.196059
0.19721
0.197538
0.197374
0.194087
0.199675
0.20099
0.202305
0.199675
0.20214
0.199511
0.199675
0.201976
0.201483
0.201483
0.19721
0.200497
0.201154
0.201154
0.200497
0.201812
0.196223
0.200332
0.199346
0.200497
0.20214
0.200004
0.201154
0.203455
0.203291
0.200004
0.202962
0.199839
0.200004
0.197374
0.201812
0.199839
0.199511
0.200004
0.201154
0.198524
0.20099
0.202962
0.201647
0.201647
0.201154
0.199018
0.200004
0.199018
0.200332
0.201483
0.197374
0.200004
0.203784
0.195566
0.19836
0.201812
0.197867
0.199839
0.200497
0.203126
0.200497
0.201483
0.202469
0.203291
0.199675
0.199182
0.201154
0.201319
0.201154
0.196881
0.204113
0.202469
0.202798
0.201647
0.20855
0.20099
0.200168
0.202305
0.200004
0.199675
0.200825
0.201976
0.199839
0.20214
0.198524
0.20477
0.199839
0.200332
0.199839
0.20099
0.201812
0.200004
0.200332
0.200497
0.200661
0.198689
0.199511
0.199675
0.200332
0.198689
0.203455
0.200332
0.20362
0.207728
0.20214
0.201483
0.20099
0.199511
0.201319
0.20099
0.199675
0.200661
0.199839
0.199675
0.20362
0.204113
0.200497
0.203455
0.201647
0.20362
0.20477
0.200661
0.199511
0.20362
0.197867
0.19836
0.198853
0.199839
0.200332
0.198689
0.198853
0.199511
0.201647
0.199511
0.201483
0.201154
0.202633
0.202305
0.200004
0.199346
0.201812
0.200497
0.198689
0.200332
0.198196
0.200661
0.196388
0.197867
0.200497
0.199182
0.198524
0.201319
0.201483
0.205756
0.203784
0.201319
0.202962
0.200332
0.198196
0.200661
0.201483
0.199018
0.203291
0.197703
0.199839
0.199346
0.20099
0.20214
0.202469
0.199511
0.203126
0.201154
0.199675
0.201976
0.200004
0.202469
0.202798
0.202798
0.200661
0.200497
0.199511
0.199675
0.202469
0.198196
0.200661
0.202469
0.200825
0.200661
0.203455
0.199511
0.200825
0.199839
0.201483
0.199839
0.200168
0.200004
0.19836
0.197703
0.204441
0.19836
0.198853
0.198853
0.197867
0.200825
0.201812
0.202798
0.200825
0.206085
0.198853
0.201319
0.201976
0.200497
0.198524
0.201319
0.200661
0.200332
0.200497
0.199182
0.205263
0.198031
0.194087
0.201812
0.201976
0.197374
0.203455
0.200661
0.201976
0.197867
0.201319
0.195402
0.19836
0.199839
0.197538
0.199675
0.197538
0.203291
0.200661
0.200661
0.200168
0.20214
0.201812
0.201483
0.201154
0.201812
0.198689
0.196223
0.199675
0.19573
0.199182
0.200004
0.202962
0.197538
0.203126
0.19836
0.19836
0.196881
0.199839
0.200497
0.203455
0.201154
0.201483
0.207728
0.198524
0.198689
0.200825
0.199018
0.199839
0.200168
0.201483
0.198031
0.198689
0.201483
0.201812
0.201319
0.203784
0.199675
0.202962
0.203126
0.199675
0.201154
0.201976
0.199839
0.200661
0.199839
0.200497
0.19836
0.200004
0.197538
0.199675
0.198031
0.202469
0.201154
0.201483
0.203126
0.198196
0.19836
0.198524
0.196717
0.19836
0.199511
0.200497
0.20214
0.199182
0.201483
0.196552
0.20099
0.198031
0.198853
0.201154
0.201812
0.202633
0.198031
0.203291
0.198853
0.202962
0.201647
0.204441
0.199182
0.201154
0.198196
0.20214
0.202305
0.200004
0.202305
0.199018
0.201647
0.202633
0.205592
0.200497
0.200004
0.202633
0.201483
0.199839
0.201812
0.202798
0.199675
0.199346
0.199839
0.202305
0.196881
0.20099
0.199346
0.201319
0.200332
0.201319
0.201319
0.204277
0.200825
0.201976
0.19836
0.200004
0.200825
0.201154
0.203455
0.202469
0.200661
0.202305
0.200661
0.201483
0.204934
0.19573
0.200825
0.200168
0.203126
0.200332
0.203126
0.202469
0.199839
0.202305
0.203455
0.204113
0.204277
0.196059
0.204934
0.201976
0.198196
0.203948
0.200497
0.196059
0.199018
0.201812
0.199182
0.204277
0.198853
0.200497
0.201483
0.197374
0.199346
0.201319
0.201319
0.199018
0.201647
0.198853
0.206907
0.196223
0.195566
0.196552
0.199839
0.198196
0.199675
0.198689
0.200497
0.20214
0.201647
0.207564
0.199018
0.200825
0.199346
0.200661
0.198689
0.202798
0.196881
0.20099
0.196881
0.201154
0.194251
0.200332
0.19721
0.201812
0.205592
0.200497
0.20362
0.198689
0.200661
0.19721
0.204441
0.187513
0.19836
0.19836
0.199675
0.199511
0.199675
0.20099
0.198689
0.200661
0.200168
0.201812
0.188827
0.20099
0.199018
0.200497
0.198031
0.197703
0.195566
0.196717
0.198689
0.196881
0.19721
0.192443
0.19836
0.200004
0.200168
0.200332
0.203455
0.20362
0.200332
0.20099
0.201812
0.201976
0.199182
0.197538
0.199511
0.198689
0.198853
0.201154
0.198524
0.199346
0.199182
0.196717
0.204441
0.204441
0.19721
0.204113
0.20214
0.201812
0.200168
0.199839
0.199182
0.200825
0.200497
0.200168
0.19836
0.197703
0.200497
0.196223
0.200332
0.197374
0.199346
0.200661
0.201647
0.199511
0.201647
0.200661
0.199346
0.20362
0.198031
0.199018
0.19721
0.198689
0.19458
0.20362
0.196717
0.199839
0.202798
0.202469
0.201154
0.201483
0.200661
0.200825
0.20099
0.200004
0.200332
0.199346
0.200004
0.19836
0.199182
0.198196
0.200332
0.196552
0.200332
0.202633
0.201647
0.201812
0.201976
0.200661
0.201319
0.199182
0.197703
0.200332
0.196717
0.202962
0.195237
0.199346
0.198196
0.200004
0.199511
0.199675
0.200332
0.199675
0.200661
0.201812
0.198689
0.200168
0.197538
0.198689
0.201647
0.199346
0.199675
0.198853
0.199346
0.198524
0.200497
0.199675
0.201319
0.199675
0.200168
0.199675
0.200497
0.200825
0.200661
0.201812
0.199018
0.201319
0.200004
0.202962
0.199839
0.199346
0.199182
0.199346
0.19721
0.202798
0.200497
0.198031
0.201319
0.198524
0.199018
0.197703
0.201812
0.200332
0.200661
0.19836
0.19573
0.198196
0.201319
0.197374
0.198689
0.199839
0.195895
0.202305
0.198524
0.201319
0.198031
0.200004
0.197538
0.198689
0.195402
0.201154
0.199839
0.197703
0.19836
0.198853
0.201154
0.199675
0.203948
0.196717
0.199675
0.197867
0.200168
0.198853
0.19721
0.201647
0.201319
0.197374
0.202633
0.20362
0.201154
0.20099
0.197703
0.200661
0.196388
0.196059
0.199511
0.194744
0.197045
0.200332
0.200332
0.198524
0.199675
0.200168
0.199675
0.200004
0.196717
0.203291
0.203455
0.200168
0.20214
0.199511
0.200332
0.201154
0.199182
0.198031
0.201154
0.195402
0.201647
0.195073
0.199511
0.19836
0.197703
0.200332
0.202305
0.201154
0.199018
0.202633
0.196881
0.198524
0.199346
0.199675
0.19836
0.203126
0.197867
0.198196
0.199511
0.19836
0.200004
0.199839
0.203455
0.199675
0.202798
0.198031
0.204277
0.197374
0.197374
0.196059
0.198031
0.197703
0.198853
0.200004
0.199018
0.20099
0.197538
0.201154
0.198853
0.205099
0.20362
0.201812
0.200661
0.200332
0.200332
0.201647
0.200661
0.200497
0.20362
0.199182
0.198689
0.196223
0.199018
0.19836
0.194744
0.200168
0.200661
0.202469
0.200661
0.196717
0.204441
0.19836
0.20214
0.199675
0.201812
0.198031
0.200497
0.200332
0.199675
0.199675
0.20099
0.20099
0.199018
0.201483
0.199511
0.201154
0.197374
0.207728
0.199346
0.202798
0.202633
0.202305
0.196388
0.200661
0.199675
0.198524
0.199018
0.197867
0.202469
0.201647
0.201812
0.198196
0.198853
0.199511
0.200497
0.19836
0.201976
0.201483
0.203126
0.202962
0.199839
0.200168
0.200168
0.199018
0.195073
0.200332
0.196388
0.198524
0.196059
0.202305
0.205427
0.20099
0.201483
0.201812
0.202798
0.202469
0.197374
0.200168
0.200332
0.200497
0.201647
0.199839
0.201483
0.197374
0.197867
0.201483
0.198689
0.198689
0.204934
0.202962
0.199511
0.205756
0.201812
0.202962
0.196552
0.201483
0.198853
0.199182
0.199182
0.195402
0.197045
0.197703
0.198853
0.201812
0.198689
0.199018
0.198689
0.199018
0.200168
0.199182
0.20214
0.19721
0.198031
0.201812
0.200825
0.197867
0.197374
0.199346
0.198853
0.199018
0.198031
0.199675
0.198853
0.198853
0.201483
0.204113
0.201154
0.201483
0.199839
0.200661
0.202633
0.200332
0.195566
0.197045
0.199675
0.200332
0.20099
0.19836
0.198853
0.196059
0.203455
0.199675
0.199839
0.201154
0.201154
0.199018
0.200332
0.199018
0.200332
0.197867
0.199675
0.196552
0.195566
0.199182
0.198524
0.198031
0.193922
0.199511
0.196717
0.199675
0.198853
0.201319
0.19836
0.197045
0.198689
0.199182
0.200497
0.200497
0.198689
0.196552
0.202305
0.19836
0.201319
0.202633
0.198524
0.198689
0.200168
0.200661
0.201976
0.199675
0.199346
0.200825
0.201483
0.201319
0.204934
0.198196
0.199675
0.199839
0.200825
0.203126
0.193922
0.197867
0.201976
0.199675
0.199839
0.200168
0.19836
0.200004
0.201154
0.198031
0.200497
0.199018
0.19573
0.201976
0.203455
0.200004
0.199346
0.198524
0.19721
0.197045
0.198031
0.199182
0.195895
0.198196
0.19836
0.20214
0.200825
0.205592
0.199182
0.202633
0.200497
0.199511
0.198524
0.200825
0.196059
0.199675
0.198853
0.199675
0.204113
0.199675
0.202469
0.200004
0.201812
0.201483
0.200661
0.198524
0.200825
0.200497
0.201154
0.198196
0.200825
0.198853
0.203291
0.205427
0.196717
0.200497
0.199018
0.200332
0.200497
0.200332
0.192772
0.198524
0.199675
0.20099
0.200168
0.200497
0.199182
0.198196
0.200168
0.199839
0.199346
0.184554
0.198689
0.20099
0.202305
0.201154
0.201976
0.199675
0.200332
0.196552
0.20362
0.20099
0.195237
0.19836
0.197538
0.200004
0.197374
0.197867
0.199018
0.200004
0.198689
0.200825
0.200168
0.199182
0.197374
0.200825
0.199839
0.200004
0.197374
0.198853
0.200332
0.197538
0.197538
0.196717
0.196388
0.199346
0.198853
0.199839
0.200004
0.19721
0.198853
0.199346
0.20099
0.200004
0.199839
0.203291
0.196223
0.198031
0.199346
0.197538
0.200332
0.199182
0.198031
0.197374
0.192279
0.197374
0.199346
0.196388
0.197374
0.199182
0.199182
0.199839
0.201647
0.198853
0.200825
0.199346
0.199511
0.198689
0.20214
0.198689
0.201812
0.194909
0.198196
0.199675
0.198689
0.200825
0.199018
0.200332
0.201319
0.202633
0.201154
0.202798
0.201483
0.203126
0.19458
0.199511
0.19836
0.198196
0.19836
0.199182
0.201319
0.199018
0.199675
0.198196
0.200332
0.200661
0.19836
0.198524
0.20099
0.198689
0.199511
0.200497
0.193922
0.196059
0.198524
0.200004
0.198689
0.200168
0.199182
0.200332
0.200661
0.199511
0.201483
0.200497
0.19836
0.200497
0.201812
0.202305
0.19721
0.20099
0.199182
0.199839
0.199018
0.200661
0.199675
0.195073
0.205592
0.197703
0.198853
0.197374
0.202469
0.197045
0.199511
0.204606
0.199511
0.199346
0.197045
0.199182
0.196881
0.199346
0.199018
0.197867
0.200332
0.199675
0.197374
0.198524
0.197867
0.199346
0.197867
0.198689
0.196059
0.199182
0.200661
0.198031
0.198196
0.196388
0.201483
0.200004
0.200497
0.19458
0.199182
0.19836
0.197374
0.200168
0.199018
0.200332
0.199346
0.199675
0.200497
0.199839
0.198196
0.200332
0.199018
0.200661
0.200661
0.199182
0.194744
0.198689
0.198524
0.195237
0.199839
0.203948
0.199675
0.199182
0.199018
0.201647
0.201647
0.198524
0.203455
0.196717
0.199675
0.198689
0.198196
0.195895
0.197538
0.199182
0.198031
0.199346
0.197703
0.198689
0.198689
0.198196
0.199675
0.198853
0.19458
0.204441
0.199511
0.199182
0.201647
0.200004
0.198524
0.198689
0.198031
0.199511
0.197867
0.198853
0.20099
0.198196
0.199839
0.199675
0.20099
0.198524
0.201483
0.195895
0.197867
0.200661
0.199346
0.19721
0.197703
0.200332
0.195073
0.197867
0.197538
0.199018
0.195402
0.193922
0.197538
0.197045
0.199018
0.198689
0.200168
0.199839
0.20099
0.20099
0.202469
0.201319
0.19836
0.197538
0.199182
0.196223
0.199346
0.193594
0.195566
0.194087
0.197045
0.196552
0.198689
0.197374
0.200168
0.201154
0.199675
0.200332
0.200168
0.200004
0.19721
0.200825
0.197867
0.199018
0.19836
0.199511
0.200497
0.199511
0.197703
0.19836
0.200661
0.201812
0.202962
0.199018
0.20477
0.193429
0.203784
0.20099
0.199182
0.196388
0.202469
0.199346
0.19836
0.19573
0.199346
0.197374
0.198689
0.200168
0.193758
0.195073
0.190307
0.193922
0.188992
0.190142
0.189156
0.185212
0.176829
0.177322
0.170255
0.172885
0.16779
0.166475
0.174035
0.171077
0.169105
0.169598
0.170419
0.167297
0.171241
0.169105
0.170419
0.170419
0.170913
0.172063
0.172556
0.171406
0.170748
0.174857
0.172885
0.175843
0.176172
0.177651
0.177158
0.181103
0.179952
0.181431
0.177651
0.182582
0.182417
0.185705
0.18554
0.183075
0.186691
0.184061
0.188006
0.187841
0.188006
0.187677
0.189814
0.188992
0.18817
0.1908
0.190307
0.192279
0.189649
0.1908
0.192443
0.191786
0.193922
0.191621
0.193758
0.196552
0.189649
0.191128
0.1908
0.19458
0.196881
0.196717
0.192608
0.19721
0.194416
0.201812
0.197045
0.192608
0.195073
0.194416
0.196223
0.197703
0.198853
0.195566
0.196717
0.19573
0.201483
0.197045
0.199675
0.19721
0.19836
0.19721
0.199182
0.20099
0.194251
0.197703
0.201647
0.19458
0.197867
0.196717
0.19721
0.199182
0.196388
0.198524
0.199182
0.199511
0.197045
0.200168
0.188006
0.192936
0.19836
0.198031
0.193429
0.193758
0.19721
0.19573
0.199182
0.196717
0.202305
0.191457
0.198196
0.199511
0.198031
0.197374
0.198196
0.200332
0.196223
0.203455
0.195237
0.201647
0.197703
0.197867
0.197703
0.199511
0.196881
0.198524
0.197867
0.198031
0.19836
0.198196
0.200825
0.197374
0.197703
0.197045
0.199346
0.197045
0.198853
0.198689
0.200004
0.198524
0.199182
0.198689
0.199675
0.196881
0.196717
0.202305

Kurve 4

-0.000512
0.002447
0.002447
0.003926
0.00146
0.001789
0.001954
-0.000841
0.001954
0.002611
0.001132
-0.001334
0.000803
-0.000183
-0.000347
-0.001991
0.001132
0.001954
-0.000183
-0.003799
0.000474
-0.001662
-0.001334
-0.000676
-0.000841
-0.000676
-0.001005
-0.001662
-0.000676
0.002118
-0.003799
0.002447
-0.001334
-1.9e-05
-1.9e-05
0.00146
-0.003635
-0.003306
-0.00232
0.000474
-0.00232
-0.002813
-0.001334
-0.001005
-0.000512
-1.9e-05
0.001132
-0.001334
0.000146
0.001132
0.001625
-1.9e-05
0.000639
0.001789
-0.001498
0.000474
0.000639
-1.9e-05
-1.9e-05
-0.000676
-0.001005
-0.000347
-1.9e-05
0.000474
-0.001827
0.000967
-0.002813
0.000639
-0.000841
-0.001991
0.001954
0.001132
-0.002484
0.002447
-0.000512
-0.001169
0.000639
-0.000183
-0.001005
-0.001005
-0.002155
-0.002813
0.000146
-0.001498
-0.001662
-0.001827
0.001789
0.001954
-1.9e-05
-0.001169
-0.000676
-0.003306
-0.004456
-0.000676
-0.004128
-0.002155
-0.003142
0.000803
-0.002155
0.001296
-0.001498
-0.002155
-0.001991
-0.000347
-0.000512
-0.001498
-0.004292
-0.000841
0.001625
-0.00232
-0.002813
-0.000347
0.001296
-0.001005
0.002118
-0.003799
0.00031
-0.001498
0.00146
-0.000183
0.004255
-0.000512
-0.000676
0.000146
-0.00232
0.000474
-0.005114
0.001625
-0.001169
0.000639
-0.000183
0.001132
-0.000512
-0.000676
-0.001334
-0.002484
-0.001991
-0.001498
0.003433
-0.001498
0.001132
0.004748
0.001296
-0.000512
0.000639
-0.001498
0.000967
-1.9e-05
-0.002155
-0.002977
-0.001498
-0.000347
-0.000183
0.000474
-0.000183
0.003761
-0.001498
-0.001005
-0.000347
0.000146
-0.002813
0.001625
0.003433
0.002611
0.000639
-0.001169
-0.002977
0.001296
-0.002977
-0.004128
-0.004621
-0.003635
-0.001991
-1.9e-05
-0.001991
-0.001827
0.000474
-0.00347
0.008035
-0.00232
-0.000183
-0.002977
-0.000512
0.001625
-0.001662
-0.002155
-0.003306
-0.00347
-0.005114
-0.005607
-0.004949
-0.002155
-0.002484
0.000474
0.00146
0.001625
-0.001334
-0.003142
0.00146
-0.000347
0.001625
-0.001498
-0.005114
-0.000347
0.000967
-0.000512
0.002775
-0.002484
-0.000841
-0.000183
0.000474
0.001625
-0.000512
-0.000676
0.00031
0.00146
-0.001169
-0.001169
-0.001991
0.003926
0.000474
-0.001334
-0.001991
0.000639
-0.004949
-0.001498
0.001625
-1.9e-05
-0.000512
-0.003142
0.000639
0.001625
0.001789
0.000639
-0.000183
-0.002155
0.001625
-0.004949
0.002611
-0.002484
-0.004785
-0.003963
-0.000347
-0.002648
0.000474
0.00031
-0.001334
-0.000841
0.001789
0.002118
-0.001827
0.005076
0.012637
0.02332
0.021512
0.033346
0.037948
0.045179
0.05274
0.059643
0.065231
0.069997
0.07575
0.083146
0.088734
0.088077
0.096623
0.096294
0.104841
0.107799
0.111251
0.116182
0.11651
0.117496
0.126043
0.129166
0.129495
0.139192
0.136891
0.140013
0.141
0.146916
0.14478
0.149053
0.150368
0.155134
0.155627
0.15497
0.159901
0.157764
0.160558
0.166311
0.16138
0.161051
0.169433
0.166639
0.171899
0.170255
0.17157
0.166639
0.175186
0.175515
0.176994
0.17798
0.17798
0.178802
0.18061
0.182746
0.181103
0.184554
0.168118
0.183568
0.184225
0.183897
0.182253
0.190471
0.189485
0.188827
0.189978
0.190964
0.187677
0.18554
0.19195
0.190307
0.191293
0.188334
0.191786
0.191786
0.189814
0.191457
0.193429
0.191786
0.192279
0.192608
0.197045
0.190964
0.19195
0.194744
0.196388
0.194744
0.194744
0.196388
0.195895
0.196552
0.193101
0.198196
0.193594
0.195402
0.194251
0.197867
0.196223
0.19836
0.200332
0.197703
0.19721
0.200497
0.19721
0.197045
0.200661
0.197045
0.200168
0.198524
0.198689
0.201483
0.202305
0.199511
0.196059
0.199018
0.195895
0.200168
0.199018
0.200497
0.197374
0.204441
0.200332
0.200497
0.20099
0.201319
0.200004
0.197867
0.199018
0.199511
0.198031
0.199675
0.201812
0.196552
0.199839
0.199018
0.201483
0.197374
0.201483
0.197867
0.201647
0.202469
0.209208
0.203455
0.202305
0.200661
0.201647
0.201647
0.196059
0.200825
0.199182
0.19836
0.200825
0.200825
0.199675
0.204934
0.198689
0.205099
0.199839
0.199346
0.200661
0.200332
0.196552
0.20099
0.201647
0.20099
0.201812
0.202305
0.202633
0.200497
0.199675
0.198196
0.205263
0.200168
0.203948
0.199182
0.202633
0.201647
0.200497
0.201812
0.199675
0.197538
0.200825
0.20099
0.197538
0.200661
0.198524
0.20099
0.198853
0.202798
0.203455
0.20099
0.198853
0.201976
0.20214
0.199346
0.200497
0.200004
0.201647
0.201812
0.201483
0.199346
0.200497
0.200332
0.200168
0.198853
0.200661
0.200004
0.200825
0.200168
0.198853
0.202469
0.198196
0.200332
0.195402
0.200661
0.198524
0.198853
0.199018
0.200497
0.199511
0.201154
0.200332
0.197703
0.202305
0.201483
0.201154
0.198524
0.201812
0.20099
0.20099
0.20099
0.201812
0.20099
0.200497
0.19836
0.199675
0.200332
0.195402
0.196388
0.198853
0.202305
0.20214
0.200004
0.198689
0.201483
0.201154
0.20214
0.200004
0.201976
0.200661
0.200332
0.198853
0.201812
0.20099
0.199675
0.20099
0.199675
0.20362
0.199346
0.204277
0.204441
0.203455
0.198031
0.207071
0.203948
0.205263
0.202798
0.201647
0.200825
0.200332
0.196388
0.197867
0.202798
0.197867
0.202798
0.198524
0.200661
0.199346
0.205099
0.199675
0.202962
0.197703
0.200497
0.20214
0.196717
0.202469
0.201319
0.202469
0.200825
0.201647
0.199511
0.203126
0.206742
0.200825
0.202469
0.202305
0.203126
0.202305
0.202798
0.202962
0.201647
0.200661
0.202305
0.201154
0.201319
0.20099
0.201319
0.199018
0.205099
0.202469
0.200661
0.202305
0.202633
0.201319
0.203126
0.200168
0.200497
0.200497
0.20099
0.201976
0.201319
0.202798
0.202305
0.200168
0.198196
0.201976
0.19836
0.200497
0.199182
0.200825
0.202962
0.199018
0.200497
0.202798
0.201319
0.199511
0.200661
0.19836
0.203455
0.196717
0.20477
0.201483
0.201319
0.203126
0.20214
0.200497
0.202962
0.202633
0.202305
0.200168
0.203948
0.205099
0.202633
0.203948
0.201319
0.203126
0.200168
0.201483
0.199346
0.196552
0.198689
0.201154
0.202633
0.201319
0.201319
0.204113
0.20362
0.201483
0.203126
0.198689
0.202633
0.20099
0.204277
0.203291
0.20099
0.200497
0.203126
0.202469
0.198524
0.199839
0.199346
0.203784
0.195895
0.203455
0.202469
0.204113
0.200661
0.198031
0.200004
0.201483
0.200497
0.198524
0.197374
0.19836
0.202962
0.202962
0.199839
0.200168
0.201319
0.200497
0.199675
0.198524
0.200661
0.199675
0.198196
0.20477
0.203948
0.201812
0.198031
0.198031
0.201976
0.200332
0.19836
0.201976
0.201483
0.203455
0.200168
0.200661
0.200825
0.199675
0.199675
0.204934
0.197538
0.200168
0.20099
0.199675
0.20099
0.197538
0.200332
0.200825
0.202305
0.197703
0.201483
0.194251
0.19721
0.199182
0.201154
0.197703
0.201812
0.20099
0.201647
0.202798
0.199675
0.201154
0.193594
0.200332
0.197703
0.198689
0.197703
0.147409
0.147574
0.152505
0.149875
0.156285
0.163516
0.158421
0.161544
0.163023
0.163516
0.165653
0.165982
0.167625
0.16894
0.172063
0.1742
0.171899
0.170255
0.16894
0.174364
0.174857
0.177322
0.181596
0.176008
0.183897
0.182253
0.184554
0.173707
0.185705
0.184718
0.185212
0.18439
0.184883
0.184225
0.182417
0.183897
0.183732
0.188499
0.180938
0.189814
0.189649
0.1908
0.191621
0.194416
0.188499
0.189978
0.193758
0.195237
0.192608
0.192115
0.190471
0.19573
0.192936
0.194744
0.193594
0.19195
0.196552
0.195895
0.19458
0.193594
0.199182
0.195237
0.197867
0.198196
0.199018
0.199018
0.194416
0.190307
0.199182
0.198524
0.192279
0.199346
0.19573
0.196881
0.197538
0.195895
0.196388
0.20099
0.197703
0.200004
0.198689
0.198524
0.197867
0.195237
0.19836
0.197045
0.192115
0.19836
0.200825
0.196059
0.200661
0.198524
0.200004
0.200497
0.198524
0.198031
0.201976
0.200004
0.197538
0.200497
0.199511
0.200168
0.199182
0.20099
0.199346
0.20099
0.19836
0.201483
0.200661
0.196388
0.199511
0.204441
0.200825
0.201154
0.199839
0.200168
0.013952
0.01691
0.02973
0.036304
0.03729
0.048795
0.053726
0.054876
0.067368
0.07197
0.077558
0.084132
0.084789
0.092021
0.095144
0.09991
0.106813
0.106813
0.111744
0.121441
0.118483
0.125386
0.129001
0.126372
0.127358
0.135411
0.13574
0.140835
0.140342
0.14478
0.147574
0.149546
0.151847
0.156285
0.156942
0.15612
0.161709
0.161051
0.163681
0.166146
0.165489
0.166311
0.168612
0.167132
0.171734
0.172392
0.171077
0.176172
0.176172
0.177815
0.176829
0.180774
0.179952
0.176994
0.179952
0.18176
0.181596
0.183568
0.18439
0.180445
0.185047
0.185705
0.188006
0.185705
0.187513
0.188499
0.189156
0.184883
0.186691
0.188663
0.19195
0.18817
0.190964
0.194416
0.190307
0.192443
0.193265
0.193922
0.189649
0.192443
0.192936
0.19458
0.192115
0.195237
0.194744
0.196059
0.196223
0.197703
0.196552
0.19573
0.197703
0.196717
0.197703
0.192772
0.193758
0.196223
0.198031
0.195073
0.201483
0.195237
0.19573
0.196552
0.196881
0.195073
0.197374
0.19836
0.200661
0.202305
0.196223
0.201319
0.199182
0.197703
0.196388
0.198031
0.199182
0.197045
0.195895
0.196059
0.195237
0.197867
0.194251
0.199675
0.201319
0.200825
0.201976
0.199018
0.202962
0.196717
0.198196
0.199839
0.199346
0.199346
0.198031
0.197538
0.199346
0.200661
0.199675
0.20099
0.200661
0.201319
0.201647
0.203455
0.199346
0.200825
0.193101
0.200825
0.200004
0.199182
0.200004
0.199182
0.199839
0.198853
0.200332
0.198196
0.203291
0.203291
0.20214
0.200004
0.201976
0.199839
0.203784
0.202469
0.202633
0.200332
0.200661
0.199675
0.199018
0.196881
0.197867
0.19458
0.198031
0.203291
0.199839
0.201647
0.199346
0.203948
0.198853
0.199182
0.200168
0.199839
0.200168
0.200825
0.198853
0.20099
0.202305
0.198853
0.20099
0.199018
0.202469
0.201319
0.19836
0.200168
0.20214
0.197703
0.201647
0.199511
0.20099
0.200332
0.201483
0.200004
0.198524
0.199018
0.199182
0.20099
0.199675
0.205756
0.19836
0.200825
0.200004
0.203784
0.200497
0.199675
0.200497
0.201976
0.201483
0.200661
0.206742
0.200661
0.200497
0.200497
0.201154
0.196881
0.200004
0.197703
0.199018
0.20099
0.198689
0.199182
0.205099
0.201976
0.202962
0.198689
0.200004
0.201812
0.200497
0.200332
0.201319
0.198524
0.199182
0.20214
0.200004
0.201976
0.19836
0.202469
0.203948
0.204277
0.201483
0.201647
0.20099
0.200825
0.203784
0.200332
0.202469
0.203126
0.199511
0.197374
0.196223
0.196717
0.199675
0.199018
0.20099
0.200497
0.19836
0.201647
0.201483
0.199346
0.201154
0.202633
0.198524
0.198196
0.199346
0.20214
0.199839
0.200825
0.19721
0.199182
0.200661
0.203126
0.204277
0.199346
0.20362
0.202798
0.203455
0.202469
0.203291
0.201154
0.205099
0.201319
0.202305
0.200004
0.200004
0.200661
0.201154
0.200825
0.200497
0.206578
0.203455
0.200332
0.201976
0.200661
0.200168
0.201976
0.200497
0.204277
0.201976
0.200168
0.198853
0.19836
0.20214
0.197703
0.20099
0.20099
0.202469
0.200004
0.19836
0.197538
0.198524
0.197045
0.203784
0.205099
0.199182
0.201812
0.201647
0.200825
0.200661
0.202305
0.201976
0.201154
0.199839
0.201812
0.205099
0.199346
0.200168
0.201647
0.202469
0.200497
0.20477
0.19836
0.203948
0.202798
0.199839
0.199675
0.200825
0.198853
0.198524
0.197374
0.202469
0.200168
0.200497
0.200825
0.200332
0.201319
0.193265
0.197538
0.201154
0.201647
0.198524
0.201319
0.203784
0.202305
0.201319
0.202305
0.200497
0.192279
0.196552
0.198524
0.197703
0.197045
0.200332
0.199182
0.201154
0.202305
0.202798
0.201319
0.197538
0.199839
0.199839
0.198853
0.20099
0.198031
0.201647
0.198196
0.198524
0.201154
0.199182
0.200332
0.200004
0.199839
0.201154
0.201647
0.202469
0.202305
0.201812
0.202469
0.198689
0.200168
0.197374
0.199018
0.199675
0.196881
0.201483
0.200332
0.200004
0.198689
0.201154
0.200168
0.202962
0.20214
0.205756
0.201154
0.200825
0.204441
0.201483
0.205921
0.199511
0.20214
0.200168
0.197538
0.197703
0.200825
0.197703
0.200825
0.200004
0.202633
0.200004
0.200661
0.20099
0.203948
0.203455
0.200661
0.198689
0.201812
0.200168
0.20099
0.20099
0.197703
0.20362
0.200497
0.20099
0.199839
0.201647
0.200004
0.201976
0.201812
0.204277
0.206085
0.201647
0.201647
0.200825
0.201483
0.201976
0.200497
0.19458
0.201812
0.203455
0.197045
0.201647
0.20099
0.201483
0.204277
0.199839
0.202469
0.200004
0.20214
0.201154
0.202305
0.200825
0.198689
0.197703
0.199839
0.203291
0.198524
0.199346
0.201812
0.202305
0.203784
0.20855
0.203455
0.201812
0.203784
0.200661
0.203948
0.201483
0.204113
0.199182
0.204113
0.197538
0.202305
0.200825
0.200168
0.201812
0.199839
0.203291
0.203126
0.200825
0.200825
0.207564
0.203455
0.202962
0.202633
0.203455
0.200661
0.199675
0.201976
0.201812
0.197045
0.202469
0.204277
0.20099
0.199346
0.198524
0.203784
0.201319
0.203126
0.201647
0.201319
0.198524
0.202305
0.202469
0.198853
0.201483
0.201154
0.202469
0.202469
0.200004
0.202305
0.199839
0.199182
0.20214
0.202633
0.20214
0.200825
0.202469
0.201647
0.201647
0.200661
0.203948
0.202798
0.200825
0.200497
0.204441
0.20214
0.196717
0.201647
0.200497
0.201647
0.201154
0.204113
0.200661
0.203784
0.205263
0.204606
0.200497
0.200332
0.202798
0.198853
0.200332
0.199182
0.201812
0.198524
0.201319
0.201154
0.200661
0.199675
0.200825
0.198524
0.201812
0.201647
0.198689
0.204113
0.201154
0.209372
0.201976
0.200332
0.199182
0.201812
0.198689
0.202633
0.199675
0.195402
0.202633
0.202798
0.200825
0.20362
0.20099
0.201154
0.202962
0.200497
0.200661
0.200825
0.201154
0.201154
0.201483
0.199675
0.200004
0.199182
0.199675
0.201319
0.202633
0.198031
0.199511
0.195895
0.201483
0.202798
0.199346
0.202798
0.200825
0.200497
0.202305
0.202305
0.197374
0.200661
0.198031
0.201483
0.200825
0.199511
0.201812
0.199346
0.200332
0.196059
0.197045
0.196717
0.19721
0.197374
0.202469
0.202305
0.20099
0.200332
0.203784
0.197703
0.199675
0.201812
0.198196
0.203291
0.200825
0.207235
0.196881
0.204277
0.200332
0.203784
0.200004
0.202469
0.200168
0.20099
0.198853
0.199346
0.201976
0.20099
0.202962
0.201483
0.20214
0.197703
0.200004
0.201483
0.199839
0.200661
0.200004
0.200661
0.203126
0.202305
0.201319
0.20099
0.20099
0.199182
0.202305
0.200004
0.200004
0.196881
0.198689
0.20214
0.198031
0.19573
0.200825
0.203455
0.200332
0.201812
0.202962
0.200332
0.200661
0.201319
0.202305
0.197538
0.199675
0.200004
0.201976
0.197538
0.199346
0.199511
0.200825
0.202469
0.202469
0.200661
0.201647
0.201483
0.202633
0.199839
0.200168
0.201483
0.197374
0.199675
0.200661
0.205921
0.200332
0.200332
0.048138
0.058985
0.061779
0.069011
0.075092
0.079201
0.088077
0.089556
0.096294
0.097609
0.103362
0.104677
0.108621
0.111744
0.113881
0.115524
0.130152
0.128508
0.129659
0.134261
0.136233
0.138205
0.142314
0.144451
0.145108
0.148889
0.150039
0.152998
0.153984
0.008363
0.012637
0.021512
0.028251
0.036304
0.043865
0.049288
0.051096
0.05537
0.060465
0.065231
0.073942
0.061944
0.067696
0.069504
0.075421
0.068847
0.056191
0.052411
0.060465
0.062273
0.067368
0.076736
0.076572
0.082982
0.08709
0.091692
0.094322
0.103526
0.104348
0.109607
0.111415
0.114374
0.115853
0.120455
0.124893
0.128015
0.129001
0.130152
0.137877
0.138534
0.141821
0.142479
0.147081
0.147409
0.149053
0.15234
0.156285
0.156449
0.158586
0.158421
0.159736
0.161709
0.163188
0.164503
0.16253
0.168118
0.169269
0.172392
0.170419
0.17535
0.174035
0.176336
0.173542
0.178473
0.178144
0.179788
0.175515
0.181924
0.177158
0.180938
0.182253
0.179623
0.183239
0.18176
0.185376
0.181924
0.183404
0.185869
0.186362
0.187841
0.188006
0.188827
0.185705
0.190307
0.186198
0.187019
0.18554
0.189485
0.184061
0.194087
0.187841
0.192115
0.191457
0.189978
0.192443
0.194744
0.192279
0.195237
0.196881
0.192115
0.196881
0.19458
0.197045
0.200168
0.196881
0.194744
0.19573
0.195402
0.195895
0.195566
0.193922
0.197045
0.195073
0.196059
0.201319
0.195237
0.195566
0.198031
0.196059
0.194087
0.19573
0.19721
0.196881
0.201647
0.197045
0.191786
0.194744
0.195895
0.196059
0.196388
0.195566
0.200168
0.196388
0.194087
0.198689
0.19458
0.188006
0.194087
0.195073
0.200661
0.198853
0.199018
0.199839
0.197538
0.200168
0.199675
0.195895
0.19573
0.19721
0.198031
0.198031
0.202633
0.200825
0.199346
0.198524
0.20099
0.200825
0.200168
0.19836
0.198689
0.197538
0.198524
0.201154
0.198031
0.202962
0.199675
0.201812
0.201976
0.203291
0.198031
0.199182
0.199182
0.200168
0.201483
0.200332
0.200004
0.194251
0.201976
0.200825
0.199182
0.197374
0.19721
0.197374
0.199018
0.198689
0.203291
0.200332
0.203784
0.202469
0.202962
0.20477
0.199018
0.200004
0.201319
0.19836
0.199018
0.201154
0.19836
0.201812
0.199511
0.196881
0.200661
0.200497
0.202962
0.20362
0.200825
0.200661
0.202469
0.199182
0.201319
0.201319
0.199018
0.196552
0.200825
0.201647
0.201154
0.198853
0.200825
0.202633
0.201976
0.200661
0.205427
0.200661
0.200497
0.203126
0.201319
0.201483
0.199018
0.201647
0.200332
0.200168
0.196223
0.199675
0.195566
0.202305
0.20362
0.198689
0.202469
0.200332
0.202305
0.197045
0.200497
0.196717
0.201154
0.200661
0.20214
0.201319
0.203455
0.198689
0.200332
0.198689
0.196388
0.200825
0.198689
0.203455
0.201319
0.198031
0.200497
0.204113
0.199182
0.203455
0.200661
0.200004
0.200825
0.197867
0.200825
0.201154
0.198689
0.200825
0.20477
0.199511
0.202633
0.199675
0.200332
0.199839
0.201154
0.200497
0.205263
0.200004
0.201976
0.200661
0.199182
0.19836
0.196881
0.203948
0.199182
0.199182
0.199018
0.198031
0.197538
0.198524
0.198853
0.210194
0.198689
0.200661
0.202305
0.200332
0.202962
0.203455
0.200168
0.200661
0.20099
0.203455
0.199675
0.199018
0.199839
0.197867
0.200661
0.199182
0.201154
0.201976
0.205263
0.200168
0.20362
0.202305
0.199346
0.199839
0.198524
0.200825
0.201154
0.201647
0.19836
0.202798
0.199182
0.200004
0.199346
0.199839
0.201319
0.20099
0.201154
0.200004
0.202305
0.200497
0.200332
0.200661
0.200825
0.194251
0.19836
0.197045
0.200825
0.198524
0.201319
0.203126
0.198031
0.200332
0.200661
0.201976
0.201647
0.201812
0.194416
0.204113
0.197703
0.200168
0.201483
0.199182
0.199182
0.199346
0.197703
0.197867
0.198031
0.19573
0.199675
0.199346
0.199346
0.20214
0.201976
0.198031
0.200168
0.199839
0.200004
0.200497
0.200825
0.198524
0.199346
0.19721
0.200661
0.200004
0.199182
0.20099
0.200661
0.199018
0.197045
0.200661
0.198031
0.200332
0.194251
0.199346
0.20099
0.200825
0.199511
0.200825
0.20099
0.196388
0.197045
0.196059
0.201647
0.197867
0.201976
0.200332
0.20214
0.199346
0.201812
0.198196
0.199346
0.200168
0.199511
0.200004
0.197867
0.202962
0.200661
0.200661
0.199182
0.202305
0.19721
0.200825
0.199839
0.200004
0.19836
0.200332
0.20362
0.202469
0.202798
0.201647
0.204113
0.197045
0.20099
0.201154
0.201976
0.19836
0.199346
0.199675
0.19836
0.197045
0.200661
0.201812
0.196881
0.198853
0.202305
0.201976
0.200004
0.199675
0.201154
0.202305
0.201154
0.209865
0.201154
0.202305
0.200497
0.199346
0.200168
0.200332
0.198853
0.203291
0.201976
0.201154
0.202962
0.200168
0.202469
0.202469
0.203948
0.198689
0.20362
0.193429
0.203948
0.199675
0.197703
0.201319
0.203126
0.201483
0.201483
0.203455
0.198853
0.203948
0.198524
0.203948
0.201154
0.202305
0.201319
0.202305
0.198689
0.200004
0.195402
0.197538
0.199018
0.201976
0.201647
0.19836
0.201319
0.200168
0.203455
0.199839
0.203126
0.199675
0.201647
0.206578
0.201976
0.200168
0.201319
0.199511
0.199839
0.205921
0.19836
0.202798
0.198524
0.201647
0.200332
0.204606
0.200661
0.204113
0.201647
0.202962
0.206742
0.199839
0.199675
0.200004
0.200168
0.199018
0.205921
0.197867
0.20477
0.201647
0.200661
0.198524
0.203126
0.194744
0.203784
0.201483
0.202469
0.202962
0.20099
0.200661
0.200332
0.200497
0.187513
0.200825
0.201319
0.200661
0.196717
0.200497
0.200825
0.201976
0.200497
0.203948
0.202962
0.19573
0.198031
0.197045
0.202633
0.19721
0.200332
0.201976
0.202633
0.199675
0.202305
0.199511
0.203126
0.196059
0.196717
0.200497
0.20362
0.200661
0.200497
0.202633
0.200497
0.202469
0.200004
0.200661
0.201647
0.20099
0.198031
0.200497
0.201483
0.199182
0.198689
0.201976
0.198853
0.203126
0.200661
0.200661
0.203291
0.194744
0.198689
0.19836
0.200825
0.199018
0.202962
0.200004
0.201976
0.200661
0.199675
0.199839
0.202469
0.200825
0.199346
0.202469
0.197374
0.199511
0.201976
0.202469
0.201483
0.20214
0.201319
0.200825
0.20099
0.200497
0.201319
0.199675
0.200661
0.198524
0.201319
0.201812
0.202305
0.199018
0.202305
0.201154
0.202305
0.198689
0.200004
0.200332
0.198689
0.199182
0.199182
0.201976
0.199182
0.200004
0.198524
0.199346
0.20099
0.198031
0.200332
0.20099
0.196059
0.202305
0.196059
0.201976
0.202633
0.199018
0.197374
0.20099
0.200332
0.200004
0.198689
0.198689
0.201647
0.200497
0.201483
0.200497
0.206578
0.201976
0.201647
0.201647
0.202305
0.201319
0.200332
0.199839
0.204441
0.201319
0.200497
0.200497
0.199182
0.200497
0.197538
0.20099
0.200825
0.200825
0.199839
0.204277
0.197045
0.196388
0.200497
0.198524
0.199675
0.196881
0.199839
0.19721
0.199346
0.196388
0.199675
0.193101
0.193922
0.19195
0.194087
0.1908
0.189156
0.187841
0.185376
0.186855
0.188334
0.187513
0.184061
0.182746
0.179952
0.182911
0.179623
0.180116
0.174364
0.1742
0.177158
0.171077
0.173542
0.172885
0.166968
0.16779
0.166968
0.16253
0.164831
0.164667
0.16138
0.159243
0.159243
0.157271
0.155299
0.154312
0.151354
0.153162
0.150532
0.150697
0.148396
0.14971
0.14971
0.146916
0.145273
0.145108
0.144287
0.144615
0.142314
0.141328
0.141657
0.141
0.140013
0.13952
0.13952
0.136069
0.136562
0.134918
0.131631
0.124893
0.133275
0.126207
0.133275
0.129659
0.128673
0.126372
0.124399
0.122098
0.118811
0.116675
0.118483
0.113388
0.108786
0.109443
0.106156
0.106485
0.093993
0.094815
0.090378
0.092843
0.089227
0.089556
0.088898
0.084461
0.085776
0.083968
0.084296
0.080681
0.081338
0.076407
0.080187
0.075585
0.075914
0.074599
0.074106
0.074106
0.074435
0.071477
0.07197
0.070819
0.068518
0.070983
0.066875
0.067203
0.06556
0.067532
0.066875
0.071477
0.072463
0.073284
0.074106
0.076572
0.0769
0.082488
0.08331
0.081502
0.083968
0.086104
0.089391
0.086926
0.094651
0.090542
0.096623
0.100075
0.105827
0.105663
0.108621
0.113716
0.118811
0.123742
0.127194
0.129001
0.136891
0.133932
0.136069
0.143301
0.139849
0.145766
0.145602
0.147081
0.14856
0.150697
0.152176
0.157271
0.156449
0.160887
0.163023
0.164174
0.165489
0.166475
0.17157
0.169598
0.172063
0.170255
0.174035
0.169762
0.172885
0.169105
0.17798
0.175021
0.179623
0.181924
0.181267
0.183239
0.18176
0.18554
0.182911
0.183897
0.186198
0.186362
0.187019
0.184225
0.188992
0.186526
0.1908
0.188006
0.191457
0.189485
0.189156
0.190142
0.192608
0.18932
0.188992
0.193429
0.192443
0.191621
0.194909
0.193922
0.192608
0.191457
0.194744
0.190471
0.195073
0.191128
0.194416
0.195237
0.193101
0.196717
0.19573
0.193429
0.194909
0.19721
0.196223
0.197867
0.196059
0.198031
0.195895
0.19573
0.19573
0.196223
0.19721
0.200004
0.200168
0.196223
0.196881
0.198689
0.199511
0.195237
0.20099
0.197374
0.200661
0.19721
0.199675
0.19836
0.192443
0.195402
0.194909
0.200332
0.196717
0.199675
0.196881
0.200825
0.196717
0.199346
0.19836
0.19836
0.198524
0.199018
0.200497
0.197374
0.20214
0.198524
0.200661
0.19836
0.199018
0.199511
0.199018
0.200825
0.200661
0.202305
0.199182
0.197045
0.200825
0.197374
0.197538
0.197374
0.196388
0.20099
0.198853
0.201154
0.200497
0.201154
0.198853
0.201976
0.197045
0.198196
0.198196
0.197703
0.198689
0.201812
0.201812

Kurve 5

-0.000841
0.002447
-0.001991
0.002282
-0.002155
-0.00347
-0.000347
-0.00232
-0.007579
-0.002648
-0.003799
0.001296
0.000474
-0.000841
0.00146
-0.004785
-0.003963
-0.000676
-0.001662
-1.9e-05
-0.002648
-0.001334
-0.004949
-0.003306
-0.002648
-0.004949
-0.011688
-0.002155
-0.001334
-0.002648
-0.000183
-0.001498
0.00031
-0.002648
0.001296
-0.002648
0.000639
-0.00725
-0.004456
-0.006757
-0.005771
-0.004292
-0.003963
-0.003963
-0.000512
-0.000183
-0.002484
0.00031
-0.003799
-0.000841
-0.001827
0.001954
-0.001662
-0.001334
-0.001169
-0.004128
0.000474
-0.0061
-1.9e-05
-0.001827
-0.001169
-0.004292
-0.001991
-0.002977
-0.002813
-0.002155
-0.001662
0.001132
-0.002484
0.000474
-0.001005
-0.001334
-0.003142
-0.001334
-0.003142
-0.001662
-0.003963
-0.001005
-0.001991
-0.000183
-0.001991
0.00031
-0.002813
-0.001827
-0.002484
-0.001334
-0.003142
-0.001827
0.00031
-0.000183
-1.9e-05
-0.003799
-0.002977
-0.004785
-0.00347
-0.002484
-1.9e-05
-0.001334
-0.001334
-1.9e-05
0.002775
-0.002484
0.00146
-0.002484
-0.000183
-0.001005
-0.001991
0.00294
0.002282
0.001296
0.000803
-0.001005
-0.001169
0.004583
-1.9e-05
-0.000512
-0.000841
0.003268
0.003433
-0.00232
-0.001005
-0.000841
0.000803
-0.001991
0.00031
-0.001662
0.002118
-0.001991
-0.000512
-0.001827
-0.001827
-0.002155
-0.003963
-0.000841
-0.000512
0.001296
-0.004456
0.001625
-0.002484
-0.001169
-0.001169
0.002282
-0.000347
0.000474
0.003104
-0.000183
-0.001005
0.000639
0.000639
-0.000512
-0.000676
-0.001662
0.000474
-0.001334
-0.000676
-0.000841
0.002118
0.001954
0.004912
0.000803
0.000967
0.001132
0.001296
0.002775
0.00031
-0.001005
-0.000676
-0.001334
-0.001498
0.001132
-0.000841
-0.001498
-0.002155
-0.001991
-0.000347
0.00409
0.001132
-0.001662
0.001625
-0.000512
-0.000347
0.001625
-0.002484
-0.001827
0.000639
-0.002648
-0.000347
-0.001498
-0.001498
-0.001498
-0.000347
0.004419
0.005734
-0.000512
0.004255
0.000639
-0.001991
0.001789
-0.003142
0.000146
0.002611
-0.001005
-0.002648
-1.9e-05
-0.001991
-0.001991
0.002118
0.00146
0.001296
0.00031
0.001789
-0.000183
0.001789
0.001625
-0.007744
-0.002484
-0.001334
-0.001991
-0.001169
-0.001169
-0.001991
-0.001334
-0.002484
-0.00232
0.000146
-0.002977
-0.000183
-0.000183
0.000967
0.000474
-0.003306
-0.000841
-0.002813
0.000639
-0.001169
-0.004292
-0.004621
-0.001827
-0.001991
-0.002155
-0.003635
0.002611
0.002775
0.001789
0.000967
0.001625
-0.001991
0.00031
-0.000183
-0.000347
-0.000676
0.004255
0.011979
0.017403
0.027922
0.033839
0.0437
0.049453
0.051261
0.059314
0.064245
0.070655
0.076572
0.080352
0.079859
0.09613
0.096952
0.100896
0.105663
0.10895
0.10895
0.112401
0.11914
0.117496
0.124564
0.123906
0.132617
0.134754
0.134097
0.137548
0.144451
0.143136
0.148396
0.148724
0.147738
0.151354
0.15234
0.155627
0.156942
0.15875
0.164174
0.162366
0.164667
0.167132
0.16779
0.170419
0.168118
0.171406
0.173707
0.176008
0.178144
0.176501
0.177815
0.176829
0.164338
0.16516
0.170748
0.171734
0.165817
0.170419
0.171899
0.171241
0.172063
0.174857
0.178966
0.180116
0.178144
0.181267
0.18176
0.17913
0.181267
0.18554
0.180938
0.184883
0.185212
0.183732
0.185212
0.183239
0.185376
0.187184
0.18554
0.189485
0.190964
0.196552
0.191128
0.190964
0.194416
0.187184
0.191457
0.188992
0.193594
0.190635
0.196881
0.189978
0.192936
0.191786
0.193758
0.191293
0.192279
0.198524
0.193265
0.195073
0.19573
0.199018
0.196881
0.196552
0.199346
0.198853
0.194087
0.194909
0.193265
0.196552
0.196223
0.19721
0.19836
0.196881
0.19573
0.195237
0.19721
0.19721
0.197538
0.197538
0.20099
0.197045
0.202305
0.20099
0.196388
0.199018
0.19721
0.199346
0.195895
0.198031
0.193101
0.195566
0.200004
0.201812
0.201154
0.20099
0.200004
0.197867
0.198689
0.200825
0.201976
0.199018
0.200168
0.199511
0.201319
0.203126
0.201647
0.199675
0.200661
0.199182
0.200168
0.200004
0.201976
0.195073
0.205592
0.205427
0.20362
0.200661
0.20099
0.200825
0.200004
0.201483
0.199346
0.201483
0.197045
0.20362
0.201976
0.20362
0.201647
0.200497
0.201319
0.203455
0.200661
0.199346
0.201812
0.200661
0.201976
0.205099
0.203784
0.199346
0.198853
0.200497
0.20214
0.195237
0.199839
0.199675
0.200004
0.200332
0.204606
0.203126
0.203291
0.204441
0.202633
0.203126
0.199346
0.201647
0.199675
0.201483
0.201647
0.203126
0.199675
0.200004
0.203455
0.201319
0.205756
0.202305
0.202305
0.202633
0.203126
0.203291
0.199675
0.197374
0.206742
0.200825
0.202633
0.208222
0.203784
0.200004
0.200661
0.201154
0.199018
0.201319
0.199839
0.201319
0.200661
0.204934
0.206742
0.204606
0.200004
0.205756
0.200332
0.200332
0.203126
0.196388
0.199182
0.200497
0.199511
0.197374
0.199675
0.200168
0.201976
0.202633
0.204113
0.200168
0.202305
0.202633
0.202305
0.203291
0.194416
0.197374
0.19836
0.200332
0.200497
0.200168
0.199675
0.203291
0.201483
0.203948
0.204277
0.196223
0.200168
0.201812
0.204606
0.201812
0.202962
0.201319
0.202469
0.200004
0.196223
0.200168
0.199511
0.196552
0.20362
0.20099
0.199839
0.203126
0.201976
0.201647
0.203784
0.20477
0.204113
0.202305
0.201647
0.199346
0.198524
0.199511
0.197703
0.200168
0.198031
0.205263
0.200661
0.201812
0.201647
0.200497
0.201976
0.20099
0.204277
0.203291
0.199675
0.199839
0.203291
0.200004
0.202962
0.199839
0.193101
0.201976
0.203784
0.19836
0.200497
0.200332
0.201483
0.201976
0.201976
0.20099
0.201319
0.201976
0.19836
0.196552
0.198031
0.19836
0.199346
0.201976
0.199675
0.199675
0.200661
0.199675
0.200332
0.200168
0.198524
0.199182
0.198524
0.199839
0.199839
0.197045
0.200497
0.198689
0.199182
0.202962
0.199346
0.194909
0.19721
0.197374
0.199675
0.200497
0.199511
0.200825
0.200332
0.200825
0.200332
0.201647
0.200168
0.200825
0.201647
0.202305
0.199839
0.198689
0.200497
0.200825
0.198853
0.203948
0.200004
0.195073
0.201812
0.196552
0.199346
0.199018
0.199346
0.195402
0.201319
0.20099
0.20214
0.197374
0.198196
0.199182
0.198196
0.197703
0.19721
0.196223
0.195237
0.19836
0.196388
0.19721
0.197045
0.197045
0.194416
0.200168
0.195895
0.197703
0.196717
0.194909
0.198031
0.196717
0.195566
0.193758
0.195566
0.193265
0.193758
0.193429
0.194087
0.194909
0.196388
0.195895
0.197703
0.194087
0.19458
0.194909
0.189978
0.19573
0.194909
0.198196
0.195073
0.196223
0.193594
0.195402
0.195237
0.193429
0.192608
0.198196
0.197374
0.19721
0.198196
0.197867
0.19836
0.194087
0.19836
0.198689
0.199346
0.195237
0.195566
0.196059
0.195895
0.194744
0.197045
0.196717
0.195073
0.197867
0.197045
0.193758
0.192115
0.200332
0.19458
0.197045
0.197538
0.198031
0.197703
0.199511
0.196223
0.198689
0.189156
0.191293
0.194251
0.190964
0.197045
0.192115
0.195402
0.192772
0.195237
0.190635
0.197374
0.191621
0.192279
0.192608
0.194909
0.193265
0.193922
0.196223
0.195895
0.195566
0.19836
0.200661
0.19721
0.192772
0.196881
0.197867
0.197867
0.201319
0.198196
0.200168
0.197703
0.198853
0.196552
0.196059
0.197867
0.196717
0.19721
0.194087
0.198853
0.196388
0.197045
0.197867
0.197867
0.19836
0.200661
0.196388
0.199839
0.200825
0.193101
0.200332
0.200168
0.196552
0.200168
0.201647
0.197538
0.20099
0.196388
0.197538
0.201647
0.202633
0.199018
0.202633
0.200168
0.19721
0.202305
0.199675
0.200004
0.198853
0.199675
0.19836
0.199675
0.196059
0.196552
0.196388
0.201319
0.19458
0.194909
0.201319
0.201976
0.199018
0.201483
0.201483
0.197374
0.204113
0.197867
0.200332
0.200004
0.200497
0.195566
0.20099
0.201976
0.199346
0.200004
0.196717
0.202962
0.200497
0.201976
0.200332
0.205427
0.199182
0.201976
0.200497
0.202305
0.201647
0.201319
0.19836
0.201319
0.198524
0.20099
0.201319
0.197703
0.201647
0.20214
0.201812
0.200004
0.202962
0.203126
0.203784
0.201483
0.20214
0.200004
0.200004
0.196717
0.196881
0.199839
0.197374
0.196388
0.200661
0.200825
0.200497
0.201647
0.20099
0.20362
0.201319
0.201647
0.198689
0.198689
0.19721
0.199511
0.198853
0.068025
0.006227
0.002447
0.011486
0.020855
0.030552
0.004583
0.016253
0.020526
0.026607
0.030387
0.038112
0.04633
0.050274
0.057671
0.061286
0.068189
0.071805
0.07953
0.082488
0.087748
0.087912
0.101883
0.100896
0.10517
0.110593
0.118154
0.117168
0.12292
0.1267
0.131302
0.131631
0.132782
0.136562
0.137877
0.147081
0.141328
0.147245
0.145766
0.152669
0.150368
0.15497
0.158914
0.159243
0.16138
0.16253
0.164174
0.161051
0.167625
0.16253
0.170913
0.168283
0.174693
0.17272
0.170913
0.173378
0.176829
0.166804
0.174693
0.180445
0.175843
0.179623
0.180774
0.182417
0.185376
0.183239
0.182911
0.186198
0.176501
0.185705
0.185705
0.188334
0.185376
0.190635
0.193758
0.192115
0.194087
0.190635
0.190142
0.189814
0.189649
0.191457
0.193101
0.18932
0.193922
0.191128
0.19573
0.194251
0.192936
0.192443
0.194251
0.192279
0.192936
0.195895
0.195895
0.196388
0.194744
0.195237
0.194416
0.196388
0.192608
0.198031
0.196717
0.192443
0.198196
0.196552
0.196552
0.198689
0.196881
0.197374
0.198031
0.196223
0.198689
0.196223
0.198853
0.197045
0.199346
0.198853
0.200661
0.19836
0.199675
0.200168
0.202962
0.202633
0.201319
0.199346
0.199018
0.200497
0.197374
0.199675
0.196717
0.200661
0.199675
0.199346
0.198853
0.20362
0.199839
0.201976
0.200004
0.199675
0.200825
0.195073
0.201647
0.200004
0.20362
0.198689
0.206578
0.198524
0.197867
0.200332
0.200332
0.200004
0.200661
0.200825
0.201154
0.202633
0.199675
0.198853
0.200168
0.202469
0.199018
0.199018
0.200825
0.198853
0.200168
0.200004
0.201647
0.199018
0.202633
0.201647
0.202305
0.200661
0.200168
0.199675
0.202633
0.202633
0.204606
0.201319
0.202305
0.201154
0.199346
0.199511
0.200661
0.199182
0.200825
0.200497
0.202469
0.201976
0.201647
0.204606
0.20099
0.20099
0.200004
0.203291
0.196059
0.197045
0.191621
0.19836
0.195237
0.198853
0.200004
0.200332
0.201319
0.199675
0.202469
0.20099
0.20477
0.199511
0.200825
0.200497
0.203948
0.202469
0.197538
0.200661
0.200661
0.200497
0.19721
0.200497
0.198689
0.201647
0.200004
0.203455
0.200497
0.200825
0.19836
0.196388
0.199675
0.198853
0.19721
0.194744
0.196552
0.200497
0.197374
0.195237
0.199839
0.194744
0.199839
0.197703
0.198031
0.19836
0.19836
0.198031
0.200332
0.196388
0.198524
0.197538
0.200004
0.200168
0.197867
0.199018
0.199018
0.19573
0.196881
0.195895
0.197045
0.200661
0.197374
0.200661
0.198524
0.201154
0.20099
0.200004
0.201812
0.198524
0.200825
0.199018
0.202962
0.196223
0.199018
0.199018
0.200332
0.194744
0.200004
0.200661
0.201319
0.20362
0.199675
0.199511
0.199346
0.20214
0.198689
0.199511
0.198689
0.199511
0.199346
0.199675
0.201647
0.200168
0.197703
0.200497
0.199511
0.20099
0.201483
0.203126
0.202798
0.20362
0.201319
0.195566
0.200168
0.199675
0.200497
0.199182
0.200332
0.198853
0.200661
0.19836
0.198689
0.202962
0.200004
0.200332
0.201154
0.202469
0.202469
0.202633
0.201483
0.202633
0.200332
0.206907
0.203291
0.20099
0.198689
0.197703
0.200332
0.197867
0.204606
0.20362
0.204113
0.184718
0.10517
0.053069
0.029237
0.016088
0.014609
0.007213
0.0105
0.007213
0.007213
0.005734
0.006556
0.005569
0.006556
0.007706
0.005898
0.012965
0.007542
0.006556
0.007377
0.009514
0.007049
0.015924
0.015102
0.016581
0.018389
0.022991
0.029894
0.026936
0.030716
0.036469
0.040577
0.040084
0.045508
0.05011
0.052247
0.048631
0.054219
0.031702
0.027758
0.028744
0.029401
0.040249
0.044686
0.051754
0.054219
0.029566
0.033346
0.045179
0.051754
0.057506
0.059807
0.067039
0.071477
0.077065
0.08216
0.086762
0.092843
0.098102
0.102869
0.104348
0.108457
0.110922
0.115853
0.117661
0.125221
0.122756
0.125057
0.130316
0.134425
0.135576
0.137877
0.140342
0.145108
0.147245
0.148231
0.152505
0.152998
0.154806
0.158257
0.159572
0.160394
0.163023
0.163023
0.165489
0.164503
0.166146
0.169598
0.169269
0.170748
0.17272
0.175515
0.173214
0.176336
0.177651
0.181431
0.177651
0.181924
0.177158
0.184883
0.184225
0.183075
0.183897
0.184554
0.182746
0.18817
0.184718
0.186198
0.18817
0.188334
0.191128
0.187841
0.194251
0.18932
0.19458
0.190142
0.190142
0.188006
0.187841
0.187677
0.188499
0.187348
0.187841
0.192772
0.191293
0.19573
0.194909
0.197045
0.193922
0.19458
0.188499
0.1908
0.191293
0.189978
0.191621
0.192443
0.188006
0.190471
0.191621
0.189156
0.193265
0.193429
0.194416
0.190471
0.191786
0.194087
0.197538
0.193101
0.193265
0.192772
0.194744
0.193758
0.192936
0.194087
0.191786
0.195237
0.195895
0.196881
0.192279
0.194744
0.197703
0.19573
0.195566
0.197867
0.196388
0.195566
0.196552
0.195073
0.19721
0.192608
0.196059
0.199675
0.200661
0.196552
0.198524
0.19573
0.195237
0.198031
0.197867
0.198524
0.200332
0.196223
0.200661
0.200332
0.195895
0.198524
0.197045
0.199346
0.198853
0.199182
0.197867
0.197703
0.199346
0.202305
0.198196
0.200004
0.199675
0.201812
0.199346
0.197703
0.200661
0.196223
0.199675
0.199839
0.199675
0.199182
0.200332
0.197045
0.203291
0.199839
0.198853
0.198853
0.199839
0.204934
0.199346
0.199018
0.201647
0.201483
0.199675
0.203784
0.199018
0.200168
0.202798
0.201154
0.200497
0.202469
0.201647
0.200497
0.203455
0.20099
0.204441
0.202962
0.203291
0.200825
0.205592
0.203291
0.20477
0.207728
0.202962
0.20362
0.202798
0.200332
0.200661
0.202305
0.201812
0.206578
0.201976
0.205099
0.207235
0.202633
0.201483
0.20214
0.203948
0.203948
0.203784
0.203948
0.202633
0.205921
0.203455
0.206249
0.20362
0.203455
0.204441
0.201154
0.208715
0.198689
0.204934
0.20362
0.203455
0.203455
0.033839
0.038934
0.045837
0.051425
0.0603
0.068189
0.071477
0.075914
0.008692
0.015102
0.02069
0.018882
0.034989
0.0437
0.049946
0.058985
0.062273
0.070983
0.07575
0.084132
0.089063
0.086762
0.087584
0.094158
0.103033
0.10632
0.111087
0.111415
0.114702
0.101554
0.100568
0.104184
0.108786
0.111415
0.113388
0.113388
0.106649
0.016253
0.017074
0.029072
0.012472
0.021019
0.027429
0.034989
0.040906
0.048795
0.05274
0.061122
0.064574
0.070162
0.077393
0.080187
0.08709
0.055041
0.002775
0.008363
0.017074
0.021512
0.027758
0.003104
0.00935
0.016581
0.025457
0.032031
0.036962
0.045344
0.054548
0.058328
0.06293
0.071805
0.076079
0.081174
0.08331
0.09235
0.092186
0.098595
0.100403
0.105498
0.105005
0.111908
0.112073
0.117168
0.120126
0.122263
0.126207
0.130809
0.13311
0.135083
0.129495
0.127687
0.130809
0.009021
0.000146
0.006227
0.004912
0.003926
-0.000183
0.00294
0.009678
0.000639
-0.002484
0.006062
0.00935
0.002118
0.012472
0.018389
0.022498
0.035154
0.036633
0.042385
0.049946
0.055863
0.060465
0.064409
0.069504
0.072627
0.079037
0.083803
0.088241
0.091035
0.097609
0.100732
0.107799
0.106978
0.112566
0.118483
0.118154
0.123413
0.121605
0.127358
0.128344
0.133275
0.133603
0.137877
0.137055
0.144615
0.142314
0.147574
0.14856
0.148889
0.154641
0.153984
0.159901
0.159572
0.163516
0.159901
0.166311
0.162859
0.166146
0.166475
0.165817
0.165982
0.172556
0.169269
0.169105
0.172885
0.174035
0.177651
0.175515
0.178309
0.180281
0.181267
0.180281
0.183732
0.182089
0.18439
0.184883
0.183404
0.181924
0.185047
0.182911
0.18439
0.18439
0.189485
0.190307
0.188827
0.187348
0.188827
0.193265
0.185047
0.192608
0.190964
0.192115
0.190635
0.193594
0.191293
0.193429
0.193265
0.192279
0.192608
0.193101
0.195073
0.195073
0.19573
0.192279
0.195402
0.195895
0.197374
0.194909
0.199018
0.194087
0.193922
0.196388
0.195566
0.197703
0.196552
0.196881
0.199018
0.201319
0.197867
0.200004
0.197045
0.200168
0.199018
0.200497
0.198524
0.199346
0.20362
0.197867
0.199511
0.197703
0.199018
0.197703
0.199346
0.198031
0.201483
0.19721
0.197703
0.196717
0.199675
0.201812
0.200497
0.197538
0.19836
0.200497
0.19721
0.200004
0.199018
0.198689
0.201976
0.200825
0.197045
0.201647
0.200004
0.196552
0.196223
0.198031
0.200168
0.198031
0.198689
0.201647
0.197045
0.19836
0.199839
0.201319
0.199511
0.201976
0.201647
0.198689
0.20099
0.197045
0.201483
0.200168
0.200497
0.200332
0.200825
0.197867
0.203291
0.203126
0.197703
0.202305
0.196059
0.201647
0.199182
0.202305
0.200004
0.200825
0.196059
0.197867
0.202305
0.200825
0.200332
0.196552
0.201319
0.197538
0.202305
0.195402
0.204606
0.197045
0.197867
0.201976
0.200332
0.199346
0.199346
0.201319
0.197045
0.196059
0.198853
0.200332
0.193922
0.199839
0.198031
0.19721
0.196881
0.203126
0.20214
0.202962
0.201483
0.198031
0.197374
0.200332
0.197045
0.198853
0.199511
0.198853
0.199675
0.19836
0.201812
0.200332
0.202962
0.199511
0.200332
0.200168
0.201483
0.200332
0.200168
0.201976
0.202305
0.201976
0.201483
0.200661
0.197045
0.198196
0.198031
0.198031
0.199182
0.199839
0.201976
0.203948
0.201319
0.200825
0.200497
0.201812
0.198196
0.197538
0.203291
0.199511
0.194416
0.200168
0.202962
0.196059
0.198196
0.198524
0.199675
0.200661
0.202962
0.199346
0.199675
0.197538
0.20099
0.203784
0.198196
0.199182
0.199182
0.196881
0.193429
0.199839
0.198853
0.198524
0.199182
0.202962
0.199511
0.202798
0.201319
0.20099
0.204113
0.200168
0.200332
0.197703
0.198031
0.19836
0.199182
0.197703
0.200004
0.198031
0.197045
0.203948
0.197374
0.200497
0.202305
0.201647
0.201154
0.201319
0.198196
0.200497
0.200661
0.202633
0.198689
0.197374
0.19836
0.199511
0.197045
0.198689
0.197538
0.199346
0.200168
0.201812
0.202305
0.199182
0.19836
0.201154
0.201812
0.200332
0.204934
0.201647
0.197867
0.200004
0.201319
0.199346
0.201154
0.199839
0.199839
0.200168
0.200661
0.199018
0.20099
0.199675
0.196552
0.20099
0.200004
0.206414
0.199346
0.200825
0.199346
0.199675
0.199675
0.198689
0.198524
0.199675
0.202962
0.200004
0.200004
0.201483
0.19836
0.200004
0.201647
0.196717
0.199018
0.196552
0.199675
0.201647
0.198689
0.18932
0.199511
0.200497
0.197374
0.203291
0.200497
0.200661
0.200332
0.20855
0.204441
0.203455
0.195895
0.204113
0.203455
0.202305
0.20214
0.201483
0.202305
0.199182
0.20214
0.201812
0.202633
0.197538
0.19836
0.200497
0.20099
0.202469
0.201483
0.203126
0.198853
0.203455
0.202305
0.199839
0.202305
0.199346
0.199675
0.202469
0.197703
0.201647
0.197867
0.200004
0.202469
0.201647
0.19836
0.204441
0.200825
0.200497
0.202305
0.197867
0.201154
0.198853
0.20099
0.202305
0.202962
0.19836
0.201812
0.198524
0.199346
0.204441
0.199675
0.200497
0.200168
0.201319
0.199346
0.202962
0.202305
0.204113
0.200004
0.200168
0.202305
0.200661
0.198853
0.201319
0.199511
0.20099
0.19836
0.200332
0.202305
0.203291
0.199511
0.198689
0.203455
0.198853
0.202962
0.199182
0.202633
0.200168
0.202633
0.201976
0.201976
0.199346
0.198524
0.200497
0.198689
0.199511
0.195566
0.201483
0.200497
0.201319
0.199675
0.204934
0.201319
0.201154
0.20099
0.20477
0.199018
0.197867
0.201154
0.200497
0.204277
0.202962
0.207728
0.200497
0.20477
0.201812
0.201319
0.200661
0.20214
0.201483
0.20099
0.200332
0.201483
0.205427
0.200825
0.201976
0.199675
0.202962
0.199675
0.202633
0.199839
0.20099
0.199839
0.201483
0.203784
0.20362
0.198853
0.201154
0.20214
0.201483
0.201483
0.203291
0.201483
0.200168
0.200332
0.199346
0.198853
0.19721
0.199675
0.19458
0.19458
0.195402
0.201976
0.199182
0.200661
0.199675
0.199675
0.202962
0.198689
0.200004
0.198853
0.200004
0.199346
0.199182
0.199839
0.198196
0.200004
0.199839
0.199018
0.200332
0.19721
0.195073
0.194909
0.197867
0.200168
0.196552
0.197703
0.200497
0.200168
0.195895
0.199018
0.196717
0.199182
0.195073
0.197867
0.198689
0.199675
0.200661
0.199182
0.199511
0.196717
0.201319
0.19721
0.199182
0.199511
0.199182
0.198524
0.196717
0.196552
0.19836
0.195402
0.194416
0.20099
0.199839
0.199675
0.198196
0.200332
0.198524
0.203126
0.201319
0.198524
0.199675
0.200825
0.19721
0.198524
0.19721
0.19721
0.197703
0.195895
0.203291
0.197867
0.201319
0.202633
0.203291
0.202469
0.201976
0.201319
0.201647
0.20099
0.200004
0.199182
0.200004
0.195402
0.197703
0.199839
0.19721
0.200332
0.198524
0.199839
0.200168
0.197374
0.200497
0.202633
0.200497
0.201319
0.198031
0.202469
0.199346
0.196552
0.196059
0.196223
0.19458
0.191786
0.197703
0.198031
0.197867
0.203126
0.199511
0.199839
0.20477
0.199346
0.199675
0.201319
0.197374
0.20099
0.195237
0.200332
0.198031
0.197867
0.198524
0.201319
0.19721
0.195402
0.19458
0.198031
0.201319
0.199182
0.199018
0.20099
0.199182
0.195402
0.199839
0.196223
0.197867
0.19836
0.198196
0.195073
0.199839
0.200004
0.196881
0.198196
0.19836
0.199182
0.19836
0.198689
0.197867
0.196717
0.195073
0.194251
0.201154
0.198524
0.201154
0.202633
0.198689
0.199346
0.196881
0.199346
0.199675
0.197867
0.201319
0.19721
0.19573
0.19836
0.20099
0.198689
0.198031
0.199018
0.202305
0.200497
0.198689
0.197045
0.200004
0.195566
0.199018
0.202962
0.20099
0.200825
0.197538
0.20099
0.199675
0.200661
0.199346
0.203948
0.200332
0.200661
0.199346
0.199675
0.200168
0.197867
0.201154
0.199675
0.20099
0.19721
0.201319
0.197867
0.200661
0.199511
0.199346
0.19836
0.198524
0.197867
0.202962
0.201647
0.201647
0.201976
0.197867
0.201976
0.200661
0.200825
0.197538
0.201976
0.200497
0.202305
0.199182
0.201483
0.201154
0.200661
0.20214
0.202305
0.20099
0.200004
0.203455
0.202962
0.200168
0.197538
0.199182
0.202469
0.199675
0.197045
0.20099
0.200168
0.20099
0.201319
0.207564
0.200168
0.20099
0.200332
0.206414
0.201154
0.200661
0.201483
0.200497
0.198031
0.20099
0.20214
0.198689
0.199675
0.200332
0.203291
0.201976
0.200004
0.199839
0.196881
0.200332
0.203291
0.203948
0.200332
0.202962
0.200004
0.197703
0.197867
0.200825
0.19836
0.198196
0.205592
0.203126
0.202798
0.20099
0.20214
0.204606
0.196717
0.200497
0.204277
0.199182
0.201154
0.20362
0.206085
0.201319
0.20214
0.201154
0.199839
0.194251
0.199511
0.200661
0.201812
0.201812
0.20214
0.202962
0.201647
0.203784
0.198689
0.202305
0.198524
0.198853
0.201319
0.20099
0.200497
0.201319
0.199346
0.194744
0.203291
0.200168
0.20214
0.194909
0.200332
0.200825
0.201647
0.200004
0.201976
0.201154
0.201647
0.200825
0.200168
0.200497
0.201154
0.19836
0.198031
0.201812
0.201812
0.207728
0.197703
0.196388
0.19836
0.199182
0.198689
0.200004
0.199182
0.199839
0.197374
0.19836
0.199346
0.19836
0.197867
0.197374
0.20099
0.197045
0.197374
0.196881
0.197703
0.19721
0.19836
0.199018
0.198853
0.198031
0.198853
0.200168
0.196717
0.200497
0.195895
0.19836
0.192772
0.197374
0.199675
0.201812
0.194416
0.198689
0.200825
0.198689
0.195402
0.198196
0.199675
0.198853
0.200497
0.197374
0.200332
0.196388
0.197374
0.196552
0.19836
0.193758
0.196881
0.197045
0.196388
0.197867
0.200004
0.195402
0.196388
0.203784
0.197045
0.200168
0.198196
0.19836
0.196059
0.198196
0.196552
0.196223
0.194744
0.196223
0.199018
0.196881
0.199182
0.198524
0.199182
0.19721
0.198853
0.195566
0.196881
0.195237
0.196223
0.199018
0.195402
0.194251
0.197374
0.196717
0.199182
0.198853
0.198031
0.197867
0.196059
0.199346
0.19836
0.201812
0.198689
0.20099
0.202305
0.198524
0.19836
0.197703
0.196223
0.19195
0.196223
0.196223
0.199675
0.197374
0.200004
0.201319
0.202469
0.201976
0.199839
0.200332
0.199839
0.199182
0.198689
0.19836
0.196059
0.199018
0.200332
0.196388
0.197867
0.200661
0.19836
0.199675
0.196223
0.200332
0.199511
0.200497
0.196552
0.201319
0.197045
0.197867
0.198196
0.196717
0.195073
0.194909
0.201483
0.199675
0.201483
0.198853
0.200497
0.199018
0.196881
0.198031

Kurve 6

-0.001498
-0.001662
0.003104
-0.000183
0.002775
0.001296
0.001954
0.001296
-0.001334
0.000803
0.003926
0.001789
-0.001169
0.001789
-0.001334
0.001132
-0.000512
0.001132
-0.002977
0.00031
-1.9e-05
0.001132
-0.000841
-0.001005
0.005076
-0.001498
-0.001827
-0.000183
0.004748
-0.001005
-0.004456
-0.00347
-0.000183
-0.001662
-0.000183
0.000639
0.002611
0.000146
0.001625
0.001625
0.001789
0.002282
0.002282
0.001296
0.001789
-0.001169
0.002611
0.003926
-0.000676
0.002118
-0.000512
0.00031
-0.001991
0.001296
-0.001169
-0.000183
-0.003635
0.002118
0.001132
0.000474
0.003268
-0.005936
-0.000841
-0.003306
0.00031
-0.00232
-0.000676
-0.001498
0.000474
-0.000347
-1.9e-05
0.00031
0.001625
-0.000676
0.000967
0.001132
-0.000841
-0.001827
-0.006264
0.003761
-0.002813
-0.000183
-0.002484
0.001954
-0.001827
-0.001334
-0.000841
-0.000841
0.000967
0.001625
0.001789
0.001296
0.007213
0.001625
0.003433
-0.001334
0.00294
0.001296
-0.002977
0.000803
0.001132
-0.000183
0.00031
0.000639
0.000474
0.00031
-0.000512
0.001954
0.001954
-0.000676
-0.003635
0.002611
-0.000183
-1.9e-05
0.000639
-1.9e-05
-0.003306
0.000639
-0.003799
-0.001005
0.000146
-0.001334
0.003433
0.00031
0.000967
0.000967
0.000967
-0.000512
-0.002484
-0.003799
-0.000676
-0.003963
-0.001498
-0.001169
-0.000183
-0.00347
-0.003799
0.001625
-0.000183
0.000474
0.000803
-0.000347
0.003433
0.000803
0.00146
0.005569
-0.002155
0.001132
0.000639
-0.000841
-0.00232
-0.001169
-0.002813
-0.002155
0.00146
-0.001169
0.002118
0.00031
0.000474
-0.000841
-0.001827
-0.002648
-0.001991
-0.002155
-0.000512
0.00294
0.00146
-0.001334
0.000474
-0.000347
-0.001005
0.002611
-0.001827
-0.001991
-0.004785
-1.9e-05
-0.001662
-0.001005
-0.003306
-0.00232
-0.001334
-0.001827
0.002611
-0.004949
-0.000347
-0.001827
0.00031
-0.001169
-0.00232
-0.001005
0.000474
-0.000347
-0.001498
0.008692
0.000146
0.001789
0.002447
0.001132
-0.000512
0.000967
-0.002155
0.001954
0.00294
-0.000183
-0.007086
-0.005278
-0.002484
-0.003963
-0.001662
0.001296
-0.001991
-0.00347
0.000146
0.00031
-0.000512
-0.011359
-0.001498
-0.001827
0.00146
0.000474
0.000474
-0.001005
-0.001334
0.00031
-0.001991
-0.001827
-0.00873
-0.003142
-0.003306
-0.001991
0.000474
-0.00347
-0.001827
-0.004292
-0.005278
0.002611
-0.001169
-0.000676
-0.001991
-0.000676
-0.000512
0.00031
-0.000676
-0.001334
-1.9e-05
-0.001991
0.001296
-0.002155
-0.001498
-0.001334
-0.001169
0.004419
0.015595
0.014773
0.023156
0.033181
0.040906
0.047316
0.053726
0.061286
0.062437
0.070983
0.072627
0.079366
0.084461
0.090871
0.094322
0.100239
0.101718
0.108786
0.111251
0.113223
0.118483
0.120291
0.124235
0.125714
0.130316
0.131138
0.134261
0.135411
0.141164
0.140013
0.145602
0.146752
0.146916
0.149217
0.151354
0.1576
0.15612
0.161215
0.162037
0.164667
0.163352
0.166146
0.165653
0.168776
0.167625
0.172556
0.169762
0.171734
0.175021
0.175679
0.175186
0.180445
0.186526
0.181267
0.176829
0.180281
0.181924
0.18061
0.182089
0.183075
0.185047
0.181924
0.18554
0.186362
0.183075
0.188006
0.186033
0.188663
0.18817
0.188499
0.190142
0.192279
0.188663
0.191621
0.192115
0.192443
0.188499
0.191621
0.191457
0.189978
0.190307
0.192772
0.197045
0.198853
0.195237
0.199018
0.19195
0.19573
0.197045
0.194416
0.19573
0.194087
0.200332
0.196223
0.196717
0.196717
0.197703
0.19458
0.195895
0.19573
0.197374
0.19836
0.193922
0.196881
0.195237
0.198689
0.195402
0.203455
0.20099
0.196059
0.197867
0.196552
0.19721
0.197867
0.197703
0.196717
0.198196
0.198031
0.198853
0.19836
0.197538
0.197538
0.19836
0.198196
0.199346
0.199839
0.199675
0.200004
0.199346
0.198031
0.194087
0.194251
0.195895
0.194087
0.196552
0.200004
0.199839
0.199511
0.199346
0.201483
0.197867
0.199839
0.199675
0.197045
0.201319
0.199675
0.199182
0.198853
0.201154
0.201319
0.201647
0.191786
0.196881
0.199346
0.201483
0.200332
0.199346
0.201483
0.201812
0.200004
0.20214
0.200497
0.197867
0.199675
0.197703
0.199018
0.198689
0.199018
0.198196
0.201154
0.198196
0.19836
0.198524
0.20099
0.200497
0.197045
0.198031
0.198196
0.198196
0.197045
0.206249
0.198853
0.199346
0.198689
0.198524
0.198031
0.199182
0.198031
0.198689
0.199839
0.200332
0.201976
0.201154
0.20099
0.200825
0.200004
0.199018
0.200661
0.197867
0.203291
0.200004
0.196388
0.200332
0.200332
0.198524
0.195237
0.199018
0.197374
0.199018
0.197703
0.199346
0.200497
0.20099
0.200168
0.203784
0.199182
0.204441
0.197703
0.198689
0.199182
0.195237
0.199839
0.194744
0.149217
0.146423
0.12555
0.092021
0.05652
0.033181
0.02069
0.019868
0.018718
0.016746
0.01691
0.008035
0.015266
0.013952
0.016417
0.015595
0.017896
0.01954
0.022827
0.027922
0.028908
0.034168
0.034661
0.040413
0.0437
0.046659
0.048631
0.054383
0.05537
0.053069
0.052247
0.046987
0.042057
0.047152
0.053233
0.055205
0.061615
0.066875
0.07049
0.075257
0.085283
0.086269
0.095966
0.096788
0.098267
0.110265
0.109114
0.113552
0.116346
0.120455
0.121934
0.125386
0.1267
0.130152
0.131138
0.134754
0.138534
0.138041
0.143465
0.144944
0.150368
0.148067
0.150532
0.148889
0.145437
0.140835
0.139192
0.140506
0.139685
0.137877
0.137877
0.136726
0.139192
0.140013
0.14478
0.141986
0.145766
0.149382
0.149217
0.148231
0.149875
0.152669
0.151354
0.153326
0.14856
0.152176
0.14971
0.153491
0.152669
0.15497
0.155627
0.15612
0.1576
0.160065
0.159408
0.160558
0.163516
0.159901
0.166804
0.159243
0.167954
0.161544
0.165489
0.16253
0.164831
0.163681
0.166475
0.167132
0.164831
0.169105
0.172392
0.177158
0.171406
0.175515
0.173049
0.176829
0.172392
0.174528
0.175515
0.174693
0.177158
0.177322
0.180281
0.178144
0.180116
0.180281
0.185212
0.18176
0.182089
0.183897
0.185869
0.183239
0.188992
0.185376
0.183897
0.186855
0.186691
0.192279
0.187677
0.188006
0.186033
0.189485
0.189649
0.192936
0.193101
0.193429
0.195566
0.19195
0.193594
0.191293
0.196059
0.196059
0.195237
0.196881
0.190635
0.189485
0.193758
0.1908
0.192936
0.185705
0.19721
0.197374
0.197867
0.196881
0.19836
0.198196
0.197703
0.200661
0.193594
0.198689
0.188334
0.195895
0.196223
0.19721
0.198524
0.199346
0.196881
0.199511
0.194087
0.196059
0.198031
0.194744
0.199182
0.196388
0.200168
0.204277
0.200825
0.200825
0.198853
0.19836
0.199346
0.200825
0.199839
0.196552
0.199346
0.196223
0.198196
0.19721
0.199839
0.199018
0.200168
0.199675
0.197538
0.202798
0.195073
0.201812
0.196552
0.200825
0.200661
0.201319
0.198524
0.199018
0.201154
0.199511
0.200332
0.198853
0.200332
0.200825
0.200661
0.200004
0.20099
0.198853
0.201154
0.201976
0.199182
0.19836
0.196223
0.193758
0.192443
0.1908
0.191786
0.193101
0.191457
0.194744
0.194909
0.19836
0.18932
0.195895
0.190964
0.193265
0.192772
0.195237
0.195073
0.193594
0.196881
0.192608
0.19458
0.19573
0.198031
0.194416
0.197045
0.19458
0.197374
0.197703
0.198853
0.193758
0.194416
0.192772
0.195073
0.192772
0.195402
0.193594
0.19458
0.191621
0.190471
0.194744
0.190142
0.198031
0.190964
0.196717
0.198196
0.196223
0.196717
0.197703
0.197703
0.196881
0.194416
0.188663
0.193265
0.196717
0.194909
0.196059
0.197374
0.195566
0.196717
0.19573
0.192608
0.19573
0.198031
0.198853
0.199182
0.197703
0.201647
0.19836
0.197703
0.201154
0.197867
0.200332
0.198196
0.201319
0.198524
0.201483
0.19721
0.196223
0.197703
0.200497
0.198031
0.199018
0.201319
0.200004
0.203126
0.198853
0.204606
0.202633
0.20362
0.203784
0.20099
0.203455
0.203784
0.206085
0.201483
0.203784
0.2074
0.203126
0.205592
0.203455
0.202633
0.199346
0.200825
0.204441
0.20362
0.205756
0.204934
0.205921
0.203784
0.205592
0.204441
0.205427
0.207564
0.20477
0.20477
0.20099
0.204934
0.203455
0.205592
0.202305
0.203784
0.203784
0.201647
0.203291
0.202633
0.201812
0.200825
0.200332
0.199018
0.199675
0.199675
0.202305
0.199018
0.199182
0.199511
0.199182
0.200497
0.201647
0.198853
0.202469
0.20099
0.201483
0.201483
0.199018
0.19836
0.197374
0.199018
0.19721
0.194744
0.19573
0.198031
0.191457
0.196717
0.189485
0.201319
0.196388
0.197703
0.198031
0.19458
0.197045
0.196388
0.200332
0.192279
0.19573
0.191621
0.19458
0.190471
0.193101
0.193429
0.19573
0.195073
0.195073
0.194087
0.195073
0.196223
0.196552
0.196552
0.190471
0.190471
0.189649
0.191293
0.187841
0.191621
0.190307
0.189649
0.189814
0.193922
0.19458
0.19195
0.192772
0.192936
0.193429
0.191457
0.192772
0.191128
0.190142
0.190142
0.189814
0.188006
0.188827
0.185705
0.183075
0.185869
0.180281
0.182582
0.178966
0.178144
0.176829
0.174364
0.17798
0.174528
0.176501
0.172885
0.175679
0.177322
0.176336
0.181596
0.177322
0.181267
0.180774
0.182911
0.183897
0.184554
0.183732
0.184554
0.185869
0.182582
0.18554
0.185212
0.189156
0.185705
0.187513
0.187348
0.189156
0.18817
0.187513
0.192443
0.189156
0.192936
0.191786
0.192279
0.193265
0.193265
0.192772
0.194909
0.192772
0.193758
0.19458
0.194251
0.19573
0.194416
0.197867
0.191457
0.194416
0.193429
0.196223
0.194744
0.19573
0.195402
0.192936
0.198689
0.19721
0.194744
0.196552
0.19721
0.196059
0.197703
0.196881
0.197374
0.199018
0.197045
0.198196
0.200497
0.195895
0.196059
0.199675
0.198524
0.195402
0.199675
0.197703
0.19836
0.196059
0.197703
0.201319
0.201483
0.201647
0.203126
0.200497
0.197703
0.201483
0.197867
0.199839
0.199511
0.200825
0.202469
0.20099
0.201154
0.202633
0.202633
0.20099
0.203784
0.203948
0.201976
0.203126
0.203948
0.198853
0.201154
0.199018
0.197867
0.197867
0.197538
0.198031
0.19573
0.203455
0.200168
0.197867
0.198524
0.200168
0.195402
0.201812
0.198031
0.198031
0.197703
0.200332
0.198031
0.192772
0.200004
0.197538
0.199018
0.200004
0.200332
0.199182
0.202305
0.198689
0.204277
0.204934
0.205756
0.200825
0.201812
0.201483
0.202469
0.203126
0.200825
0.201976
0.202305
0.203948
0.203126
0.204934
0.204113
0.207564
0.201154
0.208715
0.208715
0.206578
0.207235
0.204277
0.204277
0.204277
0.206742
0.205099
0.205756
0.204441
0.2074
0.207893
0.206085
0.204606
0.208715
0.204113
0.212002
0.20855
0.207728
0.21118
0.210851
0.210851
0.208386
0.205592
0.205263
0.20855
0.204606
0.207728
0.208057
0.207728
0.206907
0.211344
0.211344
0.209865
0.210851
0.209701
0.209208
0.209865
0.21118
0.214631
0.209372
0.21118
0.211673
0.209536
0.214138
0.20855
0.211673
0.212166
0.211016
0.210194
0.20855
0.210358
0.215125
0.21118
0.214467
0.213974
0.210687
0.213481
0.210851
0.213152
0.210687
0.213317
0.208222
0.211837
0.209536
0.210523
0.21233
0.210029
0.211837
0.21118
0.216275
0.214138
0.212824
0.210851
0.213645
0.211673
0.210029
0.215125
0.211673
0.2074
0.208715
0.209043
0.209372
0.213317
0.211673
0.213974
0.213974
0.214796
0.218412
0.21381
0.213974
0.213645
0.214138
0.213317
0.213152
0.213481
0.21233
0.211509
0.212824
0.217097
0.213645
0.209536
0.213481
0.210358
0.213645
0.210851
0.213152
0.212166
0.21233
0.21118
0.208879
0.208386
0.208222
0.207071
0.201976
0.20855
0.208879
0.207071
0.205427
0.209536
0.208222
0.197867
0.205756
0.208879
0.206742
0.202633
0.208222
0.20477
0.203291
0.202633
0.201319
0.202305
0.195237
0.198689
0.207728
0.200497
0.201319
0.200168
0.201976
0.201154
0.202469
0.199018
0.200332
0.193922
0.195237
0.199839
0.195895
0.194416
0.194251
0.194251
0.193922
0.199675
0.196881
0.1908
0.192608
0.192279
0.191293
0.193265
0.1908
0.192772
0.190964
0.186198
0.190142
0.187513
0.187513
0.191128
0.189485
0.185047
0.185212
0.18439
0.186691
0.185376
0.184554
0.18439
0.186362
0.186362
0.182417
0.183404
0.182417
0.184883
0.18554
0.186033
0.183897
0.182582
0.183568
0.184554
0.182746
0.183568
0.183897
0.186691
0.183239
0.185376
0.185047
0.183732
0.185047
0.184061
0.186033
0.184554
0.18554
0.184718
0.186526
0.17798
0.181103
0.184225
0.183404
0.183404
0.18554
0.188006
0.185869
0.182417
0.186198
0.186033
0.186033
0.188334
0.186691
0.187841
0.186198
0.188663
0.186855
0.187841
0.186198
0.189978
0.186691
0.185705
0.188006
0.185047
0.186198
0.186033
0.189485
0.189978
0.191128
0.189485
0.193429
0.189485
0.194251
0.191128
0.189156
0.191293
0.190471
0.192443
0.188499
0.192115
0.187841
0.193265
0.190635
0.194909
0.191786
0.193758
0.193265
0.193594
0.19573
0.192936
0.195073
0.192936
0.196881
0.192608
0.198196
0.19195
0.192608
0.193101
0.190471
0.194251
0.195402
0.195566
0.197703
0.197374
0.197867
0.192772
0.195073
0.196388
0.194909
0.19573
0.195237
0.19458
0.188827
0.191457
0.194416
0.19573
0.191457
0.195073
0.196717
0.197374
0.197703
0.196552
0.197045
0.197538
0.198853
0.199182
0.19836
0.19721
0.196552
0.196059
0.197703
0.194909
0.198524
0.198031
0.19721
0.199346
0.199346
0.199346
0.198689
0.199018
0.198524
0.200332
0.199018
0.201976
0.200661
0.19721
0.197045
0.199018
0.195895
0.196552
0.199346
0.19836
0.199018
0.197867
0.200004
0.200004
0.201483
0.198196
0.199839
0.197374
0.199675
0.199018
0.198853
0.198196
0.200168
0.204934
0.196881
0.199511
0.195895
0.200332
0.197045
0.200332
0.199675
0.199675
0.197538
0.201483
0.199511
0.202633
0.20099
0.199018
0.201976
0.198524
0.19836
0.198689
0.199182
0.198196
0.199018
0.202798
0.199675
0.199511
0.202798
0.198853
0.199182
0.19721
0.20099
0.201976
0.200497
0.197867
0.200825
0.199839
0.199182
0.201154
0.19836
0.199511
0.198031
0.199839
0.200168
0.20099
0.196059
0.203291
0.199346
0.197045
0.203126
0.198524
0.193265
0.194416
0.196552
0.197538
0.198031
0.194909
0.202633
0.200168
0.200168
0.202633
0.20477
0.197703
0.200661
0.202469
0.199182
0.201319
0.201154
0.202798
0.20099
0.200497
0.199346
0.201976
0.19721
0.202305
0.198853
0.199346
0.199511
0.200661
0.205263
0.201812
0.197703
0.196388
0.199346
0.197703
0.200825
0.200168
0.201319
0.200661
0.202962
0.20214
0.201647
0.200004
0.198689
0.200661
0.199182
0.201319
0.198031
0.198196
0.199182
0.202469
0.197374
0.203126
0.204934
0.202962
0.205427
0.203126
0.198031
0.201812
0.197374
0.200168
0.210687
0.20099
0.199675
0.201319
0.201647
0.203455
0.200825
0.200332
0.201976
0.201483
0.202798
0.204113
0.203948
0.200332
0.200004
0.201647
0.200004
0.199018
0.200825
0.202305
0.201976
0.203291
0.200825
0.204113
0.199511
0.201812
0.201647
0.202469
0.201812
0.199018
0.200661
0.201647
0.201483
0.200332
0.200497
0.199182
0.202633
0.199182
0.202469
0.203291
0.202469
0.199346
0.200168
0.198689
0.201647
0.199018
0.200661
0.201154
0.200825
0.201154
0.197867
0.20477
0.200825
0.200004
0.201319
0.204113
0.201647
0.198689
0.202469
0.202962
0.199346
0.198524
0.201812
0.199346
0.202633
0.204113
0.201319
0.196717
0.202633
0.199346
0.199839
0.201154
0.201812
0.20099
0.201483
0.201319
0.20099
0.200661
0.198031
0.202633
0.199511
0.201647
0.200661
0.200825
0.199839
0.20099
0.19836
0.200661
0.199018
0.192443
0.200332
0.199346
0.199346
0.206085
0.201154
0.201154
0.203291
0.199018
0.202469
0.20099
0.200168
0.201812
0.201976
0.199839
0.205427
0.198689
0.200332
0.197703
0.198524
0.202962
0.202305
0.199675
0.202633
0.20362
0.200332
0.203455
0.200332
0.204934
0.201812
0.202305
0.200661
0.201319
0.196717
0.200661
0.20099
0.199018
0.203784
0.196059
0.201483
0.200004
0.202469
0.200497
0.20362
0.200332
0.20362
0.201976
0.201483
0.207071
0.196223
0.194087
0.197374
0.199018
0.196388
0.199511
0.195895
0.200497
0.200825
0.201812
0.205099
0.202469
0.20099
0.202305
0.202305
0.200497
0.200168
0.198689
0.20362
0.200168
0.201154
0.188334
0.200661
0.200825
0.200497
0.199346
0.201647
0.197867
0.204277
0.197867
0.204934
0.201483
0.18932
0.200168
0.194416
0.19836
0.200004
0.199182
0.198689
0.203291
0.198689
0.201483
0.200497
0.201483
0.199839
0.200497
0.202469
0.199346
0.202305
0.195895
0.199018
0.200332
0.200168
0.199839
0.202305
0.197538
0.199018
0.201812
0.200661
0.201483
0.201976
0.20362
0.20214
0.202469
0.201976
0.203455
0.200661
0.200497
0.199839
0.199675
0.200825
0.201154
0.199346
0.201319
0.199182
0.201154
0.200825
0.20477
0.203784
0.201154
0.201647
0.201976
0.199018
0.199018
0.202798
0.198689
0.200168
0.200004
0.201319
0.202305
0.198853
0.199675
0.200332
0.199839
0.198524
0.204113
0.200332
0.202305
0.201154
0.202798
0.20099
0.203948
0.197045
0.200825
0.200825
0.201319
0.204113
0.202633
0.20099
0.199839
0.202962
0.199675
0.201812
0.200004
0.200004
0.20099
0.200825
0.200004
0.204441
0.201483
0.200661
0.202633
0.201154
0.201154
0.198853
0.201319
0.197703
0.199511
0.200004
0.201647
0.200661
0.201483
0.201483
0.202469
0.202633
0.202305
0.201319
0.201319
0.201647
0.200661
0.202469
0.199675
0.202305
0.205263
0.197867
0.199839
0.201647
0.199675
0.200497
0.198689
0.204441
0.201319
0.202305
0.201647
0.199182
0.20099
0.198031
0.195402
0.199018
0.202305
0.19836
0.202633
0.198853
0.201483
0.19721
0.19836
0.200168
0.196881
0.200497
0.198031
0.198524
0.200497
0.200332
0.197374
0.200168
0.196388
0.197867
0.194744
0.198196
0.194416
0.196881
0.196552
0.196717
0.199018
0.200168
0.201483
0.19721
0.197867
0.199018
0.197538
0.199182
0.199346
0.197538
0.200004
0.199675
0.196223
0.19721
0.197045
0.194909
0.198031
0.195073
0.194909
0.199182
0.197867
0.197374
0.201483
0.199675
0.199346
0.205427
0.200168
0.201483
0.200004
0.200332
0.19721
0.198689
0.198689
0.198196
0.199675
0.198853
0.200497
0.199675
0.200332
0.198853
0.201647
0.200332
0.205263
0.202469
0.20214
0.199675
0.19836
0.202305
0.200004
0.198031
0.197374
0.202962
0.200332
0.202305
0.199018
0.201319
0.199018
0.201154
0.201483
0.202469
0.200332
0.199675
0.200004
0.200168
0.200332
0.199182
0.201647
0.200661
0.195895
0.197867
0.200497
0.195073
0.199182
0.20099
0.199675
0.204441
0.201319
0.200825
0.202633
0.203126
0.197867
0.200497
0.198524
0.200332
0.202962
0.20214
0.197867
0.200497
0.201154
0.200168
0.201976
0.200825
0.203948
0.200497
0.201647
0.201483
0.20214
0.199839
0.201154
0.201483
0.202962
0.202305
0.202305
0.200497
0.200825
0.199018
0.199839
0.200497
0.200004
0.199511
0.202962
0.201647
0.200168
0.202798
0.200497
0.201647
0.200004
0.202633
0.198524
0.200004
0.195402
0.200825
0.203291
0.199511
0.201319
0.202305
0.197374
0.197703
0.199839
0.199839
0.200825
0.197374
0.205427
0.200497
0.201154
0.200497
0.204934
0.199346
0.200168
0.199346
0.199675
0.195073
0.196717
0.204606
0.197374
0.20099
0.20214
0.202305
0.198853
0.203455
0.201812
0.201319
0.201812
0.200497
0.201812
0.200004
0.199018
0.199839
0.199675
0.198689
0.20099
0.198524
0.201154
0.199839
0.202305
0.204113
0.204113
0.20214
0.201812
0.200497
0.198196
0.19836
0.199675
0.199182
0.198524
0.20477
0.198853
0.200497
0.202798
0.20214
0.20362
0.200825
0.200332
0.206085
0.200168
0.200332
0.205756
0.202305
0.20099
0.200825
0.202305
0.198524
0.197703
0.194744
0.202469
0.19836
0.199182
0.201812
0.200497
0.200168
0.204934
0.201154
0.199346
0.199675
0.198196
0.200168
0.19836
0.201154
0.201976
0.202798
0.199839
0.201319
0.20214
0.201976
0.197374
0.200168
0.19836
0.203784
0.20099
0.202962
0.206085
0.199675
0.202798
0.20099
0.205427
0.199346
0.20099
0.20099
0.207893
0.198524
0.201812
0.204277
0.201154
0.202305
0.200168
0.201812
0.199675
0.20099
0.20099
0.201976
0.204113
0.201812
0.201647
0.201812
0.202633
0.201812
0.193922
0.198853
0.201319
0.200168
0.199346
0.194909
0.202962
0.196388
0.201812
0.201319
0.202962
0.191621
0.201647
0.20214
0.199839
0.199346
0.201483
0.200825
0.198524
0.198689
0.196552
0.199839
0.196388
0.197374
0.200497
0.20362
0.199346
0.203291
0.20099
0.200168
0.203126
0.200825
0.204441
0.199018
0.199675
0.199182
0.201319
0.195895
0.204277
0.19836
0.19721
0.20099
0.202633
0.20362
0.20362
0.200168
0.203291
0.202798
0.201319
0.203784
0.199675
0.19836
0.201154
0.200332
0.194909
0.201319
0.197867
0.200004
0.199182
0.199511
0.201319
0.201647
0.197538
0.203455
0.203126
0.199839
0.202305
0.200497
0.200004
0.200661
0.199839
0.193265
0.197703
0.195566
0.200004
0.198853
0.198853
0.204113
0.199018
0.201154
0.201812
0.20214
0.202962
0.200168
0.197045
0.20099
0.199018
0.199018
0.200168
0.204606
0.19836
0.196552
0.200004
0.201319
0.20099
0.201647
0.20477
0.199839
0.202798
0.20099
0.203784
0.197867
0.200497
0.198196
0.202469
0.199346
0.201647
0.199839
0.199182
0.200825
0.200168
0.203948
0.200332
0.200168
0.199511
0.206414
0.198853
0.202469
0.200661
0.200497
0.19836
0.20099
0.198524
0.197867
0.196881
0.197867
0.200332
0.199839
0.201483
0.201647
0.200825
0.201812
0.203455
0.196717
0.198689
0.199675
0.201976
0.199182
0.200004
0.19836
0.199675
0.19836
0.198689
0.201976
0.199346
0.201647
0.198524
0.199018
0.200661
0.201976
0.198524
0.201647
0.199675
0.201647
0.202962
0.199839
0.201154
0.196223
0.200004
0.199675
0.199182
0.199182
0.202305
0.200004
0.201647
0.201976
0.202469
0.199675
0.20099
0.198689
0.198524
0.202305
0.202962
0.201483
0.202962
0.200004
0.202633
0.203948
0.199182
0.202633
0.198853
0.202633
0.199675
0.198689
0.20099
0.203126
0.205263
0.202469
0.201812
0.202633
0.204113
0.198196
0.20214
0.200825
0.200332
0.198853
0.201812
0.199511
0.203784
0.198853
0.199346
0.200497
0.20099
0.198689
0.198524
0.200004
0.200825
0.200497
0.199839
0.201647
0.201483
0.201319
0.201154
0.200332
0.200332
0.198031
0.198853
0.201154
0.200825
0.197538
0.199511
0.19836
0.196881
0.199018
0.203291
0.20099
0.203455
0.200825
0.201154
0.201154
0.200825
0.199018
0.200661
0.197374
0.199675
0.204277
0.205099
0.201812
0.199346
0.205592
0.207235
0.203948
0.201812
0.203291
0.202633
0.201812
0.202305
0.198853
0.199675
0.200497
0.200332
0.198196
0.202633
0.20099
0.200825
0.201483
0.201812
0.20099
0.203784
0.200168
0.200661
0.205099
0.199839
0.198689
0.199839
0.200332
0.199675
0.200497
0.199511
0.200168
0.195073
0.199511
0.200004
0.19721
0.198031
0.200825
0.202305
0.200825
0.20099
0.199182
0.200332
0.200497
0.199018
0.201319
0.201319
0.199018
0.204606
0.19836
0.196881
0.197867
0.200497
0.199839
0.203291
0.198031
0.20099
0.205756
0.196059
0.20099
0.201483
0.200825
0.198196
0.199346
0.201319
0.199839
0.194909
0.200661
0.198196
0.199839
0.200168
0.20214
0.201154
0.199511
0.202633
0.200168
0.202305
0.197374
0.202633
0.201647
0.200661
0.199346
0.201319
0.197867
0.200332
0.203784
0.199839
0.200168
0.198689
0.199346
0.199675
0.20362
0.199675
0.203948
0.200332
0.201483
0.201319
0.201483
0.199511
0.203126
0.207071
0.205263
0.202469
0.202633
0.203126
0.19836
0.200004
0.201319
0.199839
0.199511
0.208879
0.209208
0.202633
0.204277
0.202798
0.199511
0.200497
0.198524
0.198689
0.200497
0.195895
0.203126
0.201319
0.202469
0.198689
0.201319
0.202469
0.199839
0.201976
0.202633
0.199018
0.198196
0.20099
0.200004
0.19836
0.197538
0.20099
0.200004
0.201319
0.196717
0.196552
0.19721
0.196717
0.201154
0.204441
0.199839
0.202469
0.202633
0.202469
0.20099
0.199839
0.201154
0.199182
0.200004
0.20099
0.204113
0.197703
0.200168
0.199675
0.200004
0.200168
0.202305
0.205427
0.204606
0.204441
0.202962
0.210029
0.196388
0.202633
0.197867
0.197538
0.199675
0.200168
0.198853
0.19721
0.199675
0.203948
0.20099
0.201976
0.200004
0.199839
0.202305
0.198689
0.198031
0.200497
0.199018
0.199346
0.200661
0.19573
0.200004
0.195895
0.197703
0.19836
0.199511
0.201154
0.200332
0.201812
0.200825
0.199839
0.198524
0.201812
0.198031
0.201812
0.201154
0.200168
0.198689
