Ladekurvenmessung

Zeit: 2018_05_04 09.59.20

Info: FVA3, v = 1.05, T = 23, F = 20, h = 587.3

Ladewiderstand[Ohm]: 1012700

Störkapazität[pF]: 0.000000

Entladezeit[ms]: 200

Abtastrate[Hz]: 250000

Anzahl der Messwerte: 2500.000000

Verzögerung[ms]: 3

Ladespannung[V]: 0.200000


Kurve 1

0.00031
0.000474
0.004748
0.00031
0.004255
0.002282
0.001954
-0.001334
0.001625
0.000639
0.002611
0.002282
0.00146
0.003926
0.002775
0.003268
0.001954
0.003761
0.00294
0.003761
0.004419
-0.000841
0.001132
0.00146
0.00146
0.002447
0.003597
0.002775
0.000803
0.004255
0.003104
0.000474
0.002118
-0.001169
0.004748
0.001132
-0.001991
-0.000183
0.001789
-0.001827
0.000474
0.004419
0.001954
0.006884
0.001625
0.00409
0.003104
0.003268
0.001954
0.002775
0.001789
0.001296
0.00146
0.000474
0.000146
0.001132
-0.001334
0.001625
-0.000841
0.001132
0.003433
0.001296
0.00031
-1.9e-05
0.001954
-0.000183
0.003597
0.002775
0.000803
0.006391
0.004419
-0.001005
0.00409
-0.000676
-0.000347
0.003433
-0.001827
0.000803
0.002775
-0.000347
0.001954
0.001132
0.000474
0.004748
0.000474
-0.000347
-0.002813
0.00146
-0.000841
-0.001169
0.000474
-0.000512
0.00294
-0.000183
0.000967
-0.002155
0.00294
-0.001991
0.002118
0.002447
0.000146
0.003761
0.003104
0.000146
0.001132
0.002447
-0.001991
0.000803
-0.003799
-0.000183
0.000474
0.003597
0.001296
0.001132
0.002118
0.002611
0.003597
0.00294
0.002118
0.003761
0.005076
-0.001498
0.002447
-0.000512
0.000803
0.001296
0.002118
0.000474
0.000474
0.000146
0.002282
0.003597
0.001132
0.003268
0.003761
0.000146
-0.000347
0.004583
-1.9e-05
0.001625
-0.000841
0.001625
0.00031
0.000639
-0.004292
-0.001498
0.001296
0.000803
0.001296
0.003104
0.002282
0.001789
0.00146
0.001625
0.006227
-0.004785
0.000803
-0.000512
0.002282
-0.001662
-1.9e-05
-0.000183
0.003926
0.001132
0.003433
0.003104
0.00146
0.002611
0.00409
0.003926
0.003761
0.000803
-0.000183
0.002611
0.000967
0.00409
0.002282
0.001954
-1.9e-05
0.003433
0.002775
0.001296
0.003597
0.00146
0.006884
0.002118
-0.000676
0.004419
0.000803
0.00146
0.004419
0.003268
0.003104
0.001789
0.003926
0.002775
0.003268
0.002447
0.002611
0.00031
0.00294
0.004419
0.00294
0.003104
0.00294
0.00409
0.001625
0.004748
0.001789
0.003104
-0.002813
-0.002484
0.003926
-0.000347
-0.00232
0.005898
-0.000347
0.001954
0.003926
0.000639
0.000639
0.001132
0.002447
0.00146
0.003926
0.003433
0.005405
0.002118
0.001625
0.00146
0.001132
0.002118
0.00146
0.001789
0.001954
0.006227
-0.002648
0.001789
0.00031
0.003104
-0.001005
0.002611
0.000474
0.00409
0.001954
0.005241
0.00409
0.001296
0.00294
0.000639
0.003268
-0.001005
0.002447
-0.000676
-0.002484
0.001296
-1.9e-05
0.002447
-0.000676
-0.000347
0.000639
0.002447
0.001296
0.004255
0.001789
0.003433
0.001132
0.004419
0.000639
0.003104
-0.002648
-0.002155
0.001954
0.00146
0.003268
0.004912
0.002775
0.003268
0.006062
0.003926
0.006884
0.001296
0.004912
0.003597
0.00409
0.006062
0.005241
0.003433
0.002611
0.00294
0.003104
0.004748
0.005076
0.002282
0.005569
0.006884
0.001296
0.003597
0.001954
0.004583
0.001132
0.003926
0.003268
0.004419
0.000474
-0.000512
-0.001005
0.00031
0.005405
0.003597
0.00294
0.002775
0.005898
0.000803
0.007706
0.000967
-1.9e-05
0.003926
-1.9e-05
-0.000841
-0.000841
-0.002155
-0.000183
0.001296
-0.001498
0.002282
-0.005278
-0.002484
-1.9e-05
-0.001498
0.002118
0.000967
-0.004621
0.000639
-0.000841
-0.000347
0.001132
-0.00232
-0.001991
-0.003963
-0.002813
-0.005936
-0.000512
-0.005607
-0.001827
-0.002484
-0.004785
-0.003963
-0.00232
-0.002813
-0.003963
-0.000841
-0.00347
-0.003142
-0.002813
-1.9e-05
-0.007415
-0.001005
-0.001005
-0.002977
-0.005443
-0.003142
-0.001498
-0.002813
0.001789
-0.000512
-0.000841
0.000967
0.000639
-0.000512
-0.000183
-0.000512
-0.001169
-1.9e-05
0.000639
-0.002977
-0.000512
-1.9e-05
-0.001334
-0.000841
0.005898
-0.001991
0.000146
-0.00347
-0.000347
0.003761
0.003926
-0.000183
0.001296
0.001789
0.001954
-0.000347
-0.001662
-1.9e-05
-0.00232
-1.9e-05
0.000639
0.000639
0.002118
0.004583
0.002611
0.001625
-0.006264
-0.001334
0.002775
0.002775
-0.002813
-0.002813
0.001296
-0.002155
0.001132
-0.001991
-0.001169
-0.010045
-0.002648
0.002118
-1.9e-05
0.001954
0.00146
0.002447
0.003433
0.003926
0.001954
0.003268
-0.002977
-0.000512
-1.9e-05
-1.9e-05
-1.9e-05
-0.001169
0.001296
-0.001005
0.004583
0.001296
0.002447
-0.001498
-0.000512
0.001132
0.004748
0.00409
0.00031
0.003268
0.000967
0.002775
-0.00232
0.003268
0.000803
-0.002155
0.00146
0.006884
0.00146
0.00146
0.002447
0.002447
0.002611
0.003104
-0.000183
-0.000183
0.000803
-0.001005
-0.001005
-0.001827
0.00031
-0.001334
0.001625
0.000146
0.002447
0.003433
0.004748
0.00146
0.000803
0.000474
0.003597
0.002611
0.000803
0.001789
0.001625
0.003926
0.000639
0.003268
0.000803
0.000967
-0.001005
0.004583
-0.001827
-0.000347
-0.000676
0.000639
0.001954
0.000146
0.002282
0.003761
0.000967
0.000474
0.002282
0.002282
-0.002155
0.001954
0.007049
0.000146
0.000639
-0.001169
0.003104
0.003268
-1.9e-05
0.003433
-0.000347
0.001132
-0.000512
0.002611
-0.000676
0.005076
0.001625
0.005241
0.002118
0.002447
0.000639
0.004255
-0.000841
-0.003306
0.002118
0.000967
0.003761
0.00294
0.004583
0.001296
0.002775
0.000474
0.003268
0.00031
0.004419
0.003104
0.001954
0.001954
0.002447
0.002118
0.00409
0.000639
-0.000183
0.002775
-0.000183
-0.000183
0.001954
0.002775
0.004255
0.004583
0.003104
0.005405
0.001789
0.001625
-0.002484
-0.002155
-0.00347
0.002775
0.005734
0.001132
-0.000676
0.001132
-0.001498
-0.001498
0.00294
0.000146
0.004255
-0.000347
0.004583
0.00409
0.004255
0.00409
-0.001498
0.003104
0.001296
0.001625
-0.001498
0.002447
-0.00347
0.002118
0.001132
0.001132
0.000639
0.003268
0.000474
0.001789
0.002447
-0.000676
0.005241
-0.001827
0.002611
0.00409
0.000146
-0.002155
0.003268
-0.003963
-0.001991
-0.002813
-0.000841
0.000474
-0.001498
0.002447
0.001789
0.000967
-0.002648
-0.000676
-0.006429
-0.000512
-0.002484
-0.000183
-0.003963
-0.003635
-0.000512
-0.002813
-0.003142
-0.000512
0.001296
0.001296
0.000803
0.001132
0.002282
0.005076
-1.9e-05
0.000803
0.002118
-0.000676
0.003268
-0.001991
0.001132
-0.001005
-0.001169
0.001625
-0.001005
-0.001498
0.003597
0.002611
0.000474
0.003433
0.003268
0.003761
-0.001662
-0.001005
-0.003306
0.002775
-0.004128
0.001954
0.004255
0.000967
0.001132
0.002282
0.002611
0.001625
0.001296
0.000639
0.002447
-1.9e-05
0.008692
0.005734
0.001789
-0.001169
0.000474
-0.000347
-0.00232
0.00146
0.000967
0.003104
-0.003306
0.004912
0.006227
0.007213
0.001132
0.005076
-0.001662
0.004583
0.003433
0.002282
0.00294
0.002282
0.007049
0.002282
0.00146
0.002447
0.003433
-0.002648
0.003433
-0.000183
0.002118
0.001789
0.005076
0.003104
0.00409
0.002775
0.001625
0.002447
0.000639
0.001132
0.000967
0.00146
-0.001169
0.005405
-0.000347
0.001132
-0.001827
-0.000841
-0.000676
-0.002813
-0.001827
0.000146
-0.002155
-0.001169
0.001625
-0.001827
-0.001005
-0.002813
-0.001005
-0.005771
0.003597
-0.001498
0.001296
-0.002155
-0.004128
0.00031
-0.001005
-0.001005
-0.000183
-0.000347
-0.000512
-0.002155
-0.001169
-0.001005
-0.00232
-0.001498
0.000146
0.000474
-0.002977
-0.000347
-0.000183
-0.002484
-0.001827
-0.003306
0.000803
-0.001827
0.000474
0.001132
0.001625
-0.00232
-0.004292
-0.004292
0.000146
-0.001827
0.00031
-0.002977
-0.000676
-0.001991
0.000639
0.005898
0.011322
0.019868
0.027265
0.032031
0.038934
0.049124
0.053069
0.0603
0.064409
0.074599
0.079037
0.07838
0.084461
0.091857
0.09498
0.099417
0.105498
0.10895
0.114538
0.116675
0.124399
0.1267
0.128837
0.131138
0.135411
0.139356
0.140342
0.144615
0.142972
0.146423
0.148067
0.153655
0.155299
0.156778
0.156942
0.161709
0.159079
0.16253
0.165489
0.164996
0.170913
0.170584
0.168776
0.173378
0.173871
0.173707
0.176501
0.175021
0.176829
0.179295
0.178309
0.178966
0.181924
0.18176
0.177815
0.180116
0.183732
0.183075
0.185376
0.181924
0.184554
0.189814
0.189156
0.188499
0.187841
0.186526
0.186198
0.188992
0.189814
0.193101
0.188663
0.192115
0.188663
0.192443
0.193758
0.194251
0.191293
0.193265
0.192772
0.192608
0.200332
0.192936
0.194744
0.193101
0.196223
0.194416
0.19573
0.19458
0.194416
0.191786
0.195073
0.20362
0.19836
0.19836
0.192772
0.197374
0.197538
0.196223
0.195895
0.198689
0.199839
0.19836
0.193101
0.196881
0.195073
0.194744
0.195402
0.196059
0.197703
0.198524
0.20099
0.200825
0.198031
0.190471
0.198031
0.197538
0.199346
0.199346
0.199346
0.196223
0.197867
0.198853
0.198689
0.200004
0.190142
0.199346
0.199182
0.196552
0.199839
0.200004
0.199346
0.200168
0.200168
0.199839
0.199675
0.190964
0.198524
0.198689
0.20099
0.198196
0.198689
0.197045
0.200497
0.201647
0.199018
0.201976
0.193265
0.197867
0.201976
0.20099
0.200332
0.195402
0.193429
0.192443
0.20099
0.19573
0.195237
0.186691
0.195895
0.200004
0.19573
0.198031
0.19836
0.20214
0.203455
0.202798
0.199346
0.201319
0.190964
0.196388
0.200168
0.200661
0.199182
0.198524
0.199511
0.198196
0.200825
0.19836
0.20099
0.189156
0.199675
0.200004
0.199018
0.203455
0.200825
0.202305
0.199675
0.202305
0.199346
0.203455
0.190635
0.192443
0.196388
0.201647
0.19836
0.199018
0.200332
0.199511
0.205592
0.201483
0.201976
0.193594
0.200332
0.200332
0.200661
0.201154
0.20099
0.196388
0.199346
0.199675
0.197703
0.198524
0.192443
0.197867
0.197703
0.199511
0.19836
0.199675
0.190635
0.191293
0.187513
0.191128
0.189156
0.189978
0.188992
0.191293
0.188992
0.191128
0.190964
0.190307
0.191786
0.191457
0.194744
0.193594
0.193922
0.192115
0.194744
0.190142
0.195566
0.190471
0.19721
0.196388
0.192608
0.192772
0.193758
0.193594
0.192608
0.19573
0.196552
0.19458
0.196881
0.196717
0.194909
0.195073
0.194251
0.198196
0.193429
0.196059
0.194909
0.189485
0.19721
0.197867
0.197538
0.196717
0.196388
0.199018
0.202469
0.199675
0.196552
0.196552
0.199675
0.19721
0.199839
0.198524
0.199346
0.202469
0.19836
0.200661
0.199675
0.19836
0.197867
0.199182
0.199018
0.199839
0.197703
0.198689
0.200497
0.203291
0.200332
0.20099
0.198853
0.197045
0.20362
0.197045
0.197374
0.200332
0.197867
0.200168
0.201483
0.198689
0.200825
0.197045
0.19573
0.196223
0.19836
0.200497
0.198853
0.200168
0.197867
0.203291
0.199182
0.202633
0.200497
0.201976
0.202305
0.205592
0.19721
0.199182
0.196881
0.200168
0.199675
0.200332
0.202469
0.200661
0.201812
0.205099
0.20099
0.199839
0.201154
0.199018
0.203784
0.201319
0.200661
0.19836
0.203126
0.197045
0.197703
0.199839
0.199346
0.200332
0.199675
0.153984
0.044851
0.025621
0.028086
0.013952
0.009843
0.018061
0.025128
0.034496
0.039427
0.045672
0.050439
0.056684
0.064409
0.069504
0.077558
0.077065
0.089391
0.095473
0.102704
0.097774
0.102211
0.103855
0.096459
0.011486
0.017074
0.027429
-0.000183
-0.002648
0.008363
0.018225
0.023813
0.034496
0.035318
0.047973
0.053069
0.060465
0.068682
0.072134
0.078215
0.079037
0.086433
0.093829
0.095308
0.098924
0.10139
0.106156
0.111251
0.113881
0.119962
0.119633
0.125879
0.132453
0.132782
0.121934
0.128015
0.128508
0.133275
0.134754
0.13952
0.139192
0.141
0.143136
0.144287
0.147574
0.147409
0.151683
0.152505
0.159736
0.162202
0.164831
0.16138
0.164996
0.166146
0.168283
0.169105
0.167954
0.18061
0.169598
0.175021
0.176336
0.174857
0.173378
0.17798
0.177322
0.178637
0.17913
0.179295
0.183239
0.182089
0.183404
0.183568
0.186033
0.184554
0.192115
0.185705
0.18932
0.187348
0.186198
0.189156
0.190307
0.189156
0.189485
0.191786
0.190142
0.193265
0.192279
0.192772
0.192279
0.193265
0.194744
0.19573
0.194087
0.195895
0.196552
0.193429
0.192772
0.196552
0.192279
0.184883
0.186855
0.188334
0.190471
0.189485
0.192936
0.195073
0.196059
0.193594
0.194416
0.194251
0.195402
0.191457
0.199675
0.195237
0.19458
0.195566
0.194416
0.194416
0.193265
0.19836
0.195402
0.195895
0.192936
0.198853
0.196388
0.204606
0.19836
0.19836
0.197538
0.198853
0.19721
0.19573
0.196717
0.196552
0.200497
0.200004
0.198689
0.199182
0.199018
0.19721
0.199675
0.196223
0.200004
0.198196
0.197703
0.197045
0.198524
0.203291
0.199346
0.200168
0.200168
0.200661
0.19721
0.199839
0.199018
0.200168
0.199511
0.19458
0.19721
0.201319
0.197867
0.200004
0.202469
0.196881
0.199839
0.199182
0.201154
0.198524
0.201647
0.200004
0.200497
0.199511
0.19836
0.196881
0.198031
0.200661
0.200004
0.201976
0.201812
0.201483
0.198689
0.200497
0.198689
0.200825
0.199675
0.199839
0.199675
0.201154
0.200661
0.199839
0.200825
0.197374
0.201647
0.200825
0.200004
0.196223
0.201154
0.201976
0.203948
0.202633
0.205427
0.201647
0.201154
0.20099
0.201647
0.199346
0.20099
0.200332
0.201812
0.20362
0.204606
0.204441
0.198689
0.202633
0.200332
0.202305
0.200004
0.202962
0.20099
0.200661
0.200661
0.205099
0.207728
0.200661
0.203126
0.200332
0.202469
0.198196
0.200332
0.200004
0.202305
0.199018
0.204277
0.205592
0.204277
0.20362
0.200825
0.201154
0.200332
0.20099
0.200004
0.200168
0.200168
0.200004
0.204113
0.200825
0.198524
0.204277
0.2074
0.206414
0.202469
0.20099
0.204277
0.201319
0.20362
0.201319
0.180445
0.087255
0.096294
0.099089
0.102704
0.104184
0.108293
0.111908
0.117332
0.119797
0.123906
0.12933
0.131631
0.133439
0.136891
0.138699
0.141328
0.143465
0.146259
0.147409
0.146423
0.146095
0.152011
0.155134
0.156613
0.157764
0.159572
0.164338
0.163352
0.166146
0.167297
0.165817
0.168612
0.169105
0.171406
0.169598
0.171734
0.169762
0.172392
0.172885
0.170091
0.174693
0.179459
0.181267
0.184225
0.181596
0.183075
0.183897
0.181267
0.186362
0.182417
0.183075
0.185047
0.189156
0.180774
0.186526
0.185705
0.184718
0.188992
0.187184
0.18932
0.188663
0.189978
0.187348
0.189649
0.188992
0.194251
0.18817
0.196223
0.192279
0.188827
0.190471
0.191457
0.191293
0.192115
0.19721
0.194251
0.196552
0.194416
0.196552
0.197045
0.194909
0.19573
0.19573
0.195073
0.195402
0.195073
0.193265
0.193758
0.194416
0.196717
0.195073
0.190142
0.194251
0.199018
0.194416
0.19836
0.197703
0.198524
0.196552
0.197867
0.20099
0.20362
0.198031
0.19721
0.195402
0.196717
0.19458
0.197045
0.193922
0.201154
0.199675
0.198524
0.200332
0.195237
0.197538
0.19836
0.199675
0.198853
0.200004
0.199511
0.200497
0.198524
0.200168
0.194416
0.198524
0.200661
0.197045
0.20099
0.196223
0.202469
0.198196
0.199675
0.201154
0.198853
0.187513
0.197374
0.200004
0.197045
0.199346
0.198524
0.203126
0.197703
0.200497
0.197538
0.200332
0.198853
0.197045
0.200497
0.201154
0.204113
0.199675
0.201647
0.199182
0.201483
0.193758
0.20099
0.197538
0.199839
0.202469
0.200332
0.200661
0.202305
0.196388
0.199018
0.200825
0.196388
0.202962
0.202305
0.199839
0.200168
0.202305
0.201154
0.202962
0.200661
0.198524
0.199346
0.200004
0.201976
0.200825
0.200497
0.198524
0.202962
0.200168
0.205427
0.199675
0.19836
0.200825
0.203126
0.199675
0.202469
0.203291
0.204606
0.204277
0.204277
0.202305
0.202305
0.200332
0.204113
0.201812
0.20099
0.203784
0.203291
0.203291
0.201976
0.201976
0.202633
0.206249
0.200497
0.205756
0.204934
0.203291
0.206742
0.203291
0.206578
0.202633
0.203784
0.201154
0.204606
0.199839
0.20362
0.203291
0.203455
0.20099
0.204934
0.203126
0.205263
0.202798
0.202633
0.204113
0.200168
0.201647
0.202305
0.200661
0.199675
0.204277
0.196388
0.198196
0.201976
0.201154
0.196717
0.200004
0.19573
0.201647
0.201319
0.199018
0.203455
0.19836
0.198524
0.19573
0.197703
0.195895
0.196881
0.196388
0.199018
0.19721
0.20362
0.202469
0.196388
0.197045
0.196881
0.20099
0.197045
0.19721
0.197703
0.197538
0.196552
0.196717
0.195237
0.195895
0.194416
0.194087
0.195566
0.196388
0.197867
0.199182
0.197867
0.197374
0.198196
0.196881
0.199018
0.191786
0.19573
0.197867
0.197374
0.193594
0.196717
0.192443
0.193429
0.197867
0.196881
0.19721
0.192772
0.197045
0.19573
0.196881
0.197703
0.199511
0.195895
0.202469
0.198031
0.199018
0.196059
0.198196
0.19721
0.196881
0.201647
0.199675
0.200497
0.19573
0.195566
0.201319
0.199346
0.197538
0.201647
0.199182
0.199182
0.198853
0.200004
0.19836
0.197538
0.199018
0.200332
0.196552
0.193594
0.197374
0.197538
0.198689
0.199182
0.200661
0.198031
0.20214
0.201154
0.199018
0.201154
0.197703
0.198689
0.19836
0.199511
0.193758
0.198524
0.19573
0.193429
0.199839
0.2074
0.199839
0.199511
0.20099
0.20099
0.200332
0.197703
0.20099
0.199018
0.202798
0.198524
0.198524
0.200168
0.197374
0.197703
0.201154
0.199182
0.199018
0.197374
0.200168
0.199346
0.199675
0.201154
0.198524
0.199182
0.19836
0.200004
0.196223
0.197867
0.198524
0.20099
0.198524
0.20099
0.198524
0.200661
0.196552
0.199182
0.199839
0.200332
0.19573
0.198031
0.201647
0.196552
0.20099
0.196717
0.19721
0.19458
0.19836
0.196881
0.197867
0.19836
0.199675
0.199346
0.199511
0.200661
0.203784
0.197045
0.200661
0.20099
0.198031
0.203948
0.19573
0.20099
0.199675
0.20099
0.19721
0.199018
0.201319
0.197867
0.197703
0.198689
0.199675
0.198853
0.200004
0.200661
0.20099
0.196881
0.201812
0.197703
0.199511
0.199346
0.197538
0.198524
0.200332
0.199182
0.19836
0.198853
0.199346
0.200004
0.200332
0.200168
0.200168
0.199182
0.197867
0.200004
0.197867
0.197867
0.198196
0.200825
0.201976
0.199839
0.200004
0.200332
0.196881
0.200004
0.20477
0.194909
0.192279
0.200825
0.201976
0.200332
0.206578
0.198196
0.197703
0.202962
0.198853
0.197867
0.193922
0.199511
0.200168
0.201812
0.201319
0.202962
0.193594
0.195402
0.19573
0.195895
0.199018
0.199511
0.198689
0.200825
0.200825
0.199018
0.200004
0.19836
0.199346
0.197867
0.203126
0.197374
0.200497
0.198524
0.197045
0.197703
0.199839
0.197045
0.197867
0.199511
0.199839
0.202305
0.19836
0.202469
0.199839
0.201483
0.199018
0.207071
0.203784
0.201154
0.198689
0.199511
0.201976
0.200004
0.199839
0.203291
0.200661
0.203455
0.199018
0.19836
0.201976
0.19458
0.204441
0.199346
0.199182
0.198524
0.199018
0.195566
0.201812
0.204934
0.198524
0.199675
0.200661
0.199018
0.199018
0.202633
0.199675
0.201976
0.201154
0.202633
0.199346
0.199675
0.198853
0.199018
0.196717
0.197045
0.200168
0.196552
0.200004
0.198853
0.200004
0.200661
0.200168
0.199182
0.203291
0.199675
0.199182
0.197045
0.196388
0.201319
0.201154
0.199675
0.200825
0.199346
0.198524
0.201319
0.198196
0.200661
0.197703
0.202633
0.201976
0.202305
0.200332
0.201483
0.198689
0.198853
0.201319
0.203291
0.199018
0.191128
0.202962
0.195895
0.199182
0.200168
0.198524
0.199675
0.202305
0.201154
0.199675
0.19836
0.200661
0.202469
0.200497
0.200825
0.198031
0.199182
0.19836
0.198689
0.196059
0.199346
0.198031
0.197538
0.200004
0.200332
0.198853
0.204113
0.201319
0.203291
0.202633
0.195402
0.199346
0.196717
0.198853
0.199511
0.200825
0.198031
0.20099
0.198196
0.200497
0.200661
0.197538
0.199675
0.200497
0.200168
0.196223
0.205756
0.197374
0.196388
0.197703
0.202633
0.20099
0.201319
0.197538
0.201647
0.196223
0.200825
0.195073
0.198031
0.202305
0.199018
0.202305
0.199346
0.200332
0.197867
0.200332
0.197703
0.197045
0.197538
0.199182
0.195566
0.198031
0.200004
0.196388
0.199018
0.19721
0.196552
0.198689
0.199182
0.198689
0.201812
0.200332
0.200168
0.200825
0.200004
0.197374
0.199018
0.199182
0.200825
0.197867
0.196059
0.20099
0.198031
0.200004
0.199018
0.199346
0.194087
0.195073
0.199182
0.201154
0.200497
0.194744
0.196717
0.196717
0.19836
0.194251
0.198689
0.197045
0.198031
0.197867
0.199018
0.197538
0.199346
0.198689
0.205756
0.195402
0.198853
0.198031
0.198524
0.199675
0.199839
0.199346
0.19836
0.198689
0.201154
0.20362
0.199839
0.198853
0.198689
0.197867
0.20214
0.204606
0.200332
0.200825
0.200004
0.202798
0.201647
0.198524
0.199511
0.197703
0.198196
0.198853
0.199675
0.196717
0.200332
0.197538
0.201319
0.202962
0.195073
0.203291
0.199839
0.202305
0.199675
0.201154
0.199346
0.199182
0.199839
0.20362
0.199182
0.199182
0.199346
0.199839
0.198196
0.199346
0.19721
0.195402
0.196223
0.198031
0.200661
0.198031
0.199675
0.201976
0.202305
0.196881
0.198031
0.196717
0.198524
0.197538
0.199018
0.198524
0.19721
0.200825
0.201483
0.19836
0.199511
0.199018
0.200332
0.199839
0.197867
0.200004
0.199346
0.201483
0.199018
0.201976
0.197867
0.19836
0.20099
0.199346
0.198853
0.199018
0.200825
0.197867
0.201976
0.196388
0.197374
0.199346
0.199346
0.197374
0.20099
0.198196
0.199675
0.199018
0.200825
0.202633
0.198031
0.203126
0.194744
0.19721
0.198196
0.197374
0.197045
0.20099
0.199182
0.201976
0.201319
0.200168
0.207071
0.197045
0.198689
0.202962
0.197703
0.19573
0.19836
0.196388
0.199675
0.198196
0.200332
0.199511
0.199675
0.199018
0.201319
0.199839
0.200332
0.199675
0.199182
0.205099
0.199839
0.19573
0.187677
0.197045
0.194909
0.199839
0.192936
0.195073
0.199675
0.200168
0.202633
0.201319
0.201483
0.191128
0.195895
0.200004
0.200661
0.198689
0.200168
0.197703
0.200004
0.198031
0.200497
0.199675
0.192936
0.198853
0.196717
0.197538
0.202962
0.201812
0.199511
0.202305
0.200168
0.200497
0.198031
0.200004
0.19458
0.197538
0.196059
0.199675
0.204441
0.197538
0.197045
0.201319
0.200168
0.201319
0.201483
0.198524
0.20477
0.197703
0.19836
0.196059
0.198853
0.195895
0.199182
0.200332
0.198196
0.198524
0.203455
0.200661
0.199018
0.20099
0.198031
0.200661
0.199018
0.202305
0.200497
0.200825
0.195402
0.196552
0.19573
0.19836
0.19573
0.197867
0.19721
0.197703
0.198031
0.195402
0.200825
0.200332
0.198524
0.199182
0.200661
0.197538
0.201812
0.197703
0.198689
0.199511
0.198524
0.199018
0.201647
0.19836
0.197045
0.199675
0.197867
0.200497
0.199511
0.201812
0.200332
0.192608
0.200661
0.19836
0.199346
0.199675
0.199675
0.199839
0.197867
0.198196
0.199182
0.195402
0.19836
0.196717
0.198689
0.20099
0.199511
0.197045
0.200497
0.198853
0.200825
0.196881
0.199839
0.203291
0.196881
0.200004
0.200825
0.198689
0.198524
0.198524
0.19721
0.200661
0.197374
0.198196
0.198196
0.200825
0.201647
0.206578
0.196059
0.199346
0.201319
0.197867
0.202962
0.197538
0.201483
0.199346
0.199675
0.199675
0.20362
0.199675
0.198689
0.196388
0.196388
0.198689
0.199182
0.200004
0.200332
0.206085
0.197045
0.204441
0.19836
0.198524
0.198524
0.200825
0.197045
0.201812
0.200497
0.198853
0.200332
0.200825
0.199675
0.199511
0.196717
0.199018
0.201154
0.197045
0.198853
0.202962
0.20214
0.201319
0.202305
0.197867
0.199182
0.197045
0.198031
0.200168
0.198196
0.200497
0.198524
0.199839
0.199511
0.201154
0.200661
0.205263
0.198031
0.201976
0.201154
0.200661
0.196717
0.199839
0.200661
0.195237
0.201319
0.197867
0.200661
0.200168
0.200168
0.198196
0.201812
0.200825
0.204934
0.199839
0.206414
0.20099
0.203291
0.199346
0.202469
0.200332
0.197045
0.200332
0.196717
0.200661
0.197374
0.197538
0.196388
0.198031
0.195073
0.201647
0.201319
0.199675
0.202469
0.19573
0.202962
0.197867
0.198853
0.198031
0.199839
0.195237
0.198524
0.196717
0.198689
0.199018
0.199182
0.200661
0.201976
0.199182
0.199839
0.201154
0.199018
0.198031
0.199346
0.196059
0.19573
0.198524
0.196881
0.200497
0.196552
0.197867
0.197045
0.198524
0.19573
0.195895
0.201976
0.198031
0.199675
0.197867
0.201154
0.197703
0.200497
0.196717
0.197867
0.195402
0.202305
0.192608
0.19721
0.193922
0.194087
0.197045
0.198031
0.199182
0.202798
0.198524
0.198031
0.201647
0.199511
0.201154
0.19573
0.196552
0.198031
0.199511
0.19836
0.199839
0.198524
0.19721
0.200168
0.198689
0.200332
0.197374
0.202469
0.19836
0.201647
0.198689
0.199018
0.194744
0.198196
0.195566
0.195895
0.198853
0.198031
0.197867
0.195566
0.200168
0.200825
0.19721
0.19573
0.200661
0.197374

Kurve 2

0.000967
0.003268
0.003104
0.001296
0.000803
0.002282
0.002611
0.001625
0.001296
0.001625
-0.002155
0.003926
0.002611
0.004255
-1.9e-05
0.001625
0.001625
0.00031
0.003268
-0.001498
0.001789
0.002118
0.001296
-0.001498
0.001789
-0.000512
-0.001498
0.003433
0.001789
-0.000183
-0.001498
0.000639
-0.002155
0.000967
-0.001334
0.001625
-1.9e-05
-0.002155
0.002611
0.001789
-0.001169
0.002447
-0.000841
-1.9e-05
0.001625
-0.000183
-0.001498
0.00294
-0.000347
0.000639
-0.000347
-0.000512
0.001132
-0.000347
-0.000841
-0.002155
0.00146
-0.000512
0.002775
-0.003142
0.000803
0.001296
0.003761
0.000474
-0.002813
-0.002648
-0.001005
0.000474
-0.001827
0.00031
-0.005114
0.000474
-0.002648
-0.000183
-0.001005
0.00146
0.00031
0.002447
-0.001169
0.00031
0.000967
-0.001498
0.002282
-0.000841
0.000146
-0.00347
0.001132
-0.004456
0.000967
0.002282
-0.000676
0.000803
0.002775
-0.001991
0.00031
0.002282
0.001296
-0.000347
-0.004785
0.001296
-1.9e-05
0.00146
-0.001169
0.002447
-0.00232
-0.001005
0.000803
0.000967
0.001789
0.002118
0.001625
0.004583
0.002282
0.001132
0.002775
-0.000512
0.000967
0.000146
-0.001005
-0.001005
-0.000512
0.001954
-0.000512
-0.000676
0.000967
-1.9e-05
0.001789
0.002775
0.001789
0.006227
-0.000183
0.002775
0.002447
0.00146
0.001954
0.00146
0.00146
0.002118
-0.005114
-0.002155
0.001296
0.001625
-1.9e-05
0.003597
0.003268
0.000803
0.004419
0.001954
0.002775
0.00146
0.002282
-0.001827
0.004419
-0.004128
0.003104
-0.000841
-0.000183
-0.000183
0.002775
0.000474
-0.000676
-0.001169
0.001296
0.002118
-0.000347
0.003761
0.000639
0.001625
0.000639
0.003926
-0.001334
-0.001498
-0.002648
-0.003963
-0.002155
-0.004456
0.001789
0.000967
0.00146
-0.003306
0.005076
-0.000841
0.003104
0.001625
0.000967
0.000803
-0.000841
0.002118
0.00031
0.00031
-0.000676
0.002447
-0.001991
-0.000183
-1.9e-05
-0.001169
-0.000841
-0.001005
-0.000676
0.002611
0.000803
0.002447
-0.001498
-0.003799
-0.006429
-0.004128
-0.003306
-0.004128
-0.004621
-0.000512
-0.001662
-0.001334
-0.000512
0.001625
0.001132
-0.000183
0.002118
-0.001991
0.000474
0.000803
-0.001005
-1.9e-05
-0.002155
0.00146
0.001789
-0.003963
-0.001991
0.001132
-0.003635
0.002118
0.000639
0.000967
0.001625
-0.000676
0.004255
0.00146
0.001296
0.000803
0.003433
0.001625
0.001296
0.001789
0.003104
-0.000512
0.002447
0.00031
-1.9e-05
0.000803
0.001132
0.004419
-0.000183
0.004419
0.005734
0.010336
0.004912
0.006062
-0.000512
0.003104
0.000474
-0.001991
0.000803
0.002611
-0.001169
0.003104
0.004748
0.003268
0.001954
0.003597
0.003433
0.000639
0.001789
0.00146
0.001132
-0.0061
0.003597
0.005734
0.004419
0.002282
0.003761
0.003104
0.001132
0.003597
0.001625
0.004419
0.002775
0.006884
0.004912
0.00409
0.003761
0.004912
0.004419
0.003104
0.003104
0.000967
0.001625
0.003104
0.004912
0.003104
0.004748
0.002447
0.003268
0.001132
0.000967
-0.001005
0.002118
0.00146
0.005076
0.004255
0.006062
0.004419
0.001625
0.005405
0.001132
0.000967
0.001789
0.002282
0.000474
0.00031
0.006556
0.00294
-0.000183
0.001132
-0.000676
0.006391
0.001625
0.001625
0.001954
0.000474
0.000639
0.006556
0.00294
0.003104
-0.000841
0.00031
0.00672
-0.001005
0.001296
0.00031
-0.001498
0.001296
0.006556
0.003268
0.00409
0.002282
0.001789
0.004255
-0.000512
0.000146
0.001789
0.003104
-0.001991
0.007542
0.00294
-0.000347
-0.001334
-0.0061
-0.001991
-0.000676
-0.001169
0.000474
0.001954
0.002775
0.00146
0.002282
0.000474
-0.000841
0.000803
-0.001005
-0.000841
-0.002813
-0.004128
-0.003963
-0.001169
0.000967
-0.0061
0.00294
-0.003306
0.001296
0.000803
0.001625
-0.001005
0.000803
0.002118
-0.001169
-0.000676
0.002118
-0.004128
0.000146
-0.000183
0.000803
-0.000676
-0.001498
-0.000183
-0.00347
0.00031
0.000967
0.000803
-0.000676
0.002118
0.001296
-1.9e-05
-0.004128
-0.000676
-0.002648
0.000803
0.002611
-1.9e-05
0.000803
0.000967
0.001954
0.000639
0.00409
-1.9e-05
0.003926
0.001296
0.00294
0.002118
-0.000347
-0.003799
-0.000347
-0.000183
-0.002484
-0.001662
-0.004456
0.00294
-0.001498
0.004748
-0.000347
0.002775
0.000967
0.00146
0.001296
0.001789
0.005569
-0.001662
0.000967
0.00409
-0.001662
0.000474
0.002447
-0.002484
-1.9e-05
0.00031
-0.000183
0.000474
0.001789
0.00031
0.003926
0.000474
0.00294
0.001625
-0.000841
0.001132
0.000967
-0.001169
-1.9e-05
0.003104
-0.000512
0.000803
-0.000183
-0.000841
-0.000841
-0.001498
0.001625
0.001789
-0.000841
0.001132
0.000639
-0.003799
-0.001498
-0.00232
-0.002977
-0.004292
-0.00232
-0.001005
0.001132
-0.001827
-0.001498
-0.001334
-0.000183
-0.000676
0.001132
-1.9e-05
-0.001005
-0.001005
-0.001662
0.000803
0.000474
0.003433
-0.003799
-0.001334
-0.002648
-0.000347
-0.001498
-0.004621
-0.001334
0.000474
-0.001662
-0.000512
0.000146
-0.004949
0.002282
-0.000512
0.00146
-0.001334
-0.002813
-0.000183
-0.000841
-0.001827
-0.00232
-0.000841
-0.001662
-0.000676
-0.003963
-0.000676
-0.001662
-0.000347
-0.003799
0.000639
-0.002813
-0.001005
0.005569
0.001625
-0.003142
-0.002813
-0.002155
-0.001005
-0.000512
-0.004456
-1.9e-05
-0.005114
-0.001498
-0.000347
-0.003635
-0.002648
-0.001498
-0.002155
0.000967
-0.001827
-0.001498
-1.9e-05
-0.000183
-0.002813
-0.013989
-0.002484
-0.005771
-0.001662
-0.009551
0.003268
-0.003963
-0.004785
-0.000183
-0.002155
-0.006429
-0.010866
-0.005114
-0.005936
-0.002648
-0.003635
-0.002648
-0.004292
-0.004128
-0.001169
-0.001005
-0.004292
-0.003635
-0.0061
-0.001169
-0.003142
-0.001169
-0.003963
0.001954
-0.002155
-0.002648
-0.001169
-0.002813
-0.000347
-0.003635
-0.005607
-0.005114
-0.000512
-0.004456
-0.003306
-0.002977
-0.001169
-0.001991
-1.9e-05
0.001296
0.000803
-0.001334
-0.001005
0.001296
-0.002155
-0.000183
-0.002484
0.000474
-0.003799
-0.002155
0.000967
-0.000183
-0.004292
-0.001662
-0.004785
-0.001991
-0.000512
-0.004785
-0.003963
-0.0061
-0.002648
-0.002977
-0.004949
-0.001991
-0.001005
-0.002484
-0.001662
-0.004456
-0.002484
-0.004292
-0.002977
-0.004621
-0.001991
-0.000183
-0.007908
-0.003142
-0.001005
-0.002813
-0.00347
0.000474
-0.001334
0.000967
0.002282
0.000146
0.001132
-0.001827
-0.001827
-0.001827
0.001132
-0.000841
0.00031
0.000803
-0.001827
-0.000676
0.001625
0.000146
-0.000512
-0.002484
0.002282
-0.003963
-0.002977
0.000474
0.000474
-0.001498
-0.000841
-0.001827
-0.000512
0.001132
-0.000841
-0.006922
0.000803
-0.000841
-0.005771
0.004748
-0.001991
0.000474
0.001625
-0.000183
0.001625
-0.002977
-0.002813
-0.001991
0.000474
-0.004456
-0.00347
-0.002648
-0.004949
-0.000512
0.003268
-0.000841
0.001132
0.003268
0.003433
0.002447
0.000639
0.002118
-0.000676
0.002282
0.002447
0.003597
-0.001662
0.002118
-0.002155
0.000639
-1.9e-05
0.002118
0.002282
0.00031
0.000474
0.003104
0.003268
0.00031
0.00146
-1.9e-05
-0.000183
0.000803
0.00146
-0.001827
0.001132
-0.002813
0.000803
0.001954
-0.000676
0.005405
-0.000841
0.001954
0.000967
0.002775
-0.000512
0.002118
-0.000676
-0.001498
0.00294
-1.9e-05
-0.006757
-0.00232
-0.002648
-0.001334
0.001132
0.001132
0.001296
0.004748
-0.002484
-0.002813
0.002611
-0.001991
0.003433
-0.000841
0.00146
0.000146
0.000803
-0.000347
-0.000347
-0.000512
-0.000347
-0.001005
-0.001005
-0.000183
0.001296
0.002611
0.00031
0.003104
-0.00232
0.004583
0.007542
0.020197
0.025621
0.031373
0.035154
0.042057
0.049946
0.05537
0.063752
0.067861
0.075585
0.0769
0.082982
0.085776
0.0935
0.097774
0.096623
0.100732
0.108293
0.109114
0.109772
0.112566
0.118318
0.120126
0.123413
0.12818
0.124728
0.137877
0.131467
0.134097
0.141493
0.14478
0.14478
0.145437
0.148067
0.147738
0.149053
0.151847
0.154148
0.155134
0.153984
0.156778
0.160229
0.156942
0.16401
0.163516
0.163352
0.165817
0.165653
0.167625
0.16779
0.16779
0.169433
0.171406
0.166639
0.172063
0.17157
0.174857
0.173871
0.174693
0.175843
0.178144
0.175186
0.177651
0.17798
0.177322
0.177487
0.179295
0.177487
0.180445
0.177651
0.180774
0.184554
0.178637
0.181924
0.181103
0.182582
0.182417
0.183075
0.181267
0.185705
0.182582
0.182417
0.182253
0.180938
0.187677
0.183897
0.187184
0.183239
0.189485
0.183897
0.188334
0.185376
0.178637
0.186691
0.186033
0.186362
0.185705
0.186691
0.186033
0.189156
0.185047
0.18932
0.184554
0.187513
0.187677
0.190635
0.192443
0.19195
0.190471
0.191128
0.190635
0.189814
0.191293
0.189978
0.189814
0.187348
0.192608
0.189814
0.193758
0.194744
0.19458
0.190307
0.194416
0.191786
0.193758
0.19458
0.193922
0.19458
0.192936
0.19573
0.192608
0.193922
0.192936
0.195566
0.192772
0.19573
0.19721
0.19721
0.197045
0.201647
0.194744
0.200168
0.197538
0.199346
0.196552
0.195566
0.197374
0.194744
0.198524
0.196223
0.202798
0.198524
0.199675
0.202633
0.20362
0.201319
0.204277
0.20214
0.20362
0.20362
0.203126
0.205263
0.203948
0.204277
0.203126
0.204113
0.201319
0.206249
0.203455
0.206414
0.205921
0.210029
0.210358
0.209208
0.20855
0.207564
0.211016
0.206414
0.206414
0.206907
0.206414
0.202469
0.209208
0.2074
0.210687
0.205756
0.208222
0.209536
0.209043
0.211673
0.212166
0.21118
0.20855
0.213481
0.209208
0.212495
0.209372
0.20855
0.20855
0.213152
0.207071
0.212988
0.211837
0.210523
0.211837
0.213152
0.21381
0.212166
0.213481
0.212166
0.213152
0.212002
0.214467
0.212824
0.214138
0.210194
0.210523
0.212166
0.210687
0.208715
0.213317
0.215289
0.213152
0.217097
0.21233
0.216111
0.215125
0.212002
0.214467
0.217261
0.21233
0.212988
0.216768
0.216439
0.21381
0.216439
0.214303
0.214467
0.213481
0.214467
0.217754
0.215453
0.215125
0.215125
0.215946
0.213645
0.21759
0.213645
0.217261
0.214138
0.215618
0.214138
0.213974
0.210851
0.215946
0.21118
0.212495
0.215453
0.211837
0.214631
0.206742
0.219069
0.21381
0.213974
0.214138
0.214138
0.213645
0.209043
0.215453
0.21118
0.209372
0.208222
0.212988
0.208222
0.214303
0.211016
0.212166
0.211016
0.212495
0.212988
0.213317
0.214303
0.213317
0.216111
0.212002
0.213974
0.210358
0.209536
0.207893
0.209372
0.205099
0.21118
0.209536
0.207893
0.20855
0.209372
0.210029
0.2074
0.209208
0.209043
0.208386
0.206578
0.207235
0.205921
0.207564
0.208386
0.209536
0.205921
0.206085
0.206249
0.205427
0.205921
0.203126
0.207071
0.204113
0.204277
0.203784
0.207071
0.207728
0.212002
0.204441
0.206085
0.205263
0.205921
0.202798
0.205756
0.202962
0.204113
0.206249
0.202798
0.207564
0.20477
0.206742
0.206742
0.206578
0.203455
0.205921
0.200825
0.200661
0.203455
0.201319
0.201976
0.207564
0.201647
0.20214
0.202633
0.201154
0.202633
0.20214
0.203455
0.201319
0.205263
0.201976
0.205099
0.201483
0.202469
0.204441
0.200332
0.200825
0.20099
0.201154
0.201812
0.202633
0.198031
0.201483
0.196388
0.200332
0.197867
0.199182
0.194416
0.204441
0.202305
0.201483
0.205756
0.200661
0.199511
0.200004
0.199839
0.199839
0.199675
0.199182
0.201154
0.200004
0.201319
0.197538
0.200497
0.200004
0.200168
0.197045
0.200825
0.200661
0.197867
0.202305
0.200497
0.201154
0.198031
0.200332
0.197703
0.198853
0.197374
0.198689
0.198524
0.195073
0.198524
0.200004
0.199018
0.200497
0.200661
0.197045
0.199182
0.197374
0.200168
0.202633
0.198031
0.192608
0.199675
0.193594
0.197374
0.196388
0.193429
0.196223
0.201154
0.200004
0.197867
0.201483
0.200004
0.195237
0.199675
0.205263
0.200004
0.20099
0.198689
0.199511
0.19721
0.1908
0.193265
0.198524
0.199018
0.200825
0.201319
0.207728
0.201319
0.199511
0.203784
0.200825
0.202633
0.201319
0.20099
0.197703
0.199839
0.196717
0.196388
0.196552
0.198689
0.201154
0.200332
0.201647
0.20362
0.202305
0.199675
0.203291
0.203126
0.189649
0.197045
0.197374
0.19573
0.19721
0.19721
0.199675
0.201154
0.200825
0.201319
0.199018
0.19458
0.198196
0.200825
0.201976
0.202962
0.204113
0.201647
0.20099
0.201647
0.199346
0.202305
0.196388
0.204113
0.202798
0.199018
0.204441
0.200004
0.200004
0.200332
0.203948
0.200825
0.205427
0.200825
0.199839
0.201154
0.198196
0.200661
0.196717
0.199511
0.196223
0.204277
0.19836
0.201647
0.198689
0.197867
0.199511
0.201319
0.201154
0.202305
0.197703
0.196552
0.200332
0.197867
0.200661
0.197045
0.199839
0.199346
0.199346
0.198196
0.199675
0.196223
0.199182
0.196388
0.202305
0.201319
0.199675
0.197538
0.199839
0.201154
0.197703
0.200004
0.199018
0.199839
0.200332
0.199675
0.196552
0.201647
0.199018
0.194251
0.200168
0.199675
0.20362
0.199346
0.204441
0.202469
0.20099
0.200825
0.200004
0.201812
0.19836
0.197045
0.199018
0.196881
0.199839
0.195237
0.19836
0.200004
0.195895
0.200661
0.200661
0.198196
0.196223
0.198524
0.195073
0.195895
0.196717
0.19836
0.197867
0.199182
0.196881
0.199839
0.198689
0.195073
0.196059
0.19573
0.198524
0.191621
0.197374
0.198031
0.198853
0.197045
0.200497
0.198031
0.199675
0.199182
0.197045
0.197538
0.19721
0.19836
0.196717
0.197538
0.196388
0.205427
0.193594
0.190964
0.195895
0.19573
0.197867
0.200661
0.199018
0.201812
0.200332
0.199018
0.202305
0.196717
0.197538
0.19721
0.198689
0.19836
0.200332
0.197045
0.200004
0.197374
0.201812
0.197867
0.197538
0.198689
0.198853
0.200497
0.199511
0.200497
0.198689
0.194251
0.194251
0.197374
0.196388
0.197374
0.196717
0.200004
0.199511
0.199346
0.199018
0.199839
0.202305
0.200661
0.201812
0.199839
0.198689
0.198524
0.199675
0.198196
0.196717
0.196388
0.201319
0.200168
0.202633
0.200168
0.200004
0.199511
0.200661
0.199018
0.201976
0.201483
0.200825
0.200004
0.200004
0.200497
0.197703
0.199018
0.195237
0.199182
0.19458
0.196059
0.196388
0.197867
0.202633
0.199511
0.202469
0.201812
0.199346
0.199511
0.202962
0.199346
0.203291
0.203455
0.199675
0.19836
0.199182
0.197045
0.198853
0.201319
0.197703
0.200661
0.200004
0.199839
0.199018
0.198031
0.198524
0.204113
0.199511
0.20099
0.203126
0.200661
0.200332
0.199511
0.194744
0.195237
0.197045
0.199182
0.201647
0.200825
0.200168
0.199182
0.20099
0.199182
0.199675
0.20099
0.199018
0.202962
0.19458
0.201154
0.202633
0.196223
0.197867
0.200497
0.199182
0.199675
0.198524
0.19836
0.199675
0.200168
0.19836
0.19836
0.200825
0.201154
0.201647
0.201319
0.200332
0.200168
0.19836
0.199675
0.202962
0.198689
0.200497
0.197867
0.199839
0.198524
0.199675
0.201154
0.200661
0.201976
0.201812
0.200661
0.201647
0.198853
0.201812
0.205099
0.198524
0.203126
0.198689
0.200004
0.198853
0.19836
0.201812
0.199839
0.201812
0.201812
0.20099
0.202633
0.200825
0.196717
0.199675
0.201154
0.200497
0.200825
0.200825
0.193101
0.204934
0.201647
0.200332
0.208057
0.197867
0.204113
0.201483
0.196388
0.202305
0.205592
0.20099
0.204934
0.204606
0.201319
0.200497
0.20214
0.201976
0.202633
0.199182
0.202633
0.202798
0.203126
0.203455
0.202469
0.199839
0.199511
0.202633
0.201154
0.203291
0.202469
0.200332
0.201647
0.19721
0.200332
0.202305
0.199346
0.20099
0.20214
0.200825
0.203948
0.200825
0.204606
0.201647
0.204934
0.198689
0.202305
0.200497
0.20099
0.20099
0.20099
0.199018
0.203455
0.199675
0.199182
0.200825
0.199675
0.202305
0.19836
0.199511
0.196552
0.202798
0.200332
0.202962
0.202305
0.202962
0.199675
0.200332
0.201647
0.20099
0.197374
0.199346
0.202962
0.19836
0.200497
0.19573
0.200661
0.200825
0.200168
0.201483
0.197374
0.195895
0.199839
0.199839
0.199675
0.201812
0.200332
0.201319
0.200497
0.203126
0.199018
0.200661
0.196223
0.196059
0.19836
0.196059
0.196717
0.199839
0.199346
0.199182
0.199839
0.197703
0.201319
0.195566
0.196881
0.195402
0.19721
0.196552
0.198853
0.19721
0.19573
0.195895
0.195566
0.194087
0.196223
0.198031
0.195895
0.203784
0.195566
0.199018
0.197374
0.196881
0.198524
0.198031
0.192936
0.197867
0.193429
0.195566
0.196059
0.19721
0.197703
0.199018
0.201154
0.198689
0.201319
0.196881
0.199018
0.196059
0.197703
0.197538
0.199839
0.196388
0.195895
0.194416
0.194416
0.194909
0.194087
0.196717
0.19721
0.197045
0.196717
0.199839
0.199839
0.200825
0.199675
0.201647
0.199839
0.196717
0.199511
0.19721
0.195402
0.198031
0.198689
0.190142
0.202469
0.197538
0.19721
0.201483
0.198031
0.199346
0.19721
0.198689
0.200004
0.199018
0.192772
0.200332
0.19721
0.19836
0.20099
0.196223
0.192772
0.199182
0.199675
0.196881
0.197538
0.197867
0.196388
0.201483
0.198853
0.205099
0.199182
0.196388
0.19836
0.19573
0.196388
0.197538
0.195237
0.196059
0.198196
0.196223
0.20362
0.190635
0.200168
0.200004
0.200825
0.200497
0.200661
0.200004
0.20099
0.204277
0.197703
0.204606
0.197703
0.198031
0.196881
0.199018
0.198689
0.19836
0.197045
0.198689
0.205263
0.200168
0.205756
0.197374
0.197374
0.198853
0.201483
0.196717
0.199018
0.197867
0.199018
0.19721
0.196717
0.196552
0.197538
0.198524
0.198524
0.200661
0.198853
0.198031
0.199511
0.20099
0.197538
0.199182
0.196223
0.199511
0.198031
0.195895
0.194416
0.197374
0.200497
0.197045
0.199839
0.198524
0.199675
0.193922
0.198031
0.199511
0.199346
0.202305
0.200004
0.19573
0.201483
0.198689
0.19836
0.197538
0.190142
0.19721
0.196388
0.199182
0.196881
0.196059
0.198031
0.197703
0.195073
0.202633
0.199346
0.188663
0.19721
0.196881
0.19836
0.199182
0.196223
0.200168
0.201812
0.200332
0.199346
0.19721
0.18817
0.197867
0.198031
0.196552
0.19721
0.196881
0.199018
0.200497
0.197045
0.20362
0.203291
0.196059
0.20362
0.202962
0.202469
0.202305
0.199182
0.202633
0.199675
0.201812
0.203126
0.206085
0.198689
0.201154
0.200168
0.204441
0.201976
0.201647
0.201976
0.200332
0.201647
0.200497
0.203291
0.199346
0.19836
0.197538
0.196223
0.20362
0.20099
0.200004
0.20099
0.201319
0.203455
0.203784
0.200661
0.204606
0.202633
0.200661
0.19836
0.204277
0.197703
0.200168
0.200661
0.198853
0.197867
0.197374
0.199346
0.199182
0.202633
0.200497
0.200168
0.201483
0.20362
0.201154
0.201812
0.202305
0.200661
0.197538
0.199675
0.199182
0.202633
0.202633
0.200825
0.203126
0.202798
0.204277
0.202798
0.204277
0.199182
0.20099
0.200332
0.204277
0.200332
0.200661
0.20214
0.205592
0.198031
0.197703
0.200004
0.198524
0.201647
0.203455
0.19836
0.199675
0.203291
0.198689
0.202633
0.197538
0.200004
0.199346
0.199346
0.19836
0.201154
0.200168
0.198196
0.19836
0.198524
0.204113
0.198853
0.201647
0.197867
0.199018
0.199839
0.201976
0.197538
0.20099
0.200661
0.197703
0.201647
0.198689
0.200497
0.193922
0.201976
0.196388
0.198524
0.197045
0.197867
0.19573
0.197538
0.196388
0.19721
0.196881
0.198031
0.198689
0.193101
0.197045
0.191128
0.194251
0.194744
0.196059
0.193429
0.19721
0.196552
0.19573
0.199346
0.197867
0.196388
0.192936
0.195566
0.197374
0.198196
0.19836
0.199018
0.198031
0.199018
0.200168
0.196552
0.195895
0.195895
0.194909
0.193922
0.19721
0.19836
0.197703
0.199839
0.199182
0.20099
0.199018
0.199182
0.200497
0.196223
0.197703
0.195402
0.201812
0.196881
0.19836
0.19836
0.19836
0.196881
0.19573
0.198853
0.196223
0.198689
0.196552
0.199182
0.197703
0.199346
0.196223
0.193922
0.195237
0.194251
0.194087
0.193429
0.193758
0.195566
0.195073
0.193101
0.199511
0.196388
0.201154
0.19721
0.199675
0.196223
0.196388
0.196059
0.196717
0.195402
0.199346
0.200825
0.200661
0.198031
0.197703
0.200332
0.196717
0.198031
0.198031
0.197703
0.200332
0.201647
0.200497
0.198524
0.198524
0.200497
0.198853
0.19836
0.200004
0.198853
0.197374
0.201976
0.199839
0.201319
0.199839
0.200497
0.200825
0.201483
0.201319
0.201976
0.204934
0.199018
0.201154
0.199511
0.198689
0.200168
0.200168
0.19836
0.196717
0.201154
0.199511
0.204277
0.201319
0.202305
0.203784
0.201483
0.198524
0.202633
0.20099
0.201647
0.200661
0.198853
0.204934
0.200168
0.204606
0.205099
0.20362
0.202633
0.203291
0.202962
0.203126
0.20477
0.203784
0.202305
0.202962
0.205263
0.205756
0.206742
0.204441
0.206249
0.203455
0.206578
0.205099
0.203784
0.203291
0.20855
0.208057
0.206578
0.206085
0.208222
0.211509
0.208222
0.205756
0.206742
0.2074
0.205099
0.2074
0.210687
0.204277
0.204113
0.20855
0.205921
0.206414
0.200168
0.204277
0.204606
0.202633
0.206578
0.204606
0.206249
0.204441
0.202305
0.202962
0.206578
0.203784
0.207071
0.205263
0.205592
0.204934
0.207235
0.204606
0.204277
0.204277
0.201483
0.204934
0.203948
0.203784
0.202305
0.203948
0.201812
0.204934
0.201647
0.204277
0.201647
0.200332
0.200332
0.197703
0.201154
0.19721
0.196881
0.197703
0.20362
0.198196
0.198524
0.197703
0.200825
0.193265
0.198031
0.199018
0.196059
0.198853
0.196388
0.196717
0.192936
0.191293
0.190635
0.194251
0.188992
0.193922
0.194909
0.187184
0.188992
0.194909
0.195566
0.195402
0.196059
0.194087
0.191621
0.193922
0.192115
0.191293
0.192772
0.193265
0.196223
0.19195
0.193758
0.191293
0.191621
0.193101
0.192279
0.191621
0.1908
0.192936
0.192772
0.196223
0.193922
0.192936
0.194909
0.1908
0.193594
0.191293
0.182089
0.190307
0.189649
0.190307
0.192115
0.195402
0.193758
0.192936
0.194416
0.194251
0.193758
0.189978
0.194087
0.189485
0.196223
0.194251
0.194087
0.198689
0.197045
0.193265
0.195566
0.197703
0.195073
0.198689
0.198196
0.200332
0.200661
0.200168
0.200168
0.199511
0.200168
0.201483
0.197538
0.197045
0.199346
0.20099
0.19836
0.202305
0.202305
0.201812
0.202633
0.202469
0.20362
0.200004
0.202962
0.201483
0.203784
0.201976
0.205427
0.20477
0.205263
0.199839
0.201319
0.201154
0.198853
0.200661
0.201647
0.203126
0.199675
0.20362
0.201647
0.204606
0.201154
0.205263
0.20362
0.201483
0.202962
0.200168
0.200825
0.201319
0.203455
0.199675
0.200825
0.20362
0.203455
0.201319
0.201319
0.201154
0.201976
0.203455
0.206742
0.204277
0.207071
0.206249
0.203784
0.204606
0.209208
0.203784
0.205263
0.205099
0.203126
0.205263
0.204113
0.203784
0.204934
0.204934
0.206907
0.209865
0.203126
0.204934
0.201976
0.201976
0.20362
0.20362
0.203784
0.207893
0.205921
0.202798
0.209043
0.199675
0.20362
0.204606
0.202633
0.202962
0.204934
0.203126
0.207564
0.209536
0.20362
0.19721
0.199839
0.204606
0.202962
0.20362
0.200497
0.202469
0.200825
0.203784
0.202469
0.202305
0.191128
0.200332
0.20362
0.202633
0.206249
0.203126
0.207235
0.20362
0.205921
0.205921
0.198524
0.19458
0.201483
0.207071
0.202305
0.202633
0.203948
0.204934
0.199675
0.20477
0.201319
0.204606
0.194744
0.202469
0.200825
0.196552
0.199675
0.201812
0.199346
0.199839
0.200004
0.200497
0.202305
0.193594
0.199675
0.196881
0.197374
0.199346
0.199018
0.196881
0.195566
0.198031
0.199018
0.198853
0.195895
0.198853
0.196388
0.193265
0.195237
0.196881
0.19195
0.198196
0.196717
0.196388
0.199018
0.199018
0.192772
0.20099
0.197045
0.201154
0.193594
0.197703
0.196059
0.197045
0.196717
0.196881
0.200004
0.196059
0.196223
0.192115
0.196552
0.195402
0.196717
0.198689
0.196881
0.190142
0.194744
0.194416
0.193922
0.19573
0.19458
0.197374
0.195402
0.197045
0.192443
0.196552
0.194416
0.194909
0.196388
0.19573
0.19573
0.197703
0.196881
0.197045
0.198524
0.192608
0.19573
0.192443
0.195073
0.196717
0.19573
0.195073
0.196717
0.194416
0.196388
0.195073
0.195566
0.197374
0.193758
0.198689
0.197538
0.196223
0.196881
0.196881
0.194251
0.20099
0.19721
0.196223
0.19836
0.196881
0.194087
0.195073
0.194251
0.191457
0.198853
0.200332
0.202962
0.19836
0.199182
0.199346
0.199511
0.198853
0.199018
0.194909
0.195895
0.19721
0.198031
0.195566
0.194416
0.198031
0.197538
0.199675
0.198196
0.197374
0.199511
0.200168
0.201154
0.204277
0.202633
0.200825
0.200332
0.201154
0.198031
0.19721
0.196717
0.195566
0.19836
0.19573
0.198689
0.19721
0.198524
0.199182
0.197703
0.199346
0.202633
0.200332
0.203126
0.20099
0.201154
0.196388
0.194251
0.196552

Kurve 3

-0.000347
-0.000512
-0.000676
-0.001005
-0.001169
-0.001334
-0.000347
-0.000676
-0.000512
-0.000512
-1.9e-05
-0.000183
0.000146
-0.000183
-0.000676
-0.001005
-0.000841
-0.001005
-0.001169
-0.000183
-0.000841
-0.000183
-0.000676
-0.000183
-0.000512
0.000803
-0.000183
-0.001005
-0.001662
0.00031
-0.000183
-0.000347
-0.001005
-0.000676
0.000146
-0.001991
0.00031
-0.00347
0.000474
-0.002977
-1.9e-05
-0.001498
-0.001005
0.00031
-0.001662
-0.000512
0.00146
0.000474
-0.001005
0.002447
-0.001005
0.002447
0.000474
0.001789
-0.001827
0.001625
-0.001334
0.000639
-0.000841
-0.001662
-0.003306
-0.002484
-0.000512
-0.005278
-0.004128
-1.9e-05
0.001625
-0.000183
0.004255
0.003597
0.000967
0.001625
0.001954
-0.00347
0.002282
0.00031
0.001625
0.005076
0.000146
0.009021
0.000967
0.00935
-0.002155
0.00409
0.001296
0.002118
0.000967
0.001296
0.002611
-1.9e-05
0.002775
0.001296
-1.9e-05
0.002118
0.002611
0.000474
0.001789
0.000967
-0.001334
0.000474
0.001789
0.006556
0.002611
0.002118
0.002611
0.002775
0.001954
0.00146
-0.000841
0.000803
-0.000841
0.000803
-0.000841
0.005405
0.001954
0.000803
0.004583
0.002775
0.000639
0.002775
0.002118
0.001789
0.003433
0.003104
0.004748
0.001625
0.001296
0.006884
0.005734
0.000474
-0.001827
0.002611
0.001625
0.002775
0.004748
-0.0061
0.006884
0.001954
0.005076
0.00409
0.000146
0.004748
0.001296
0.001789
-0.001498
0.003268
0.000639
0.000967
-0.00232
0.007049
0.000474
0.001296
0.004748
0.002282
0.003433
0.002282
0.007049
0.002118
0.004748
0.003104
0.003268
0.000146
-1.9e-05
-0.002155
-0.00232
0.000803
0.005241
0.003268
0.004419
0.004419
0.003268
0.004419
0.002118
0.005405
0.003104
0.006227
0.003268
0.005898
0.00672
0.005734
0.006062
0.005569
0.003926
0.00031
0.003268
0.003268
0.005405
-1.9e-05
0.005076
0.003926
0.004583
0.008363
0.006062
0.005076
0.006227
0.004419
0.004912
0.003926
0.001625
0.005734
0.003761
0.004583
0.003761
0.005076
0.000474
0.004419
0.003761
0.006391
0.003761
0.004912
0.003761
0.003104
0.002611
0.003104
0.002611
0.00031
0.001789
0.000967
0.000639
-0.002813
0.00294
0.002775
-0.000347
0.002775
0.003926
0.00294
0.004583
0.000639
0.002118
0.002447
-0.001334
-0.000841
-0.001662
-0.001169
-0.002484
-0.001498
-0.002813
0.000803
-0.005278
-0.006757
-0.007415
-0.005443
-0.002648
0.00031
-0.004621
0.002282
0.000146
-0.005607
0.000146
-0.004128
-0.001991
-0.003142
-0.001169
-0.003963
-0.001169
-0.005278
-0.001169
-0.002813
-0.003142
-0.001169
-0.006757
0.00031
-0.004621
-0.000676
-0.002813
0.000146
-0.002484
-0.000183
-0.001334
-0.000512
0.001132
0.000474
-0.001827
-0.000512
0.000474
-0.002155
0.001132
-0.003306
0.000146
0.000146
0.00031
0.002775
0.002282
-0.002484
0.002118
-0.000841
-1.9e-05
-0.002484
-0.001334
-0.000183
0.000803
0.005241
0.001625
0.002118
-0.000347
-0.000183
-0.003142
0.003926
-0.001827
0.004419
0.003597
-0.001005
0.003104
0.000474
-0.001662
-0.001005
0.003433
-0.001498
-0.000183
0.001132
-0.002648
0.000146
-0.000512
-0.000183
0.004255
-0.001005
0.004583
0.001789
-0.000512
-0.000183
-0.002155
-0.001662
-0.000183
0.000474
0.001954
0.006391
-0.00232
0.001625
-0.000347
0.000967
0.000474
0.004255
0.001789
0.003926
0.00409
0.002775
0.008528
0.001789
0.006062
0.003104
0.000146
-0.000347
-0.003142
-0.003635
0.001132
-0.000676
0.002118
0.006391
0.000639
0.001789
0.004255
0.001296
0.003761
0.002282
0.000146
0.004912
0.001625
0.005898
0.002775
0.00031
-0.004292
-0.000841
-0.000183
-0.004785
0.000639
0.000967
0.004583
0.005569
0.005569
0.005569
0.00672
0.002775
0.005898
0.001625
0.003104
0.000474
0.002447
0.000146
0.002775
0.000639
-0.00725
0.000803
0.001296
0.001954
0.002118
0.003268
0.004419
0.003268
0.000639
0.005405
-0.001662
-0.005607
0.002611
0.001954
-0.001334
0.000639
-0.001498
-0.003142
-0.001169
0.000967
0.000803
0.000639
-0.004785
-0.000183
0.003268
0.000639
-0.001005
-0.002813
-0.001827
-0.002813
-0.001334
-1.9e-05
0.005076
-0.000347
-0.000841
0.000803
0.002447
0.00294
0.00146
0.004583
0.003761
0.009678
0.003433
-0.001005
-1.9e-05
0.005241
0.002447
0.001789
-1.9e-05
-0.003306
-0.002648
-0.005114
-0.001498
-0.002977
0.00146
-0.000841
-0.002813
-0.002813
0.004255
0.000967
0.004419
0.00409
0.000474
0.002282
0.005405
0.001296
0.003104
0.003761
0.003268
0.005569
0.003597
0.00787
0.005734
0.006391
0.007377
0.009185
0.007213
0.007377
0.00672
0.008692
0.009843
0.008692
0.008857
0.008692
-0.000183
0.000474
0.00787
0.006227
0.010829
0.010829
0.003761
0.002775
0.005405
0.004419
0.00672
0.00409
0.009514
0.010007
0.006556
0.00672
0.00031
0.000803
-1.9e-05
0.000967
0.00031
-0.001169
0.000639
0.00146
0.003104
0.004748
0.005405
-0.000347
0.00935
0.017567
0.022663
0.010993
0.024799
0.011158
-0.000512
-0.001498
-0.005114
-0.002648
-0.000183
-0.003635
-0.00232
-0.002813
-0.001169
-0.000183
-0.002813
-0.001334
-0.000676
0.00146
-0.001005
0.004583
0.001625
-0.001005
-0.000512
0.000967
-0.001005
-0.001169
0.004255
-0.003799
0.004255
0.000639
0.002775
0.001296
0.001625
0.004419
0.005569
0.005734
0.00146
0.000639
-0.001662
-0.002977
-0.001991
-0.002977
-0.000676
-0.000183
-0.003142
-0.002977
-0.001005
-0.001991
0.00031
0.003433
-0.003635
0.002282
0.000967
-0.001169
-0.000183
0.000967
-0.001827
-0.000841
-0.001991
0.000146
-0.000676
-0.001498
0.003597
-0.001662
0.000146
-0.003963
-0.002484
-0.001498
-0.001334
-0.00232
0.002118
0.002447
0.000803
-0.000676
0.000146
-0.003142
-0.001827
0.001789
-0.003963
-0.002155
-0.004621
0.000146
-0.004785
-0.0061
-0.00232
-0.004785
-0.006922
-0.005114
-0.008401
-0.005936
-0.005443
-0.009716
-0.007086
-0.008894
-0.012017
-0.011031
-0.010866
-0.013167
-0.008894
-0.016783
-0.020563
-0.01251
-0.012839
-0.010538
-0.007086
-0.011688
-0.012017
-0.009716
-0.011195
-0.012181
-0.012017
-0.010538
-0.011359
-0.011524
-0.011852
-0.009716
-0.013825
-0.011524
-0.007744
-0.013332
-0.013003
-0.008072
-0.007744
-0.007744
-0.007908
-0.007086
-0.0061
-0.005607
-0.003799
-0.005771
-0.005936
-0.008072
-0.005936
-0.008072
-0.0061
-0.007086
-0.00347
-0.003306
-0.005278
-0.003799
-0.008072
-0.001662
-0.002155
-0.010538
-0.005114
-0.00347
-0.005607
-0.001169
-0.004949
-0.004621
-0.004456
-0.005278
-0.003142
-0.004128
-0.002977
0.001789
-0.003799
-0.00347
0.00146
-0.002484
-0.000841
-0.002484
0.003268
-0.003799
-0.004128
-0.004785
-0.00232
-0.00347
-0.006757
0.000639
-0.004621
-0.000512
-0.000841
-0.001169
-0.003635
0.001789
-0.002648
0.000474
0.001789
0.00031
0.003761
0.001625
0.000967
0.000146
-0.000347
-0.001827
-0.000183
-0.001662
0.000639
-0.000676
-0.001662
0.005241
0.00294
-0.00232
0.001789
0.002282
0.001625
0.005076
-0.000676
0.000967
0.002118
0.001296
0.00294
0.00146
-0.000841
0.001954
0.002447
0.004419
0.001789
0.003597
0.001625
0.005241
0.004912
0.00409
0.002447
0.002775
0.003597
-1.9e-05
0.002447
0.007213
0.005405
0.003268
0.006884
0.002611
0.007377
0.006062
0.003761
0.004748
0.008528
0.007706
0.005569
0.008035
0.005898
0.006884
0.005734
0.009514
0.006391
0.00787
0.006062
0.010993
0.003761
0.007377
0.006391
0.003926
0.00787
0.007377
0.009185
0.012308
0.009514
0.008692
0.012308
0.00672
0.001132
0.007213
0.010007
0.00787
0.009185
0.01576
0.021019
0.029237
0.038441
0.045179
0.049946
0.058164
0.061615
0.068189
0.07312
0.081502
0.082488
0.092186
0.095473
0.100896
0.105005
0.106978
0.1101
0.117661
0.116346
0.120948
0.12933
0.132289
0.134261
0.135083
0.140835
0.140671
0.143136
0.147738
0.148724
0.151025
0.152011
0.152176
0.159243
0.156613
0.157764
0.15612
0.160394
0.163845
0.160065
0.16401
0.16253
0.163352
0.16894
0.172392
0.167297
0.174693
0.174035
0.174693
0.173378
0.17535
0.172885
0.174035
0.17798
0.17535
0.169433
0.136398
0.138205
0.076243
0.079201
0.081667
0.086762
0.090871
0.097774
0.101883
0.107964
0.1101
0.112401
0.11651
0.117661
0.126043
0.121934
0.029401
0.03351
0.041564
0.044686
0.055863
0.057835
0.064902
0.067203
0.075257
0.08216
0.07953
0.089391
0.092843
0.097774
0.096952
0.104677
0.105827
0.109936
0.110429
0.117661
0.12555
0.122098
0.126865
0.134425
0.135247
0.137712
0.141
0.140671
0.145273
0.04633
0.020526
0.030059
0.030552
0.036962
0.045015
0.051589
0.058164
0.066053
0.069833
0.076572
0.081502
0.091528
0.093007
0.098102
0.09991
0.106485
0.108128
0.113716
0.120784
0.121277
0.123249
0.074599
0.07838
0.078708
0.010171
0.016088
0.029401
0.031702
0.040742
0.048467
0.054548
0.059314
0.063587
0.074106
0.074435
0.032195
0.035975
0.042714
0.051754
0.056849
0.06293
0.068354
0.071477
0.081502
0.082982
0.078051
0.090706
0.097938
0.100568
0.106156
0.109443
0.114209
0.114702
0.118976
0.082488
0.06408
0.002118
-0.004128
0.008363
0.014938
0.025128
0.031373
0.038605
0.044029
0.053233
0.055698
0.064738
0.059314
0.077558
0.080681
0.08216
0.088405
0.09235
0.095308
0.097938
0.103033
0.104512
0.108457
0.100896
0.107964
0.117003
0.118483
0.116839
0.123085
0.128344
0.128837
0.130809
0.131138
0.136891
0.128344
0.132617
0.133932
0.13952
0.138699
0.144122
0.140671
0.137548
0.145437
0.147081
0.149546
0.147409
0.150532
0.151518
0.153655
0.151847
0.151025
0.150204
0.153326
0.152011
0.153162
0.152669
0.153162
-0.011195
0.005898
0.012965
0.022169
0.030223
0.039756
0.042057
0.049617
0.057671
0.061615
0.068189
0.071312
0.079201
0.082982
0.088405
0.091692
0.098924
0.097445
0.105334
0.108293
0.111251
0.117661
0.115853
0.125057
0.130316
0.13196
0.133275
0.137384
0.138534
0.140506
0.142643
0.150368
0.012472
0.017896
0.028744
0.037619
0.045508
0.051425
0.059478
0.0603
0.068189
0.074271
0.058328
0.057342
0.066217
0.074599
0.078544
0.082817
0.087748
0.094158
0.098431
0.103526
0.106156
0.112073
0.113881
0.117168
0.119469
0.12555
0.128015
0.132617
0.135576
0.140671
0.141657
0.146916
0.147738
0.146752
0.149053
0.152011
0.153326
0.155463
0.156449
0.159901
0.16138
0.156942
0.165489
0.166146
0.168612
0.16894
0.172063
0.170748
0.172556
0.1742
0.175515
0.174364
0.177158
0.184061
0.178309
0.182746
0.176665
0.182746
0.178966
0.180445
0.183897
0.184061
0.182746
0.181267
0.187677
0.186855
0.191128
0.187184
0.188334
0.191293
0.18932
0.189978
0.190142
0.188334
0.194909
0.189649
0.193265
0.194251
0.192443
0.195073
0.197374
0.193758
0.19573
0.19573
0.19458
0.197538
0.195237
0.198031
0.196059
0.196388
0.195566
0.201319
0.194744
0.197045
0.196223
0.199182
0.200661
0.200332
0.200168
0.199346
0.199839
0.198689
0.202962
0.20214
0.204934
0.201812
0.199346
0.202633
0.200497
0.205099
0.19836
0.199839
0.202633
0.203126
0.197867
0.203455
0.202305
0.203948
0.202962
0.207893
0.203455
0.205099
0.206414
0.209208
0.203126
0.206249
0.204277
0.204113
0.204113
0.203455
0.205263
0.204277
0.204934
0.20362
0.206742
0.204441
0.206085
0.205756
0.2074
0.205263
0.206414
0.209043
0.208386
0.203948
-0.016783
-0.005278
0.002611
0.012965
0.019375
0.029072
0.034003
0.045179
0.050932
0.058985
0.056684
0.059314
0.066546
0.071477
0.075421
0.006391
0.011486
0.014773
0.03088
0.00935
0.020855
0.02595
0.036633
0.040249
0.047316
0.053726
0.061944
0.063587
0.070655
0.074271
0.079366
0.088405
0.086597
0.092514
0.095473
0.100239
0.100568
0.110429
0.108786
0.111087
0.116839
0.121441
0.124893
0.126865
0.073942
0.077558
0.081995
0.08216
0.092679
0.093007
0.095473
0.100732
0.106649
0.10895
0.11273
0.117496
0.119962
0.123249
0.126372
0.129823
0.132289
0.132289
0.136398
0.139849
0.138699
0.14478
0.149382
0.145437
0.148724
0.152505
0.152505
0.154641
0.155956
0.161709
0.15875
0.16516
0.164996
0.166639
0.167461
0.166968
0.171241
0.169105
0.175515
0.171899
0.178637
0.174857
0.177815
0.178637
0.179952
0.18061
0.178802
0.181596
0.179623
0.184225
0.184554
0.184061
0.188006
0.185047
0.183404
0.187184
0.183732
0.188334
0.184883
0.187513
0.188663
0.190142
0.188992
0.191293
0.191457
0.189814
0.194909
0.190471
0.19195
0.190307
0.192279
0.189814
0.195237
0.193594
0.193429
0.192443
0.19458
0.197538
0.194744
0.194251
0.192772
0.196717
0.193429
0.200168
0.200497
0.195073
0.193265
0.201647
0.196223
0.199346
0.195895
0.199511
0.196388
0.195566
0.199018
0.195402
0.196717
0.196552
0.19573
0.19836
0.199675
0.196388
0.199018
0.196552
0.198524
0.19836
0.201812
0.198689
0.199839
0.20362
0.201319
0.199839
0.199511
0.199511
0.198853
0.199511
0.201319
0.202633
0.197045
0.196388
0.19721
0.19721
0.198031
0.198689
0.200004
0.197867
0.201812
0.201812
0.202798
0.195402
0.196388
0.197703
0.201319
0.19573
0.199346
0.198031
0.199182
0.198853
0.201154
0.204441
0.201154
0.200332
0.207893
0.201976
0.197703
0.202469
0.200168
0.203291
0.199018
0.199839
0.200497
0.199839
0.20099
0.19836
0.198853
0.199346
0.200825
0.203455
0.201319
0.201154
0.202305
0.200825
0.203126
0.200661
0.201647
0.199675
0.199511
0.197867
0.199675
0.198689
0.199018
0.198853
0.197538
0.200661
0.19836
0.196552
0.20214
0.199839
0.203126
0.201154
0.200332
0.2074
0.199346
0.198196
0.200168
0.199511
0.199346
0.199839
0.200332
0.199839
0.200661
0.199511
0.201319
0.199675
0.199675
0.199511
0.204606
0.198196
0.20362
0.20214
0.199675
0.198853
0.199346
0.199346
0.200168
0.196059
0.199675
0.198689
0.196552
0.200004
0.199675
0.200661
0.201647
0.200497
0.201976
0.201483
0.197374
0.200825
0.200168
0.198689
0.200497
0.198524
0.198031
0.195073
0.199346
0.197538
0.197045
0.194744
0.199018
0.197703
0.196717
0.196717
0.200825
0.199346
0.197045
0.201812
0.198853
0.200332
0.19573
0.202962
0.198031
0.201647
0.199675
0.199182
0.200168
0.199346
0.201154
0.200004
0.199346
0.196881
0.20214
0.19836
0.20214
0.203126
0.198031
0.196223
0.202633
0.199511
0.200332
0.19573
0.191457
0.198524
0.199018
0.198524
0.201647
0.199018
0.200332
0.199675
0.196717
0.202798
0.196388
0.195073
0.198196
0.199839
0.194416
0.199675
0.199182
0.199182
0.201319
0.20099
0.203291
0.205099
0.198853
0.202962
0.20214
0.200332
0.203291
0.200004
0.20214
0.201647
0.200168
0.200168
0.200825
0.198031
0.199839
0.198853
0.198853
0.203784
0.199182
0.20099
0.200332
0.203455
0.200168
0.202469
0.200825
0.202305
0.197867
0.204934
0.202798
0.20214
0.198031
0.201319
0.19836
0.199018
0.202469
0.199839
0.20099
0.200332
0.202798
0.201154
0.198853
0.199346
0.203126
0.199511
0.199511
0.194416
0.202633
0.201647
0.201976
0.201976
0.197703
0.198524
0.194087
0.201976
0.199346
0.201154
0.202469
0.202469
0.201483
0.203784
0.203291
0.199839
0.19721
0.198853
0.201154
0.199346
0.200497
0.199018
0.20214
0.203126
0.200332
0.201319
0.203784
0.199675
0.202305
0.199018
0.198031
0.199511
0.198196
0.198853
0.203455
0.205263
0.199839
0.203948
0.199511
0.201976
0.197703
0.202305
0.200332
0.20099
0.201154
0.201483
0.200661
0.199346
0.199675
0.198031
0.201647
0.199018
0.198524
0.199839
0.202305
0.196717
0.201976
0.204277
0.202798
0.203948
0.204277
0.203126
0.201976
0.20099
0.200825
0.202469
0.200004
0.202962
0.202305
0.202633
0.207893
0.199839
0.200332
0.203455
0.200004
0.203455
0.201647
0.199346
0.202305
0.202305
0.203455
0.206249
0.200004
0.199511
0.199346
0.201976
0.202633
0.200168
0.20099
0.201319
0.199182
0.200332
0.194909
0.196223
0.197045
0.191293
-0.000183
0.015102
0.022827
0.032688
0.036633
0.04633
0.052411
0.050932
0.063916
0.07575
0.0769
0.078544
0.085118
0.091692
0.097609
0.101061
0.109114
0.105663
0.10895
0.117496
0.122427
0.127522
0.130645
0.134425
0.138699
0.141657
0.143794
0.146752
0.14856
0.151683
0.151683
0.155299
0.152833
0.155463
0.159736
0.161215
0.164174
0.168283
0.166311
0.16894
0.17272
0.171734
0.176172
0.177322
0.176665
0.178309
0.101554
0.104184
0.106813
0.112237
0.117496
0.119304
0.124235
0.129988
0.133603
0.134261
0.141493
0.145437
0.14856
0.150039
0.148724
0.151354
0.156449
0.156285
0.158093
0.161544
0.16138
0.166475
0.163681
0.167297
0.170255
0.171406
0.174693
0.082982
0.08857
0.091528
0.100568
0.098924
0.105827
0.109279
0.112401
0.003104
0.010336
0.013952
0.025457
0.032853
0.038276
0.044029
0.050439
0.05537
0.06408
0.068847
0.074271
0.080516
0.08331
0.087255
0.093829
0.093993
0.094651
0.100403
0.104019
0.107799
0.112237
0.115853
0.120455
0.120784
0.127358
0.131467
0.130152
0.13196
0.135083
0.135247
0.146095
0.138041
0.145437
0.142479
0.145273
0.147081
0.151025
0.146423
0.150204
0.151683
0.154148
0.156449
0.155463
0.155792
0.160065
0.159736
0.159408
0.166475
0.161544
0.165489
0.165489
0.16516
0.168776
0.166475
0.166804
0.169105
0.169926
0.166968
0.174857
0.171241
0.172227
0.174857
0.176008
0.174857
0.178802
0.17798
0.179459
0.180116
0.177815
0.180445
0.177651
0.181431
0.185212
0.182582
0.184554
0.185212
0.186033
0.186198
0.183897
0.188334
0.184883
0.184883
0.18554
0.189156
0.188827
0.186526
0.188992
0.19195
0.1908
0.190307
0.191128
0.189156
0.19195
0.187841
0.190964
0.190142
0.189814
0.191786
0.193265
0.190142
0.192443
0.192608
0.191786
0.194416
0.191786
0.192115
0.190964
0.193594
0.188827
0.192936
0.19195
0.191786
0.194251
0.195237
0.197538
0.195402
0.193758
0.19195
0.196717
0.192936
0.196881
0.194251
0.196223
0.200825
0.198689
0.195566
0.19836
0.194251
0.193758
0.197045
0.193265
0.195237
0.199018
0.198524
0.200004
0.200825
0.196388
0.199675
0.197374
0.199511
0.199675
0.197538
0.19458
0.197867
0.196552
0.19836
0.199018
0.196717
0.197867
0.195566
0.198031
0.196223
0.199675
0.19836
0.199511
0.198031
0.199675
0.193922
0.19573
0.196552
0.197867
0.194416
0.198031
0.19836
0.198524
0.199675
0.195895
0.197538
0.197374
0.204934
0.19836
0.199346
0.200168
0.201976
0.200168
0.199839
0.198853
0.200168
0.19836
0.197703
0.199675
0.197374
0.204113
0.203784
0.201154
0.199839
0.20099
0.199018
0.202305
0.197374
0.201319
0.19836
0.198196
0.199346
0.19836
0.200825
0.199182
0.203126
0.200332
0.199018
0.200661
0.19836
0.197867
0.198524
0.199018
0.200332
0.19721
0.192608
0.200825
0.200332
0.199182
0.199511
0.201483
0.198031
0.197703
0.196388
0.199675
0.197867
0.195402
0.198196
0.201319
0.199346
0.203126
0.19836
0.206742
0.199018
0.198853
0.204934
0.19721
0.203948
0.201154
0.20099
0.200825
0.198689
0.197703
0.199346
0.199182
0.198031
0.197703
0.201483
0.199675
0.199675
0.201647
0.199018
0.201647
0.200825
0.200661
0.201976
0.202305
0.19721
0.200332
0.198853
0.201319
0.19573
0.199018
0.199018
0.19721
0.197538
0.197703
0.200497
0.198689
0.201812
0.200661
0.202633
0.201647
0.197374
0.197045
0.198524
0.197703
0.194416
0.197538
0.197867
0.197045
0.199346
0.206578
0.199839
0.202962
0.206907
0.200004
0.193758
0.202798
0.200004
0.201319
0.19721
0.195566
0.200332
0.196388
0.19721
0.197374
0.20214
0.197867
0.198853
0.199018
0.201483
0.196059
0.205592
0.19836
0.199182
0.199346
0.19836
0.201319
0.196881
0.199182
0.197538
0.196388
0.199346
0.198196
0.201483
0.200497
0.198524
0.200497
0.201812
0.201154
0.199675
0.200332
0.199346
0.195073
0.198031
0.19721
0.196717
0.195895
0.19836
0.196388
0.198031
0.197703
0.200497
0.198524
0.20099
0.201812
0.199018
0.199511
0.201154
0.201976
0.201319
0.200168
0.199018
0.198853
0.201812
0.200825
0.197538
0.197703
0.199182
0.199346
0.201976
0.201647
0.200168
0.199182
0.198524
0.199346
0.199182
0.197374
0.200661
0.198031
0.201319
0.199018
0.199839
0.196552
0.202962
0.200168
0.199511
0.201812
0.199511
0.199839
0.201976
0.198524
0.19836
0.200661
0.197374
0.19836
0.199018
0.20099
0.200497
0.200825
0.194251
0.199182
0.200497
0.200825
0.201483
0.199675
0.200661
0.202469
0.200004
0.200332
0.20214
0.199675
0.207893
0.202469
0.205427
0.203455
0.202469
0.198196
0.202962
0.200497
0.201647
0.206085
0.204277
0.206578
0.206578
0.200661
0.203784
0.20214
0.201483
0.206085
0.200661
0.203291
0.203784
0.207235
0.205263
0.204113
0.202962
0.203784
0.201483
0.202305
0.202469
0.197867
0.199346
0.199675
0.196223
0.034496
0.031702
0.038769
0.045837
0.054383
0.055863
0.059807
0.067203
0.073942
0.078544
0.088241
0.087584
0.094158
0.096459
0.101061
0.104019
0.111251
0.114045
0.115195
0.118483
0.124893
0.125221
0.128015
0.131302
0.131631
0.135904
0.140835
0.136891
0.140178
0.142807
0.142807
0.146095
0.151683
0.152176
0.150861
0.155956
0.159079
0.160722
0.160887
0.158914
0.161051
0.161709
0.163516
0.161544
0.165324
0.163188
0.168447
0.166311
0.166804
0.16894
0.168776
0.170584
0.173378
0.174693
0.175515
0.181431
0.176008
0.179295
0.180774
0.177322
0.176994
0.179952
0.177487
0.18176
0.179459
0.183568
0.184061
0.184225
0.182582
0.184554
0.185212
0.185047
0.189649
0.18554
0.185705
0.185047
0.188663
0.188827
0.188334
0.187184
0.188334
0.186691
0.189978
0.189649
0.188334
0.191293
0.192279
0.192115
0.191128
0.192772
0.191786
0.19195
0.190471
0.191293
0.19458
0.191128
0.193101
0.193594
0.190964
0.193594
0.196388
0.18932
0.199346
0.193758
0.19573
0.196223
0.202469
0.196717
0.197867
0.196059
0.19721
0.20099
0.197867
0.201647
0.194251
0.19573
0.195566
0.196223
0.192936
0.19573
0.197538
0.197374
0.198524
0.197045
0.20099
0.194251
0.195566
0.196552
0.197538
0.19573
0.196881
0.19573
0.197867
0.197538
0.197538
0.196552
0.198689
0.193594
0.199018
0.196881
0.197867
0.197538
0.19836
0.200497
0.198031
0.199675
0.18817
0.196059
0.194744
0.193922
0.193265
0.200825
0.196223
0.198031
0.198524
0.195566
0.195237
0.183404
0.198524
0.198524
0.199675
0.199346
0.199675
0.19721
0.199182
0.198689
0.198853
0.198196
0.190471
0.196059
0.204441
0.19721
0.200332
0.199182
0.197045
0.198689
0.200332
0.199182
0.197703
0.19836
0.195402
0.199839
0.198524
0.19836
0.197045
0.198196
0.198031
0.201976
0.198689
0.195566
0.198031
0.194087
0.197538
0.199839
0.19721
0.198689
0.198853
0.197538
0.197867
0.19573
0.201647
0.199018
0.199839
0.194416
0.199182
0.197538
0.198524
0.197374
0.196717
0.19721
0.199675
0.199182
0.199675
0.200004
0.197867
0.199511
0.199511
0.200332
0.199018
0.197703
0.201483
0.198689
0.201319
0.197538
0.197867
0.197374
0.200497
0.198689
0.19836
0.198524
0.199346
0.19836
0.200332
0.199511
0.199511
0.198853
0.197867
0.199839
0.198031
0.196717
0.196552
0.199018
0.196717
0.200332
0.196881
0.197867
0.195073
0.197374
0.198031
0.198031
0.199018
0.19573
0.198196
0.198853
0.201483
0.198524
0.197538
0.20099
0.196552
0.197538
0.201154
0.198031
0.199675
0.195895
0.201319
0.201154
0.19836
0.200661
0.20099
0.199182
0.199675
0.195402
0.198689
0.199182
0.19836
0.199839
0.197374
0.198524
0.196388
0.200332
0.197374
0.198196
0.199675
0.198853
0.19836
0.198853
0.199182
0.196388
0.200332
0.19721
0.20099
0.198031
0.198524
0.197374
0.199839
0.197045
0.194744
0.197374
0.199346
0.198196
0.19573
0.200168
0.197703
0.200168
0.198196
0.20099
0.199018
0.198853
0.199675
0.200497
0.197703
0.199018
0.201319
0.197045
0.197045
0.199839
0.198524
0.198689
0.198853
0.199675
0.201812
0.197867
0.205921
0.195895
0.199839
0.20099
0.201812
0.198524
0.197045
0.198031
0.199018
0.196717
0.197374
0.194087
0.195402
0.197538
0.197867
0.202962
0.198196
0.199346
0.195566
0.202469
0.20099
0.200661
0.196717
0.19721
0.196881
0.195237
0.196059
0.196059
0.200497
0.19573
0.200332
0.198689
0.20099
0.199346
0.201647
0.20099
0.199182
0.200168
0.200497
0.19836
0.196388
0.198689
0.199018
0.200332
0.195073
0.201154
0.196552
0.197703
0.20214
0.200825
0.19721
0.199511
0.201319
0.199511
0.199511
0.200004
0.199675
0.197374
0.198689
0.19836
0.203455
0.198524
0.202305
0.201483
0.200332
0.199511
0.200497
0.200661
0.197867
0.197045
0.202305

Kurve 4

0.001296
0.003761
0.000803
0.002447
0.003926
0.002775
0.006556
-0.001662
0.000146
0.000967
0.004255
0.003926
0.008692
0.001789
0.003761
0.005076
0.003104
0.002611
0.003104
0.001954
0.002118
0.005898
0.001954
0.002118
0.00146
0.002447
0.00146
0.003597
0.001132
0.006227
0.001789
0.004419
-0.001498
-0.003306
0.002118
-0.003142
-0.000676
0.00031
0.00294
-0.002813
0.003268
0.000803
0.001789
0.00146
0.003268
0.001625
0.001954
0.006556
0.003268
0.004419
0.001625
0.003433
-0.000841
0.003104
0.001789
-0.000841
0.000803
-0.000676
-0.003963
-0.000676
0.004912
0.002447
0.002611
0.002447
0.002611
0.002775
0.002447
0.000146
-0.001169
0.000474
0.001789
0.00294
0.001625
0.000474
0.002118
-0.002484
0.000146
0.001132
0.000967
0.000146
0.00146
0.000146
-0.00347
-1.9e-05
-0.002813
-0.001662
-0.002155
-0.001334
-1.9e-05
-0.001498
-0.003799
0.002118
-0.000512
0.000967
0.002611
-0.000512
0.001625
0.00031
0.007049
0.001789
0.002447
0.000474
0.004255
0.000639
0.003433
0.001296
0.002611
-0.000676
-0.000183
-0.001498
0.000967
0.002447
-0.000183
0.002611
0.001132
0.003104
0.00031
0.002611
-1.9e-05
-0.001827
-0.003142
0.00146
0.002118
0.00031
0.003597
0.001625
0.001625
0.003597
0.003433
0.000967
0.003104
0.000474
0.002447
0.00031
0.002447
0.001954
0.001296
0.000803
0.002447
0.003926
0.002611
0.002775
0.001954
0.001132
0.001296
0.002282
0.000639
0.004583
-0.000676
0.008199
0.004255
-0.001498
0.00031
0.009514
0.010336
0.001625
0.000146
0.000967
0.002775
0.004748
0.006556
-1.9e-05
-0.000841
-0.001498
0.00294
0.004255
0.00031
0.000967
0.006391
0.006884
0.009185
0.021841
0.019868
0.008363
-1.9e-05
-0.001827
0.000146
-1.9e-05
-0.005771
0.00146
-0.001169
0.008528
-0.002155
0.017403
0.021676
0.00146
0.003926
0.005076
0.007213
-0.000676
0.003761
0.007706
-0.000347
-0.003306
0.005569
0.000146
0.000474
-0.001991
-0.001334
-0.001334
-0.001169
0.002447
-0.000512
0.003104
0.000639
0.003268
-0.000676
0.002282
-0.004456
-1.9e-05
-0.000676
-0.004621
-0.002648
-0.001498
-0.004128
-0.001827
-0.000841
-0.000841
-0.001991
-0.004292
-0.00232
-0.002648
-0.003635
-0.001005
0.006227
-0.005607
0.00294
-0.000676
0.003104
0.002775
-0.005607
-0.001005
-0.002648
-0.005936
-0.00232
-0.002155
-0.002484
-0.001005
-0.004292
-0.000841
-1.9e-05
0.002118
0.000639
0.002447
-0.001991
0.003926
0.002611
0.001789
0.005405
-0.001662
-0.001827
0.00146
0.000967
0.000639
0.003597
0.001296
0.002775
0.001132
0.005405
0.002611
0.002611
-0.00232
0.000967
0.003597
0.001625
0.00294
0.004583
0.007213
0.00409
0.005734
0.002611
0.003104
0.001132
0.002775
0.004255
0.002775
0.005405
0.007377
0.004419
0.007049
0.000639
0.003926
0.005734
0.002775
0.005405
-1.9e-05
0.004255
-0.003142
0.004255
0.001296
0.000639
0.003761
0.001132
0.002118
0.003104
0.001296
0.00294
0.003597
0.002447
0.00935
0.004419
0.003926
0.001789
0.001625
0.001132
0.000803
-0.002155
-0.000841
-0.002155
0.001954
0.002611
0.001296
0.000639
0.001132
0.00294
0.000146
0.000474
0.002118
0.005076
0.000639
0.001954
0.002447
0.002775
-1.9e-05
-0.000183
0.000474
0.002282
0.003104
0.001789
0.001789
0.003433
0.005734
0.004912
0.003926
-0.000676
0.002611
0.000146
0.003926
0.000639
0.000146
0.003597
-0.003142
0.003926
0.002611
0.003104
-0.000347
0.001954
0.001789
0.002447
-0.002977
0.005241
0.000639
0.004583
0.002775
0.000639
-0.000676
0.00031
0.000146
-0.000183
-0.000183
-0.001827
0.000803
0.002282
0.001625
0.000146
0.000474
0.000146
0.00146
0.000474
0.002775
0.000803
-0.001662
-0.001991
-1.9e-05
-0.001498
0.000967
0.000803
-0.000512
0.003597
0.001954
0.001954
-0.000347
0.00031
-0.001827
0.002611
0.000967
0.000146
-0.001498
0.001789
0.00146
0.003104
0.003926
0.002447
0.001954
-1.9e-05
0.004419
0.003433
0.00031
0.006227
0.001954
-0.000347
0.007542
0.004255
0.007377
0.00787
0.003433
0.005569
0.004748
0.005569
0.005569
0.002447
0.003761
0.005898
0.003433
0.011486
0.0105
0.006062
0.005241
0.005569
0.004583
0.003761
0.003761
0.003926
0.005076
0.004912
-0.000512
-0.002977
0.002611
0.005405
0.00409
0.001789
0.00294
0.002447
0.003104
0.005405
0.003597
0.001296
0.002282
0.00409
0.000639
0.00294
0.00031
0.002118
0.003433
0.002611
0.00294
0.00409
0.001789
-0.000347
0.002282
0.000803
0.004583
0.003597
0.005734
-0.000347
0.00409
0.003761
-0.000183
0.003104
0.001132
0.000639
0.001954
-0.000676
-0.001169
0.00031
-0.001827
0.000803
-0.002813
-0.001005
-0.001005
-0.003306
-0.001169
-0.000347
-0.002484
0.003104
0.006391
-0.000347
0.001296
-0.000183
-0.004128
-0.002155
-0.001662
-0.00232
-0.001005
-0.005443
-0.00232
-0.003963
-0.002155
-0.003306
0.000474
-0.001334
0.001132
-0.000347
-0.000512
0.000146
-0.001334
0.00146
-0.001827
-0.000841
0.000639
0.001132
-0.00347
0.001132
-0.002648
-0.001991
-0.002813
0.003268
-1.9e-05
0.004255
0.000474
0.00031
0.003104
-0.001991
0.004748
0.002611
-0.002155
-0.001169
-0.002977
-0.001827
0.000639
-0.002977
0.000474
0.000146
0.002282
0.005076
-0.003635
0.003268
0.001789
0.003761
0.002118
0.002447
-0.00232
-0.000512
-0.000183
0.00031
-0.001498
-0.003306
-0.002155
-0.000841
-0.002155
0.003268
0.001296
-0.001498
0.00294
0.001296
0.002282
-0.002155
0.001132
-0.001662
0.00031
0.000146
0.001132
-0.001334
0.000803
0.003104
-0.002484
-0.000676
-0.000676
0.001625
0.000146
-0.000347
0.001296
0.001625
-0.001662
0.003433
0.000967
0.002118
0.000639
0.00146
-0.00232
-0.00347
0.001625
-0.001662
-0.001827
-0.005607
0.001789
0.00409
-0.002484
-0.000676
0.001132
-0.00347
0.001132
-0.001005
0.000803
0.002447
-0.000676
0.000639
0.000967
0.00146
0.002118
0.002775
-0.001334
0.006062
-0.000347
0.003926
0.000803
0.005898
0.002447
0.003433
0.005076
0.004419
0.007377
0.004583
0.001789
0.00146
0.007542
0.004912
0.005241
0.00409
0.008692
0.003597
0.00787
0.00672
0.003433
0.005241
0.006391
0.004583
0.005241
0.005241
0.005569
0.002611
0.004419
-0.001005
0.003926
0.001296
-0.001169
-0.000841
-0.001169
0.002118
0.002611
-0.000841
0.002775
0.001954
0.00031
0.000474
-0.000841
-0.001991
0.000639
-0.001005
0.001789
0.000639
-1.9e-05
-0.000183
0.000967
0.000639
-0.012017
-0.001334
0.001132
0.005569
0.000474
-0.001991
-0.000676
0.00672
0.001789
0.003433
0.003433
-0.004128
0.001789
0.002447
0.000639
-1.9e-05
-0.000512
-0.000676
0.000474
0.00031
0.001789
0.000146
0.00031
-0.001005
0.00146
-0.000347
0.002775
0.002447
0.004748
0.00294
0.003268
0.004912
0.003268
-1.9e-05
-0.001991
0.000146
-0.000347
0.001789
-0.000183
0.00031
0.002447
0.002447
-0.00347
0.003597
0.000803
-0.002648
-0.001334
0.000967
-0.000512
0.000639
0.000639
0.000146
0.00146
-0.000676
0.002775
0.000474
0.001625
-0.002813
0.002282
0.003597
-0.000841
-0.003799
-0.002155
0.000803
0.000146
0.000146
0.001789
0.000474
0.000967
0.001296
-0.001498
0.001296
-0.000676
0.000146
-0.000347
0.002282
0.001789
0.000639
0.000967
0.001132
-0.001169
0.000146
-0.002484
-0.003142
-1.9e-05
-0.001005
0.00031
0.000146
0.000967
-0.000676
-0.001991
-0.000347
0.001625
0.000967
0.001789
-0.000512
0.001625
0.003104
0.001625
0.001625
0.002775
0.000639
0.000639
-0.000347
0.000639
0.001789
0.004583
0.01428
0.020033
0.028251
0.034825
0.043371
0.046659
0.051918
0.060465
0.063423
0.075092
0.075421
0.086762
0.086104
0.093336
0.093336
0.10254
0.101554
0.106649
0.109936
0.114702
0.118647
0.115031
0.125057
0.127522
0.132124
0.131302
0.144615
0.14215
0.142479
0.142479
0.146752
0.145108
0.148231
0.152011
0.152669
0.158257
0.155956
0.163352
0.158586
0.16138
0.157928
0.152669
0.122427
0.069011
0.035318
0.00146
0.002775
0.00146
0.001296
0.00294
0.003433
0.00146
0.000967
0.00146
0.002775
-0.002484
-0.000183
0.00031
0.00031
-0.001005
0.003433
-1.9e-05
0.000967
0.002447
0.000967
0.000146
0.001954
0.003104
-0.002155
0.000474
-0.003799
0.002611
0.00146
0.002447
0.001789
0.003433
0.001132
0.004419
0.000474
0.001132
0.003597
0.001132
0.005241
0.000639
0.003104
0.007213
0.005241
0.00146
0.005076
0.005241
0.005405
0.00787
0.022005
0.026607
0.033674
0.04107
0.04748
0.056356
0.057671
0.065067
0.068189
0.073284
0.080516
0.087255
0.090542
0.105005
0.097281
0.104348
0.108457
0.111415
0.117003
0.121112
0.123413
0.127029
0.131138
0.129166
0.133603
0.135411
0.140835
0.139027
0.141164
0.146916
0.027593
0.005898
0.013952
0.024635
0.028415
0.033674
0.040084
0.049453
0.054712
0.057999
0.065724
0.073613
0.074106
0.081831
0.087419
0.090871
0.095801
0.100896
0.104019
0.105663
0.111908
0.115195
0.121934
0.121605
0.125879
0.128344
0.13311
0.131302
0.137877
0.137877
0.141821
0.141821
0.149875
0.152176
0.150697
0.151683
0.153655
0.154477
0.155956
0.160887
0.159901
0.163188
0.159408
0.166804
0.165817
0.169269
0.168283
0.170584
0.171241
0.176501
0.173049
0.175679
0.174693
0.175679
0.179952
0.176008
0.18061
0.185376
0.182253
0.180774
0.182582
0.180281
0.184883
0.182746
0.182582
0.18932
0.186198
0.186855
0.18817
0.191621
0.188499
0.189978
0.188334
0.191128
0.188499
0.189485
0.191128
0.19458
0.194744
0.194909
0.194416
0.193265
0.195402
0.196552
0.196552
0.194416
0.195566
0.196388
0.195402
0.192772
0.196717
0.191621
0.193594
0.194251
0.19573
0.196059
0.196717
0.193594
0.198031
0.204277
0.197538
0.199839
0.198031
0.198031
0.196388
0.199182
0.192279
0.200497
0.193265
0.199839
0.195566
0.196388
0.200332
0.20099
0.198689
0.20099
0.199675
0.19836
0.201483
0.199346
0.201319
0.198524
0.200497
0.198196
0.197867
0.193594
0.199511
0.198524
0.19836
0.200825
0.201647
0.201154
0.203291
0.201812
0.200825
0.203948
0.198853
0.20099
0.198853
0.200168
0.199182
0.20099
0.199182
0.199182
0.198689
0.199839
0.201976
0.197374
0.202305
0.203455
0.204934
0.200825
0.206907
0.200497
0.202633
0.204441
0.199346
0.200497
0.192443
0.20214
0.197374
0.201154
0.198853
0.203291
0.201647
0.202469
0.20362
0.204113
0.204934
0.20099
0.199182
0.204113
0.201976
0.203784
0.202305
0.201812
0.202305
0.202798
0.201976
0.203291
0.200004
0.201812
0.203948
0.20477
0.205592
0.203784
0.205592
0.203291
0.203455
0.204113
0.205099
0.20214
0.201812
0.203784
0.20099
0.203948
0.201154
0.201483
0.201319
0.206907
0.206085
0.204606
0.202962
0.205263
0.202633
0.203948
0.205592
0.203455
0.199839
0.20362
0.205921
0.20214
0.199182
0.200497
0.202469
0.196059
0.20362
0.201812
0.199675
0.202305
0.202633
0.201483
0.199675
0.206907
0.199839
0.201483
0.202305
0.201154
0.196552
0.202305
0.193101
0.198853
0.199675
0.199346
0.197045
0.196717
0.200168
0.198196
0.199182
0.196059
0.199182
0.194251
0.197703
0.197538
0.196388
0.196059
0.196059
0.195566
0.194416
0.19458
0.194416
0.197703
0.195402
0.199182
0.197538
0.197703
0.193922
0.196388
0.196881
0.200825
0.197703
0.198196
0.199675
0.200497
0.196388
0.196388
0.196059
0.197703
0.19836
0.197538
0.196223
0.196388
0.193594
0.203126
0.197374
0.198196
0.205099
0.199839
0.202469
0.198524
0.198031
0.194251
0.198196
0.202305
0.196881
0.199346
0.19721
0.200004
0.199346
0.199839
0.197703
0.199018
0.198031
0.201319
0.199182
0.200661
0.199675
0.19836
0.194416
0.196059
0.199018
0.195402
0.198031
0.198196
0.201319
0.197374
0.19836
0.20099
0.199182
0.198689
0.202469
0.196388
0.198524
0.196717
0.196552
0.200332
0.198853
0.199511
0.198031
0.202305
0.198524
0.196881
0.196881
0.196552
0.19836
0.199675
0.203291
0.200168
0.200332
0.19458
0.202633
0.199675
0.203291
0.204606
0.197703
0.199511
0.200332
0.194251
0.201319
0.19836
0.199018
0.199511
0.199018
0.201483
0.20477
0.198689
0.197867
0.20214
0.19721
0.194909
0.199018
0.200661
0.196223
0.199675
0.200168
0.205099
0.194416
0.198031
0.199346
0.19721
0.197045
0.195237
0.196059
0.199839
0.20099
0.19836
0.208222
0.197045
0.202305
0.200497
0.201483
0.199018
0.200332
0.19836
0.197538
0.201154
0.199511
0.194909
0.200004
0.200332
0.199511
0.201976
0.200497
0.199675
0.197867
0.200661
0.201976
0.199018
0.187841
0.197867
0.198524
0.197867
0.197374
0.197867
0.200497
0.196388
0.200825
0.200825
0.200825
0.191621
0.198853
0.199018
0.198689
0.200168
0.199839
0.200332
0.198031
0.200497
0.198524
0.198853
0.194416
0.19721
0.198853
0.20099
0.196223
0.204277
0.201647
0.199182
0.202469
0.20362
0.206742
0.199675
0.201483
0.201812
0.200004
0.199182
0.199346
0.196717
0.19836
0.199018
0.205099
0.200004
0.19721
0.198031
0.200004
0.200497
0.197703
0.203455
0.200168
0.198853
0.199346
0.199839
0.197538
0.200004
0.199182
0.200661
0.196881
0.199018
0.203784
0.20362
0.202469
0.201319
0.203126
0.199839
0.201812
0.199018
0.199182
0.196223
0.198689
0.196388
0.198524
0.197703
0.205099
0.202305
0.200661
0.202469
0.200332
0.203291
0.200332
0.20099
0.202798
0.202305
0.199018
0.200661
0.199346
0.201976
0.198853
0.202633
0.20099
0.000803
0.010336
0.014938
0.025128
0.033346
0.044358
0.04896
0.053069
0.06293
0.069669
0.068189
0.0769
0.079037
0.085776
0.092514
0.092679
0.101225
0.105005
0.106978
0.109936
0.120126
0.119962
0.128015
0.128508
0.129166
0.132617
0.135083
0.134261
0.138699
0.141328
0.143136
0.146588
0.147245
0.153655
0.155792
0.153655
0.155134
0.158914
0.159243
0.159901
0.160887
0.16516
0.166146
0.166804
0.166968
0.172556
0.173542
0.171077
0.175515
0.176008
0.175515
0.179459
0.178637
0.184554
0.18061
0.178637
0.185212
0.180938
0.182582
0.181431
0.184554
0.184554
0.186198
0.186198
0.189814
0.188499
0.187019
0.189649
0.187513
0.193101
0.187677
0.186526
0.187841
0.191457
0.191786
0.190635
0.191786
0.191293
0.193265
0.195073
0.193594
0.190964
0.197374
0.192772
0.192443
0.192936
0.193758
0.193429
0.192115
0.191293
0.19573
0.192936
0.1908
0.198031
0.196717
0.196717
0.197867
0.19721
0.197538
0.200168
0.198853
0.196223
0.200825
0.197538
0.196552
0.196388
0.196717
0.198031
0.197867
0.196223
0.197045
0.197045
0.199182
0.198031
0.197703
0.20099
0.199839
0.197703
0.19836
0.199346
0.205099
0.200825
0.19573
0.197703
0.200168
0.199182
0.19836
0.200497
0.196223
0.19721
0.199346
0.19721
0.195402
0.200004
0.198853
0.201483
0.19836
0.205921
0.198196
0.197703
0.198524
0.199675
0.198524
0.199018
0.199675
0.196388
0.20099
0.198031
0.201319
0.200497
0.202633
0.19836
0.200661
0.199511
0.199839
0.198524
0.200497
0.200168
0.201154
0.203291
0.197045
0.19836
0.193922
0.203948
0.197538
0.197045
0.200168
0.199839
0.201976
0.199839
0.200825
0.200004
0.201319
0.198689
0.201319
0.19721
0.193429
0.193758
0.195895
0.195895
0.195895
0.200661
0.198853
0.201319
0.201154
0.20214
0.199182
0.199511
0.198524
0.20214
0.199182
0.199839
0.199675
0.201319
0.197374
0.202305
0.199018
0.198853
0.197374
0.199182
0.19836
0.199511
0.197538
0.200004
0.200497
0.20099
0.202633
0.199182
0.201976
0.199018
0.201319
0.199346
0.19836
0.201319
0.198524
0.199018
0.199675
0.199346
0.201319
0.19836
0.197538
0.20099
0.199675
0.200332
0.198031
0.205263
0.202633
0.199182
0.195073
0.199675
0.194909
0.197867
0.198689
0.199839
0.19836
0.198524
0.20362
0.200168
0.199675
0.200661
0.20099
0.198524
0.20099
0.200168
0.201647
0.198853
0.195895
0.196388
0.201483
0.199839
0.19836
0.200168
0.19836
0.200168
0.19721
0.201154
0.200497
0.201976
0.201976
0.202798
0.199511
0.201154
0.201647
0.19836
0.199346
0.19721
0.198689
0.199675
0.197538
0.198031
0.203784
0.198853
0.199839
0.200497
0.202305
0.19836
0.199182
0.200497
0.201483
0.201647
0.200332
0.199018
0.196881
0.199346
0.197374
0.199511
0.196881
0.202962
0.199839
0.200825
0.198689
0.204606
0.202469
0.20214
0.200168
0.203784
0.198524
0.203784
0.198853
0.198196
0.200497
0.199675
0.202305
0.199675
0.200825
0.200332
0.203455
0.199018
0.200004
0.198853
0.201483
0.198196
0.201483
0.20362
0.186198
0.187184
0.186198
0.190635
0.188006
0.189649
0.187513
0.190471
0.190471
0.191457
0.195073
0.195237
0.191128
0.189814
0.193101
0.192115
0.192279
0.190142
0.194416
0.192772
0.194087
0.194909
0.196059
0.19458
0.195895
0.196388
0.193594
0.194744
0.197045
0.196717
0.197538
0.196881
0.203126
0.19458
0.195237
0.205427
0.20214
0.194744
0.199182
0.197703
0.196552
0.199839
0.199346
0.195566
0.197538
0.19836
0.199182
0.20099
0.195073
0.195566
0.198196
0.194087
0.196881
0.199511
0.200825
0.199018
0.199675
0.198689
0.190471
0.197045
0.196552
0.196881
0.196223
0.193265
0.190307
0.191293
0.196223
0.197374
0.197867
0.186362
0.19721
0.199182
0.198853
0.19836
0.196881
0.200332
0.196552
0.195566
0.198524
0.19573
0.190142
0.193594
0.195566
0.193265
0.201812
0.199182
0.200661
0.197374
0.201319
0.200661
0.19573
0.199018
0.195566
0.199018
0.19836
0.198689
0.195237
0.198196
0.196881
0.19836
0.198196
0.199018
0.198031
0.198689
0.201154
0.20099
0.199182
0.199182
0.200661
0.201647
0.199346
0.19573
0.196717
0.196059
0.200497
0.193594
0.196059
0.199675
0.200004
0.199018
0.20099
0.200497
0.20362
0.202798
0.199839
0.20099
0.19836
0.200661
0.198853
0.198196
0.19836
0.195237
0.196881
0.199018
0.196717
0.195895
0.197867
0.200332
0.196881
0.199839
0.203455
0.198524
0.201812
0.200825
0.199511
0.199839
0.196881
0.198196
0.198031
0.197045
0.198196
0.19836
0.201154
0.20099
0.199839
0.201976
0.200825
0.202305
0.199511
0.205263
0.200332
0.200332
0.199675
0.200332
0.200004
0.202305
0.19721
0.202798
0.200661
0.198689
0.200497
0.199018
0.203126
0.198689
0.203126
0.198689
0.201976
0.200004
0.20099
0.200825
0.194744
0.195895
0.200661
0.20099
0.199839
0.202962
0.201483
0.202305
0.200825
0.201483
0.201154
0.200825
0.198031
0.200332
0.201483
0.20099
0.20099
0.199346
0.200825
0.199346
0.201319
0.205263
0.199182
0.196388
0.201154
0.20099
0.199511
0.199675
0.197374
0.196717
0.201647
0.200497
0.200661
0.193758
0.198031
0.202962
0.199511
0.197703
0.19721
0.198524
0.199675
0.201154
0.199182
0.19721
0.195073
0.20099
0.19836
0.200825
0.201812
0.19836
0.198524
0.204606
0.202469
0.200661
0.203948
0.199839
0.202305
0.195237
0.198853
0.198031
0.196223
0.197045
0.198689
0.20214
0.197538
0.200661
0.198853
0.203291
0.19721
0.200825
0.198689
0.199675
0.200825
0.199018
0.199675
0.199511
0.196552
0.018718
0.008035
0.01576
0.024635
0.032688
0.040577
0.044029
0.050274
0.057342
0.065888
0.06671
0.076243
0.078873
0.083639
0.088734
0.094158
0.097774
0.100896
0.108128
0.110758
0.116346
0.118976
0.123578
0.127358
0.127851
0.135247
0.133768
0.137877
0.138863
0.140013
0.143301
0.144287
0.148231
0.14971
0.152833
0.153162
0.154477
0.159079
0.157928
0.160887
0.162202
0.165489
0.163845
0.169926
0.16894
0.171077
0.170584
0.16894
0.171734
0.172392
0.173707
0.17798
0.17798
0.177322
0.178473
0.178144
0.177487
0.172392
0.177651
0.180281
0.182089
0.183239
0.186362
0.184225
0.182746
0.185047
0.187841
0.185212
0.188827
0.18817
0.185212
0.190142
0.185376
0.192608
0.18817
0.187513
0.191128
0.195073
0.188992
0.188334
0.191786
0.196881
0.189156
0.1908
0.197374
0.193758
0.190635
0.192443
0.194087
0.187677
0.192115
0.192279
0.192608
0.194416
0.194416
0.195566
0.194416
0.195895
0.193758
0.195237
0.192279
0.195073
0.193101
0.196059
0.191786
0.192772
0.193922
0.193594
0.190635
0.194744
0.19573
0.193594
0.19721
0.193265
0.198031
0.196717
0.194744
0.202305
0.197703
0.197045
0.197045
0.197867
0.19836
0.194744
0.191457
0.196059
0.195402
0.193594
0.197867
0.198031
0.201647
0.195402
0.195237
0.200497
0.195073
0.199675
0.19573
0.201812
0.194416
0.198524
0.196388
0.199182
0.195402
0.198196
0.197703
0.197045
0.197374
0.198524
0.199839
0.200661
0.201812
0.200825
0.20214
0.197867
0.199839
0.198524
0.195073
0.196059
0.196552
0.192279
0.193265
0.198524
0.19721
0.198689
0.199018
0.20362
0.199018
0.201812
0.200168
0.199182
0.197703
0.200004
0.197045
0.197538
0.196717
0.194087
0.198853
0.195895
0.201483
0.197045
0.199511
0.197374
0.197867
0.206414
0.200661
0.200004
0.198689
0.201483
0.19721
0.194909
0.190471
0.189156
0.188006
0.191293
0.190964
0.192608
0.189156
0.193101
0.188499
0.196059
0.194416
0.192936
0.193429
0.19195
0.194744
0.194416
0.192936
0.188827
0.19195
0.190964
0.193758
0.192115
0.193429
0.193758
0.19458
0.19836
0.197538
0.197045
0.197867
0.197045
0.196717
0.199511
0.192279
0.193758
0.191457
0.195895
0.198031
0.197045
0.200004
0.196552
0.19458
0.196223
0.197538
0.203784
0.198196
0.19836
0.199182
0.197867
0.200332
0.196552
0.199018
0.196059
0.197538
0.197045
0.19458
0.199346
0.197538
0.19573
0.195402
0.197867
0.197867
0.199018
0.199018
0.200332
0.196223
0.200497
0.193265
0.195237
0.196223
0.195237
0.197538
0.19573
0.197538
0.199018
0.198196
0.19721
0.196717
0.195566
0.196059
0.19458
0.195402
0.191457
0.192772
0.187513
0.186526
0.186691
0.183239
0.180281
0.176008
0.175021
0.169433
0.115031
0.046987
0.016746
0.000803
0.000639
0.001625
0.001132
0.000803
0.002447
-0.001005
0.002447
0.001296
0.002447
0.000146
0.000146
-1.9e-05
0.000146
-0.003799
0.000639
0.00146
0.000967
0.003104
0.00146
0.001789
0.003926
0.005076
0.003597
0.004583
0.008035
0.021019
0.02595
0.030716
0.041728
0.04633
0.051589
0.058985
0.065395
0.069669
0.076407
0.075421
0.082653
0.091364
0.092679
0.095473
0.10139
0.103033
0.109772
0.11651
0.117661
0.122427
0.122592
0.128673
0.130316
0.129495
0.128673
0.138041
0.13196
0.140342
0.146259
0.146588
0.147409
0.150697
0.153984
0.156778
0.158421
0.159736
0.164996
0.159079
0.16516
0.166639
0.165817
0.164174
0.167132
0.167461
0.169762
0.167297
0.169762
0.170255
0.168612
0.176501
0.176501
0.180774
0.181431
0.180774
0.183239
0.180774
0.181267
0.180938
0.17798
0.184225
0.18439
0.183075
0.18817
0.183568
0.186526
0.188006
0.187348
0.186855
0.189978
0.189156
0.191293
0.190964
0.190964
0.190964
0.191457
0.192443
0.191293
0.191786
0.189978
0.191786
0.192608
0.192772
0.192115
0.196552
0.191457
0.199182
0.193594
0.196223
0.194416
0.19573
0.195402
0.193265
0.191457
0.192772
0.195073
0.193429
0.194744
0.193922
0.198031
0.195237
0.196059
0.19721
0.196881
0.196223
0.197703
0.196223
0.197867
0.199839
0.19573
0.195566
0.196059
0.199346
0.199346
0.201154
0.194416
0.198031
0.194909
0.199675
0.19195
0.197703
0.197867
0.196881
0.197045
0.196717
0.200332
0.202305
0.20099
0.198524
0.199182
0.197374
0.197045
0.195402
0.197538
0.194251
0.194251
0.198196
0.196388
0.19458
0.201154
0.199346
0.199018
0.197045
0.194744
0.197374
0.196717
0.196552
0.198524
0.201154
0.196223
0.201483
0.197867
0.198853
0.196552
0.196552
0.198689
0.199675
0.196223
0.199839
0.201812
0.198689
0.20099
0.19836
0.202633
0.199018
0.200332
0.196059
0.200661
0.196388
0.196223
0.193101
0.19721
0.200661
0.195566
0.198853
0.198031
0.201483
0.195895
0.201319
0.198031
0.198524
0.197867
0.198524
0.19836
0.194087
0.20099
0.193594
0.196059
0.197374
0.199182
0.198031
0.199182
0.19836
0.200661
0.198853
0.202633
0.202798
0.196223
0.19573
0.196552
0.196717
0.194416
0.196388
0.197703
0.199018
0.198853
0.202962
0.193758
0.195895
0.198031
0.200332
0.198031
0.202962
0.195402
0.197703
0.200661
0.198853
0.198196
0.186198
0.198689
0.195402
0.200825
0.199675
0.201647
0.197703
0.199018
0.201154
0.200004
0.195895
0.192772
0.197867
0.196552
0.202962
0.19836
0.196223
0.197703
0.198689
0.197538
0.199839
0.19721
0.199182
0.195895
0.199018
0.198524
0.195895
0.197703
0.19721
0.19836
0.197538
0.198689
0.19573
0.202962
0.196223
0.201483
0.197867
0.199018
0.199675
0.199511
0.196717
0.199346
0.199182
0.198689
0.201483
0.199675
0.201154
0.196717
