Ladekurvenmessung

Zeit: 2018_05_02 10.57.40

Info: Messung der gesamten Kapazität des System (Mit Kugel, Scheibe im Prüfkopf, ohne Last) auf der sauberen Seite (45 Grad gegen Cr Seite)

Ladewiderstand[Ohm]: 1012700

Störkapazität[nF]: 0.000000

Entladezeit[ms]: 100

Abtastrate[Hz]: 250000

Anzahl der Messwerte: 2500

Verzögerung [ms]: 1


Kurve 1

-0.000814
-0.000452
-0.000387
0.00037
-0.00088
0.000502
-0.000584
-0.000255
-0.001735
-0.001176
0.001653
-0.00213
-0.001374
8e-06
-0.002657
-0.000584
-0.000222
-0.001933
0.000304
-0.002262
-0.000222
-0.000288
-0.000781
-0.001472
-0.000419
-0.002163
-0.002558
-0.001571
-0.003676
-0.002492
-0.00088
-0.001703
-0.003051
0.000502
-0.001999
0.000304
-0.002755
0.000206
8e-06
-0.001505
-0.001374
-0.002657
-0.001768
-0.001538
-0.005914
-0.001439
-0.002624
-0.002525
-0.000814
0.000107
-0.001341
-0.003347
-0.001275
-9e-05
-0.0019
-0.000781
-0.00088
-0.002426
-0.001406
-0.003841
-0.002393
-0.002525
-0.00292
-0.000748
-0.003676
-0.002295
-0.002328
0.000666
-0.003183
0.000173
-0.003578
-0.002624
-0.001439
-0.003907
-0.001505
-0.001472
-0.001143
-0.002854
-0.001966
-0.004828
-0.001867
-0.002624
-0.003183
-0.004236
-0.007328
-0.004598
-0.001308
-0.002393
0.000864
-0.001275
-0.001472
-0.001308
-0.001768
-0.001538
-0.002657
-0.001999
-0.003578
-0.000683
-0.002558
-0.002295
-0.001637
8e-06
-0.002064
-0.000781
-0.002755
0.000403
0.002443
-0.000551
0.001061
-0.00292
-0.000551
-0.001768
-0.001505
-0.003578
-0.001637
-0.00394
-0.002558
-0.00292
-0.001768
-0.001472
-0.00088
-0.000913
-0.000748
-0.002986
-0.001999
-0.000255
-0.003315
-0.003117
-0.001768
-0.001538
-0.00338
-0.000979
-0.00338
-0.005124
-0.00167
-9e-05
-0.003282
-0.003282
-0.002492
-0.001735
-0.000354
-0.002328
0.000469
-0.00111
-0.001834
0.000436
-0.002032
-0.003347
-0.001143
-0.002689
-0.001341
-0.001966
-0.002525
-0.000288
-0.001801
0.000304
-0.004005
-0.001966
0.00014
-0.001012
-0.001077
0.000765
-0.000913
-0.001604
-0.002196
-0.002986
-0.002492
-0.002854
-0.002032
-0.002591
-0.000485
-0.002032
-0.001045
-0.001472
-0.000584
-0.001999
0.000271
-0.001472
-0.001406
-0.002328
-0.003282
-0.004236
-0.003545
-0.004137
-0.004104
0.000206
-0.001143
0.000271
-0.000485
-0.001045
-0.001703
0.00014
-0.001637
0.000798
-0.001801
0.001258
-0.000617
-0.002163
-0.001012
-0.001176
-0.001308
-0.004729
-0.002163
-0.000189
-0.002887
-0.00496
0.000206
-0.002492
0.000502
-0.0019
0.001587
-0.001012
-0.00213
-0.001801
-0.001735
-0.002459
-0.001604
-0.00236
-0.003775
-0.002229
-0.002591
-0.000518
-0.003446
-0.002262
-0.00213
-0.000814
-0.001604
0.000502
-0.002163
-0.003611
-0.002689
-0.00292
-0.003611
-0.001406
-0.000847
-0.002525
0.001028
-0.003347
-0.000156
-0.003775
-0.00111
-0.001538
-0.001538
-0.000387
-0.002262
0.000173
-0.000452
-0.001308
-0.001143
-0.000518
-0.00236
0.004219
0.010602
0.01807
0.024847
0.038007
0.038928
0.046988
0.057878
0.060082
0.069623
0.075775
0.080709
0.087191
0.090842
0.09479
0.102028
0.105285
0.111207
0.112161
0.117688
0.119399
0.124663
0.124498
0.130288
0.136111
0.136539
0.139796
0.142527
0.144139
0.145224
0.14881
0.148942
0.151508
0.153285
0.157397
0.157463
0.160687
0.162069
0.163483
0.164865
0.167464
0.16957
0.170326
0.172103
0.173287
0.173353
0.174833
0.177663
0.1774
0.181907
0.178255
0.180393
0.181676
0.183815
0.183091
0.185065
0.184473
0.18467
0.184933
0.185262
0.187105
0.185098
0.186381
0.186447
0.191053
0.18819
0.189572
0.190625
0.189605
0.190395
0.189671
0.190395
0.191645
0.189605
0.190954
0.192237
0.190691
0.191744
0.190559
0.193454
0.190428
0.194935
0.19375
0.193323
0.195231
0.197007
0.194672
0.194277
0.19533
0.195132
0.194902
0.194902
0.196152
0.193849
0.195264
0.194573
0.195757
0.195001
0.194507
0.197073
0.197731
0.196547
0.19931
0.198718
0.19602
0.200692
0.196185
0.19454
0.195231
0.197534
0.195264
0.197271
0.195823
0.196152
0.196053
0.197369
0.197205
0.198258
0.196876
0.197961
0.198916
0.19556
0.198718
0.196613
0.197205
0.19704
0.197336
0.195691
0.199376
0.198126
0.194277
0.192171
0.195461
0.196909
0.197764
0.198784
0.199409
0.201416
0.198356
0.199771
0.197929
0.199738
0.197665
0.198159
0.196316
0.198323
0.19681
0.197797
0.198619
0.198751
0.198323
0.19987
0.198126
0.196481
0.197435
0.198619
0.197764
0.195132
0.201449
0.199541
0.199771
0.196481
0.199014
0.195823
0.197106
0.197961
0.196777
0.199047
0.197139
0.198916
0.19783
0.199212
0.197994
0.199541
0.198225
0.199639
0.19806
0.199409
0.195165
0.19602
0.19783
0.193882
0.196514
0.193125
0.197929
0.198225
0.201515
0.199573
0.200429
0.198685
0.200264
0.19829
0.199672
0.198948
0.198652
0.198883
0.198718
0.196974
0.197139
0.198751
0.196382
0.198027
0.196448
0.195856
0.197698
0.200133
0.197435
0.202008
0.202633
0.199902
0.20135
0.1976
0.199804
0.196645
0.196942
0.195659
0.19806
0.195626
0.196974
0.196942
0.197632
0.197271
0.19908
0.198784
0.199113
0.197632
0.199047
0.19931
0.197435
0.199573
0.198159
0.198488
0.197172
0.196349
0.195691
0.194869
0.196382
0.199639
0.197632
0.201515
0.197929
0.197764
0.200791
0.198258
0.198258
0.197731
0.199047
0.19783
0.197994
0.198389
0.199277
0.194244
0.197468
0.197007
0.198948
0.19783
0.198587
0.200593
0.196678
0.197007
0.199573
0.196448
0.196974
0.199277
0.197961
0.198817
0.197238
0.198389
0.198784
0.197369
0.197698
0.19783
0.198488
0.195757
0.200495
0.198916
0.198587
0.199672
0.198159
0.197271
0.197665
0.196382
0.199804
0.197106
0.197567
0.195461
0.195889
0.195626
0.198554
0.198192
0.197863
0.199508
0.201317
0.197369
0.199573
0.20112
0.192632
0.201613
0.199376
0.198619
0.198554
0.199245
0.195856
0.199245
0.198619
0.198258
0.197961
0.198258
0.200231
0.195264
0.201284
0.197764
0.200528
0.196481
0.19987
0.197238
0.199179
0.199573
0.199343
0.197468
0.197797
0.197435
0.198258
0.198455
0.196349
0.199343
0.198784
0.198916
0.197863
0.195955
0.196152
0.197139
0.196448
0.19829
0.199738
0.198258
0.195033
0.196909
0.196909
0.198093
0.198389
0.197238
0.198981
0.198192
0.198455
0.198422
0.199245
0.198488
0.20135
0.197534
0.198159
0.200034
0.200857
0.196777
0.200725
0.199245
0.197139
0.19908
0.197501
0.202765
0.197731
0.198521
0.198587
0.19806
0.197961
0.199804
0.198389
0.197994
0.198521
0.198093
0.199541
0.195988
0.198619
0.198159
0.199014
0.195527
0.199179
0.198981
0.199179
0.19931
0.199639
0.200034
0.198027
0.19579
0.200758
0.196711
0.195659
0.198948
0.196777
0.198718
0.197501
0.198488
0.197106
0.200462
0.196777
0.198225
0.1976
0.198323
0.199376
0.197501
0.19931
0.198422
0.20362
0.198685
0.202502
0.200791
0.196547
0.19885
0.200297
0.194737
0.19681
0.195856
0.196218
0.195724
0.195395
0.198258
0.198455
0.199245
0.197501
0.199475
0.19806
0.199245
0.198126
0.199277
0.198422
0.198192
0.195231
0.197007
0.196349
0.196777
0.196251
0.19602
0.200166
0.194968
0.195889
0.197303
0.2001
0.197501
0.198685
0.198751
0.199804
0.199146
0.201218
0.195461
0.198488
0.197698
0.197567
0.19885
0.197007
0.199508
0.197665
0.197073
0.203587
0.199442
0.200199
0.198817
0.197205
0.2001
0.19931
0.198192
0.198652
0.196415
0.19908
0.198093
0.198159
0.196843
0.198817
0.199606
0.196284
0.197139
0.199573
0.198323
0.200922
0.197402
0.200067
0.198521
0.198455
0.197402
0.197501
0.197271
0.196152
0.195428
0.195856
0.197994
0.195198
0.195099
0.196119
0.198422
0.198093
0.199573
0.1976
0.198587
0.200922
0.196942
0.199245
0.197468
0.199935
0.198817
0.200034
0.197369
0.197534
0.197863
0.202567
0.198488
0.199935
0.199146
0.197731
0.198652
0.199672
0.197731
0.198587
0.200001
0.203291
0.199212
0.198323
0.199179
0.195922
0.199245
0.195395
0.197698
0.197929
0.19806
0.201153
0.199376
0.200889
0.201679
0.19987
0.198323
0.200133
0.195527
0.197731
0.196974
0.197534
0.194704
0.19783
0.197205
0.194474
0.197764
0.197468
0.198554
0.199113
0.198389
0.198981
0.199672
0.198093
0.200264
0.19658
0.199245
0.198455
0.198521
0.19681
0.198718
0.200692
0.20033
0.196909
0.197731
0.198126
0.197303
0.198751
0.198751
0.200429
0.20033
0.200133
0.195198
0.19681
0.198455
0.194573
0.197073
0.197369
0.198159
0.195494
0.197369
0.196251
0.198554
0.199146
0.200264
0.199113
0.199705
0.197929
0.198619
0.196645
0.195593
0.197994
0.197797
0.196909
0.197764
0.19477
0.197863
0.197534
0.197435
0.199376
0.198718
0.198619
0.198323
0.200462
0.198685
0.200791
0.199245
0.199442
0.199409
0.199212
0.199738
0.197731
0.203752
0.198422
0.199606
0.197534
0.199705
0.198883
0.196974
0.197336
0.201054
0.197468
0.197896
0.195823
0.19885
0.19783
0.199245
0.198685
0.196711
0.198225
0.199113
0.197303
0.197271
0.195527
0.196645
0.19681
0.199014
0.198784
0.198948
0.200133
0.198587
0.20033
0.198126
0.198126
0.197501
0.198093
0.19829
0.196415
0.197567
0.198948
0.198027
0.197632
0.198554
0.198652
0.198685
0.198916
0.200593
0.200067
0.199212
0.199935
0.196284
0.199245
0.197501
0.200429
0.199277
0.19783
0.198554
0.200857
0.200133
0.19908
0.199113
0.198488
0.199277
0.202436
0.200166
0.199047
0.20158
0.197073
0.201317
0.198784
0.198389
0.197172
0.199672
0.19431
0.198389
0.195955
0.197764
0.197336
0.197402
0.19931
0.198159
0.195659
0.198817
0.199541
0.198027
0.199771
0.199606
0.200264
0.199541
0.199277
0.197665
0.199541
0.196514
0.197665
0.200166
0.195626
0.199705
0.19908
0.19908
0.198883
0.200396
0.196316
0.198422
0.19806
0.200495
0.197929
0.198455
0.198784
0.200824
0.198323
0.197896
0.199672
0.197271
0.19987
0.202633
0.197764
0.200429
0.198323
0.197764
0.198817
0.202205
0.201153
0.199014
0.198916
0.197534
0.196514
0.198916
0.198159
0.198488
0.19556
0.197435
0.19704
0.196218
0.1976
0.201317
0.198323
0.19885
0.199771
0.200659
0.199179
0.198685
0.198587
0.199014
0.197435
0.199245
0.199902
0.197369
0.200297
0.196514
0.199343
0.197336
0.2026
0.197961
0.199639
0.199804
0.198981
0.200396
0.197863
0.200857
0.199343
0.197073
0.197797
0.197665
0.196876
0.200692
0.195724
0.196843
0.198323
0.19885
0.198817
0.202469
0.202107
0.198718
0.204607
0.198554
0.197369
0.197139
0.200133
0.198587
0.196415
0.195231
0.199804
0.195231
0.196777
0.195165
0.197369
0.199277
0.198981
0.200462
0.20237
0.198225
0.198718
0.201449
0.198685
0.199672
0.199475
0.198948
0.196086
0.199771
0.196777
0.198323
0.199935
0.201416
0.201087
0.2001
0.199245
0.20033
0.201054
0.199508
0.200988
0.200495
0.198554
0.198455
0.198521
0.19908
0.195988
0.195231
0.196942
0.20158
0.195823
0.201811
0.200659
0.198356
0.199541
0.2001
0.199179
0.199277
0.197698
0.199738
0.199573
0.196316
0.1976
0.197369
0.198981
0.198225
0.199212
0.199113
0.200166
0.19931
0.199245
0.198356
0.200199
0.198554
0.20135
0.199047
0.201482
0.20339
0.197764
0.197172
0.198981
0.199508
0.197665
0.194672
0.195527
0.200231
0.196645
0.200363
0.198488
0.201844
0.199409
0.20056
0.198817
0.199541
0.198718
0.19885
0.196119
0.196645
0.200758
0.194902
0.196711
0.198521
0.200166
0.198192
0.199376
0.201613
0.197468
0.201054
0.199113
0.198554
0.201547
0.199705
0.198784
0.19987
0.197468
0.196613
0.196942
0.197961
0.196218
0.197698
0.197369
0.198817
0.198652
0.196843
0.199146
0.200396
0.197665
0.199771
0.201021
0.199672
0.200758
0.196711
0.201383
0.200791
0.199738
0.19987
0.199014
0.197567
0.198422
0.198455
0.198718
0.199606
0.19908
0.199409
0.199343
0.200001
0.197896
0.200133
0.199343
0.20566
0.200528
0.200889
0.198718
0.199573
0.197303
0.198718
0.199541
0.198159
0.200231
0.198488
0.196316
0.197007
0.197698
0.196909
0.199277
0.199804
0.199672
0.200692
0.198554
0.197665
0.201383
0.198455
0.200231
0.199047
0.19806
0.200922
0.199376
0.201021
0.200067
0.200889
0.199179
0.200396
0.20033
0.200922
0.199245
0.20033
0.199212
0.202271
0.200297
0.201778
0.197402
0.198619
0.199245
0.198192
0.197764
0.197534
0.200264
0.198422
0.201515
0.199047
0.200133
0.200528
0.200067
0.198126
0.198422
0.198948
0.198587
0.199639
0.198093
0.19329
0.197665
0.195691
0.196053
0.199113
0.198027
0.198981
0.199541
0.202205
0.198916
0.200429
0.199968
0.19987
0.199047
0.199573
0.199606
0.197567
0.200495
0.198751
0.199672
0.198521
0.199804
0.198883
0.200857
0.199902
0.199804
0.200199
0.198817
0.199837
0.198488
0.204311
0.199837
0.2001
0.199935
0.199573
0.197797
0.199409
0.197632
0.197665
0.200001
0.199935
0.199277
0.200988
0.20033
0.198521
0.200067
0.198455
0.199475
0.198093
0.199738
0.199738
0.200034
0.192731
0.199541
0.197731
0.196777
0.197271
0.198883
0.200001
0.199837
0.202173
0.196514
0.200231
0.199672
0.200659
0.198323
0.199212
0.197501
0.201054
0.196876
0.199277
0.199212
0.198751
0.200133
0.199475
0.199804
0.200067
0.20033
0.200626
0.20056
0.198093
0.198751
0.200166
0.199277
0.197139
0.199014
0.198685
0.197007
0.199541
0.196185
0.200297
0.199014
0.200429
0.198948
0.199804
0.20056
0.200857
0.201515
0.203291
0.200133
0.200067
0.197863
0.200199
0.197501
0.198784
0.202041
0.196678
0.197731
0.198883
0.198981
0.198817
0.200626
0.199442
0.201251
0.198093
0.199837
0.201021
0.200593
0.198718
0.197863
0.203094
0.197007
0.204377
0.193224
0.200659
0.198422
0.198554
0.197567
0.199212
0.20056
0.203094
0.198488
0.198521
0.200396
0.19806
0.198455
0.198455
0.198258
0.197961
0.19987
0.196744
0.199343
0.195297
0.200297
0.199113
0.198159
0.199409
0.200199
0.199672
0.197534
0.199179
0.195823
0.202798
0.194803
0.19533
0.198916
0.196547
0.196316
0.199606
0.19829
0.199573
0.199277
0.199573
0.199639
0.200922
0.201021
0.200725
0.201021
0.198784
0.200166
0.198751
0.198916
0.198422
0.199146
0.200264
0.199212
0.2001
0.197534
0.196974
0.203785
0.200363
0.202633
0.200363
0.200396
0.200857
0.198619
0.200889
0.197698
0.199179
0.198027
0.199606
0.199245
0.199902
0.198488
0.198652
0.198258
0.198652
0.197073
0.199935
0.198422
0.19829
0.19908
0.193619
0.201416
0.197929
0.199442
0.198685
0.199014
0.198488
0.199475
0.197994
0.199573
0.198916
0.199705
0.199639
0.199573
0.200297
0.199343
0.201482
0.198422
0.201251
0.198883
0.2001
0.199837
0.199738
0.1976
0.199146
0.197468
0.200264
0.198981
0.202337
0.197501
0.202107
0.199606
0.200955
0.203686
0.199146
0.19908
0.198817
0.199343
0.198159
0.199475
0.198652
0.198356
0.198718
0.19885
0.199804
0.197731
0.205726
0.200231
0.199672
0.198784
0.2001
0.198817
0.198784
0.197632
0.198488
0.198652
0.198323
0.196974
0.201515
0.197106
0.197172
0.199902
0.196514
0.20056
0.197435
0.19931
0.198652
0.200791
0.198455
0.199968
0.199146
0.201021
0.199442
0.198587
0.200034
0.197468
0.19806
0.196974
0.200692
0.192204
0.198356
0.197271
0.197402
0.19806
0.199409
0.198258
0.202469
0.198455
0.199146
0.205397
0.198817
0.198225
0.199606
0.199541
0.199212
0.199475
0.200758
0.198389
0.197534
0.197896
0.196481
0.19454
0.199376
0.19908
0.19806
0.197073
0.201449
0.199442
0.203258
0.200231
0.199146
0.200462
0.200199
0.19783
0.200001
0.199442
0.199245
0.198488
0.200528
0.199245
0.199968
0.199935
0.199475
0.200133
0.200264
0.201482
0.200495
0.201613
0.200528
0.20362
0.197402
0.199902
0.198126
0.198422
0.200988
0.195428
0.199771
0.199639
0.199738
0.199376
0.201284
0.19987
0.203785
0.196218
0.200988
0.201712
0.197238
0.198488
0.197863
0.195922
0.198192
0.197929
0.200791
0.202765
0.200758
0.201251
0.200429
0.20033
0.19987
0.202074
0.200166
0.200231
0.199771
0.200199
0.200396
0.201646
0.199573
0.200429
0.199968
0.199672
0.201054
0.202238
0.198718
0.197435
0.199968
0.198685
0.201547
0.199902
0.203949
0.200462
0.204739
0.20112
0.199968
0.199475
0.199804
0.199672
0.198652
0.200199
0.199212
0.202041
0.197073
0.202765
0.199902
0.201186
0.199804
0.198587
0.198455
0.199376
0.200297
0.199968
0.19931
0.197961
0.197567
0.196053
0.197468
0.199343
0.197961
0.198751
0.201482
0.200462
0.202008
0.20135
0.200528
0.200922
0.19987
0.200725
0.199113
0.199771
0.199705
0.200528
0.199047
0.20158
0.20158
0.201942
0.200231
0.201515
0.20135
0.200824
0.200626
0.203982
0.200166
0.202107
0.202173
0.200067
0.201317
0.198751
0.200791
0.197764
0.200297
0.199705
0.200593
0.200264
0.200528
0.200725
0.201547
0.196843
0.203719
0.20135
0.199573
0.201482
0.198225
0.198784
0.201284
0.196152
0.197238
0.200857
0.200396
0.200462
0.200528
0.20056
0.201317
0.201186
0.199245
0.20339
0.201975
0.200988
0.200462
0.199475
0.202041
0.19987
0.200396
0.200297
0.200429
0.201087
0.200264
0.200659
0.200495
0.20112
0.203192
0.200528
0.198455
0.203587
0.199738
0.202205
0.199902
0.200264
0.203225
0.198652
0.199672
0.19987
0.200824
0.199113
0.20033
0.199212
0.200626
0.196481
0.202534
0.2001
0.20214
0.199606
0.200429
0.198159
0.200166
0.199376
0.20237
0.200166
0.200955
0.199047
0.200626
0.201942
0.20033
0.201218
0.200791
0.200758
0.199475
0.201153
0.200396
0.202666
0.199639
0.201811
0.203028
0.197007
0.199212
0.199573
0.199902
0.198356
0.20135
0.199146
0.201844
0.198751
0.198751
0.201317
0.201515
0.200429
0.202436
0.199639
0.200692
0.201087
0.199146
0.20033
0.199047
0.201021
0.19885
0.199738
0.198784
0.199146
0.200363
0.200922
0.198554
0.199935
0.197994
0.20135
0.198817
0.199475
0.20237
0.199968
0.198027
0.199277
0.199902
0.198422
0.200725
0.197994
0.19931
0.198652
0.199968
0.200133
0.20214
0.19987
0.202436
0.200758
0.202765
0.202567
0.198883
0.200462
0.199343
0.200264
0.200001
0.204344
0.198751
0.200166
0.197698
0.201218
0.199902
0.200725
0.200528
0.199771
0.201021
0.199508
0.200199
0.199508
0.200791
0.199935
0.199409
0.198554
0.199804
0.194573
0.199113
0.197534
0.199705
0.196349
0.197435
0.201153
0.197698
0.199277
0.200528
0.199639
0.195889
0.201021
0.199935
0.201054
0.199672
0.199409
0.199475
0.200955
0.200001
0.200264
0.20135
0.199968
0.200396
0.201482
0.201251
0.202534
0.200889
0.200199
0.201712
0.199541
0.201745
0.200857
0.202238
0.201449
0.200692
0.202436
0.200692
0.200922
0.202699
0.200988
0.198784
0.201021
0.199606
0.202436
0.199442
0.202074
0.200264
0.202238
0.200199
0.201021
0.195527
0.199212
0.198389
0.199639
0.199672
0.198488
0.201153
0.196744
0.2001
0.198916
0.197073
0.200264
0.203423
0.200659
0.201844
0.203949
0.200363
0.201218
0.201054
0.20056
0.200034
0.20056
0.19783
0.200593
0.200001
0.20283
0.200001
0.201054
0.200396
0.201515
0.201317
0.201153
0.203521
0.200166
0.204278
0.200955
0.200363
0.20033
0.200988
0.197468
0.200889
0.198619
0.199277
0.200067
0.200429
0.201613
0.200429
0.199804
0.203028
0.199475
0.201745
0.198159
0.199179
0.20033
0.197632
0.199212
0.199113
0.19931
0.198455
0.196415
0.202041
0.201876
0.201317
0.203817
0.201712
0.200824
0.201021
0.200166
0.20214
0.199705
0.201021
0.199541
0.198027
0.196678
0.200231
0.197994
0.200001
0.198192
0.200231
0.200725
0.203192
0.199738
0.203817
0.204804
0.199113
0.201416
0.199902
0.199837
0.19908
0.199475
0.199179
0.199804
0.198027
0.199705
0.199771
0.200824
0.200692
0.200034
0.199968
0.202107
0.204673
0.20135
0.199771
0.201811
0.197007
0.198981
0.19806
0.198225
0.201811
0.197896
0.200659
0.201383
0.201909
0.200889
0.198587
0.20214
0.19806
0.200955
0.201054
0.199804
0.198817
0.202502
0.197797
0.198554
0.198948
0.199277
0.199409
0.198587
0.201087
0.199047
0.201416
0.200429
0.203357
0.198751
0.198652
0.200264
0.200988
0.199047
0.198488
0.200166
0.200231
0.197863
0.200988
0.200528
0.199409
0.200199
0.199475
0.200922
0.199672
0.199606
0.198883
0.203192
0.200001
0.199639
0.198488
0.200692
0.198356
0.198488
0.201975
0.199179
0.200922
0.201449
0.199705
0.19829
0.199771
0.196382
0.199113
0.199968
0.2026
0.200988
0.203192
0.205068
0.200528
0.200231
0.202699
0.199343
0.200429
0.201416
0.197994
0.201186
0.199672
0.201712
0.197863
0.198718
0.201153
0.201021
0.200199
0.200857
0.199935
0.199705
0.203686
0.199442
0.200791
0.199541
0.202995
0.198587
0.201218
0.199179
0.20033
0.198554
0.199606
0.195198
0.199738
0.199804
0.197961
0.199738
0.201218
0.200166
0.197369
0.201021
0.201021
0.201383
0.20214
0.198422
0.198093
0.199705
0.198948
0.198323
0.199343
0.201909
0.201153
0.203521
0.201383
0.202041
0.202271
0.200462
0.20283
0.197567
0.204212
0.199541
0.201186
0.200791
0.202304
0.201712
0.202205
0.200264
0.19987
0.201547
0.200133
0.200593
0.201054
0.200922
0.199935
0.202436
0.201218
0.202337
0.200758
0.200166
0.200231
0.201284
0.200889
0.201317
0.200067
0.200955
0.20033
0.201186
0.200725
0.199179
0.200824
0.199804
0.20112
0.198126
0.20158
0.198817
0.202041
0.202732
0.201153
0.200889
0.198751
0.200133
0.199014
0.202962
0.200067
0.201844
0.199606
0.200396
0.20237
0.200593
0.200889
0.20135
0.201021
0.19987
0.199541
0.199146
0.199705
0.200133
0.199738
0.199705
0.199475
0.199541
0.200692
0.199639
0.201218
0.19931
0.202271
0.200791
0.201383
0.201218
0.201515
0.201087
0.198192
0.20385
0.19931
0.201317
0.197896
0.202008
0.198356
0.200001
0.203686
0.198817
0.200791
0.202238
0.200593
0.20158
0.203785
0.20214
0.201811
0.204179
0.200363
0.198817
0.200264
0.198554
0.202173
0.200528
0.20158
0.199771
0.20214
0.200922
0.201811
0.200889
0.201416
0.197205
0.198521
0.204508
0.201186
0.198554
0.201876
0.204212
0.196974
0.200922
0.201383
0.198225
0.200824
0.200659
0.197402
0.202666
0.200528
0.200659
0.20158
0.202304
0.202337
0.20112
0.195428
0.198883
0.198455
0.199277
0.199245
0.197303
0.201383
0.200067
0.201745
0.202238
0.200429
0.201778
0.199935
0.202732
0.200199
0.203883
0.198587
0.201679
0.202008
0.202436
0.200758
0.200034
0.200528
0.200988
0.201021
0.199968
0.202238
0.200166
0.200889
0.203686
0.205331
0.200922
0.204508
0.201745
0.202732
0.202469
0.203028
0.196876
0.201153
0.19931
0.197435
0.200396
0.200396
0.200166
0.199968
0.203423
0.200824
0.201218
0.201054
0.203324
0.199968
0.202008
0.200889
0.197435
0.199442
0.200001
0.200297
0.199277
0.202896
0.199409
0.202173
0.20362
0.201613
0.201942
0.202074
0.2026
0.203159
0.202699
0.203653
0.200593
0.200988
0.201613
0.201547
0.201449
0.198356
0.199902
0.201087
0.205791
0.201186
0.202436
0.201449
0.204443
0.201087
0.205693
0.202304
0.2001
0.202436
0.199804
0.201745
0.202008
0.197369
0.201482
0.200758
0.201449
0.204739
0.200067
0.202732
0.198356
0.203192
0.202502
0.202699
0.199376
0.200297
0.20112
0.19987
0.194606
0.19704
0.198718
0.199804
0.204541
0.20033
0.202929
0.199541
0.202995
0.202173
0.202041
0.201975
0.199277
0.2026
0.202271
0.202863
0.200889
0.201284
0.202337
0.20237
0.207239
0.202567
0.200626
0.203159
0.199672
0.201745
0.199541
0.202403
0.20237
0.204048
0.201383
0.200791
0.201613
0.20135
0.202666
0.199935
0.203817
0.201646
0.201745
0.198258
0.204245
0.19885
0.200988
0.201876
0.199968
0.202107
0.201482
0.199212
0.198587
0.206318
0.20362
0.202962
0.200462
0.203159
0.202403
0.201844
0.201646
0.201087
0.20135
0.201284
0.201515
0.200199
0.200626
0.201416
0.201186
0.201186
0.203488
0.200857
0.204344
0.199245
0.199705
0.199146
0.202173
0.201811
0.201909
0.203982
0.200133
0.200462
0.201251
0.201021
0.199573
0.203423
0.199968
0.200133
0.201383
0.202962
0.202337
0.20237
0.202041
0.201482
0.200988
0.20158
0.201416
0.199672
0.19931
0.198159
0.200001
0.200297
0.201186
0.197863
0.198916
0.202238
0.202798
0.202929
0.203423
0.203817
0.199146
0.200264
0.202041
0.201218
0.200067
0.201745
0.199672
0.202008
0.199804
0.201087
0.200824
0.201844
0.201778
0.200001
0.203357
0.205265
0.201416
0.199573
0.200889
0.200166
0.201383
0.199409
0.201778
0.198652
0.200363
0.202173
0.199639
0.2001
0.201218
0.201482
0.202798
0.199541
0.202041
0.202863
0.199771
0.202995
0.200528
0.201416
0.200396
0.200922
0.198126
0.199442
0.200396
0.199212
0.201811
0.196843
0.200231
0.203456
0.200922
0.20056
0.20339
0.200593
0.20237
0.201515
0.201778
0.201547
0.200396
0.202502
0.202205

Kurve 2

0.002212
0.002805
-0.000518
0.000304
0.000765
-0.000189
-0.000716
-0.001604
-0.002262
-0.000551
-0.003347
-0.001341
-0.00111
-0.001176
0.000304
-2.5e-05
-0.001341
-0.000946
4.1e-05
-0.00167
0.001028
-0.000814
0.004219
0.001587
-0.000847
4.1e-05
-0.000979
-0.004038
-0.002196
-0.001538
-0.003183
-0.000452
0.001982
-0.000748
0.0006
0.001719
-0.002854
8e-06
-0.00065
0.000962
-0.001768
0.000798
-0.002262
-0.003907
-0.00394
-0.002788
-0.00338
-0.004663
-0.001406
-0.003545
-0.001637
-0.00065
0.001324
-0.002064
0.001028
-0.000551
-0.002163
-0.002064
-0.003249
-0.002525
-0.001834
-0.002887
-0.001999
-0.001406
-0.00338
-0.00065
-0.003018
-0.001735
-0.002624
-0.000321
-0.000847
0.001193
0.00037
0.002015
0.001193
-0.002229
-0.001867
-0.001571
-0.002657
-0.003413
-0.001768
-0.004038
0.003232
-0.004894
0.000897
-0.004071
-0.004104
-0.002953
0.001061
-0.001703
0.001883
-0.002459
-0.002788
-0.001341
-0.003644
-0.001538
-0.004565
-0.004104
-0.003676
-0.000584
-0.00236
-0.001439
-0.002229
-0.001801
-0.001341
-0.000321
-0.002657
-0.001143
0.000304
-0.001341
0.001752
-0.001933
-5.8e-05
-0.001604
0.000304
-0.000781
-0.001735
-0.002262
-0.00236
-0.001275
-0.001045
-0.000814
-0.002459
0.000239
0.001291
0.001028
-0.002459
0.000666
-0.001999
-0.001341
-0.002459
-0.001604
-0.002163
-0.000419
-0.003479
-0.005881
-0.003084
-0.003808
-0.00167
0.001291
-0.003216
-0.003084
-0.003808
-0.001867
-0.001045
-0.001966
-0.001801
-0.001604
-0.00338
-0.00111
-0.001505
-0.002689
-0.003315
-0.002064
-0.003117
-0.001604
-0.001604
0.000568
-2.5e-05
0.000633
-0.001242
0.00037
-0.001505
-0.001604
-0.001176
-0.000716
-0.004499
-0.001538
-0.003282
-0.002854
-0.003676
-0.001933
-0.000156
-0.005552
-0.002393
-0.002986
-0.000354
-0.002163
-0.00065
-0.002821
-0.001604
-0.0019
-0.001012
-0.003282
-0.001143
-0.005058
-0.002295
-0.001966
-0.002755
-0.000123
-0.003183
-0.001012
-0.001933
-0.001538
-0.002229
0.002476
-0.003578
-0.000419
-0.00315
-0.003051
-0.001538
-0.002328
-0.001604
-0.000617
-0.001176
-0.001341
0.002574
-0.000321
-0.001933
-5.8e-05
-0.001406
-0.002032
0.000337
-0.001143
0.000107
-0.000551
-0.003578
-0.001604
-0.001933
-0.001966
-0.001604
-0.002295
-0.001999
-0.002262
-0.00292
-0.005453
-0.00315
-0.002722
-0.003347
0.000107
-0.002262
-0.001637
-0.00088
-0.002196
-0.000321
-0.004104
0.000732
-0.000781
-0.000321
-0.002624
0.000107
-0.001867
-0.00315
-0.00338
-0.00111
-2.5e-05
-0.001966
0.000173
-0.002196
-2.5e-05
-0.00236
0.004976
0.011194
0.020208
0.028367
0.039454
0.03952
0.052186
0.052976
0.063372
0.069359
0.072814
0.081762
0.086829
0.091599
0.096369
0.101798
0.10489
0.110286
0.112819
0.118774
0.121471
0.125485
0.128643
0.132821
0.133973
0.136276
0.139763
0.139763
0.144205
0.148448
0.148843
0.153087
0.156936
0.15437
0.159766
0.160786
0.164701
0.16197
0.16503
0.163878
0.165655
0.164503
0.167004
0.166806
0.16957
0.175064
0.175327
0.176182
0.176807
0.178913
0.178847
0.183124
0.180558
0.182137
0.18138
0.180887
0.184572
0.185394
0.185197
0.184802
0.185789
0.186513
0.185986
0.185131
0.190757
0.187631
0.189835
0.188947
0.191447
0.190921
0.191776
0.191908
0.191053
0.18875
0.192007
0.191645
0.191809
0.192105
0.191118
0.192895
0.191316
0.194672
0.19375
0.19454
0.195593
0.194408
0.195231
0.194211
0.193092
0.193882
0.193717
0.19204
0.192533
0.19125
0.194277
0.19329
0.197172
0.194277
0.196349
0.196053
0.197896
0.197205
0.198093
0.196974
0.19806
0.200955
0.197632
0.196514
0.195494
0.197501
0.197271
0.197731
0.195988
0.198718
0.195955
0.196218
0.197303
0.196415
0.198093
0.201284
0.196415
0.198455
0.198784
0.198027
0.195724
0.19533
0.196876
0.196251
0.197797
0.195461
0.197534
0.196974
0.19658
0.198455
0.198784
0.196876
0.197205
0.197303
0.194606
0.198554
0.198554
0.197139
0.196415
0.196152
0.196448
0.196119
0.19556
0.197501
0.196316
0.197139
0.197402
0.19783
0.198685
0.198554
0.197205
0.196777
0.198981
0.197435
0.198488
0.197336
0.19885
0.199343
0.198685
0.197501
0.198916
0.196251
0.197468
0.197567
0.197303
0.199541
0.197501
0.199442
0.198027
0.200988
0.190395
0.197501
0.197172
0.199541
0.195889
0.198652
0.197007
0.198554
0.197501
0.198784
0.199639
0.195461
0.200001
0.197994
0.201416
0.19556
0.196415
0.195988
0.198192
0.197106
0.198225
0.196382
0.198159
0.195494
0.196481
0.196382
0.197567
0.198619
0.195066
0.199179
0.198093
0.197238
0.198323
0.199672
0.197929
0.20033
0.198521
0.200001
0.200166
0.20214
0.200231
0.198554
0.198685
0.19987
0.197534
0.196974
0.199212
0.197665
0.197665
0.197468
0.199409
0.197402
0.199804
0.199343
0.200725
0.194474
0.19681
0.197665
0.196481
0.198323
0.198323
0.200034
0.196349
0.198422
0.196481
0.195988
0.195988
0.198916
0.195922
0.196942
0.198225
0.200067
0.200034
0.198126
0.198751
0.196316
0.196514
0.19658
0.200199
0.195988
0.199014
0.19829
0.198587
0.19829
0.198488
0.198751
0.199475
0.198883
0.198883
0.199902
0.197961
0.19908
0.196974
0.199245
0.198619
0.198192
0.197073
0.200231
0.196876
0.197369
0.197238
0.198356
0.199146
0.199573
0.2026
0.200429
0.199804
0.198258
0.20112
0.196382
0.198619
0.19885
0.198751
0.194244
0.198521
0.195264
0.194244
0.197501
0.197172
0.197007
0.197567
0.199146
0.198619
0.199738
0.196382
0.197271
0.196119
0.198718
0.198751
0.197534
0.196086
0.198225
0.19704
0.197073
0.199376
0.197435
0.199672
0.196974
0.197567
0.199705
0.199376
0.19783
0.201712
0.198389
0.200922
0.198323
0.197797
0.197731
0.197534
0.196645
0.196185
0.198883
0.196349
0.196481
0.194836
0.197172
0.200363
0.200626
0.198619
0.201383
0.198652
0.198652
0.199606
0.196678
0.197698
0.199442
0.194968
0.197698
0.196185
0.195132
0.199376
0.196514
0.19806
0.198488
0.198619
0.204081
0.203785
0.197863
0.199409
0.19987
0.197665
0.199343
0.197369
0.198554
0.19704
0.199672
0.195395
0.2001
0.19704
0.197961
0.197369
0.197698
0.198126
0.200297
0.196415
0.198225
0.19931
0.197665
0.1976
0.196711
0.198455
0.197369
0.199639
0.196974
0.199409
0.196744
0.193816
0.197303
0.197929
0.197797
0.199014
0.197896
0.197731
0.199179
0.198455
0.197863
0.195231
0.196382
0.19658
0.197929
0.194935
0.197435
0.196053
0.198192
0.199606
0.196547
0.197271
0.19681
0.199573
0.198948
0.199014
0.199047
0.19987
0.199409
0.198488
0.198389
0.198192
0.196942
0.198817
0.197994
0.198192
0.197863
0.198652
0.199343
0.199606
0.198126
0.198192
0.20033
0.197698
0.199705
0.195922
0.199047
0.198225
0.194474
0.195757
0.20112
0.198126
0.199376
0.197632
0.198389
0.198488
0.196777
0.200659
0.198093
0.20135
0.197303
0.197929
0.194639
0.196678
0.198619
0.196119
0.19533
0.198356
0.195428
0.19658
0.202304
0.19783
0.201811
0.195659
0.198192
0.198225
0.199672
0.199672
0.199541
0.198159
0.199705
0.199146
0.198192
0.197961
0.197501
0.198258
0.196448
0.198027
0.197435
0.200001
0.197402
0.198422
0.19783
0.198916
0.197468
0.200725
0.197896
0.20135
0.200297
0.1976
0.19829
0.19704
0.201712
0.199014
0.198389
0.197797
0.200166
0.197567
0.195198
0.196678
0.196613
0.197007
0.197961
0.195823
0.198619
0.19987
0.198488
0.198948
0.198126
0.202008
0.201515
0.198751
0.197205
0.196613
0.198323
0.198126
0.199738
0.202238
0.198258
0.200034
0.198685
0.199475
0.200528
0.198685
0.198751
0.197929
0.198488
0.198619
0.199639
0.197139
0.199047
0.195724
0.197073
0.20056
0.19806
0.198817
0.196843
0.198817
0.198948
0.199771
0.197961
0.198488
0.195132
0.200659
0.196613
0.198356
0.196678
0.200034
0.196876
0.197402
0.196448
0.195527
0.198916
0.198455
0.197336
0.198883
0.199047
0.199179
0.202666
0.197369
0.200495
0.198554
0.197303
0.200758
0.198225
0.200001
0.195856
0.2001
0.197961
0.19931
0.198488
0.200791
0.199508
0.199014
0.199047
0.202238
0.198225
0.200462
0.199508
0.199179
0.19931
0.198422
0.197731
0.196547
0.200133
0.197961
0.199409
0.196613
0.19783
0.196284
0.200429
0.197172
0.198619
0.198126
0.198685
0.199343
0.198192
0.199409
0.198685
0.197764
0.193948
0.198356
0.197007
0.198323
0.196448
0.19783
0.197731
0.205397
0.196316
0.19704
0.199212
0.199639
0.199837
0.197731
0.197369
0.197698
0.197501
0.195856
0.198323
0.197632
0.200429
0.195494
0.19987
0.198817
0.199672
0.198883
0.199212
0.198225
0.200396
0.199902
0.200166
0.199672
0.197961
0.197764
0.196448
0.20112
0.199409
0.20033
0.197468
0.19829
0.19658
0.201284
0.200824
0.198225
0.198225
0.199672
0.199343
0.196086
0.198817
0.197073
0.197994
0.195593
0.19658
0.196284
0.199212
0.198554
0.197994
0.198389
0.196218
0.198093
0.19931
0.198093
0.20033
0.201811
0.19783
0.203061
0.199113
0.19908
0.20033
0.199508
0.197534
0.198455
0.197994
0.198389
0.199277
0.199475
0.197336
0.196974
0.199639
0.199771
0.202074
0.198027
0.201383
0.19658
0.198751
0.197534
0.197501
0.197435
0.198916
0.198126
0.198323
0.201515
0.199738
0.200067
0.198619
0.200001
0.198652
0.200429
0.199014
0.200034
0.198225
0.197567
0.196777
0.1976
0.196382
0.199738
0.196744
0.194836
0.199409
0.198455
0.201087
0.2001
0.198356
0.199212
0.202567
0.199475
0.199014
0.198027
0.199409
0.198356
0.201218
0.197863
0.198521
0.197632
0.199475
0.198652
0.19681
0.200034
0.197896
0.199014
0.198948
0.200067
0.197468
0.199146
0.199606
0.199508
0.200133
0.197402
0.197665
0.199606
0.1976
0.200922
0.201317
0.198652
0.199771
0.198916
0.199935
0.198981
0.199113
0.196678
0.199738
0.198126
0.199212
0.198916
0.198751
0.198883
0.200199
0.198981
0.196053
0.201547
0.197665
0.200231
0.197632
0.198784
0.198488
0.196086
0.200231
0.198652
0.199837
0.198981
0.199573
0.199705
0.20033
0.195955
0.200528
0.199738
0.198751
0.197994
0.199376
0.198455
0.198981
0.197797
0.199475
0.200659
0.200922
0.20033
0.199047
0.200067
0.194737
0.201482
0.200725
0.200199
0.201021
0.202403
0.197435
0.200034
0.198126
0.198751
0.198521
0.19829
0.197632
0.198356
0.198916
0.197139
0.198981
0.198027
0.19987
0.19987
0.198323
0.20112
0.200462
0.199113
0.200199
0.198126
0.19931
0.200001
0.201054
0.200922
0.199014
0.20135
0.20112
0.200495
0.196086
0.201712
0.199902
0.199738
0.19987
0.202271
0.199968
0.199409
0.199475
0.197797
0.197731
0.198587
0.199804
0.198817
0.198981
0.198389
0.199705
0.197797
0.200231
0.201054
0.200988
0.19987
0.195823
0.199705
0.200297
0.196251
0.197567
0.19579
0.196382
0.197665
0.197501
0.199475
0.198981
0.201054
0.198619
0.200067
0.19681
0.201844
0.200396
0.198981
0.200001
0.19885
0.198422
0.197797
0.200429
0.200988
0.201218
0.198027
0.199014
0.198784
0.200231
0.200659
0.200528
0.198619
0.19908
0.200725
0.198126
0.202337
0.198159
0.199376
0.198027
0.197764
0.19704
0.200166
0.197665
0.199541
0.199573
0.199541
0.200758
0.200791
0.201383
0.199047
0.199541
0.198718
0.198817
0.195823
0.197139
0.196974
0.198258
0.197632
0.199047
0.198159
0.198685
0.199146
0.200166
0.195889
0.198751
0.199277
0.200692
0.200034
0.199277
0.200758
0.198093
0.199409
0.199245
0.202041
0.196777
0.198718
0.196909
0.198356
0.198554
0.199014
0.199245
0.200692
0.199804
0.200593
0.200199
0.198948
0.201087
0.200001
0.198619
0.198027
0.200231
0.196481
0.200429
0.199902
0.196974
0.198817
0.198422
0.200034
0.199837
0.198159
0.199409
0.199573
0.198225
0.200462
0.19885
0.201613
0.199705
0.196251
0.196777
0.199245
0.19885
0.196218
0.19602
0.195198
0.198916
0.19704
0.197271
0.19885
0.200297
0.198488
0.201712
0.199179
0.200001
0.200034
0.196415
0.196284
0.199508
0.197863
0.19783
0.199606
0.198587
0.2001
0.197863
0.201712
0.199179
0.200922
0.200528
0.202502
0.201153
0.19885
0.199705
0.199541
0.197961
0.198455
0.197863
0.199541
0.198192
0.198587
0.1976
0.194672
0.202107
0.200001
0.200725
0.199277
0.200692
0.197172
0.198685
0.19885
0.19829
0.197271
0.197698
0.199146
0.19829
0.199837
0.199014
0.197929
0.197567
0.199376
0.196711
0.197896
0.196152
0.20237
0.199179
0.201054
0.200396
0.198652
0.202107
0.199935
0.200791
0.198981
0.199442
0.19806
0.200824
0.198488
0.198521
0.198258
0.200396
0.199639
0.201087
0.19908
0.199179
0.199968
0.197896
0.199705
0.19783
0.199212
0.199146
0.198093
0.200166
0.200824
0.198126
0.196909
0.196843
0.19885
0.198159
0.199475
0.195527
0.198422
0.199541
0.199212
0.20158
0.199442
0.199705
0.199146
0.201909
0.201712
0.200725
0.197369
0.200297
0.198554
0.199343
0.199902
0.199113
0.201613
0.199902
0.201745
0.197797
0.203291
0.199968
0.199277
0.199409
0.199343
0.197303
0.199935
0.197435
0.195264
0.199146
0.197698
0.19987
0.198323
0.199606
0.199212
0.199541
0.197863
0.201383
0.198817
0.200166
0.202173
0.200955
0.198323
0.200593
0.199212
0.198389
0.197534
0.196942
0.19931
0.198981
0.199705
0.195823
0.20158
0.19931
0.202469
0.198225
0.2001
0.198389
0.203291
0.200824
0.200264
0.199146
0.198521
0.199442
0.197896
0.200133
0.199573
0.199573
0.196843
0.203817
0.197073
0.199442
0.198323
0.199508
0.201153
0.198323
0.200297
0.200231
0.196777
0.198619
0.198587
0.196974
0.199771
0.197632
0.199573
0.198323
0.200889
0.198883
0.202666
0.200133
0.200824
0.201547
0.198422
0.198093
0.19987
0.19908
0.197764
0.195724
0.196744
0.200922
0.196711
0.196974
0.197007
0.200297
0.199376
0.199376
0.199146
0.197863
0.198883
0.200593
0.199672
0.199573
0.199409
0.198948
0.197369
0.199508
0.200725
0.197764
0.199343
0.199541
0.197007
0.197764
0.197797
0.200166
0.197468
0.201449
0.200593
0.200758
0.198652
0.199606
0.199047
0.199672
0.194935
0.202929
0.196349
0.197468
0.197435
0.199245
0.197731
0.199606
0.196218
0.199014
0.199738
0.198455
0.20056
0.197929
0.200889
0.198817
0.198981
0.196514
0.198093
0.196185
0.19908
0.197139
0.197139
0.197369
0.200034
0.201646
0.195001
0.19987
0.198817
0.201021
0.20033
0.199277
0.200528
0.199672
0.198718
0.200264
0.197468
0.19987
0.199606
0.197205
0.199277
0.201547
0.19908
0.20158
0.203159
0.200692
0.201054
0.199014
0.199343
0.199475
0.198093
0.198619
0.199968
0.195362
0.198356
0.199541
0.198784
0.201251
0.200067
0.201054
0.200626
0.200528
0.198883
0.200462
0.198554
0.19931
0.199935
0.19806
0.196448
0.198916
0.199376
0.199837
0.201317
0.197896
0.200396
0.198619
0.202699
0.203686
0.200758
0.199047
0.201218
0.201021
0.200626
0.199376
0.200758
0.197501
0.19885
0.200495
0.199014
0.200922
0.198619
0.207009
0.201515
0.200692
0.200495
0.202304
0.198422
0.201909
0.20135
0.198981
0.201251
0.199245
0.199376
0.199606
0.19987
0.198817
0.202699
0.199245
0.200758
0.200166
0.197929
0.198488
0.201778
0.198685
0.200264
0.197402
0.199639
0.197501
0.196843
0.199573
0.201515
0.200363
0.200791
0.200495
0.200001
0.201712
0.19908
0.198619
0.201646
0.20135
0.200034
0.202567
0.201909
0.200001
0.20214
0.200297
0.201844
0.200166
0.201087
0.200889
0.198422
0.198356
0.198718
0.19987
0.201317
0.20056
0.201613
0.201383
0.199541
0.200791
0.20056
0.199277
0.201416
0.203719
0.199606
0.202534
0.20056
0.201449
0.201186
0.200889
0.198027
0.199409
0.200297
0.199672
0.200396
0.197369
0.198225
0.201251
0.200593
0.197567
0.201383
0.200725
0.202666
0.199935
0.200955
0.197764
0.201416
0.201317
0.197929
0.200429
0.199771
0.206186
0.202798
0.200857
0.20056
0.201383
0.19783
0.203061
0.200067
0.203258
0.200955
0.199771
0.199409
0.201317
0.20033
0.199409
0.201547
0.199442
0.20135
0.198619
0.200889
0.19885
0.198323
0.195165
0.200659
0.198619
0.200758
0.201679
0.201515
0.199541
0.20056
0.199047
0.200462
0.199541
0.197764
0.202502
0.197698
0.198356
0.198718
0.201646
0.198159
0.20056
0.201844
0.203159
0.201186
0.198652
0.200988
0.200791
0.199672
0.199541
0.199606
0.198192
0.201054
0.197073
0.198883
0.199837
0.199902
0.20237
0.200889
0.200791
0.201449
0.20112
0.202337
0.200889
0.198948
0.201975
0.198784
0.200264
0.198619
0.200231
0.198159
0.20339
0.201021
0.202008
0.203883
0.202567
0.200955
0.201975
0.200396
0.200231
0.200001
0.199639
0.200495
0.199672
0.20112
0.197402
0.198718
0.196876
0.197468
0.195823
0.199343
0.199277
0.200659
0.20033
0.200067
0.202534
0.199804
0.202995
0.199968
0.201449
0.197336
0.204607
0.199573
0.20566
0.201021
0.200725
0.198422
0.201778
0.200758
0.201844
0.200626
0.200626
0.201218
0.199277
0.201844
0.200988
0.201251
0.199705
0.199113
0.199837
0.201613
0.200725
0.198916
0.199146
0.197994
0.199245
0.199738
0.199409
0.201054
0.198126
0.199047
0.200955
0.199935
0.199738
0.198554
0.200462
0.197632
0.198784
0.196415
0.199738
0.200889
0.199343
0.201646
0.199606
0.201186
0.199902
0.201778
0.202337
0.20237
0.19908
0.199376
0.199541
0.197698
0.197534
0.199606
0.200231
0.199705
0.198159
0.19908
0.201416
0.19806
0.201547
0.200001
0.200199
0.199705
0.202929
0.19987
0.200857
0.199047
0.199705
0.200429
0.195297
0.19829
0.19477
0.202074
0.199606
0.20135
0.200922
0.201778
0.200034
0.200725
0.199475
0.200166
0.200133
0.200001
0.196251
0.20033
0.199343
0.19681
0.198225
0.199738
0.20056
0.200791
0.201153
0.199475
0.200692
0.200363
0.202633
0.20135
0.201745
0.203225
0.201547
0.202041
0.197567
0.19987
0.195033
0.200166
0.201482
0.200429
0.198356
0.201778
0.198652
0.199277
0.202469
0.200758
0.199968
0.201153
0.200758
0.199935
0.201515
0.196284
0.198916
0.198883
0.20056
0.200922
0.2026
0.197632
0.200166
0.199573
0.199606
0.198521
0.199343
0.201811
0.201679
0.199968
0.200133
0.200889
0.198916
0.199573
0.197238
0.202469
0.198488
0.200791
0.19829
0.201416
0.199837
0.199705
0.200495
0.199442
0.200528
0.200857
0.201449
0.202074
0.203488
0.198521
0.201054
0.199639
0.200824
0.198981
0.199902
0.198323
0.200166
0.194836
0.201844
0.200396
0.199705
0.201383
0.200231
0.199837
0.199705
0.201087
0.199902
0.202699
0.199047
0.202205
0.197238
0.199343
0.199902
0.200462
0.199935
0.200034
0.200791
0.199935
0.199705
0.198093
0.198192
0.198916
0.199376
0.199475
0.202107
0.200231
0.202403
0.201284
0.199475
0.200626
0.200988
0.200034
0.200692
0.202107
0.198159
0.201021
0.19829
0.200199
0.201218
0.204475
0.201054
0.200889
0.200462
0.20158
0.201613
0.200462
0.199672
0.199771
0.201054
0.200955
0.203554
0.199606
0.198916
0.198323
0.202041
0.201416
0.202173
0.201515
0.201054
0.201186
0.200988
0.203949
0.20339
0.20135
0.201975
0.19987
0.201153
0.200824
0.198652
0.201482
0.198323
0.197665
0.195626
0.198948
0.199212
0.19885
0.199573
0.201811
0.19908
0.201087
0.201383
0.200001
0.201613
0.202238
0.202633
0.199113
0.202074
0.199277
0.202995
0.203456
0.200396
0.202107
0.202896
0.201054
0.201251
0.202699
0.200067
0.201745
0.200067
0.201317
0.200034
0.20112
0.198652
0.200495
0.200528
0.200857
0.201054
0.201646
0.199771
0.20158
0.200297
0.19806
0.204146
0.197205
0.201712
0.195264
0.199935
0.199837
0.20158
0.196514
0.199771
0.199771
0.197665
0.199179
0.199409
0.201449
0.200495
0.201449
0.200791
0.202041
0.201416
0.197698
0.20033
0.198685
0.201515
0.199968
0.200297
0.200758
0.199212
0.201153
0.202173
0.199902
0.202896
0.200593
0.201942
0.199047
0.202337
0.199343
0.201317
0.200692
0.201284
0.200166
0.199902
0.198817
0.20158
0.203061
0.200593
0.201087
0.199508
0.200758
0.198389
0.201087
0.198817
0.197303
0.199475
0.202962
0.200199
0.202173
0.199245
0.198685
0.196382
0.200791
0.199968
0.196843
0.198751
0.197994
0.201778
0.200528
0.201515
0.199508
0.201251
0.200495
0.200462
0.200133
0.201218
0.200264
0.199541
0.203028
0.199573
0.199146
0.201087
0.201712
0.201449
0.202666
0.202436
0.198883
0.19885
0.202469
0.200264
0.202502
0.19908
0.200199
0.200988
0.200297
0.204015
0.202041
0.200593
0.2001
0.200363
0.200429
0.202534
0.198916
0.200034
0.201284
0.20283
0.201153
0.202304
0.200264
0.199475
0.200659
0.199804
0.199014
0.197336
0.201383
0.201153
0.205462
0.19783
0.200462
0.198323
0.200725
0.200396
0.204245
0.200988
0.200199
0.200889
0.201613
0.202929
0.200692
0.20056
0.199475
0.202403
0.201679
0.203291
0.198587
0.200692
0.199541
0.20033
0.197994
0.20135
0.20112
0.199738
0.201613
0.201613
0.201218
0.201218
0.203883
0.19987
0.203488
0.199672
0.200396
0.19931
0.201284
0.200429
0.200133
0.202534
0.19806
0.201021
0.200791
0.200264
0.197172
0.20158
0.199277
0.201679
0.199541
0.203028
0.200922
0.199902
0.200001
0.202107
0.19931
0.198356
0.201416
0.200922
0.204114
0.200758
0.202929
0.201087
0.202238
0.199738
0.203028
0.202008
0.201054
0.201317
0.201449
0.201054
0.200067
0.199573
0.2001
0.199573
0.200462
0.204804
0.198817
0.200429
0.200133
0.204179
0.204607
0.201909
0.202008
0.200297
0.201547
0.20135
0.201416
0.200922
0.198652
0.199277
0.197172
0.2001
0.200922
0.198488
0.201712
0.201186
0.201646
0.199245
0.201021
0.200231
0.200593
0.199738
0.200133
0.202304
0.199014
0.200462
0.199573
0.2026
0.195362
0.20339
0.202765
0.202337
0.202271
0.202502
0.199968
0.205627
0.200133
0.203686
0.203686
0.200955
0.202271
0.200396
0.202929
0.201087
0.202896
0.200758
0.201251
0.201087
0.201876
0.202238
0.205331
0.201811
0.202271
0.202238
0.202041
0.202205
0.202074
0.203061
0.200297
0.202765
0.201021
0.203554
0.202205
0.202567
0.201416
0.199606
0.199245
0.200593
0.199771
0.200199
0.201383
0.20237
0.201942
0.203456
0.204772
0.203258
0.202107
0.201153
0.202798
0.200396
0.202041
0.200231
0.199837
0.202271
0.203686
0.203192
0.202699
0.202798
0.201021
0.204607
0.201482
0.202995
0.2026
0.204673
0.201613
0.201646
0.198685
0.201712
0.199409
0.199837
0.203785
0.202896
0.202995
0.201909
0.200692
0.20214
0.20487
0.201876
0.203883
0.200988
0.20487
0.20283
0.204081
0.198422
0.200396
0.199541
0.198916
0.19931
0.199935
0.203094
0.20135
0.200692
0.203127
0.204541
0.20237
0.204344
0.2026
0.203719
0.202666
0.201942
0.199672
0.202074
0.202173
0.199672
0.20487
0.200988
0.202436
0.202699
0.202929
0.202107
0.201844
0.201087
0.20385
0.200922
0.204607
0.202436
0.199146
0.202337
0.199376
0.199179
0.203456
0.202008
0.200922
0.201186
0.203127
0.200725
0.201153
0.202502
0.201054
0.204443
0.201449
0.201317
0.202929
0.196251
0.198948
0.198718
0.199245
0.200133
0.199738
0.200199
0.202534
0.198784
0.200001
0.20135
0.203521
0.201909
0.20283
0.203159
0.201844
0.202271
0.20112
0.20214
0.200692
0.204607
0.203127
0.202041
0.200297
0.201778
0.200495
0.200857
0.201844
0.200955
0.201909
0.202567
0.202008
0.202337
0.202205
0.202337
0.201942
0.200857
0.199277
0.200396
0.201317
0.199935
0.202962
0.200067
0.201547
0.203719
0.200067
0.20158
0.202173
0.201449
0.200889
0.197402
0.196843
0.201186
0.199179
0.199935
0.196678
0.200988
0.201153
0.200988
0.19885
0.198948
0.201284
0.200528
0.202436
0.201975
0.201613
0.20214
0.202633
0.198883
0.202567
0.203094
0.200922
0.20112
0.200988
0.200067
0.20135
0.200001
0.200001
0.201547
0.201383
0.200922
0.201186
0.200528
0.20158
0.20237
0.202008
0.202469
0.201218
0.198455
0.200199
0.200857
0.200166
0.202074
0.200988
0.201317
0.201745
0.200659
0.201449
0.201218
0.200166
0.199902
0.204081
0.203225
0.201383
0.200922
0.199771
0.202436
0.202798
0.199343
0.199047
0.200725
0.197764
0.201778
0.200001
0.203324
0.199409
0.201284
0.202173
0.202238
0.201186
0.199672
0.200725
0.201942
0.199343
0.203653
0.201811
0.200988
0.201712
0.199409
0.201712
0.199639
0.202238
0.201153
0.200824
0.201054
0.200199
0.203127
0.204245
0.20339
0.202403
0.201482
0.200922
0.203061
0.200824
0.200889
0.20214
0.20135
0.20056
0.202436
0.199212
0.20056
0.201909
0.202271
0.199113
0.2026
0.202205
0.203291
0.206844
0.201087
0.205265
0.201811
0.201712
0.202041
0.202534
