Ladekurvenmessung

Zeit: 2018_05_04 10.02.00

Info: FVA3, v = 1.05, T = 23, F = 20, h = 587.3

Ladewiderstand[Ohm]: 1012700

Störkapazität[pF]: 0.000000

Entladezeit[ms]: 200

Abtastrate[Hz]: 250000

Anzahl der Messwerte: 2500.000000

Verzögerung[ms]: 3

Ladespannung[V]: 0.200000


Kurve 1

0.000639
0.000803
0.002611
0.00294
-0.000347
-0.002155
0.000639
-0.001827
-0.00232
-0.004292
-0.000676
-0.001991
0.000474
0.001132
-0.000676
-0.003306
-0.002155
-0.000183
-0.001498
-0.000347
-0.000841
0.000474
-0.001991
0.000967
-0.003142
0.000967
-0.000512
-0.001827
0.00031
-0.005771
-0.000183
0.004748
0.00146
-0.000676
0.00294
0.000474
0.002775
0.000146
0.003433
-0.00347
-0.002977
-0.0061
-0.002648
0.002775
-0.002484
0.000474
-0.000512
0.00409
-0.001662
0.002282
0.00031
0.000146
-0.003963
-1.9e-05
-0.002155
-0.003799
-0.003799
0.002282
-0.005114
-0.002813
-0.000512
0.000803
0.001296
-0.004785
-0.005114
0.000474
0.000639
-0.001662
0.005405
-0.001334
-1.9e-05
0.002282
-0.000841
-1.9e-05
-0.002648
-0.000676
-0.002813
-0.001334
-0.002155
0.000474
-0.004621
-0.001662
-0.001498
0.001296
0.000639
0.000639
-0.001334
0.000803
-0.001169
-0.00347
-0.001827
-0.006429
-0.003142
0.001625
-0.001005
-0.004785
-0.000841
-0.002155
-0.001991
-0.004456
0.000474
-0.004128
-0.006429
-0.000676
-0.004292
-0.000841
-0.004456
-0.004456
-0.004456
-0.004292
-0.005936
-0.001334
-0.003963
-0.001169
-0.001005
-0.003306
-0.000512
0.001132
0.00031
0.002447
-0.004456
0.00031
0.000639
-0.001498
-0.000512
-0.001169
0.000474
-0.001498
0.000146
-0.00347
0.000146
-0.006593
-0.00232
-0.001498
-0.002155
-0.000512
0.000474
0.001789
0.000967
0.001132
-0.00347
0.001296
-0.002155
0.00146
0.00031
-0.002977
-0.003142
-0.003306
-0.00232
-0.000841
0.000146
-0.002813
-0.002977
-0.002977
-0.001827
-0.000183
-1.9e-05
-0.003306
0.000639
-0.000347
-0.001827
-0.001334
-0.001169
-0.000183
0.000967
-0.000841
0.000146
0.00031
-0.00347
0.002447
0.000803
-0.002484
0.002118
-0.000183
0.000146
0.000474
0.005241
-0.001005
0.000474
-0.000347
0.003433
0.003104
-0.002813
0.001789
0.000639
-0.002155
0.001625
-0.001662
-0.000676
-0.002648
0.00146
-0.002155
0.001789
-0.000512
0.003597
-0.003635
-0.00347
-0.001827
-0.001498
0.000967
0.00146
-0.000512
-0.001991
-0.001827
-0.004621
0.003104
-0.005443
-0.002813
-0.006264
0.000803
0.001789
0.002118
-0.001005
-0.003799
-0.001169
-0.002484
0.002611
-0.004128
-0.000841
-0.003963
0.000639
-0.001662
-0.001662
-0.001498
0.00031
0.000803
-0.000512
-0.000676
-1.9e-05
-0.000841
0.000967
-0.002648
-0.002484
0.001789
-0.004949
0.001296
0.000639
-0.00232
-0.008072
-0.004949
-0.002977
-0.001827
-0.001662
-0.000512
-0.001498
-0.003142
-0.00347
-0.001662
0.000639
-0.009551
-1.9e-05
-0.000841
0.000146
-0.001662
-0.002484
-0.004456
-0.003306
-0.001498
-0.002155
-0.001334
-0.008401
-0.003142
-0.003799
0.002282
-0.004949
0.001954
0.000803
0.000639
-0.000676
0.000146
-0.001827
-0.002813
-0.00347
-0.000841
-0.001169
-0.002977
0.000146
-0.001498
0.000967
-0.000841
-0.001005
-0.001169
-0.000512
-0.004621
-0.001662
-0.001991
-0.001498
-0.000676
-0.001498
-0.003799
-0.004456
-0.001169
-0.000676
-0.000676
-0.003963
-0.000841
-0.00232
0.000474
-0.001498
0.000967
-0.001827
0.000639
-0.001662
0.000803
-0.001334
-0.003142
-0.003963
-0.003142
-0.001334
-0.004621
-0.000183
-0.002977
-1.9e-05
-0.001991
-0.001498
0.000803
0.000146
-0.001827
-0.000676
0.000967
-0.002977
-0.003306
0.003433
0.002775
-0.000512
0.002282
-0.003142
0.001625
-0.003306
0.000803
-0.001498
-0.000512
-0.000676
-0.000347
0.000146
-0.000183
0.004912
0.003926
0.002118
0.000146
-0.001005
-0.004292
-1.9e-05
-0.005936
-0.00232
-0.00232
-0.000841
-0.001169
-0.001827
0.003597
-0.001169
0.000803
-0.00232
0.000803
-0.001662
-1.9e-05
-0.000841
-0.0061
-0.008401
-0.005114
-0.003306
-0.003306
-0.002484
-0.001991
-0.003142
-0.000676
-0.000347
-1.9e-05
-1.9e-05
-0.000676
0.00294
0.002118
0.00031
0.00031
-0.000676
-0.001005
0.000146
-0.007744
0.002118
0.00031
-0.001498
-0.002648
-0.000841
-0.000841
-0.001991
-0.001334
-0.000676
-0.001498
-0.006757
-0.000183
-0.001662
0.001789
-0.001005
-0.000347
-0.004785
-0.001334
-0.002484
-0.001662
-0.000183
-0.003635
0.000474
-0.000347
-0.000676
0.00031
-0.001991
-0.005278
0.003761
0.000639
0.004255
0.00146
-0.001827
0.001954
-0.001169
0.000967
-0.002484
0.000639
-0.003963
0.001296
-0.00232
-0.001005
-0.001005
-0.001005
0.000639
0.003433
-0.00232
0.00031
0.00294
-0.00347
0.001954
-0.001827
0.001296
-0.002648
-0.004292
0.003268
0.002118
-0.001662
0.002775
-0.00232
0.001296
0.001789
-0.001169
-0.000676
-0.000676
-0.001827
0.000639
0.002447
-0.001498
0.000474
-0.000676
-0.000676
-0.004128
-0.000183
-0.004456
-0.002648
-0.000512
-0.002155
-0.003142
-0.004128
-0.002813
-0.003799
0.000639
-0.00232
-0.001334
-0.000676
0.000967
-0.000347
0.003104
-0.003142
0.00031
-0.00232
0.001296
-0.001005
-0.003142
0.000803
-0.001005
-0.001498
0.002118
0.003926
-1.9e-05
0.000146
-0.002648
0.000474
-0.005607
-0.000512
-0.003306
-0.002484
-0.007415
0.003597
0.002775
-0.001991
-0.001334
0.001789
-0.001169
-0.001334
-0.000512
-0.00232
0.002118
0.000967
0.003597
0.001789
-0.000512
-0.001498
-0.000183
-0.001005
-0.004785
-0.003142
-0.009058
-0.001991
-0.003963
0.008857
0.00146
0.000967
-0.002648
0.001132
-0.000347
0.000803
0.001296
-0.000183
0.000803
-0.000512
-0.003142
0.003268
0.000803
-0.001169
-1.9e-05
-0.000347
0.000803
-0.000841
0.002447
-0.000841
0.00146
0.002447
0.004255
0.001789
0.001296
0.003433
0.000639
-0.00347
-0.00347
0.001954
-0.002648
0.000967
0.000146
-0.000841
-0.001005
0.00294
-0.000183
0.00146
0.002282
0.000474
0.002118
-0.000676
0.000639
-1.9e-05
-0.001991
-0.000347
-0.002155
-0.000512
0.001132
-0.0061
-0.004128
-0.003142
-0.003635
0.004255
0.001625
0.001132
0.001132
0.002611
-0.000183
0.003268
-0.001334
0.001625
0.000146
0.000967
-0.003142
0.003104
-0.003306
0.001132
-0.000347
0.001296
0.002447
-1.9e-05
-0.000183
0.003268
-0.000183
-0.004949
0.004419
-0.00347
-0.001005
-0.002155
-0.000512
-0.003306
-0.002484
-1.9e-05
0.000967
-0.003799
0.001625
0.001132
-0.001498
0.003268
0.000967
0.004748
-0.001498
0.00294
-0.001498
0.005405
0.003433
-0.000676
-0.000183
-0.001005
0.006391
0.002775
0.00409
0.003104
0.002611
0.003104
0.002611
0.001789
0.001296
0.002447
0.002775
0.003926
0.005076
0.00409
0.004583
0.001789
0.003433
0.003761
0.003433
0.002775
0.003597
0.005898
0.003104
0.007706
0.005734
0.009678
0.003104
0.007542
0.006227
0.000967
0.006391
0.005734
0.004255
0.006884
0.005734
0.006391
0.008857
0.004419
0.006556
0.005734
0.005569
0.008528
0.008857
0.007213
0.010336
0.005241
0.005734
0.008199
0.005898
0.008363
0.006884
0.006884
0.008857
0.010993
0.006884
0.012472
0.0105
0.011322
0.017567
0.010664
0.010829
0.015595
0.012637
0.015595
0.012965
0.011486
0.015431
0.013294
0.012801
0.018061
0.012801
0.0105
0.016417
0.012144
0.015431
0.015431
0.014609
0.018061
0.014609
0.018882
0.017074
0.016253
0.013787
0.014773
0.009843
-0.00232
0.000803
-0.00347
0.001296
0.00031
0.001789
-0.00988
0.001625
0.004583
0.00146
0.004912
0.005076
0.005898
0.009185
0.007542
0.010993
0.008035
0.010664
0.010829
0.012965
0.013294
0.012965
0.012472
0.015102
0.016253
0.017074
0.018061
0.017732
0.019868
0.017074
0.019868
0.021183
0.021676
0.018061
0.023977
0.021183
0.021676
0.022498
0.020855
0.020033
0.018554
0.022663
0.02069
0.02332
0.018554
0.024142
0.025128
0.024635
0.025128
0.025292
0.024142
0.025457
0.026278
0.024142
0.021183
0.023977
0.031538
0.031867
0.045015
0.052247
0.057506
0.066053
0.07197
0.077722
0.085776
0.086762
0.096788
0.097281
0.103033
0.107635
0.112401
0.115031
0.118483
0.123906
0.122756
0.127358
0.127358
0.132289
0.13196
0.133603
0.136069
0.138534
0.140013
0.14215
0.143465
0.142807
0.142972
0.149217
0.148396
0.145273
0.148231
0.149382
0.149053
0.150368
0.144944
0.146259
0.148724
0.150368
0.15234
0.152998
0.154641
0.155627
0.157271
0.160394
0.157764
0.160065
0.160394
0.159243
0.162202
0.159572
0.162859
0.164338
0.160558
0.164831
0.163845
0.163845
0.166475
0.166475
0.167132
0.169269
0.169433
0.171406
0.169433
0.169598
0.175515
0.171899
0.172227
0.170255
0.17272
0.169926
0.171899
0.173049
0.172227
0.174528
0.173214
0.176008
0.174857
0.176994
0.175186
0.177158
0.175515
0.176172
0.175021
0.17798
0.176829
0.167461
0.173542
0.171241
0.174364
0.174364
0.177487
0.175021
0.174693
0.1742
0.176008
0.1742
0.177651
0.17157
0.176008
0.1742
0.175186
0.175186
0.171077
0.172063
0.172063
0.174035
0.174364
0.17535
0.174857
0.177815
0.174364
0.179295
0.176336
0.174857
0.174857
0.175843
0.174364
0.174693
0.176172
0.172392
0.175679
0.175515
0.176665
0.174035
0.176336
0.174693
0.172227
0.176994
0.180116
0.176829
0.180116
0.179952
0.180445
0.179295
0.177815
0.176336
0.17913
0.179459
0.180116
0.18176
0.179295
0.183075
0.183732
0.182417
0.182253
0.186362
0.184225
0.18554
0.18554
0.183568
0.190142
0.185047
0.186855
0.189156
0.185212
0.185212
0.191457
0.186198
0.191786
0.190635
0.189156
0.188827
0.188499
0.191293
0.1908
0.193429
0.189978
0.19195
0.18932
0.195402
0.191293
0.19195
0.193594
0.192443
0.195073
0.194416
0.192279
0.192772
0.195402
0.191457
0.194909
0.193101
0.193594
0.194251
0.18817
0.191457
0.195895
0.193265
0.196881
0.196881
0.195073
0.194251
0.195402
0.194251
0.193922
0.195895
0.19721
0.196059
0.193758
0.196881
0.201976
0.199839
0.194251
0.200332
0.194416
0.195402
0.198196
0.199018
0.203784
0.19458
0.191457
0.195895
0.196717
0.193101
0.198524
0.195895
0.197374
0.198689
0.20214
0.197703
0.200004
0.201976
0.199839
0.19836
0.201483
0.198853
0.197538
0.201483
0.198031
0.201319
0.199346
0.196881
0.19836
0.197538
0.193922
0.199675
0.201319
0.199346
0.199675
0.201812
0.202962
0.197703
0.19836
0.199018
0.19836
0.196881
0.196223
0.19721
0.197374
0.195073
0.199675
0.199839
0.19721
0.200004
0.201976
0.199839
0.19836
0.199675
0.200497
0.199839
0.195402
0.198853
0.196717
0.197703
0.19721
0.203126
0.198853
0.19721
0.198853
0.199675
0.200825
0.200825
0.201319
0.197538
0.202962
0.200332
0.203948
0.200168
0.197045
0.197703
0.200004
0.199675
0.200497
0.195237
0.202469
0.204606
0.202633
0.198689
0.202305
0.19836
0.199018
0.201483
0.199018
0.200168
0.198853
0.19836
0.201154
0.200332
0.196223
0.193922
0.193101
0.199018
0.197867
0.197703
0.198853
0.199346
0.201319
0.20214
0.20214
0.198524
0.202305
0.199182
0.203291
0.201976
0.200661
0.198196
0.201154
0.196552
0.196223
0.201647
0.199839
0.199839
0.196223
0.196717
0.197703
0.197374
0.19836
0.20214
0.198524
0.200825
0.201154
0.199675
0.200004
0.199839
0.202798
0.198031
0.196059
0.198196
0.200332
0.198196
0.199182
0.203455
0.198689
0.200497
0.201647
0.199839
0.202305
0.200004
0.200004
0.199511
0.193594
0.197538
0.196059
0.197867
0.19721
0.199346
0.198689
0.197703
0.199839
0.200004
0.201154
0.202798
0.205592
0.203126
0.201976
0.202798
0.200497
0.199018
0.199675
0.199675
0.199675
0.197374
0.202798
0.192936
0.199346
0.197867
0.200004
0.200661
0.20099
0.200825
0.200004
0.201976
0.200004
0.201647
0.197374
0.199675
0.198853
0.19836
0.196717
0.198853
0.198524
0.199018
0.200168
0.202633
0.198853
0.201647
0.201647
0.20099
0.196059
0.199346
0.20362
0.195566
0.198196
0.199182
0.197538
0.196881
0.199839
0.197703
0.201976
0.200168
0.19836
0.20099
0.201812
0.19836
0.198853
0.201647
0.195237
0.202305
0.201319
0.201154
0.204277
0.201483
0.19721
0.198031
0.20099
0.199018
0.200825
0.197045
0.205756
0.198031
0.202962
0.202305
0.199182
0.19721
0.199675
0.199511
0.201812
0.198689
0.199675
0.20099
0.200332
0.199839
0.200497
0.199839
0.199018
0.202962
0.199182
0.199511
0.196717
0.199511
0.202469
0.204934
0.200332
0.202633
0.197703
0.198196
0.200497
0.202469
0.200168
0.199182
0.201154
0.199018
0.201976
0.197045
0.198524
0.199182
0.199346
0.199346
0.201976
0.198853
0.202469
0.205592
0.200332
0.202962
0.200825
0.201976
0.199018
0.202798
0.197867
0.200825
0.198524
0.199346
0.199346
0.201812
0.204113
0.200497
0.20099
0.199018
0.201647
0.199675
0.201483
0.200004
0.200825
0.199839
0.202305
0.199839
0.201154
0.203291
0.195237
0.19573
0.193429
0.196388
0.196223
0.202962
0.198524
0.205099
0.199675
0.202962
0.207728
0.199018
0.202798
0.201647
0.19836
0.194744
0.195566
0.200661
0.201319
0.198853
0.201647
0.193429
0.199182
0.202469
0.201319
0.200497
0.203455
0.200661
0.204277
0.200332
0.202305
0.199018
0.188499
0.199675
0.20099
0.200332
0.194744
0.199675
0.199511
0.198853
0.204277
0.203126
0.201319
0.195402
0.200168
0.202633
0.201319
0.200332
0.200825
0.199839
0.200004
0.197045
0.201976
0.19721
0.196552
0.19573
0.199018
0.200168
0.203291
0.200332
0.20477
0.203948
0.200497
0.202962
0.201812
0.202469
0.200825
0.203291
0.205099
0.201154
0.20214
0.199346
0.200825
0.200004
0.201319
0.202798
0.202305
0.203948
0.201154
0.201976
0.203784
0.200825
0.201976
0.199018
0.19836
0.199346
0.200661
0.198689
0.201976
0.198853
0.201319
0.200661
0.202469
0.20214
0.202633
0.203291
0.202469
0.205427
0.201319
0.202469
0.199018
0.20099
0.200004
0.204934
0.202469
0.200332
0.199839
0.201812
0.203126
0.202305
0.204606
0.19836
0.201319
0.202469
0.205099
0.198853
0.201319
0.205921
0.208386
0.20214
0.205592
0.207071
0.20214
0.201319
0.204277
0.200497
0.201483
0.200168
0.203126
0.203291
0.204606
0.200168
0.202633
0.204113
0.19836
0.199018
0.200332
0.198853
0.197374
0.203455
0.202962
0.199675
0.200825
0.202962
0.20214
0.20099
0.202305
0.201483
0.202798
0.198689
0.202469
0.20214
0.202305
0.202962
0.202962
0.201812
0.201483
0.201319
0.200661
0.199839
0.201319
0.202305
0.201976
0.201319
0.20099
0.203291
0.198524
0.201976
0.199839
0.198689
0.202962
0.199511
0.202633
0.202798
0.203455
0.198689
0.201319
0.199346
0.201812
0.200497
0.19721
0.200332
0.201319
0.203126
0.201976
0.201976
0.201154
0.199018
0.202962
0.201154
0.200332
0.20099
0.199675
0.19836
0.201154
0.20362
0.199675
0.20099
0.20214
0.200168
0.199018
0.198524
0.201483
0.200661
0.196388
0.201812
0.204277
0.201483
0.202305
0.198524
0.20099
0.200497
0.198196
0.201154
0.201812
0.202633
0.20214
0.204441
0.200825
0.203455
0.203455
0.202798
0.200825
0.203455
0.19836
0.204113
0.202633
0.20099
0.198031
0.198689
0.191128
0.19721
0.200497
0.197374
0.20099
0.200497
0.201483
0.202633
0.204606
0.200661
0.203784
0.20099
0.203126
0.201812
0.200004
0.198853
0.200497
0.200825
0.20362
0.201976
0.199839
0.199511
0.199839
0.202633
0.198689
0.199839
0.20099
0.201647
0.204113
0.202798
0.200332
0.198689
0.201319
0.200004
0.198853
0.200004
0.199511
0.199511
0.202305
0.199839
0.204277
0.205592
0.201647
0.201154
0.203291
0.200661
0.200661
0.200825
0.19836
0.204934
0.201976
0.208057
0.203948
0.204113
0.200497
0.201319
0.201976
0.198196
0.200004
0.202469
0.200661
0.201319
0.202469
0.206578
0.202633
0.20099
0.201154
0.198853
0.201154
0.199511
0.203455
0.198524
0.198853
0.202633
0.198524
0.201319
0.19836
0.197538
0.202962
0.200825
0.201483
0.203455
0.20362
0.205099
0.202962
0.201812
0.201976
0.202633
0.200332
0.203948
0.198196
0.201976
0.202962
0.199839
0.201483
0.203455
0.20214
0.202305
0.206085
0.203126
0.202633
0.197045
0.200332
0.200168
0.20362
0.19836
0.20099
0.198689
0.200332
0.198689
0.200332
0.201647
0.201483
0.20099
0.198689
0.205427
0.200332
0.202633
0.198689
0.201154
0.199839
0.200168
0.201154
0.200168
0.197538
0.19836
0.198853
0.203948
0.205592
0.193922
0.201154
0.196717
0.204441
0.202469
0.202305
0.201154
0.202305
0.202305
0.20099
0.199182
0.198853
0.199675
0.200497
0.202633
0.199018
0.202469
0.201154
0.200825
0.201483
0.201812
0.20099
0.203784
0.204277
0.203291
0.201812
0.203455
0.199182
0.199346
0.199675
0.198524
0.201154
0.195237
0.199018
0.200168
0.201812
0.202469
0.20477
0.200661
0.202633
0.200004
0.200825
0.200004
0.199511
0.194909
0.199018
0.197045
0.200825
0.204934
0.199511
0.203948
0.201319
0.197538
0.200497
0.203126
0.198196
0.202962
0.20099
0.20477
0.197867
0.198524
0.200825
0.199675
0.201154
0.201483
0.200497
0.19836
0.203126
0.198689
0.197045
0.18932
0.201647
0.199839
0.19836
0.199675
0.199839
0.200497
0.196881
0.202305
0.200661
0.201647
0.194744
0.198853
0.198689
0.202305
0.199018
0.201319
0.199839
0.200168
0.203784
0.201154
0.202633
0.197374
0.202962
0.197538
0.199511
0.198689
0.202305
0.198689
0.200168
0.199346
0.207893
0.205427
0.200168
0.20099
0.201154
0.201812
0.202469
0.199675
0.200497
0.20214
0.20099
0.203784
0.200332
0.201812
0.199018
0.202798
0.199018
0.198689
0.202469
0.203784
0.20099
0.199675
0.204113
0.201154
0.202305
0.199839
0.202305
0.201154
0.203455
0.200497
0.202962
0.201812
0.201976
0.201483
0.200661
0.201319
0.201647
0.20099
0.200332
0.201483
0.199675
0.200168
0.196881
0.200825
0.200825
0.20099
0.202633
0.206414
0.201812
0.202633
0.201319
0.202962
0.203948
0.202305
0.202469
0.199839
0.203948
0.197045
0.205263
0.199182
0.201154
0.200332
0.202798
0.201647
0.202305
0.204606
0.200168
0.203948
0.203948
0.207235
0.200332
0.197538
0.199511
0.205756
0.19836
0.19836
0.200004
0.200661
0.202798
0.202469
0.203291
0.201483
0.202633
0.201483
0.202633
0.201154
0.201647
0.199346
0.201812
0.198031
0.199346
0.197867
0.197867
0.197867
0.19836
0.199675
0.200825
0.200332
0.201976
0.20099
0.199839
0.200332
0.204113
0.202633
0.200004
0.20099
0.200497
0.199675
0.200332
0.200661
0.20099
0.202469
0.201647
0.202305
0.202633
0.202469
0.205427
0.203948
0.207564
0.20099
0.203948
0.201976
0.199182
0.199511
0.196552
0.197867
0.200332
0.198524
0.199839
0.197867
0.199511
0.202798
0.199182
0.20477
0.200332
0.201812
0.200004
0.201154
0.20214
0.199182
0.198196
0.197045
0.198524
0.199346
0.201976
0.201483
0.202633
0.199675
0.202305
0.200004
0.201647
0.197867
0.200497
0.201812
0.201319
0.202469
0.199839
0.202633
0.200825
0.199839
0.200004
0.20214
0.196388
0.20362
0.201647
0.20214
0.209208
0.203455
0.200825
0.203291
0.203126
0.203784
0.20362
0.199346
0.200004
0.201154
0.204277
0.201154
0.203455
0.200497
0.200661
0.202962
0.200332
0.200332
0.201647
0.200004
0.201647
0.200497
0.205427
0.202305
0.201647
0.199182
0.198524
0.201647
0.198853
0.202798
0.198853
0.20477
0.201319
0.199675
0.200661
0.199346
0.199511
0.201154
0.200497
0.201976
0.203784
0.199182
0.204934
0.200497
0.203126
0.204113
0.200168
0.200661
0.20099
0.198524
0.202305
0.202469
0.197867
0.20362
0.199346
0.2074
0.199675
0.201483
0.201976
0.205427
0.201483
0.201647
0.20477
0.19721
0.200497
0.20099
0.200168
0.201154
0.199675
0.199839
0.200661
0.199346
0.201812
0.202633
0.20099
0.200825
0.200168
0.198524
0.196552
0.201319
0.199182
0.198524
0.202305
0.198689
0.200825
0.198689
0.198853
0.201154
0.201154
0.201483
0.20099
0.204277
0.201319
0.203126
0.20099
0.202305
0.203784
0.202305
0.200825
0.200497
0.201976
0.201976
0.200332
0.198031
0.202798
0.200332
0.200168
0.199675
0.201154
0.203291
0.196388
0.20214
0.201154
0.197867
0.201647
0.200825
0.20099
0.200497
0.201319
0.203455
0.200004
0.202305
0.199511
0.200004
0.20099
0.200661
0.200004
0.200168
0.198524
0.20362
0.202962
0.200332
0.199675
0.200825
0.202469
0.200004
0.199182
0.195237
0.201976
0.200004
0.203455
0.202469
0.202633
0.201647
0.202962
0.201647
0.200825
0.202469
0.200004
0.204606
0.20362
0.207564
0.200661
0.201812
0.20099
0.20214
0.204934
0.199675
0.199018
0.200825
0.200332
0.202962
0.20362
0.201154
0.205921
0.197374
0.204934
0.202798
0.200825
0.200497
0.201319
0.199346
0.201483
0.199182
0.197374
0.201483
0.203126
0.201319
0.201154
0.201976
0.201976
0.201976
0.201154
0.204934
0.202305
0.19721
0.200497
0.201812
0.200332
0.199511
0.201319
0.200497
0.201812
0.199839
0.199675
0.201319
0.200004
0.20214
0.204606
0.202469
0.204277
0.202962
0.204934
0.201483
0.202305
0.200825
0.200332
0.199346
0.200661
0.198689
0.200004
0.206578
0.202469
0.202469
0.199675
0.202305
0.200332
0.203784
0.198689
0.201154
0.206578
0.19836
0.20477
0.200661
0.196388
0.19573
0.200497
0.196552
0.200004
0.197374
0.201319
0.200825
0.203455
0.20477
0.200004
0.200332
0.201812
0.203784
0.200168
0.20362
0.200332
0.200332
0.202798
0.200004
0.200004
0.200661
0.197867
0.198031
0.197374
0.18061
0.184718
0.184061
0.186526
0.18439
0.186526
0.184061
0.184554
0.181267
0.183239
0.183404
0.185212
0.182911
0.186691
0.181924
0.185705
0.18439
0.186691
0.188006
0.185212
0.186691
0.190307
0.189156
0.189814
0.187677
0.192115
0.184718
0.186855
0.19573
0.185705
0.189814
0.191457
0.191457
0.194087
0.192936
0.194909
0.194087
0.197045
0.197374
0.199839
0.194909
0.19836
0.196223
0.198853
0.19836
0.198031
0.197703
0.197703
0.197374
0.198853
0.198853
0.194416
0.202962
0.201483
0.201812
0.201812
0.202469
0.19836
0.202798
0.203455
0.201812
0.203948
0.201319
0.200168
0.19573
0.201812
0.198853
0.201812
0.203948
0.206249
0.203455
0.204934
0.205921
0.202469
0.203948
0.207564
0.201812
0.203455
0.20362
0.204113
0.206249
0.204277
0.207071
0.212166
0.204277
0.204606
0.207071
0.206249
0.205921
0.206249
0.209701
0.209865
0.209536
0.208386
0.209372
0.208057
0.207893
0.209043
0.2074
0.208879
0.206414
0.208879
0.205263
0.215289
0.20477
0.20099
0.208222
0.208715
0.208222
0.208715
0.209043
0.2074
0.207564
0.207728
0.206249
0.207071
0.199346
0.209701
0.209208
0.205263
0.205592
0.20477
0.205427
0.205263
0.207235
0.205592
0.206578
0.200825
0.202798
0.203455
0.204934
0.206578
0.20214
0.203784
0.201647
0.201483
0.203948
0.201483
0.199839
0.197703
0.200332
0.197538
0.200661
0.199346
0.198853
0.197045
0.20099
0.198196
0.199839
0.195895
0.196223
0.196223
0.191786
0.188499
0.193758
0.19195
0.192443
0.19573
0.193594
0.195073
0.191457
0.195073
0.192608
0.01313
0.005898
0.020526
0.025785
0.031867
0.039427
0.044522
0.049453
0.055205
0.061944
0.062766
0.071148
0.075092
0.081995
0.086762
0.091364
0.094651
0.100896
0.104184
0.112237
0.114209
0.117003
0.121277
0.123578
0.12177
0.128344
0.130316
0.131302
0.138534
0.136562
0.143794
0.143794
0.147245
0.149546
0.150697
0.153326
0.156449
0.155627
0.159243
0.159572
0.16253
0.161051
0.164667
0.163845
0.163352
0.169433
0.167461
0.172227
0.173378
0.172556
0.174364
0.176829
0.180445
0.18439
0.173871
0.177322
0.182582
0.182089
0.182746
0.178966
0.18439
0.183075
0.184061
0.182582
0.188006
0.184883
0.182911
0.18554
0.1908
0.187841
0.189649
0.191621
0.188499
0.195073
0.189814
0.197703
0.190471
0.194909
0.195073
0.194251
0.194251
0.200168
0.195566
0.197045
0.197374
0.196223
0.198689
0.197867
0.198524
0.201319
0.202962
0.200661
0.201812
0.20214
0.201483
0.200332
0.20099
0.199018
0.200825
0.197867
0.200661
0.198853
0.200661
0.201319
0.200004
0.202469
0.203291
0.2074
0.206414
0.206085
0.203291
0.201319
0.206249
0.204441
0.203291
0.205592
0.204441
0.205099
0.207235
0.206578
0.208222
0.203455
0.206578
0.210851
0.20855
0.205921
0.213317
0.205756
0.211837
0.211344
0.209208
0.211509
0.209536
0.208222
0.209043
0.212002
0.203784
0.155463
0.015595
0.023977
0.030552
0.042714
0.050274
0.057177
0.047316
0.014116
0.007213
0.001625
-0.003963
-0.000512
-0.000512
-0.000512
0.003761
0.000639
0.002282
0.008857
0.016581
0.025621
0.037783
0.04633
0.049946
0.051754
0.042385
0.038769
0.026114
0.021348
0.026114
0.001954
0.014116
0.000803
-0.005278
0.011322
0.01428
0.000146
-0.000347
0.000639
0.003268
0.002447
0.00787
0.016746
0.023813
0.017732
0.009843
0.008363
0.013294
-0.004949
0.003761
0.012472
0.022498
0.027429
0.036633
0.039263
0.049781
0.057671
0.062108
0.069833
0.072627
0.07953
0.081338
0.08709
0.090706
0.096294
0.09991
0.105992
0.106978
0.112073
0.112237
0.115853
0.120455

Kurve 2

0.00031
-0.000347
-0.001827
-0.000183
0.001789
0.000967
0.000146
0.00146
-0.001334
-0.000841
-0.001334
-0.001991
-0.000512
-0.00232
-0.001827
-0.001334
0.00031
-0.001827
0.000639
-0.004292
0.000146
-0.003142
-0.001498
-0.003799
-1.9e-05
0.000146
-0.000676
0.00294
-0.002813
0.000803
-0.001662
-0.001662
-0.00347
-0.000512
-0.004128
-0.00232
-0.004949
-0.00232
-0.001005
-0.001498
-0.000841
-0.000841
-0.000512
-0.001169
-0.000183
-0.000676
-0.001005
-0.000512
-0.000676
0.000146
0.00031
-0.005607
-0.000841
-0.00347
-0.002648
-0.00347
-0.007415
0.001625
0.003268
-0.002484
-0.001169
-1.9e-05
-0.002648
-1.9e-05
-0.003142
-0.001005
-0.003799
-0.002155
-0.003142
-0.001005
-0.003306
-0.004785
-0.001662
-0.003306
-0.002155
-0.000183
-0.006429
0.002118
0.001296
-0.002484
0.000146
-0.002977
-0.001169
-0.004949
-0.00232
-0.003635
-0.004292
-0.006264
-0.004456
-0.002648
-0.002813
-0.001498
-0.001827
-0.001169
-0.001498
0.002611
-0.004292
-0.000183
-0.002484
-0.001334
-0.000512
0.00031
-0.001827
-0.002977
-0.002648
0.000967
0.00146
-0.004128
-0.002484
-0.00232
0.000146
-0.001334
0.002611
-0.002648
-0.000183
0.001625
0.000146
0.000474
-0.001991
-0.003799
-0.00232
-0.001991
-0.002977
0.000146
-0.002813
0.00031
-0.004456
-0.005114
-0.002484
-0.006429
-0.003799
0.000967
0.000639
-0.002155
-0.001169
-0.006922
-0.000676
-0.003306
-0.005114
-0.004128
-0.001005
-0.003799
0.000474
-0.003306
-0.001498
-0.001498
-0.001827
-0.000512
0.001132
-0.000512
0.00146
-0.001005
-0.002977
-0.000183
-0.002648
-0.001662
-0.005936
-0.001827
-0.006264
-0.005771
-0.002155
-0.001334
-0.00347
-0.001169
-0.001662
-0.001169
-0.001991
-0.001334
-0.003306
0.00146
-0.004949
-0.006429
0.003268
-0.004949
-0.002155
-0.005771
-0.001498
-0.000183
0.000639
-1.9e-05
0.000474
-0.001498
-0.001005
0.001132
-0.001662
-0.001662
-0.002977
-0.002484
-0.006429
-0.004949
-0.00232
-0.004128
-0.002484
-0.00232
0.001954
-0.005278
-0.004128
-0.004128
-0.002813
-0.004456
-0.002484
-0.004785
-0.002977
-0.002813
-0.000841
0.004912
0.000803
-0.001169
0.000967
-1.9e-05
-0.00347
-0.00347
-0.001827
-0.001827
-0.002813
-0.001334
0.000474
-0.006429
-0.003142
-0.002155
-0.001827
-0.001169
-0.002648
-0.000676
-0.001827
0.001296
0.00294
-0.001991
-0.00725
-0.002648
-0.006593
-0.006264
-0.003963
-0.008237
-0.002813
-0.001991
-0.005771
-0.003799
-0.003963
-0.002648
0.000803
0.001132
-0.003963
-0.000512
-0.004128
0.00031
-0.00232
-0.001498
-0.003142
-0.010538
-0.004785
-0.00232
-0.001005
-0.001662
-0.002813
-0.002155
-0.001991
-0.001005
0.000803
0.00031
-0.008401
-0.002155
0.00146
-0.00232
0.000146
-0.002813
-1.9e-05
-0.00347
-0.000841
-0.001169
0.000803
-0.011031
-0.001827
0.003104
-0.000676
0.000803
-0.000841
-0.000183
-1.9e-05
-0.004456
0.003104
0.004583
-0.011195
-0.000347
-0.000347
0.000967
-0.003799
0.00146
0.001132
-0.001827
0.000803
0.003926
0.00294
-0.005607
0.001625
-1.9e-05
0.001625
0.001789
0.002447
0.00031
0.000146
-0.000841
0.001296
0.002775
-0.001498
0.001789
0.000639
0.001789
-0.001662
0.000146
0.001954
0.002282
0.001954
0.003104
0.003761
-0.001005
-0.001498
0.000803
-0.000841
-0.000512
0.001625
-0.000841
0.001625
0.00146
0.001954
-1.9e-05
-0.004292
-0.002813
0.002118
-0.001005
0.00409
0.00409
-0.000841
-0.002813
-0.002648
0.003104
-0.001827
-0.000512
-0.003306
0.001296
0.00031
-1.9e-05
0.003268
0.00146
-0.002977
0.003597
0.005241
0.001954
-0.001662
0.000639
0.00031
-1.9e-05
0.001625
0.001132
-0.001169
0.000803
0.001954
0.000474
-0.001005
-0.005607
-0.001662
-0.002977
-0.000676
-0.001498
-0.000347
0.001132
-0.00347
0.000803
-0.001662
-0.001005
-0.001498
-0.001991
-0.00347
-1.9e-05
-0.004292
-0.005443
-0.001991
-0.000512
-0.000347
-0.000347
-0.000183
-0.004456
-0.004456
-0.005278
-0.003963
-0.003142
-0.00347
-0.005607
-0.002648
-0.005114
-0.002484
-0.004128
-0.004456
-0.002648
-0.005278
-0.00232
-0.003799
-0.002648
-0.006922
-0.000347
-0.003799
-0.000676
-0.00347
-0.005114
-0.002155
-0.005443
-0.004949
-0.004621
-0.005114
-0.004949
-0.00988
-0.005607
-0.001662
-0.003142
-0.001334
-0.002484
-0.002813
-0.003799
-0.002155
-0.004456
-0.002977
-0.007086
-0.001991
-0.004128
-0.007579
-0.004128
-0.000676
-0.00232
-0.004949
-0.001169
-0.004621
-0.004621
-0.003635
0.000146
-0.003142
-0.001498
-0.004949
-0.000512
-0.002977
-0.004621
-0.006264
-0.004785
-0.004785
-0.007086
-0.000841
-0.006429
-0.002155
-0.003635
-0.001827
-0.005607
-0.001498
-0.006264
-0.000347
-0.000841
-0.000347
-0.001005
-0.004456
-0.003306
-0.006757
-0.000347
-0.005443
-0.002977
-0.007908
-0.002977
-0.003799
-0.005936
-0.003635
-0.003142
-0.004949
-0.00347
-0.003799
-0.005607
-0.004785
-0.004949
-0.005607
-0.001991
0.001296
-0.002813
-0.001662
-0.005607
-0.003635
-0.00725
-0.007744
-0.006429
-0.007415
-0.0061
-0.006757
-0.004621
-0.003306
-0.001827
-0.004292
-0.001827
-0.003963
-0.004292
-0.004949
-0.003142
-0.002648
0.000146
-0.002977
-0.003306
0.000474
-0.003963
-0.001498
-0.001334
-0.00347
-0.003142
-0.002155
-0.00232
-0.002648
0.002775
0.003597
-0.002484
-0.001334
-0.003142
-0.002484
-0.003142
-0.004292
-0.006264
-0.002813
-0.000512
0.00031
0.001625
-0.001662
0.001296
-0.000347
0.004419
0.000474
-0.000183
0.00409
-0.001991
-0.00347
0.002447
0.00294
-0.006264
-0.004128
-0.004456
-0.001498
-0.003306
-0.001991
-0.004456
-0.002484
-0.00232
0.00409
0.001132
0.000967
0.000967
-0.000512
0.000474
-0.001334
-0.001991
-0.002977
-0.006593
-0.004785
-0.000347
-0.002155
-0.001498
-0.001662
-0.000512
-0.000183
0.002447
0.003104
-0.000347
0.000639
-0.000841
-0.000676
-0.003963
-0.003635
-0.005607
-0.003306
-0.005443
-0.002977
-0.002977
-0.002977
-0.001005
0.005076
0.001954
-0.001498
0.00146
0.003597
-0.00232
0.00146
0.000803
-0.000841
-0.002484
-0.001005
0.003268
-0.00232
-0.00232
-0.00347
-0.001005
0.001296
0.000474
0.000474
0.00031
0.000803
0.002447
0.002118
-1.9e-05
0.00031
-0.001169
0.003926
0.00146
-0.002155
-0.001334
-1.9e-05
-0.001827
0.000146
0.000967
-0.000512
-0.00232
0.008035
0.002447
0.004583
0.00409
-0.001005
0.002282
-0.001334
0.000474
0.000474
0.000474
-0.003963
0.001625
-0.000676
0.000146
0.005569
0.002775
0.00294
0.002282
0.002447
0.001296
0.002282
-0.001169
0.002611
-0.002155
0.004912
0.003926
-0.002977
-0.000512
0.001954
-0.000183
0.001296
0.001789
-0.002813
0.003433
0.000474
0.00294
0.002775
0.000967
0.000639
0.003104
0.00409
0.005241
0.003268
0.000146
0.002282
0.001296
0.000967
0.001789
0.000803
-1.9e-05
0.00787
0.00031
0.00146
-0.000676
0.002118
0.000967
0.003926
0.000146
0.001296
0.001296
-0.001169
0.001296
-0.000676
0.000967
0.000474
0.005076
0.002282
0.003268
0.001625
0.002282
-0.002155
-0.000347
-0.001827
-0.000676
-0.000676
-0.001334
-0.008072
-0.000841
-1.9e-05
0.000967
0.002118
-0.00232
0.001296
-0.00232
0.001296
-0.003142
-0.001827
-0.001662
0.000146
-0.0061
0.001296
0.000639
-0.002813
-0.001991
-0.003635
-0.001991
-0.003306
-0.002155
-0.001662
-0.000183
-0.000183
-0.001169
0.002611
-0.000676
-0.004128
-0.002484
-0.000841
-0.000512
-0.000676
-0.005936
0.000474
-0.002484
0.000146
-0.001991
-0.001991
0.001625
0.003104
-0.001991
0.000474
-0.001827
-0.001827
-0.000676
-0.001169
-0.00232
-0.012017
-0.002648
-0.006593
0.001625
-0.000676
0.001625
0.001296
0.000474
0.000146
-0.000841
-0.001005
-0.007744
0.00031
-0.00347
-0.000512
-0.007415
-0.002484
0.002118
0.00935
0.018554
0.026114
0.033017
0.037619
0.046494
0.054712
0.059314
0.065888
0.067532
0.074435
0.078708
0.083639
0.091035
0.092514
0.099089
0.100403
0.104019
0.108293
0.114867
0.116017
0.124399
0.122756
0.129495
0.132124
0.136398
0.136233
0.138699
0.14215
0.143958
0.147081
0.147081
0.152998
0.153326
0.155956
0.159572
0.164667
0.16138
0.166639
0.163845
0.165324
0.168612
0.168612
0.17272
0.171406
0.176665
0.176665
0.178309
0.176008
0.180281
0.177487
0.183239
0.181924
0.180281
0.183568
0.184554
0.185869
0.187184
0.188992
0.182746
0.189978
0.18817
0.190471
0.189814
0.190142
0.189649
0.192115
0.191128
0.19458
0.193429
0.193594
0.198196
0.193922
0.196059
0.194087
0.199182
0.200168
0.197538
0.199675
0.20362
0.19721
0.199182
0.201154
0.199511
0.198689
0.203126
0.205921
0.199839
0.203291
0.20362
0.204113
0.20477
0.207071
0.207728
0.207235
0.20855
0.210194
0.206742
0.208386
0.207728
0.206249
0.208222
0.205263
0.207071
0.207235
0.208386
0.209043
0.205263
0.206414
0.211837
0.206907
0.210358
0.209208
0.210523
0.21233
0.209043
0.207071
0.20855
0.208222
0.206907
0.210194
0.207235
0.210029
0.208386
0.208222
0.207071
0.209043
0.206578
0.20855
0.210194
0.207893
0.209372
0.208222
0.205921
0.205263
0.209208
0.204277
0.202962
0.204441
0.205921
0.203455
0.205099
0.205099
0.204606
0.20362
0.206742
0.20477
0.205099
0.205427
0.204113
0.204113
0.201154
0.200661
0.199346
0.199018
0.199675
0.199018
0.197374
0.200825
0.195566
0.198524
0.19836
0.197703
0.197045
0.195566
0.196223
0.196552
0.190635
0.194909
0.191128
0.193429
0.190307
0.190307
0.195237
0.194087
0.19458
0.191786
0.192936
0.192443
0.190307
0.192443
0.189814
0.189814
0.187513
0.188827
0.184718
0.1908
0.181103
0.188663
0.187841
0.189156
0.191621
0.188827
0.186691
0.185376
0.189485
0.188334
0.189156
0.189485
0.190964
0.189156
0.1908
0.187841
0.190307
0.188334
0.189814
0.187841
0.191293
0.189978
0.188827
0.191457
0.1908
0.192115
0.189814
0.189978
0.188992
0.190471
0.188827
0.192608
0.190307
0.190471
0.192772
0.190964
0.194416
0.185212
0.195566
0.192772
0.19458
0.194087
0.196223
0.19458
0.194251
0.194744
0.199018
0.197045
0.197045
0.197703
0.197867
0.200332
0.201154
0.200661
0.20214
0.204441
0.200825
0.199346
0.201154
0.201647
0.200825
0.199511
0.202305
0.202962
0.201976
0.20362
0.201812
0.205921
0.204606
0.201812
0.201976
0.202305
0.201647
0.202305
0.20362
0.202469
0.202962
0.199511
0.202962
0.201319
0.203948
0.203455
0.20362
0.202305
0.203784
0.204277
0.204606
0.203126
0.202305
0.204113
0.201154
0.201483
0.201319
0.205921
0.203784
0.199182
0.203126
0.202305
0.205263
0.205099
0.206742
0.2074
0.212002
0.21118
0.213645
0.209865
0.210851
0.207893
0.20477
0.206578
0.208222
0.204113
0.20855
0.206414
0.206907
0.209701
0.205263
0.209865
0.207071
0.210194
0.205592
0.209372
0.212002
0.209536
0.206414
0.206414
0.207071
0.204277
0.203126
0.2074
0.2074
0.203948
0.210358
0.205756
0.207235
0.206578
0.20855
0.207728
0.208879
0.206085
0.204441
0.205427
0.204934
0.205427
0.205921
0.205263
0.203948
0.203455
0.20362
0.206578
0.201976
0.206414
0.204606
0.204934
0.206907
0.205592
0.204277
0.203948
0.204606
0.202633
0.204441
0.204934
0.204441
0.202305
0.203291
0.203784
0.20362
0.203126
0.204606
0.202633
0.203455
0.202305
0.203126
0.204113
0.202633
0.204113
0.201483
0.200332
0.199675
0.200168
0.200332
0.20099
0.196552
0.199675
0.199018
0.199839
0.199018
0.199346
0.195402
0.19836
0.198196
0.198689
0.201976
0.19721
0.197045
0.195237
0.197045
0.194416
0.19458
0.192936
0.196388
0.195237
0.197045
0.196388
0.194251
0.19573
0.197538
0.194909
0.196388
0.193429
0.193594
0.199346
0.197703
0.201647
0.204113
0.199346
0.195566
0.19836
0.196388
0.194744
0.195237
0.194087
0.194744
0.200497
0.195402
0.198853
0.197045
0.194251
0.199839
0.194416
0.197703
0.196717
0.194909
0.197703
0.19836
0.19573
0.197703
0.195895
0.195895
0.198853
0.196388
0.196388
0.196388
0.20214
0.199018
0.197374
0.200332
0.201319
0.195402
0.19573
0.199018
0.19836
0.194416
0.198031
0.19721
0.198853
0.196552
0.198853
0.197538
0.196881
0.199511
0.197867
0.199675
0.200661
0.202962
0.200168
0.196388
0.19836
0.192772
0.194087
0.196881
0.193101
0.197374
0.199182
0.197374
0.196717
0.198853
0.199346
0.19721
0.203784
0.201976
0.197374
0.200661
0.197374
0.199182
0.197703
0.198689
0.197538
0.199182
0.19721
0.199675
0.204934
0.195566
0.198689
0.201319
0.19836
0.197703
0.200497
0.202305
0.197538
0.196881
0.200497
0.201647
0.196388
0.198853
0.197045
0.197867
0.200825
0.196717
0.198524
0.200497
0.201976
0.200168
0.21233
0.201154
0.203455
0.202633
0.198524
0.200332
0.19836
0.198689
0.196552
0.197374
0.198031
0.202469
0.194416
0.198031
0.197867
0.199839
0.199182
0.196717
0.197867
0.198524
0.201483
0.199018
0.199182
0.198031
0.199675
0.19721
0.201812
0.195895
0.198524
0.20099
0.198524
0.200168
0.200661
0.190635
0.194087
0.198031
0.195566
0.199018
0.199018
0.20099
0.199346
0.202305
0.200825
0.199018
0.189485
0.198689
0.199018
0.199675
0.198689
0.202305
0.197045
0.199675
0.200825
0.193594
0.199018
0.195895
0.199346
0.198524
0.203291
0.200825
0.200332
0.201483
0.200825
0.201154
0.199182
0.200004
0.200332
0.19721
0.199346
0.199839
0.201154
0.204934
0.198524
0.201647
0.203784
0.204113
0.201483
0.200332
0.200661
0.198031
0.198196
0.19573
0.19458
0.196388
0.199839
0.198031
0.198853
0.200661
0.202962
0.200004
0.205263
0.201154
0.201812
0.202962
0.200168
0.20099
0.201319
0.203455
0.19721
0.196552
0.195073
0.200332
0.196388
0.198196
0.200332
0.201319
0.201647
0.201976
0.202633
0.200004
0.202633
0.199839
0.201319
0.20099
0.198196
0.199346
0.199182
0.196388
0.201319
0.196552
0.199511
0.199182
0.201812
0.201154
0.198689
0.201483
0.200004
0.20214
0.201976
0.204934
0.198689
0.199511
0.194909
0.199346
0.195895
0.196717
0.195237
0.199839
0.206085
0.198196
0.202962
0.201319
0.201483
0.20099
0.205263
0.20099
0.199839
0.199182
0.199839
0.197374
0.201319
0.201154
0.20099
0.203126
0.199839
0.20099
0.198524
0.199839
0.199346
0.200661
0.197538
0.201976
0.19836
0.200661
0.200168
0.199346
0.201483
0.19836
0.197867
0.195895
0.201812
0.19836
0.197374
0.200332
0.203126
0.196717
0.200004
0.200168
0.196881
0.194909
0.199346
0.199675
0.198853
0.199018
0.201812
0.198524
0.201976
0.19836
0.200661
0.200168
0.199675
0.20099
0.199346
0.200332
0.199511
0.199839
0.200004
0.200661
0.20099
0.206249
0.201812
0.199182
0.20362
0.197374
0.195402
0.199018
0.204113
0.198689
0.204113
0.199839
0.197703
0.196059
0.200661
0.200332
0.199018
0.200004
0.19836
0.202305
0.199839
0.201154
0.198196
0.202798
0.200004
0.199346
0.198031
0.202633
0.200497
0.197703
0.201154
0.199346
0.197867
0.198196
0.20099
0.201812
0.203784
0.200004
0.202798
0.200168
0.197703
0.20362
0.202305
0.202798
0.200332
0.199511
0.200497
0.196717
0.200168
0.202305
0.20214
0.195895
0.201154
0.203291
0.199675
0.203948
0.204606
0.202962
0.202798
0.200497
0.200004
0.19836
0.19836
0.201483
0.200168
0.199182
0.200825
0.198031
0.200332
0.193758
0.202305
0.199182
0.201647
0.200661
0.202962
0.202962
0.199839
0.195237
0.200168
0.197867
0.19721
0.200332
0.197538
0.201154
0.197045
0.199018
0.198853
0.19836
0.198524
0.201154
0.199182
0.200332
0.201154
0.199346
0.200168
0.200168
0.200332
0.200661
0.199182
0.195237
0.197045
0.19573
0.197867
0.195895
0.201647
0.199675
0.202633
0.200168
0.197867
0.199182
0.197703
0.196223
0.200004
0.198689
0.199182
0.198853
0.197703
0.202633
0.198524
0.198524
0.199182
0.199839
0.201812
0.200497
0.197867
0.198689
0.200497
0.196552
0.200332
0.199346
0.200004
0.197867
0.200332
0.196388
0.196881
0.193429
0.197045
0.195566
0.199675
0.204934
0.202469
0.200004
0.199839
0.201647
0.200168
0.201154
0.198689
0.201483
0.199839
0.196717
0.199182
0.200332
0.199182
0.202469
0.200168
0.202633
0.199675
0.197045
0.200825
0.200661
0.204934
0.202469
0.201647
0.201319
0.20099
0.201483
0.204277
0.196552
0.197703
0.199018
0.199018
0.199511
0.20099
0.199346
0.198689
0.200825
0.201976
0.204277
0.198524
0.202305
0.201154
0.198031
0.197703
0.200661
0.193429
0.196388
0.195237
0.198524
0.198524
0.196059
0.200004
0.198853
0.199346
0.199675
0.198196
0.199182
0.203455
0.200661
0.200497
0.200825
0.196717
0.201154
0.199511
0.201154
0.200332
0.199839
0.195402
0.200168
0.200825
0.205099
0.202305
0.200168
0.199182
0.203291
0.197538
0.202633
0.200825
0.197538
0.199839
0.200004
0.200004
0.198524
0.200497
0.195073
0.201319
0.194416
0.199346
0.200332
0.198524
0.202469
0.202962
0.19836
0.198524
0.200168
0.19721
0.194416
0.195402
0.200168
0.196223
0.198031
0.199346
0.198524
0.19836
0.20214
0.19836
0.199018
0.200332
0.20099
0.201154
0.196552
0.197703
0.200332
0.201154
0.19836
0.206907
0.197538
0.197867
0.196388
0.19836
0.193594
0.194251
0.19458
0.197703
0.198853
0.195895
0.198196
0.197374
0.198689
0.19836
0.197374
0.196388
0.195237
0.196881
0.200825
0.196223
0.193922
0.18439
0.196059
0.198524
0.194251
0.200661
0.19721
0.197374
0.196717
0.200004
0.191621
0.197045
0.191128
0.197045
0.197867
0.197703
0.197703
0.199182
0.197045
0.195566
0.198689
0.195895
0.199511
0.19573
0.193758
0.194909
0.197703
0.198689
0.198689
0.199018
0.199182
0.200332
0.199018
0.199182
0.195402
0.195237
0.19836
0.19836
0.19836
0.201976
0.19721
0.198524
0.198031
0.199018
0.196552
0.198524
0.19836
0.200825
0.201319
0.200332
0.198689
0.198689
0.197045
0.199018
0.200004
0.197867
0.200004
0.198524
0.19836
0.192936
0.199511
0.196552
0.199675
0.198853
0.19836
0.199182
0.198031
0.20099
0.197703
0.200004
0.19836
0.199182
0.198196
0.198689
0.197867
0.194416
0.195073
0.197374
0.19836
0.200332
0.200168
0.199675
0.200825
0.199018
0.200825
0.201647
0.206085
0.201976
0.201154
0.199675
0.199511
0.196717
0.199182
0.197538
0.198196
0.200497
0.199018
0.201976
0.203291
0.204277
0.199346
0.205921
0.200168
0.201154
0.20099
0.199346
0.195895
0.197374
0.198031
0.195895
0.198689
0.196388
0.200497
0.20099
0.200004
0.200497
0.201319
0.199511
0.202962
0.200497
0.201647
0.20099
0.200661
0.198524
0.199182
0.198689
0.195402
0.197703
0.198853
0.198196
0.201154
0.202305
0.197703
0.204934
0.200332
0.204113
0.202305
0.202633
0.199182
0.198689
0.198689
0.199018
0.199511
0.199018
0.199675
0.199182
0.200825
0.196881
0.202962
0.200497
0.202633
0.201319
0.205099
0.202469
0.200332
0.200168
0.198853
0.197374
0.20099
0.199675
0.201483
0.20099
0.199675
0.203455
0.199675
0.201483
0.201647
0.201812
0.198524
0.203455
0.200497
0.200825
0.201647
0.197867
0.201976
0.200004
0.202798
0.201647
0.204606
0.198853
0.202305
0.198689
0.199346
0.202633
0.199346
0.204441
0.205427
0.198853
0.196059
0.205099
0.199675
0.200825
0.199839
0.200825
0.199839
0.200332
0.199346
0.19836
0.199511
0.200825
0.201647
0.199839
0.201976
0.200332
0.20214
0.200825
0.201647
0.200168
0.204113
0.20099
0.198689
0.199018
0.199182
0.200825
0.201154
0.202633
0.20099
0.201319
0.201647
0.203126
0.201976
0.203784
0.200497
0.206085
0.201483
0.205756
0.207071
0.20214
0.203455
0.204277
0.203291
0.202962
0.200825
0.204277
0.201647
0.200497
0.201647
0.200004
0.199675
0.199182
0.206742
0.200004
0.20477
0.19836
0.205921
0.202305
0.202305
0.199182
0.200661
0.200825
0.200332
0.203784
0.200332
0.203291
0.200661
0.204113
0.200825
0.201483
0.198524
0.199182
0.200332
0.20099
0.204606
0.203784
0.20362
0.201812
0.201154
0.201483
0.203126
0.201154
0.202633
0.201647
0.203126
0.203126
0.202798
0.200497
0.201319
0.201812
0.201976
0.202305
0.200332
0.201647
0.201976
0.205592
0.204277
0.203455
0.199675
0.201319
0.202962
0.201812
0.201812
0.202305
0.201812
0.202962
0.207071
0.206249
0.20214
0.202633
0.20362
0.195895
0.200332
0.203455
0.199346
0.200497
0.200825
0.204277
0.203784
0.201154
0.201812
0.203455
0.203455
0.200497
0.200497
0.203126
0.199511
0.203784
0.202962
0.203455
0.201812
0.201647
0.201976
0.203291
0.197538
0.199675
0.202962
0.203126
0.204113
0.200825
0.20099
0.202469
0.202469
0.202962
0.205756
0.200661
0.204441
0.204113
0.197703
0.200004
0.202798
0.202305
0.206085
0.203291
0.201319
0.204113
0.202962
0.202469
0.20362
0.20214
0.201976
0.203455
0.201976
0.203291
0.202633
0.203291
0.198524
0.200497
0.195237
0.201812
0.20362
0.195895
0.20214
0.197045
0.201483
0.201647
0.203455
0.200825
0.203126
0.202469
0.203455
0.203948
0.202305
0.202962
0.199182
0.203948
0.205099
0.203455
0.20099
0.210358
0.201483
0.20099
0.20214
0.201812
0.203948
0.202798
0.203948
0.205921
0.202962
0.205427
0.204606
0.202305
0.205263
0.200497
0.200825
0.200004
0.201812
0.201812
0.20362
0.204277
0.204606
0.202305
0.203291
0.203455
0.206085
0.204934
0.202469
0.205592
0.204277
0.199839
0.198689
0.201483
0.196881
0.199675
0.198196
0.199675
0.204934
0.201647
0.204934
0.203948
0.203948
0.204441
0.206249
0.204277
0.204934
0.202798
0.203455
0.204441
0.201647
0.196223
0.207564
0.200825
0.203291
0.203291
0.201647
0.204113
0.202798
0.202305
0.202469
0.206578
0.204441
0.205427
0.205263
0.202469
0.196223
0.198031
0.197867
0.200332
0.200004
0.200332
0.201976
0.200168
0.205427
0.202305
0.198524
0.200497
0.200004
0.201812
0.203455
0.201647
0.196881
0.199511
0.200825
0.20099
0.197867
0.200497
0.201154
0.201483
0.199018
0.200332
0.198689
0.199675
0.202305
0.201154
0.201319
0.202633
0.199839
0.202962
0.199675
0.200004
0.199346
0.19836
0.200168
0.19458
0.195073
0.201154
0.201154
0.199675
0.202798
0.200332
0.201647
0.19836
0.200004
0.198853
0.199182
0.199675
0.201812
0.19836
0.198689
0.201812
0.198196
0.199346
0.19721
0.199675
0.198853
0.198031
0.197045
0.197867
0.196552
0.197867
0.197538
0.19573
0.199018
0.19721
0.200332
0.198689
0.199346
0.200497
0.201319
0.194251
0.20099
0.196552
0.199346
0.198524
0.19573
0.199346
0.195566
0.198524
0.200825
0.202305
0.196717
0.202633
0.199018
0.198689
0.201647
0.199018
0.19721
0.199018
0.196059
0.198031
0.198524
0.196717
0.197703
0.197538
0.196552
0.196223
0.200004
0.197538
0.200004
0.197538
0.199182
0.197374
0.20099
0.196059
0.199346
0.196881
0.196388
0.197374
0.197374
0.199018
0.193758
0.19721
0.198689
0.196388
0.195073
0.201154
0.19721
0.198853
0.196223
0.199018
0.196552
0.198031
0.196223
0.196059
0.195237
0.197374
0.201647
0.194909
0.195073
0.198524
0.197374
0.198031
0.197703
0.199839
0.199346
0.199511
0.200332
0.208386
0.19721
0.196881
0.196059
0.19836
0.19573
0.198689
0.19458
0.196881
0.19721
0.198853
0.201483
0.199346
0.198524
0.198853
0.198853
0.195237
0.19573
0.195895
0.19195
0.196388
0.196388
0.185705
0.198031
0.193594
0.196717
0.194416
0.199182
0.200168
0.199018
0.200497
0.199346
0.200825
0.186526
0.197867
0.19721
0.198853
0.19721
0.19836
0.196059
0.197538
0.198196
0.19836
0.199182
0.196223
0.194416
0.201319
0.199182
0.19836
0.194416
0.196881
0.196388
0.199675
0.200004
0.198031
0.198689
0.194251
0.201319
0.198031
0.195895
0.199346
0.199182
0.199511
0.200168
0.199182
0.200168
0.203291
0.200497
0.200332
0.202798
0.203455
0.196881
0.198853
0.19573
0.197374
0.195237
0.196223
0.199182
0.198031
0.203126
0.198031
0.19836
0.196881
0.202305
0.198524
0.203126
0.198853
0.200661
0.201483
0.20099
0.199182
0.198524
0.198031
0.199675
0.200497
0.199839
0.200825
0.19458
0.201483
0.195237
0.203784
0.198031
0.199839
0.200497
0.201976
0.201483
0.201319
0.199346
0.202962
0.200497
0.199018
0.203455
0.197374
0.199346
0.198524
0.198524
0.200168
0.197867
0.200825
0.199675
0.194251
0.197867
0.202305
0.195402
0.200004
0.198853
0.199018
0.199675
0.20099
0.196223
0.200825
0.19836
0.198524
0.201976
0.198196
0.201319
0.200332
0.199182
0.201154
0.200825
0.20099
0.199839
0.198196
0.200661
0.199182
0.199018
0.198031
0.199839
0.19836
0.20477
0.199839
0.200332
0.202962
0.201483
0.19836
0.199511
0.200332
0.199675
0.19836
0.201319
0.198031
0.197867
0.203126
0.197538
0.200825
0.195073
0.193594
0.198031
0.196388
0.200497
0.199839
0.202798
0.198524
0.201154
0.198689
0.201483
0.199511
0.202305
0.199511
0.199018
0.197703
0.198853
0.19836
0.199182
0.199675
0.199182
0.200825
0.199346
0.20099
0.199675

Kurve 3

0.000146
-1.9e-05
0.001625
-0.001991
-0.001991
0.002118
0.001132
0.001296
-0.000512
-0.000841
-0.000512
0.00146
0.002282
-0.002813
-1.9e-05
0.00409
0.000803
-0.000676
-0.001498
-0.002155
-0.002155
-0.001662
-0.002155
-0.002813
0.001625
-0.001169
0.007213
-0.001827
0.000967
0.002118
0.001132
0.000967
-0.001005
-0.002813
-0.002813
-0.006757
-0.005443
-0.002813
-0.003635
-0.001005
0.000967
0.00031
-0.000347
0.002118
-0.000183
0.001789
-0.000347
-0.000676
0.002282
-0.00232
-0.001827
0.000803
-1.9e-05
-1.9e-05
-0.000512
-0.000183
0.001954
-0.001498
-0.001991
0.002282
0.002282
-0.000512
0.004419
-0.001169
0.003597
0.00146
0.002611
-0.001662
0.003761
-0.005443
-0.003142
-0.000347
-0.006757
0.004912
-0.002155
-0.002484
-0.001005
0.001296
-0.001991
0.000474
-0.002813
-0.000512
0.001132
-0.001827
0.005076
-0.009223
-0.001334
-0.004785
-0.004949
-0.006593
-0.002813
-0.005278
-0.000512
-0.000676
-0.000183
0.00146
-0.002155
-0.00232
-0.001662
-0.000183
-0.002977
-0.001827
-0.006593
-0.001498
0.001625
-0.002813
-0.010045
-0.003635
-0.00347
-0.001827
-0.002977
-0.001827
-0.001169
-0.003306
-0.001005
0.001296
0.000967
-0.016783
-0.003142
-0.004949
-0.00232
-0.001005
-0.008237
-0.007908
-0.002155
-0.004621
-0.004785
-0.002155
-0.006593
-0.003306
-0.00232
-0.001827
-0.00232
-0.000676
-0.001498
-0.00232
-0.002155
0.000803
-0.002155
-0.002155
-0.00725
0.000146
-0.002813
-0.004785
-0.001169
-0.005114
-0.000183
-0.002977
-0.001334
-0.001991
-0.001005
-0.003799
-0.001005
-0.007579
-0.001991
-0.002648
-0.002977
-0.004456
0.001625
-0.004785
-0.002813
-0.000676
-0.004621
-0.001827
-0.003635
-0.002155
-0.004621
-0.0061
-0.003635
0.000146
-0.001827
0.004912
-0.001005
-0.003799
-0.001334
-0.001662
-0.002648
0.000639
-0.003799
-0.003635
0.001132
-0.004128
-0.003306
-0.001991
0.002282
-0.001662
-0.000512
-0.00347
-0.002813
-0.00232
-0.004785
-0.001005
-0.002648
-0.002484
-0.00232
-0.000347
-0.003799
-0.001169
-0.001169
-0.000676
-0.003635
-0.000183
0.002118
0.003104
0.00031
-0.000183
0.003761
-0.002813
-0.001498
-0.003142
-0.001991
-0.003963
-0.000183
-0.007908
0.001789
-0.003799
-0.001169
-0.000841
-0.002648
-0.001991
-0.000841
0.002611
-0.000676
0.000146
-0.001662
-0.003799
-0.003799
-0.001169
-0.001334
-0.002813
-0.00347
-0.001169
-0.001827
-0.005278
-0.008237
-0.005278
-0.000841
-0.006429
-0.002648
-1.9e-05
-0.002813
-0.002155
0.000474
-0.003963
-0.005114
-0.003306
-0.001005
-0.004128
0.000146
-0.002813
-0.001169
-0.001827
-0.001991
0.00031
-0.000183
-0.001827
0.002118
-0.000512
-0.006264
-0.003635
-0.004949
0.000639
-0.001498
-0.001827
-0.001991
-0.003306
-0.002484
-0.003142
-0.003142
-0.002813
-0.000512
-0.002155
0.001789
-0.003799
-0.000841
-0.001005
-0.000676
0.001296
0.000639
0.002118
-0.003635
-1.9e-05
-0.00232
0.000146
-0.001169
-0.003799
-0.002977
-0.003963
-0.002813
-0.005443
-0.003799
0.000146
-0.002155
0.001954
-0.002813
-0.001169
0.00031
-0.002484
-0.001334
-0.001169
-0.001991
-0.002484
-0.000841
-0.002648
0.000639
-0.003635
-0.001662
-0.001662
0.000639
0.003433
0.00146
-0.001498
0.001132
0.003926
-0.003306
0.000474
-0.001005
-0.001662
-0.003306
-0.000676
-0.003963
-0.001334
-0.003306
-0.002484
-0.000676
-0.002155
-0.001005
0.000803
-0.00232
-1.9e-05
0.000803
-0.001169
0.003433
-0.001827
0.000146
-0.001005
-0.000676
-0.003635
-0.001334
-0.007086
-0.006264
-0.003306
-0.001827
-0.000676
0.000146
-0.000183
0.001132
0.00146
-0.001169
0.001789
0.000146
-0.00232
0.000639
-0.003142
-0.00232
-0.002648
-0.001334
-0.000347
-0.003799
-0.001827
0.00294
0.001132
0.000967
0.000146
0.000803
-0.00347
0.003104
-0.000347
-1.9e-05
-0.001169
-1.9e-05
-0.00232
-0.002484
-0.001334
-0.002155
-0.000183
-0.002648
0.000967
-0.000841
0.00031
-0.003306
0.000474
0.00031
-0.000183
-0.000676
-0.001991
0.000803
-0.002977
0.001296
-1.9e-05
-0.003306
-0.000183
0.001296
-0.001991
0.000146
-0.000512
0.000639
-0.000512
-0.000183
0.002611
0.003597
-0.000183
0.000967
0.000639
-1.9e-05
-0.000841
0.000639
-0.004949
0.001132
-0.001827
-0.004128
0.005241
-0.002484
-0.000512
0.000146
-0.001498
-0.001169
0.000803
-0.001334
-0.001827
-0.001662
0.001132
0.000639
-0.001662
0.000474
-0.001991
0.000639
-0.000183
0.004583
-0.002813
0.002611
0.003104
0.001789
-0.000512
0.002118
-0.000841
-0.000676
-0.002155
-0.005771
-0.001498
-0.005936
0.000803
-0.004949
-0.000841
-0.001827
-0.002484
-0.000841
0.001132
-0.002648
-0.002155
-0.001827
-0.001662
-0.000347
-0.001169
0.001132
-0.004128
0.000474
-0.001498
-0.000841
-0.001991
0.000639
-0.006264
-0.001005
-0.003635
-0.002813
-0.003963
-0.003635
0.000967
-0.002484
0.001789
-0.001498
-0.000183
-0.001169
0.000639
-0.001991
-0.000347
0.001132
-0.002648
-0.003142
-1.9e-05
-0.002977
-0.002813
-0.003306
-0.003799
-0.003306
-0.000841
-0.001334
-0.004456
-0.004128
-0.002977
0.000639
-1.9e-05
0.001789
-0.001991
-0.003142
-0.000676
-0.001827
-0.002155
-0.001662
-0.002155
-0.002648
-0.000676
-0.001169
-0.002813
-0.000347
-0.000347
-0.001827
0.003761
0.000146
0.002118
0.004255
0.003104
0.000803
-0.001991
0.000146
-0.000347
0.00031
-0.004456
-0.000183
-0.002977
-0.001334
-0.002648
-1.9e-05
0.000474
-0.002648
0.00031
-0.000512
-0.001827
-0.000512
0.000474
-0.001169
0.000639
0.003597
-0.000512
-0.000183
-0.000183
-0.002977
-0.002648
-0.002648
-0.002813
-0.001991
0.000146
-0.00347
0.002282
0.003761
-0.003799
0.002447
0.000474
-1.9e-05
-0.001827
-0.000512
-0.001662
-0.000676
-0.001991
-0.001662
-0.001005
-0.003799
-0.001498
-0.001662
-0.000183
-0.002813
0.00294
0.00146
0.002118
-0.000183
-1.9e-05
0.000803
-1.9e-05
-0.002484
-0.001169
-0.00347
-0.002977
0.002775
-0.002155
0.000803
-0.000512
0.002118
0.001625
0.003268
0.000803
0.002447
0.003433
-0.001169
0.000474
-0.000183
-0.003635
-0.001498
-0.002484
-0.003799
0.00031
-0.000347
0.004255
-0.002484
-0.000347
0.000803
-0.000183
0.002118
0.006062
0.003597
0.001954
0.003268
0.00409
0.00146
0.001954
0.005569
0.002118
0.004419
0.000639
0.004583
0.000803
-0.001005
0.001132
0.005898
-0.000676
0.004419
0.003104
0.003104
0.00409
0.000639
0.002611
-1.9e-05
0.001296
0.002447
0.002447
0.002282
0.000474
0.000474
0.005569
0.001132
0.007377
0.001625
0.00031
0.000474
-1.9e-05
0.002447
0.001132
-0.000841
-0.000676
-0.001005
-0.000512
0.002118
-0.001662
0.002611
-0.001334
0.001954
0.001132
0.002447
0.00294
0.001625
0.001296
0.002611
0.001789
0.000474
0.001625
0.000639
0.004419
-0.000347
-0.003142
-0.001498
0.000474
-0.006429
-0.006264
-0.002155
-0.001827
-0.001169
0.000146
0.001132
-0.001005
0.004255
-0.002484
-0.000347
-0.000347
0.000474
-0.00347
-0.00232
-0.004456
0.002775
-0.001498
-0.002484
0.006556
-0.004621
-0.001334
-0.001662
-1.9e-05
0.000967
0.000639
-0.003799
0.001625
-0.002648
-0.001169
-0.009058
-0.004621
-0.005443
-0.003799
-0.002648
-0.005936
0.001296
-0.005936
-0.001662
-0.000841
-0.003142
-0.013989
-0.000512
-0.003142
-0.004785
-0.004456
-0.001005
-0.002977
-0.002977
-0.001005
-0.002977
-0.003799
-0.007744
-0.000841
-0.007086
-0.000841
-0.002155
0.000639
-0.004785
-0.000512
-0.001991
-0.001334
-0.001827
-0.002155
-0.006264
0.000474
-0.001169
-0.004785
-0.003963
-0.002977
-0.003799
-0.003142
-0.000347
-0.000347
-0.001334
-0.005114
-0.00347
-0.003799
-0.002648
-0.002977
-0.003799
-0.003799
0.000146
0.00031
-0.000512
-0.004621
-0.000512
-0.001991
-0.001169
-0.000512
-0.005443
0.002775
0.011322
0.020362
0.027429
0.032031
0.04255
0.04748
0.054548
0.058657
0.065231
0.073449
0.07312
0.078544
0.085118
0.087255
0.095308
0.096459
0.103033
0.103691
0.10895
0.114209
0.117003
0.120126
0.124564
0.131467
0.127029
0.132289
0.132946
0.142314
0.136562
0.143136
0.14478
0.143465
0.142643
0.146588
0.152998
0.151354
0.155792
0.159736
0.16401
0.162037
0.165324
0.164174
0.169105
0.167954
0.171077
0.171077
0.173871
0.174364
0.171899
0.177158
0.173871
0.17913
0.177487
0.180116
0.181596
0.179788
0.18061
0.184225
0.183897
0.187841
0.18439
0.185869
0.185869
0.184883
0.187677
0.182911
0.185869
0.186526
0.188006
0.186855
0.190471
0.18817
0.189649
0.190307
0.190307
0.187677
0.192279
0.190307
0.192936
0.191128
0.195237
0.192443
0.1908
0.192115
0.195566
0.192279
0.190635
0.194909
0.191293
0.194909
0.194744
0.196059
0.195895
0.196388
0.196223
0.19721
0.197703
0.193922
0.196059
0.194744
0.193758
0.194909
0.201319
0.192443
0.195073
0.194416
0.195566
0.196717
0.197538
0.198196
0.195566
0.198524
0.198689
0.197703
0.195566
0.200004
0.196059
0.196388
0.19836
0.194087
0.195402
0.19836
0.194744
0.195895
0.193758
0.193758
0.197374
0.196059
0.197703
0.196881
0.199182
0.19721
0.197045
0.198524
0.200332
0.197703
0.193922
0.195237
0.197703
0.196223
0.200168
0.196223
0.198524
0.199182
0.199511
0.197703
0.197538
0.200004
0.199346
0.201483
0.194087
0.198196
0.199182
0.19721
0.196717
0.199018
0.199182
0.196881
0.201483
0.197374
0.197538
0.197374
0.198853
0.197538
0.200497
0.198031
0.200004
0.199182
0.200332
0.200004
0.197867
0.195566
0.198853
0.200661
0.194909
0.195402
0.194744
0.199675
0.195566
0.198853
0.19836
0.20099
0.199182
0.20099
0.196552
0.195895
0.19721
0.191786
0.198689
0.197703
0.197374
0.195895
0.200497
0.19573
0.194416
0.198524
0.19573
0.198524
0.197538
0.203291
0.201483
0.200168
0.201319
0.199675
0.19836
0.201319
0.197867
0.198524
0.198031
0.198196
0.19458
0.200661
0.195073
0.196717
0.201812
0.199511
0.197538
0.200168
0.198196
0.19836
0.201483
0.199018
0.20099
0.199346
0.197045
0.194744
0.19573
0.195895
0.196717
0.197374
0.197867
0.198196
0.198524
0.197045
0.196717
0.195073
0.198031
0.200661
0.198196
0.200497
0.200004
0.19836
0.20099
0.200168
0.199018
0.200168
0.19721
0.195073
0.201647
0.198031
0.200332
0.198853
0.201647
0.198689
0.204277
0.201154
0.202305
0.199675
0.202633
0.195895
0.199182
0.200332
0.198524
0.200332
0.200661
0.201812
0.199182
0.200168
0.200825
0.200168
0.199346
0.198689
0.201319
0.202633
0.20214
0.199839
0.200825
0.20099
0.198031
0.199839
0.202305
0.197045
0.196223
0.198031
0.200332
0.197045
0.205756
0.201812
0.204606
0.200332
0.203784
0.199839
0.202469
0.201483
0.200661
0.20099
0.198524
0.199839
0.198853
0.20099
0.198524
0.200661
0.199675
0.199018
0.201154
0.199839
0.200332
0.201976
0.19836
0.200168
0.20362
0.198689
0.201319
0.201647
0.200004
0.199511
0.198689
0.199182
0.200332
0.199675
0.198689
0.197703
0.204113
0.200661
0.206414
0.200661
0.199346
0.201976
0.198031
0.202633
0.200661
0.200168
0.198853
0.200004
0.197703
0.204441
0.199675
0.198031
0.19721
0.198689
0.200825
0.200825
0.197538
0.199018
0.201319
0.199839
0.209208
0.191786
0.200332
0.199182
0.199675
0.19836
0.201976
0.196059
0.199511
0.199182
0.199675
0.210358
0.195895
0.20214
0.203948
0.201976
0.199839
0.202305
0.199511
0.201812
0.204441
0.202633
0.201154
0.198689
0.199182
0.200168
0.201319
0.200332
0.203784
0.205592
0.200168
0.204934
0.204277
0.196223
0.202305
0.201976
0.203455
0.199018
0.199511
0.201319
0.200825
0.19836
0.197045
0.200661
0.187841
0.201483
0.202962
0.20099
0.205099
0.203784
0.200825
0.205263
0.204277
0.201976
0.202305
0.18932
0.199511
0.202798
0.200497
0.201812
0.202798
0.197538
0.205263
0.202469
0.102869
0.076572
0.080023
0.08594
0.094651
0.095473
0.10139
0.105498
0.070326
0.079201
0.08331
0.08709
0.090542
0.093172
0.066875
0.053562
0.066217
0.068354
0.073942
0.080023
0.085118
0.02069
0.015595
0.012965
-0.001169
0.004583
0.011322
0.014938
-1.9e-05
-1.9e-05
-0.000183
0.000146
0.002118
-0.000512
0.002447
0.004255
0.003433
0.015266
0.004255
0.012308
0.020526
0.028415
0.028415
0.035647
0.039263
0.046987
0.048631
0.040906
0.016088
0.012801
0.022498
0.022005
0.031209
0.035975
0.046987
0.050768
0.054712
0.062437
-0.007086
-0.000841
0.007049
0.012144
0.02069
0.027922
0.033839
0.038441
0.043207
0.053233
0.038769
0.010664
0.017567
0.026114
0.029401
0.038112
0.045015
0.008528
0.003104
0.008692
0.002611
0.008363
0.01313
0.01576
0.01313
0.010336
0.003761
0.011322
0.01576
0.021841
0.030059
0.03351
0.00031
-0.000347
0.000803
0.000639
0.014445
0.002611
0.004748
0.00146
0.012637
0.022334
0.024964
0.030059
0.038441
0.042057
0.046659
0.056027
0.060465
0.065231
0.008199
0.020362
0.027429
0.033346
0.04255
0.049946
0.05389
0.062601
0.069669
0.069176
0.078051
0.078708
0.087748
0.088734
0.093007
0.095801
0.104019
0.106813
0.108293
0.112566
0.118318
0.12177
0.127029
0.130316
0.131467
0.131138
0.135576
0.139849
0.13952
0.144451
0.141657
0.145766
0.149217
0.15119
0.152669
0.155627
0.1576
0.159901
0.164667
0.16779
0.168612
0.166639
0.169926
0.167625
0.168447
0.17272
0.173378
0.172392
0.175186
0.175679
0.175021
0.176501
0.178637
0.179788
0.181596
0.183897
0.183568
0.182417
0.182417
0.188663
0.188334
0.186855
0.188499
0.187677
0.188334
0.186033
0.190471
0.189156
0.188827
0.188992
0.191457
0.194087
0.198031
0.198853
0.196059
0.193594
0.195895
0.190142
0.196717
0.199346
0.198031
0.197374
0.192772
0.192936
0.19458
0.196552
0.193758
0.200332
0.19573
0.201319
0.198689
0.20099
0.200004
0.201483
0.197867
0.20099
0.19836
0.200825
0.197374
0.200168
0.199018
0.199511
0.200661
0.196552
0.202798
0.19836
0.197867
0.19836
0.201319
0.199839
0.203455
0.201647
0.201319
0.20214
0.201647
0.201483
0.194251
0.201319
0.195566
0.201319
0.198196
0.20214
0.189978
0.189156
0.189649
0.190142
0.190471
0.191457
0.190471
0.191293
0.196223
0.189978
0.193922
0.19573
0.200825
0.191786
0.190307
0.194087
0.193101
0.192279
0.191621
0.194416
0.195402
0.199346
0.198689
0.197703
0.196717
0.198196
0.197703
0.197703
0.19573
0.200497
0.196223
0.197538
0.20099
0.197703
0.198031
0.199675
0.197374
0.199018
0.199018
0.198196
0.198196
0.191128
0.197374
0.201319
0.201647
0.200497
0.201319
0.197703
0.196717
0.19573
0.19836
0.19721
0.199839
0.199182
0.200661
0.199675
0.19836
0.201483
0.198031
0.198689
0.199839
0.201483
0.194909
0.199839
0.20362
0.196717
0.196881
0.198031
0.197538
0.191457
0.201647
0.19458
0.19721
0.19573
0.197045
0.199346
0.198689
0.196059
0.198524
0.197867
0.200004
0.198689
0.197374
0.19836
0.194416
0.201812
0.197374
0.197538
0.195402
0.199018
0.199839
0.200004
0.193429
0.195895
0.197703
0.197538
0.196223
0.197703
0.199182
0.196717
0.200825
0.198853
0.200332
0.196388
0.200661
0.194744
0.199018
0.197374
0.198196
0.198689
0.189485
0.192279
0.196388
0.197045
0.191457
0.197867
0.195073
0.196881
0.192936
0.196223
0.196552
0.193429
0.19573
0.197374
0.195566
0.202305
0.19458
0.195402
0.200168
0.198689
0.19573
0.198196
0.198689
0.199018
0.200168
0.199018
0.200825
0.199346
0.199182
0.198196
0.198853
0.196223
0.201976
0.193429
0.198031
0.20099
0.194251
0.194744
0.198524
0.152669
0.152998
0.155463
0.156778
0.159243
0.162695
0.16138
0.164174
0.165982
0.167132
0.164831
0.166968
0.170419
0.17272
0.169269
0.174035
0.173214
0.178473
0.176172
0.179788
0.180281
0.179952
0.17913
0.179295
0.179952
0.178637
0.182417
0.181267
0.181596
0.178637
0.183897
0.184225
0.182253
0.185705
0.185212
0.18554
0.187841
0.189156
0.186855
0.190307
0.18817
0.190471
0.186526
0.186198
0.190964
0.189156
0.186033
0.189485
0.190471
0.189814
0.191128
0.193265
0.192279
0.19458
0.191786
0.192443
0.193922
0.191786
0.194744
0.191293
0.193429
0.196059
0.196881
0.194416
0.199346
0.19573
0.193429
0.194416
0.199018
0.194087
0.195073
0.196552
0.196881
0.197538
0.197703
0.198031
0.19195
0.196388
0.194087
0.195402
0.194909
0.197538
0.192115
0.196059
0.198524
0.194416
0.19836
0.195237
0.196388
0.194087
0.197045
0.19573
0.195402
0.189649
0.193594
0.199182
0.195402
0.197867
0.194251
0.195073
0.196059
0.198524
0.198031
0.197703
0.19573
0.198031
0.200004
0.20099
0.199839
0.198524
0.199511
0.201154
0.197045
0.19836
0.195073
0.194087
0.192115
0.19573
0.197867
0.202962
0.195237
0.200332
0.198689
0.200332
0.199018
0.198031
0.200332
0.199346
0.201154
0.199675
0.192279
0.196223
0.198031
0.199511
0.196552
0.19721
0.198689
0.199346
0.203455
0.201154
0.197867
0.187841
0.198031
0.199839
0.197703
0.197703
0.19721
0.196059
0.200004
0.198524
0.199018
0.196223
0.198524
0.199346
0.201483
0.201154
0.201154
0.196717
0.199675
0.20099
0.20214
0.197374
0.199018
0.20214
0.197045
0.199346
0.202962
0.203784
0.203291
0.204441
0.199675
0.204934
0.197867
0.201647
0.19836
0.199182
0.201976
0.201647
0.199675
0.200168
0.203291
0.20099
0.202305
0.201976
0.201154
0.200497
0.205427
0.199839
0.20099
0.201483
0.200497
0.20214
0.202305
0.200661
0.196717
0.201483
0.198689
0.202305
0.198031
0.202633
0.20099
0.202469
0.203291
0.202962
0.200825
0.202305
0.201812
0.202469
0.206085
0.196223
0.200332
0.199675
0.203291
0.202305
0.202469
0.203784
0.20362
0.202633
0.20362
0.20477
0.198031
0.202305
0.201812
0.201647
0.202633
0.202633
0.20099
0.202962
0.202469
0.202962
0.204606
0.203784
0.202962
0.204277
0.203948
0.204441
0.204113
0.203784
0.202798
0.188499
0.002611
0.013294
0.019704
0.026771
0.038276
0.045179
0.049946
0.05652
0.06556
0.07197
0.076243
0.079037
0.084625
0.001132
0.010336
0.019375
0.025128
0.034332
0.040084
0.047152
0.053726
0.06556
0.067368
0.071477
0.077558
0.084296
0.087748
0.088241
0.096294
0.102211
0.10632
0.1101
0.114538
0.117825
0.120455
0.121441
0.1267
0.1267
0.132782
0.13311
0.136726
0.142643
0.144122
0.146259
0.148067
0.152833
0.151847
0.157928
0.1576
0.158914
0.158257
0.159736
0.162202
0.16516
0.162859
0.16779
0.166968
0.170584
0.175021
0.174035
0.175843
0.17535
0.175843
0.180116
0.179295
0.180281
0.183568
0.178637
0.183897
0.183239
0.187184
0.187019
0.18554
0.185376
0.187184
0.187841
0.186526
0.190964
0.192772
0.190142
0.189156
0.193265
0.190142
0.193594
0.190142
0.193758
0.190964
0.190142
0.190635
0.192608
0.18932
0.190964
0.190471
0.1908
0.194251
0.192772
0.193429
0.193265
0.197374
0.194416
0.192608
0.196223
0.194251
0.196717
0.190964
0.191457
0.19573
0.19573
0.197538
0.197538
0.196223
0.197045
0.195237
0.200168
0.195073
0.19836
0.197374
0.198196
0.200825
0.199182
0.201812
0.200497
0.199346
0.197867
0.198196
0.195566
0.198524
0.19721
0.198689
0.195895
0.197538
0.197867
0.198689
0.200004
0.200004
0.199182
0.197538
0.201154
0.199839
0.198196
0.19836
0.197703
0.198031
0.199182
0.198524
0.200332
0.19721
0.196223
0.199018
0.19836
0.199182
0.202305
0.201319
0.204113
0.199182
0.19721
0.200497
0.200004
0.201483
0.197045
0.200497
0.197538
0.200332
0.201319
0.201812
0.201319
0.201647
0.202305
0.202469
0.202962
0.205427
0.205756
0.19836
0.206742
0.199018
0.203948
0.202469
0.204441
0.201319
0.200825
0.199018
0.20099
0.201812
0.201319
0.205592
0.202633
0.20214
0.202962
0.20362
0.201154
0.202633
0.201976
0.200661
0.205099
0.202798
0.203455
0.207564
0.201976
0.201154
0.201483
0.200332
0.201976
0.196717
0.201976
0.197538
0.200661
0.204606
0.207235
0.204113
0.202962
0.206085
0.200825
0.20099
0.201647
0.201647
0.202633
0.205427
0.201483
0.204934
0.201319
0.205263
0.203291
0.202305
0.202962
0.200332
0.201976
0.203784
0.202962
0.202469
0.201154
0.20214
0.205592
0.202798
0.201647
0.19836
0.200497
0.198853
0.197703
0.199182
0.198689
0.198689
0.201319
0.198196
0.203291
0.201976
0.199182
0.201812
0.197703
0.197703
0.198853
0.19721
0.196059
0.195566
0.195895
0.193758
0.189978
0.197703
0.198689
0.199675
0.197867
0.19836
0.198031
0.196388
0.200004
0.194744
0.198031
0.197374
0.196717
0.193265
0.196223
0.196552
0.200332
0.196059
0.196552
0.198031
0.196388
0.198031
0.196717
0.199018
0.19573
0.203455
0.198196
0.199018
0.197703
0.198196
0.194416
0.194909
0.197703
0.193922
0.196388
0.19573
0.197538
0.197374
0.194251
0.192608
0.202633
0.197703
0.200661
0.199839
0.199018
0.197045
0.197374
0.196881
0.196388
0.197538
0.192936
0.200825
0.197374
0.201647
0.201812
0.197374
0.198524
0.200332
0.197045
0.202469
0.199675
0.198196
0.200004
0.196881
0.200661
0.201483
0.201154
0.199182
0.199346
0.199675
0.200661
0.198524
0.198031
0.199346
0.201647
0.202798
0.204606
0.196388
0.19836
0.199511
0.197703
0.19836
0.198689
0.198196
0.200004
0.197867
0.199018
0.207564
0.194909
0.196717
0.19836
0.200168
0.199346
0.20099
0.199018
0.20362
0.202469
0.198524
0.205756
0.198196
0.202305
0.199675
0.201319
0.200004
0.201154
0.200661
0.200168
0.199839
0.200332
0.203126
0.199511
0.201319
0.200332
0.202633
0.202469
0.200497
0.194416
0.202798
0.197703
0.202962
0.19573
0.201647
0.199018
0.199675
0.201154
0.199182
0.202305
0.197538
0.197703
0.201483
0.203784
0.19195
0.201319
0.199675
0.204113
0.201154
0.200332
0.202469
0.200004
0.203291
0.199839
0.200168
0.188992
0.200004
0.199018
0.200332
0.19458
0.20099
0.201483
0.204934
0.200004
0.200661
0.200661
0.192443
0.200497
0.203126
0.200497
0.200497
0.201976
0.199511
0.202798
0.201812
0.20477
0.201976
0.198196
0.200332
0.205756
0.200332
0.204441
0.002118
0.013459
0.021512
0.032688
0.037126
0.003761
0.00935
0.017074
0.027922
0.03236
0.008035
0.007049
0.017732
0.026114
0.039098
0.016746
0.02595
0.017732
0.028251
0.004912
0.009185
0.013294
0.019211
0.028086
0.033839
0.042057
0.045837
0.051096
0.059478
0.06408
0.068682
0.07575
0.083968
0.087912
0.093007
0.096459
0.101061
0.104019
0.109114
0.115031
0.115853
0.117003
0.121934
0.126043
0.127522
0.132289
0.13459
0.142807
0.141821
0.143301
0.148067
0.147409
0.147409
0.151683
0.153655
0.153162
0.156285
0.157764
0.158093
0.161709
0.160722
0.166968
0.164667
0.166968
0.170748
0.170091
0.16894
0.172885
0.175186
0.173707
0.178144
0.176336
0.177158
0.176008
0.176994
0.177487
0.178802
0.174857
0.176665
0.182417
0.181924
0.184554
0.107635
0.114045
0.006391
0.000146
0.007213
0.018061
0.023484
0.033017
0.038769
0.046001
0.05389
0.057999
0.063423
0.070655
0.074599
0.074271
0.085447
0.08972
0.09235
0.098431
0.105005
0.108621
0.114209
0.115031
0.120126
0.120126
0.123906
0.128837
0.132453
0.134425
0.133275
0.140178
0.139356
0.141657
0.140013
0.149217
0.150368
0.151518
0.156613
0.162037
0.154477
0.161051
0.165489
0.162366
0.167132
0.165817
0.166968
0.169433
0.173707
0.168283
0.171406
0.172227
0.176008
0.177651
0.180281
0.181267
0.181924
0.187184
0.18176
0.185212
0.184554
0.188334
0.186855
0.187184
0.189485
0.190635
0.185376
0.188006
0.188992
0.187184
0.193758
0.192443
0.193594
0.195237
0.193922
0.19836
0.196388
0.196388
0.195402
0.195073
0.195402
0.193758
0.196388
0.192443
0.194416
0.195402
0.19573
0.200168
0.198853
0.200332
0.198853
0.199511
0.198196
0.200497
0.194416
0.202962
0.193922
0.199346
0.19836
0.199675
0.199839
0.201647
0.199182
0.199511
0.200661
0.199511
0.201812
0.200332
0.203291
0.001132
0.011486
0.012637
0.022991
0.028251
0.029566
0.03351
0.043207
0.050932
0.012144
0.0105
0.017567
0.023156
0.031373
0.041892
0.0437
0.054876
0.05537
0.034332
0.036962
0.046494
0.052904
0.059643
0.063916
0.068189
0.075585
0.077393
0.083639
0.086597
0.092843
0.095144
0.104184
0.102869
0.108128
0.110593
0.061779
0.035154
0.005241
0.011651
0.013294
0.020033
0.022991
0.033346
0.03992
0.042878
0.053562
0.057177
0.05915
0.067532
0.071312
0.077393
0.082324
0.086926
0.091692
0.095966
0.100075
0.104184
0.111087
0.110593
0.114209
0.116839
0.120619
0.12555
0.132289
0.130316
0.136726
0.137384
0.137219
0.140506
0.142479
0.143136
0.14593
0.147574
0.153819
0.153819
0.1576
0.162037
0.158257
0.162202
0.16401
0.163023
0.006391
0.017074
0.003926
0.008692
0.011651
0.022663
0.031045
0.032195
0.02973
0.035318
0.046659
0.046987
0.057671
0.060793
0.068354
0.072956
0.080187
0.084625
0.087419
0.091199
0.0935
0.098102
0.104841
