Ladekurvenmessung

Zeit: 2018_05_04 09.02.57

Info: FVA3, v = 0.749, T = 23, F = 20, h = 374.2

Ladewiderstand[Ohm]: 1012700

Störkapazität[pF]: 0.000000

Entladezeit[ms]: 200

Abtastrate[Hz]: 250000

Anzahl der Messwerte: 2500.000000

Verzögerung[ms]: 3

Ladespannung[V]: 0.200000


Kurve 1

-0.001498
0.000639
0.00031
-0.001498
0.004748
-0.001005
0.000967
-0.000841
0.000146
-0.000676
-0.001498
-0.001498
-1.9e-05
-0.002648
-0.001334
-0.000841
-0.001169
0.001296
-0.000676
-0.000841
-0.002484
-0.003306
-0.001827
-0.000347
-0.003799
-0.002648
-0.002648
0.00146
-0.001991
0.000474
-0.000183
-0.004621
-0.000512
-0.000676
-0.000676
-0.001169
0.000639
-0.002155
-0.001334
-0.000841
-0.000183
-0.001827
0.000474
-0.001991
-0.001498
-0.004128
-0.003963
-0.003306
-0.002648
-0.001498
-0.00232
0.000146
-0.002155
-0.002155
-0.004292
-0.003142
-0.005771
-0.001662
-0.002813
-0.002813
0.001132
-1.9e-05
-0.000676
-0.001498
-0.001662
-0.002484
-0.000676
-0.003635
0.000967
-0.00232
-0.00347
-0.007579
-0.003306
-0.003306
-0.001827
-0.00347
-0.003306
-0.000347
-0.001498
-1.9e-05
-0.001498
-0.005936
-0.000183
-0.001169
-0.002813
0.001625
-0.002813
-0.002648
-0.004128
-0.000841
-0.000183
-0.000841
-0.001005
-0.001334
0.001132
-0.005607
-0.004128
-0.004456
-0.002648
-0.002648
-0.002155
-0.002977
-0.001662
-0.002813
-0.002813
-0.001991
-0.003306
0.000967
-0.006593
-0.001498
-0.000347
-0.000676
-0.001005
-0.000347
-0.001498
-0.000841
-0.001334
-0.000676
-0.004292
-0.008894
-0.004128
-0.004128
-0.005278
-0.004621
-0.002484
-0.002155
-0.001169
-1.9e-05
0.000803
-0.001334
-0.010702
-0.001991
-0.001169
-0.001005
-0.000512
-0.00232
-0.001827
-0.004949
-0.000676
-0.001498
-0.00232
-0.010209
-0.002484
-1.9e-05
-0.00347
-0.002648
-0.003142
-0.001169
-0.002484
-0.000841
-0.002155
-1.9e-05
-0.013332
-0.001498
-0.003963
-0.003306
-0.000183
0.00031
-0.000841
-0.002155
-0.000676
-0.001662
0.001625
-0.007086
-0.000183
-0.002648
0.000474
-0.001662
-0.003963
0.00031
-0.00232
-0.000183
-0.002977
-0.002484
-0.0061
-0.004785
-0.003799
-0.001334
-0.001005
0.000146
-0.002813
-0.000183
-0.000676
-0.000512
0.000967
-0.000676
-0.003306
-0.002484
0.00146
-0.002484
-0.001005
-0.000676
-0.000676
-0.003306
-0.000841
-0.002484
0.000474
-0.005936
-0.001662
-0.002155
-0.001334
0.001789
-0.002484
-0.00232
-0.001991
-0.001498
-0.001005
0.001132
-0.004949
-0.001498
-0.002977
-0.002813
-0.001827
-0.001334
-0.002648
-0.000512
-0.001662
-1.9e-05
0.002447
-0.002977
-0.002977
-0.00232
-0.001827
-0.001662
-0.003306
-0.007415
0.001625
-0.001005
-0.000676
0.005241
-0.00232
0.000803
0.001132
-0.001169
0.000146
0.00031
-0.002977
0.00031
-0.001169
0.000803
0.004255
-0.001498
-0.002155
-0.000841
-0.001498
-0.00232
-0.000512
-0.005443
-0.003963
-0.001662
-0.005443
0.005241
-0.001991
-0.003142
-0.000676
-0.00347
0.000639
-0.002813
-0.006593
-0.004128
-0.000841
-0.004621
0.002282
-0.005771
-0.002977
-0.002484
-0.001498
-0.00232
-0.003635
-0.00232
-0.002648
-0.000841
-0.003799
-0.001498
-0.004292
-0.003635
-0.002484
-0.001334
-0.003142
-0.000183
-0.001498
-0.001169
-0.000347
-0.001991
-0.000512
-0.001827
0.000474
-0.001498
-0.000183
-0.002484
0.000146
-1.9e-05
-0.000676
-0.002155
-0.001991
-0.001498
-0.001662
-0.000841
-0.005114
-0.000347
-0.002977
-1.9e-05
-0.002155
-1.9e-05
-0.001498
0.00031
0.000474
-0.001005
-0.001662
-0.00347
-1.9e-05
-0.00232
-0.000841
-0.000841
0.001132
-0.003963
-0.001827
-0.000183
-0.004785
-0.005771
0.001296
-0.003963
-0.001662
-0.000183
0.000474
0.00031
-0.001169
-0.000512
-0.002155
-0.002648
-0.002155
-0.00347
-0.003635
-0.001169
-0.000676
0.000146
-0.000512
-0.002155
-0.000183
0.003926
-0.002484
-0.002155
-0.000183
-0.002977
0.000146
-0.000676
0.000474
0.003268
0.000967
-0.000841
0.001132
-0.001498
-0.002484
-0.001662
-0.002155
-0.002155
0.003104
-0.000183
-0.001334
0.000146
0.002611
0.00146
-0.001169
-0.000841
-0.001334
0.000146
-0.001334
0.003926
-0.001662
-0.003142
-0.003306
-0.002484
0.002775
-0.007086
-0.002977
-0.00347
0.002118
-0.002977
0.000803
0.001625
-0.003963
-0.000347
-0.000183
-0.000347
-0.001498
-0.002648
-0.002648
-0.00232
-0.000512
0.00146
0.000146
-0.000347
0.00031
0.000146
0.000474
0.000146
-0.004292
-0.002155
-0.000512
0.000474
-0.000676
0.00294
-0.000841
-0.002813
-0.000676
-0.001498
-0.002648
-0.002484
-0.002155
-0.002484
0.002775
-0.000347
0.000639
0.000639
-0.001498
0.002611
0.002611
-0.000512
-1.9e-05
-0.001991
-0.001169
-0.001498
-0.001991
-0.000512
-0.003306
-0.001991
-0.001662
-0.000347
-0.005114
0.005405
-1.9e-05
0.000639
0.00146
-0.001169
0.00146
-0.000512
0.00031
-0.001991
-1.9e-05
-0.001827
-0.001169
-0.002648
-0.002484
0.000146
0.000639
0.000146
0.003104
-0.001005
-0.002648
0.002775
-0.00232
-0.000841
-0.00347
-0.001827
-0.002155
-0.001827
-0.001827
-0.000512
-0.002648
-0.001991
0.001789
-0.002648
-0.002648
-0.000841
-0.001991
0.001132
-0.000183
0.00031
0.001625
-0.000183
-0.002155
-0.001662
-0.003142
-0.004621
-0.001005
-0.005936
-0.002484
-0.001005
0.00031
0.00146
-0.001498
0.000474
0.00031
-1.9e-05
-0.001827
-1.9e-05
-0.000183
-0.002813
-0.004128
0.003597
-0.006429
0.00031
-0.001991
-0.000676
-0.001991
-0.002155
0.000146
-0.000676
0.003433
0.003433
0.003104
0.000639
0.001296
-0.001827
-1.9e-05
-0.002155
-0.001662
-0.005443
-0.000841
-0.001991
-0.00232
-0.001169
-0.000841
-0.004292
-0.002977
-0.002648
-0.000183
-0.001005
-0.002813
-0.000347
-0.000841
-0.003142
-0.000183
-0.00232
0.00031
-0.000676
-0.000512
-0.001827
-0.001169
-0.001991
0.002118
-0.001662
-0.001662
0.000146
-0.000183
-0.002648
0.001132
0.00031
-0.001169
0.000474
-0.002813
-0.000512
-0.001005
-0.003963
-0.001169
-0.000512
-0.000512
-0.00232
-1.9e-05
-0.000347
-0.004128
-0.000347
-0.003799
-0.001991
-0.005278
0.000474
-0.001005
-0.001991
-0.000841
-0.000512
-0.002484
-0.001827
-1.9e-05
0.000146
0.000803
-0.00725
0.000146
-0.000676
-1.9e-05
-0.003306
-0.000347
-0.002648
-0.002977
-0.001991
-0.006429
-0.00232
-0.001169
0.002118
-1.9e-05
0.00031
-0.001005
0.002118
-0.002155
-0.001662
-0.000512
-0.000676
0.001625
-0.002977
0.001296
-0.001662
0.000474
-0.000512
0.002282
-0.003142
0.00031
-0.001991
0.000967
-0.003306
-0.002813
-0.001005
-0.001991
-0.000512
-0.003799
-0.001827
-0.00232
-0.002648
-0.000512
-0.000512
-0.002977
0.00031
-0.000512
-1.9e-05
-0.000183
-0.001169
-0.001005
-0.002155
-0.002484
-0.001991
-0.000841
-0.000512
-0.002813
-0.000841
-1.9e-05
-0.000512
0.002775
0.000474
-1.9e-05
0.000146
0.000803
0.00031
-1.9e-05
-0.003306
-1.9e-05
-0.001334
-0.001005
-0.000676
0.00146
-0.000347
-0.000841
0.00294
-0.000512
0.001132
0.000967
0.002118
-0.000512
0.000146
0.00031
-0.000347
-0.001334
-0.000676
-0.00347
0.000967
-0.000347
-0.002813
-0.000841
-0.001334
-0.001827
-0.001498
0.002118
-0.003963
0.001954
0.000967
-0.000841
-0.000841
-0.002648
-0.000347
-0.000676
-0.000347
-0.001005
0.000146
-0.002484
0.000474
-0.00347
-0.001991
-0.004621
-0.006593
-0.000841
-0.000347
-0.003963
-0.001498
-0.000347
-0.001827
-1.9e-05
-0.000347
-0.000347
-0.002155
0.00031
-0.000512
0.001132
-0.000183
-0.000183
0.00031
0.00031
-0.000183
0.000967
-0.001662
-0.000183
-0.000676
0.00031
0.00146
-0.005114
-0.000841
-0.000676
-0.004292
-0.002977
-0.00232
-0.002484
-0.002484
-0.002484
0.000474
-0.000841
0.000803
-0.000347
0.001625
-0.000347
-0.000676
0.000803
-0.003142
0.00146
-0.003306
-0.003306
-0.003799
0.003597
-0.001662
0.002282
0.000146
0.001625
-0.001498
0.001789
0.001296
0.00031
0.002118
-0.001334
0.001296
-0.002155
0.002118
-0.001334
0.000474
-0.001662
-0.000512
-0.002484
-0.003142
-0.000183
-0.002155
-0.001498
-0.000183
0.002447
-0.001498
-0.001005
-0.001169
0.000803
0.005734
0.010993
0.021019
0.022827
0.029401
0.039756
0.045837
0.05011
0.058492
0.063752
0.071641
0.07575
0.081009
0.088241
0.093336
0.095637
0.104019
0.103855
0.108293
0.109772
0.114209
0.120291
0.118154
0.123085
0.124071
0.12933
0.132289
0.136726
0.11273
0.001132
-0.001169
0.005076
0.00294
0.016253
0.020526
0.028251
0.036633
0.04255
0.04748
0.057342
0.0603
0.064902
0.071312
0.076407
0.081995
0.085611
0.094815
0.096788
0.105005
0.105827
0.110922
0.11536
0.117825
0.123413
0.123906
0.126865
0.126372
0.131631
0.132453
0.137877
0.136398
0.144615
0.142314
0.148396
0.149382
0.151847
0.153984
0.15612
0.158257
0.159572
0.159736
0.156942
0.162037
0.161215
0.163352
0.166804
0.171899
0.170091
0.172885
0.175021
0.176829
0.170748
0.177322
0.176994
0.180281
0.179295
0.179952
0.181267
0.180445
0.181596
0.183568
0.186198
0.183075
0.186198
0.185047
0.187348
0.185047
0.187677
0.187513
0.186198
0.186033
0.189649
0.190142
0.189649
0.189814
0.192115
0.19195
0.189649
0.193758
0.189978
0.191457
0.191293
0.193429
0.192443
0.193265
0.195073
0.193429
0.192772
0.194251
0.195073
0.190471
0.194744
0.193265
0.19573
0.191786
0.19573
0.192936
0.193922
0.193758
0.192608
0.194744
0.197538
0.195895
0.195895
0.197867
0.19721
0.198853
0.19573
0.198031
0.198524
0.196059
0.197374
0.199182
0.198031
0.197703
0.197867
0.199346
0.194251
0.197867
0.201154
0.19573
0.199018
0.198196
0.195073
0.196059
0.194909
0.199182
0.199018
0.200661
0.198853
0.200497
0.198689
0.198031
0.199839
0.19836
0.198689
0.19721
0.197045
0.199839
0.196717
0.200825
0.201483
0.197045
0.196552
0.200332
0.196881
0.196059
0.199511
0.200497
0.199018
0.200004
0.199018
0.198524
0.199018
0.196059
0.199346
0.194909
0.200004
0.19836
0.198689
0.199346
0.19836
0.196223
0.203948
0.19836
0.200004
0.200332
0.19721
0.200332
0.19458
0.200004
0.197045
0.201154
0.20099
0.197374
0.195895
0.197867
0.201319
0.199018
0.199018
0.200332
0.202962
0.198196
0.201319
0.199182
0.20099
0.198524
0.198031
0.198031
0.199346
0.197374
0.198196
0.19836
0.199182
0.199839
0.201976
0.203455
0.199839
0.200825
0.200332
0.200661
0.199346
0.200004
0.200332
0.200168
0.198853
0.200661
0.200825
0.199675
0.199675
0.199511
0.200661
0.200497
0.199182
0.201976
0.200825
0.203948
0.201647
0.202305
0.199182
0.201154
0.200497
0.197374
0.199511
0.202305
0.198524
0.20099
0.199675
0.202305
0.203455
0.202469
0.201319
0.200004
0.199511
0.201154
0.199675
0.202633
0.200497
0.201812
0.198031
0.201319
0.195402
0.198524
0.197867
0.195895
0.201319
0.199675
0.201812
0.195402
0.201154
0.199839
0.204277
0.199511
0.201483
0.201154
0.200497
0.201483
0.199675
0.20099
0.199511
0.201812
0.200497
0.202633
0.200332
0.201154
0.200332
0.201812
0.201319
0.203784
0.202633
0.203126
0.203126
0.197538
0.202469
0.199346
0.204277
0.199839
0.200497
0.198689
0.201154
0.198031
0.203455
0.202305
0.198196
0.201812
0.200004
0.201647
0.200004
0.202305
0.201319
0.196717
0.19573
0.199182
0.199511
0.199346
0.200332
0.200661
0.198196
0.197538
0.20099
0.202305
0.199839
0.201812
0.202305
0.201483
0.201812
0.200825
0.20214
0.199511
0.200661
0.201319
0.201812
0.19836
0.201154
0.198689
0.19836
0.198524
0.199839
0.201812
0.200332
0.20214
0.200825
0.201647
0.199675
0.199675
0.203784
0.199018
0.203126
0.200332
0.198853
0.199346
0.199182
0.197374
0.200332
0.199018
0.200661
0.201976
0.201976
0.196717
0.202962
0.198196
0.196881
0.19721
0.201154
0.201483
0.199018
0.199018
0.200825
0.20099
0.201647
0.202798
0.201154
0.202305
0.201154
0.199839
0.201154
0.200332
0.200168
0.202469
0.201154
0.200497
0.200661
0.199346
0.199018
0.199018
0.200497
0.198031
0.197703
0.199346
0.200825
0.200004
0.20099
0.199182
0.200332
0.198853
0.203948
0.20099
0.200661
0.199839
0.199182
0.200497
0.198524
0.197045
0.201154
0.19836
0.199018
0.201483
0.199182
0.201154
0.199182
0.201319
0.196881
0.197703
0.198031
0.195895
0.198689
0.202798
0.199839
0.198853
0.200661
0.196881
0.200004
0.198524
0.200661
0.199675
0.200332
0.199511
0.20099
0.199346
0.200004
0.199018
0.200825
0.201319
0.200332
0.200825
0.203126
0.200168
0.201647
0.202798
0.199675
0.201154
0.198524
0.199839
0.200825
0.199839
0.202962
0.20099
0.199675
0.199839
0.201154
0.200168
0.200825
0.198853
0.201483
0.20099
0.202305
0.197867
0.202469
0.198031
0.196223
0.200661
0.196059
0.197867
0.197538
0.196881
0.200332
0.202305
0.198689
0.201812
0.197538
0.19836
0.195895
0.202798
0.199018
0.20214
0.197703
0.199511
0.200004
0.200004
0.199018
0.199675
0.20099
0.199839
0.199182
0.19836
0.203126
0.199346
0.202469
0.200332
0.199511
0.197538
0.200168
0.197045
0.198031
0.199675
0.200497
0.199511
0.19721
0.200332
0.200004
0.201483
0.195402
0.199839
0.198689
0.199675
0.199346
0.200661
0.199182
0.197538
0.200497
0.198853
0.196881
0.191457
0.197045
0.195566
0.198031
0.20099
0.200004
0.201319
0.199346
0.199511
0.20099
0.202633
0.193758
0.200661
0.200004
0.19836
0.19721
0.201154
0.197867
0.199018
0.202798
0.197703
0.196059
0.189485
0.198689
0.20099
0.200168
0.200168
0.200661
0.200825
0.198196
0.199839
0.200168
0.20099
0.18932
0.195566
0.199018
0.197374
0.200332
0.200332
0.201319
0.197703
0.202798
0.200661
0.20214
0.196881
0.197374
0.198524
0.196552
0.201812
0.199182
0.199839
0.196552
0.202798
0.201319
0.198524
0.203455
0.200168
0.200168
0.201483
0.201154
0.202962
0.203784
0.197703
0.201976
0.200661
0.200661
0.205099
0.199018
0.196223
0.201812
0.197045
0.197538
0.199182
0.197374
0.201976
0.200497
0.204113
0.205099
0.197703
0.197703
0.201154
0.199675
0.197045
0.195566
0.198196
0.198031
0.200168
0.198689
0.204606
0.197538
0.200332
0.200168
0.200168
0.199182
0.200004
0.199511
0.196388
0.198524
0.19573
0.200825
0.196552
0.19836
0.199182
0.201319
0.199839
0.199018
0.198689
0.198853
0.203784
0.199675
0.203455
0.200497
0.200497
0.19836
0.201647
0.199675
0.200825
0.198853
0.200661
0.202305
0.200497
0.200661
0.198031
0.202962
0.197374
0.200168
0.198196
0.200004
0.195237
0.200497
0.20099
0.199346
0.200004
0.202798
0.202469
0.196059
0.201319
0.20099
0.199675
0.199182
0.201976
0.19721
0.200332
0.199018
0.199018
0.199346
0.200168
0.199511
0.201154
0.200332
0.194416
0.198524
0.196388
0.196717
0.197538
0.197867
0.199346
0.199018
0.197703
0.199839
0.198524
0.199675
0.199675
0.197374
0.199511
0.201483
0.199839
0.201319
0.201812
0.201976
0.202305
0.201976
0.199675
0.199511
0.200825
0.198196
0.201647
0.196717
0.200825
0.197867
0.200332
0.200661
0.204441
0.199839
0.199839
0.202305
0.201319
0.201647
0.198031
0.199018
0.19836
0.202798
0.197374
0.070983
0.014445
0.02332
0.031702
0.03992
0.046001
0.051589
0.060629
0.064574
0.071641
0.075585
0.082817
0.086104
0.092679
0.09498
0.099582
0.104677
0.107635
0.110922
0.112401
0.116017
0.122592
0.12818
0.131467
0.130645
0.133603
0.141164
0.141164
0.142643
0.143629
0.147903
0.14971
0.150697
0.153655
0.158586
0.158093
0.158914
0.161709
0.161873
0.161215
0.162859
0.169598
0.166639
0.168612
0.171899
0.17535
0.171406
0.175186
0.176501
0.176665
0.176501
0.176665
0.17913
0.177487
0.178309
0.181596
0.183239
0.179623
0.183897
0.183732
0.188006
0.185212
0.18554
0.187348
0.187677
0.188827
0.191128
0.191457
0.190307
0.190471
0.18932
0.19458
0.190964
0.191786
0.189978
0.190471
0.191786
0.19458
0.192279
0.194251
0.195237
0.194909
0.195566
0.193922
0.195073
0.196223
0.195237
0.194251
0.196059
0.19573
0.197703
0.195566
0.195566
0.194744
0.19573
0.195895
0.197374
0.200168
0.199839
0.198853
0.199839
0.197374
0.198524
0.199018
0.194416
0.196881
0.192772
0.194744
0.193101
0.19721
0.198196
0.200825
0.19836
0.199511
0.200661
0.19836
0.200825
0.198524
0.200332
0.198689
0.201647
0.202798
0.205921
0.199346
0.199511
0.19836
0.198031
0.197374
0.199018
0.201154
0.200168
0.198031
0.201812
0.203291
0.199018
0.203291
0.199675
0.201483
0.201483
0.196388
0.196223
0.200661
0.196388
0.199346
0.199018
0.197867
0.199182
0.201647
0.20362
0.201483
0.202305
0.200497
0.202469
0.199839
0.200168
0.198853
0.200332
0.19721
0.199182
0.19836
0.198524
0.201154
0.20214
0.200661
0.200004
0.20099
0.200004
0.201647
0.20099
0.201319
0.205263
0.197703
0.200661
0.201154
0.19836
0.199675
0.200168
0.202305
0.201976
0.199346
0.202305
0.203126
0.203784
0.199182
0.200168
0.200168
0.200497
0.199018
0.201154
0.200497
0.198689
0.199839
0.201976
0.197538
0.200825
0.20099
0.199675
0.20099
0.197703
0.201976
0.201154
0.201154
0.202633
0.205099
0.199675
0.200332
0.201154
0.199675
0.196717
0.196223
0.200168
0.194416
0.196388
0.199511
0.204277
0.19836
0.201319
0.199346
0.200497
0.201647
0.199182
0.201647
0.199675
0.201154
0.199182
0.203126
0.197374
0.204277
0.199018
0.200332
0.196388
0.199346
0.196881
0.200825
0.201812
0.199511
0.201319
0.200004
0.198196
0.199675
0.200825
0.197703
0.199018
0.199182
0.200661
0.200497
0.201976
0.199675
0.200004
0.196388
0.199511
0.199675
0.198031
0.19721
0.199182
0.199346
0.199839
0.198524
0.199018
0.200332
0.200004
0.202633
0.202305
0.19721
0.198196
0.201976
0.199675
0.198524
0.199511
0.199182
0.200661
0.200497
0.199839
0.200661
0.201647
0.197538
0.204441
0.200497
0.202305
0.200825
0.200004
0.19836
0.205263
0.196059
0.197045
0.199839
0.199675
0.198524
0.197703
0.201154
0.199018
0.199675
0.198031
0.201812
0.199346
0.201483
0.201483
0.200497
0.199018
0.200497
0.198689
0.199675
0.199018
0.196223
0.198196
0.200497
0.196717
0.196552
0.199182
0.201319
0.201812
0.201483
0.202798
0.20362
0.198196
0.199346
0.20099
0.199182
0.199675
0.200004
0.199839
0.201483
0.200004
0.200168
0.200661
0.021512
0.027593
0.035647
0.042714
0.001789
0.000474
0.009514
0.014445
0.025457
0.03236
0.005076
-0.000183
0.00031
0.006062
-1.9e-05
0.001789
0.006062
0.013952
0.021512
0.03351
0.03614
0.046494
0.048302
0.055041
0.060793
0.065888
0.073942
0.075914
0.084625
0.086269
0.094815
0.095637
0.099253
0.104677
0.109114
0.114867
0.120291
0.121934
0.124235
0.131467
0.131467
0.134425
0.135576
0.141328
0.140342
0.140671
0.145766
0.148724
0.14971
0.150368
0.154477
0.157435
0.159079
0.161215
0.162366
0.160722
0.16401
0.164338
0.165982
0.165324
0.167954
0.171899
0.171077
0.171899
0.1742
0.176172
0.173707
0.176501
0.180116
0.180774
0.180116
0.18061
0.181924
0.18439
0.181431
0.183897
0.183732
0.185705
0.183239
0.185869
0.183897
0.186362
0.184061
0.185212
0.185869
0.186526
0.188334
0.189814
0.189485
0.185047
0.192279
0.190964
0.192279
0.192115
0.194087
0.194251
0.194251
0.192772
0.193758
0.193594
0.193101
0.193594
0.194087
0.195566
0.192115
0.197703
0.196717
0.200661
0.196059
0.199182
0.202305
0.198031
0.19721
0.197538
0.195895
0.195237
0.196881
0.196388
0.19836
0.197538
0.197374
0.19573
0.200497
0.193101
0.199346
0.19836
0.198853
0.198689
0.199182
0.200332
0.195566
0.200661
0.19836
0.197374
0.197045
0.200168
0.197538
0.200004
0.200497
0.200497
0.199511
0.199839
0.20099
0.201154
0.198853
0.200168
0.201976
0.199018
0.199511
0.200661
0.200825
0.198689
0.198853
0.199675
0.199346
0.200004
0.200497
0.198031
0.201976
0.201483
0.19836
0.198689
0.199182
0.199839
0.198196
0.199511
0.198196
0.199018
0.200004
0.200332
0.197867
0.200497
0.200661
0.199511
0.200661
0.200004
0.201483
0.197045
0.197867
0.20099
0.199839
0.197703
0.201319
0.199182
0.199018
0.200332
0.200825
0.198524
0.201483
0.201483
0.202305
0.202962
0.200004
0.202798
0.201647
0.201812
0.201319
0.202962
0.200825
0.202633
0.199839
0.200825
0.200825
0.199675
0.201647
0.199511
0.198524
0.19836
0.200332
0.200004
0.20099
0.201154
0.202962
0.19836
0.201647
0.201319
0.200661
0.201812
0.201647
0.202798
0.200825
0.199839
0.200497
0.200661
0.200168
0.199511
0.199839
0.201647
0.198689
0.199018
0.201319
0.199346
0.198689
0.198689
0.200825
0.201483
0.200825
0.20099
0.200332
0.199839
0.203126
0.200497
0.200497
0.200332
0.201483
0.19836
0.199675
0.198031
0.202798
0.200661
0.202469
0.20214
0.199018
0.200661
0.197867
0.198689
0.199182
0.200661
0.197867
0.202305
0.199839
0.204277
0.196223
0.199018
0.19836
0.198689
0.199675
0.201319
0.200332
0.198524
0.202633
0.198689
0.199839
0.20099
0.203455
0.198853
0.201647
0.199511
0.200661
0.197374
0.197374
0.199018
0.200661
0.201812
0.200332
0.203455
0.201483
0.202305
0.200332
0.200661
0.200168
0.20099
0.201483
0.201976
0.199346
0.201483
0.201154
0.200004
0.199346
0.201319
0.200168
0.20099
0.201483
0.201647
0.198524
0.198524
0.205756
0.201154
0.200332
0.204277
0.201154
0.195073
0.198031
0.196881
0.199346
0.198196
0.199839
0.201319
0.20214
0.200168
0.200825
0.203126
0.200168
0.202469
0.200004
0.202633
0.198853
0.199018
0.197703
0.201647
0.19573
0.197045
0.194909
0.19836
0.202305
0.199346
0.201319
0.199675
0.203126
0.197703
0.203291
0.201647
0.200004
0.200497
0.200661
0.200332
0.198196
0.201647
0.199675
0.200332
0.197703
0.203784
0.199346
0.199675
0.200168
0.199839
0.202962
0.200332
0.20099
0.203948
0.201647
0.20099
0.201154
0.201154
0.200661
0.200332
0.200661
0.198853
0.20099
0.199675
0.200825
0.199346
0.201647
0.203126
0.201647
0.200004
0.201319
0.20099
0.20099
0.200004
0.19573
0.202633
0.196717
0.200497
0.199511
0.199511
0.198031
0.19836
0.200168
0.197538
0.196717
0.201483
0.200168
0.200497
0.201647
0.200168
0.201319
0.197703
0.200332
0.200332
0.199018
0.198689
0.20099
0.19836
0.200168
0.197045
0.202633
0.200332
0.200825
0.202469
0.201319
0.201812
0.199018
0.205263
0.20099
0.200661
0.198689
0.200497
0.199346
0.198031
0.201319
0.199839
0.201483
0.197867
0.201976
0.201483
0.20099
0.20099
0.200004
0.199018
0.20214
0.200825
0.200332
0.199182
0.200661
0.200332
0.202798
0.197045
0.200168
0.198524
0.199018
0.200825
0.200661
0.201812
0.201154
0.201319
0.202305
0.202962
0.20099
0.201976
0.199839
0.200825
0.200661
0.199511
0.199675
0.19721
0.202305
0.20099
0.202962
0.201154
0.201976
0.198524
0.200168
0.200825
0.199839
0.197538
0.200168
0.199675
0.201154
0.201976
0.200332
0.199675
0.198524
0.201319
0.198689
0.201483
0.19721
0.200661
0.201647
0.198689
0.199675
0.204441
0.195895
0.199511
0.200661
0.200332
0.201483
0.198524
0.200332
0.198853
0.202469
0.199346
0.203126
0.195566
0.197867
0.20099
0.202305
0.200825
0.202305
0.200004
0.201154
0.201154
0.200168
0.200661
0.189156
0.196059
0.197374
0.201154
0.198689
0.201154
0.197867
0.198031
0.199511
0.201154
0.19721
0.188992
0.199018
0.199839
0.200661
0.200497
0.201319
0.199511
0.200497
0.199346
0.199346
0.199675
0.194087
0.193429
0.199018
0.19573
0.197374
0.198853
0.200825
0.200825
0.200332
0.20214
0.201483
0.200497
0.197538
0.20362
0.201976
0.20214
0.200168
0.202305
0.198031
0.200004
0.201976
0.19836
0.203455
0.201483
0.199839
0.200497
0.202469
0.199839
0.200661
0.197538
0.199182
0.199018
0.201647
0.204934
0.199839
0.196881
0.199182
0.199511
0.199182
0.201154
0.203126
0.201154
0.201647
0.202305
0.205756
0.201812
0.199839
0.200661
0.200168
0.200332
0.199511
0.197045
0.198524
0.19836
0.197045
0.200661
0.199675
0.199018
0.199675
0.200497
0.201647
0.199346
0.202469
0.20362
0.204277
0.199182
0.205592
0.200168
0.198853
0.200332
0.199346
0.20099
0.198031
0.200825
0.199839
0.200661
0.20099
0.203126
0.203126
0.198524
0.198524
0.199839
0.200661
0.199675
0.199182
0.200168
0.199839
0.200825
0.201647
0.195402
0.20362
0.19836
0.200168
0.200168
0.200825
0.199018
0.201976
0.201154
0.201976
0.202469
0.200661
0.201647
0.20099
0.199839
0.199182
0.19836
0.19573
0.200332
0.198689
0.197538
0.197538
0.198031
0.200825
0.201976
0.199511
0.201483
0.200825
0.198031
0.202798
0.200497
0.199839
0.199839
0.203126
0.197045
0.199346
0.198689
0.199511
0.201319
0.198196
0.204113
0.201647
0.199675
0.20362
0.200168
0.195895
0.201647
0.198196
0.200168
0.200825
0.199182
0.203126
0.196717
0.196552
0.200004
0.199182
0.199839
0.199839
0.200661
0.200004
0.200168
0.202962
0.203455
0.201976
0.19721
0.202469
0.19836
0.198524
0.197703
0.199182
0.198689
0.200168
0.199346
0.200004
0.199018
0.20099
0.202962
0.199675
0.200332
0.20099
0.202305
0.199675
0.200661
0.199018
0.198689
0.201319
0.201154
0.202305
0.198031
0.200332
0.197045
0.2074
0.202798
0.200661

Kurve 2

0.001132
-0.001334
-0.000676
0.000146
-0.001334
-0.000512
0.000474
0.001296
0.002447
0.001296
-0.001334
0.003104
-0.000347
0.000967
-0.003635
-0.002813
-0.002648
-0.004785
-0.003963
-0.003142
-0.001005
-0.001498
-0.001005
-0.001498
-0.001169
-0.001005
0.001296
-0.000841
0.00294
0.000146
0.004255
-0.001827
0.000639
0.000146
-0.003635
-0.002484
-0.001005
-0.002813
-0.004292
-0.000676
0.001789
-0.002648
-0.002155
0.002447
0.000639
0.000639
-0.000841
0.00031
0.000146
-0.002484
0.00294
-0.000841
-0.001827
-0.00347
-0.004292
-0.001827
-0.000676
-0.003799
-0.002648
-0.002648
0.00031
0.001296
0.003433
-0.001991
-0.001662
-0.001827
-0.002813
-0.001662
-0.00725
-0.005771
-0.004128
-0.001991
-0.00232
0.00146
-0.002484
-0.001005
-0.001662
-0.001005
-0.002648
-0.001827
-0.002648
-0.004621
-0.001498
-0.001169
-0.000183
-0.001498
0.002118
-0.001662
-0.000512
-0.004292
-0.000347
-0.004456
-0.00347
-0.003142
-0.000512
0.001296
-0.001334
-0.003142
0.000146
0.003104
-0.008237
-0.003306
-0.004456
-0.004128
-0.003635
0.000474
-0.001498
-0.001662
-0.003306
-0.003142
0.002447
-0.002484
-0.002484
-0.001827
-0.001498
-0.002484
-0.002977
-0.001498
0.001954
-0.005278
-0.004128
-0.001005
-0.003142
-0.003142
-0.001827
-0.002648
-0.00347
-0.001169
-0.001827
-0.001005
-0.000512
-0.004128
-0.000183
-0.000676
-0.005607
-0.001005
0.001296
-0.002484
-0.000676
0.000146
-0.002977
-0.001498
-0.003142
-0.002155
-0.002977
-0.004621
0.00031
-0.001827
-0.002977
-0.005114
-0.003635
-0.005443
-0.003306
-0.001498
-0.001827
-0.002155
-0.002155
-0.003142
-0.002155
-0.002648
-0.000841
-0.000676
-0.001005
0.000146
-0.004949
-0.002155
-0.008565
-0.006429
-0.001991
-0.001827
-0.001991
-0.001334
0.000639
-0.000512
-0.001662
-0.002155
-0.002648
-0.003963
-0.001827
-0.003799
-0.00232
-0.00347
-0.001005
0.000474
-0.002813
-0.003635
-0.001498
-0.002813
-0.00232
-0.001991
-0.002648
-0.001991
-0.00232
0.000803
-0.002155
-0.002155
-0.001662
-0.002813
-0.00347
-0.004456
-0.002977
-0.003635
-0.005771
0.000474
-0.00232
-1.9e-05
0.001625
-0.002977
-0.001827
-0.001991
-0.001662
-0.002648
-0.003142
-0.005114
-0.004949
-0.005278
-0.002977
-0.004785
-0.004949
-0.005114
-0.002977
-0.00232
-0.000183
-0.001005
-0.001827
-1.9e-05
-0.003963
-0.001334
-0.00232
-0.001498
-0.003142
-0.001169
-0.004128
-0.002977
-0.002648
-0.000347
-0.000676
-0.001991
0.000474
-0.001334
0.002118
-0.001334
0.002447
-0.001991
-0.00232
-0.00232
-0.001662
-0.003306
-0.001991
-0.003306
-0.002977
-0.001498
-0.003799
-0.002155
-0.003142
-0.001169
-0.001991
-0.000512
-0.00232
-0.006593
-0.001334
-0.002484
-0.00232
-0.001169
-0.005114
-0.004621
-0.003306
-0.005771
-0.004621
-0.002155
-0.000183
-0.001334
0.000146
-0.002484
-0.001991
0.00031
-0.001498
-0.001662
-1.9e-05
-0.002977
-0.001169
-0.004128
-0.001662
-0.000676
-0.002484
-0.000841
0.000803
-0.001991
-0.002484
-0.002484
-0.001169
0.001132
-0.004128
-0.001662
-0.001334
-0.000841
-0.001005
-0.000183
-0.00232
-0.00347
-0.002977
-0.001991
-0.001827
-0.00347
-0.002648
-0.001827
-0.001498
-0.002155
0.001954
-0.003799
-0.000183
-0.002155
-0.001169
-0.000347
-0.003306
-0.000347
-0.003306
-0.001169
-0.00347
-0.001005
-0.00347
-0.000183
-0.003306
-0.004949
-0.002813
-0.004785
-0.002484
-0.000347
-0.001498
-0.000347
-0.000347
-0.001334
-0.001169
-1.9e-05
-0.000183
-0.002813
-0.000512
-0.001334
0.000803
-0.002155
-0.001827
0.00031
-0.001169
-0.000676
-0.000512
-0.001169
-0.001498
-0.002155
-0.001005
-0.000512
-0.002484
-0.000512
-0.000347
-0.000347
-0.004128
-0.000676
-0.002977
-0.002813
-0.002813
-0.001991
-0.000347
-0.000676
-0.000512
0.001132
0.000146
-0.00232
-0.000841
-0.002484
-0.000183
-0.004949
-0.00232
-0.001662
0.003104
-0.00347
0.000474
-0.004785
-0.001827
-0.000841
-0.002155
-0.001498
-0.002155
0.00146
-0.000841
0.001132
-0.001169
0.00031
0.00146
-0.000512
-0.00347
-0.001662
-0.003142
-0.002648
-0.000183
-0.001498
-0.003799
-0.005278
-1.9e-05
-0.002977
-0.001169
-0.002648
0.000639
-0.001498
-0.001334
-0.000183
-0.003306
-0.001334
-0.002155
-0.003142
-0.004292
-0.002155
-0.003635
-0.001662
-0.003142
-0.004621
-0.003963
-0.001991
-0.004949
-0.002648
-0.001991
-0.000512
-0.001662
-0.003142
-0.003963
-0.003963
-0.003635
-0.000841
0.001132
-0.004621
0.000639
-0.003306
-0.00232
-0.001827
-0.000183
-0.001005
-0.001991
-1.9e-05
0.000967
-0.00232
-0.001991
-0.001498
-0.002155
-0.003306
-0.000347
-0.001169
-0.001498
0.002118
-0.005607
-0.000512
-0.002977
-0.00232
-0.001334
-0.000183
-0.003799
-0.002648
-0.000676
-0.002484
-0.00347
-0.001827
-0.000183
-0.001991
-0.001334
-0.001334
0.00031
-0.005443
-0.005114
-0.003142
-0.002648
-0.003142
-0.004456
-0.001334
-0.000841
0.000803
-0.001005
0.002447
-0.004456
-0.003799
-0.001827
-0.001827
-0.003306
-0.000841
-0.000347
-0.002155
-0.001169
0.000967
0.000146
-0.001662
-0.002977
-0.001005
-0.001005
-0.00232
-0.000841
-0.000512
-0.000183
0.00146
-0.000676
-0.000347
-0.003799
-0.000841
-0.000512
-0.001991
-0.003963
-0.001991
-0.002484
0.000474
-0.001991
-0.000183
0.000803
-1.9e-05
-0.002977
0.000146
-0.000512
-0.000183
-0.001662
-0.000512
-0.00347
-0.003142
-0.000183
-0.003963
-0.001498
-0.004785
-0.002813
-0.00347
-0.000841
-0.001991
0.000146
-0.001498
-0.001005
-0.001498
-0.001334
-0.002977
-0.000512
-0.000841
-0.002977
-0.002155
-0.003963
0.000639
-0.003963
0.000803
-0.002484
-0.001005
-0.001005
-0.000183
0.001296
0.00031
-0.000841
-1.9e-05
0.001954
0.002118
-0.000676
-0.002813
-0.000676
-0.003963
-0.001498
-0.00232
-0.002813
-0.000512
0.000146
-0.001662
0.000803
-0.001827
-0.000676
0.003926
-0.000347
0.000474
-0.002155
-0.004785
-0.001991
-0.002813
-0.004785
-0.002155
-0.001169
-0.002155
-0.000183
0.000474
0.000803
0.004748
-0.000183
0.000474
0.000146
-0.002155
-0.001498
-0.003306
-0.002155
-0.001498
-0.001005
-0.003799
-0.000841
-0.002484
-0.001498
-0.001827
0.001132
-0.002155
-0.001827
-0.002155
-0.003306
-0.001005
-0.001005
-0.00873
-0.0061
0.000146
-0.004128
-0.001334
-0.002813
-0.001498
-0.001991
0.000146
-0.000676
-0.000841
0.000146
0.000146
0.000639
0.002118
0.000474
0.000474
-1.9e-05
-0.002813
-0.005607
-0.001334
-0.001005
-0.002155
0.000803
0.000967
-0.000676
0.002447
0.001625
0.003433
0.003268
0.001789
0.000639
0.001789
-0.000512
0.003433
-0.001169
0.000639
0.000967
0.001132
0.001132
0.000146
0.001296
-1.9e-05
0.000639
-0.000841
0.00031
0.000639
0.000967
0.000639
0.003761
0.000146
0.003761
0.003926
0.003433
0.002118
-0.001005
0.000474
0.002447
-0.002813
0.003104
0.002118
0.000146
0.004255
0.000474
-0.000512
0.000474
0.00146
-0.001005
0.00294
0.001296
0.00031
0.000967
-0.001169
0.001132
0.002447
0.001132
-0.000841
0.00031
0.002118
0.003761
0.000146
0.001789
0.000967
0.001789
0.001954
0.00294
0.000803
0.001296
0.00294
0.001954
0.001954
-0.001169
0.002118
0.000639
0.001954
-0.003142
0.00409
-0.002155
-1.9e-05
-0.001169
-0.000183
0.000803
-0.001827
-1.9e-05
-0.001169
0.000146
-0.001169
0.002447
-0.001005
0.000803
0.000146
-0.002977
-0.001991
-0.000512
-0.001334
-0.000512
-0.003635
-0.002484
0.000474
-0.000183
-1.9e-05
-0.000512
0.000146
-0.00347
0.001296
-0.001005
0.002282
-0.002155
-0.000183
0.001954
-0.000183
-0.000841
-0.002484
0.00146
0.000146
-0.000676
0.001296
0.000803
0.001132
0.002282
0.001132
0.001625
-1.9e-05
-1.9e-05
0.000146
0.001954
-0.000841
0.000803
-0.000841
-0.000676
0.000639
-0.001169
-0.001991
-0.001169
0.005405
0.011322
0.021676
0.027922
0.037455
0.041399
0.047973
0.052904
0.062601
0.064738
0.071148
0.076243
0.081338
0.086433
0.089885
0.095801
0.099089
0.106485
0.107635
0.115195
0.115524
0.122098
0.122756
0.126372
0.127358
0.133275
0.134918
0.138205
0.139356
0.14215
0.146423
0.145108
0.150204
0.150532
0.152998
0.1576
0.156449
0.158093
0.160887
0.16138
0.16516
0.169105
0.167461
0.166804
0.169433
0.169762
0.167625
0.171899
0.170091
0.176829
0.174035
0.175843
0.177651
0.176665
0.177322
0.180116
0.178802
0.178802
0.180774
0.18061
0.182582
0.181267
0.18061
0.180281
0.183732
0.180938
0.178309
0.183075
0.185376
0.183075
0.18932
0.187677
0.187348
0.187841
0.188334
0.189978
0.190471
0.189156
0.188499
0.191128
0.187841
0.190142
0.189485
0.191293
0.189485
0.191128
0.190964
0.189485
0.191457
0.192443
0.192772
0.195237
0.19721
0.193594
0.196388
0.194087
0.194416
0.19195
0.194744
0.194744
0.194416
0.190964
0.192772
0.191128
0.193429
0.195402
0.194416
0.193429
0.195073
0.193101
0.194087
0.196717
0.193922
0.193594
0.196059
0.196717
0.191621
0.193429
0.193922
0.194744
0.194909
0.19458
0.196881
0.19573
0.194909
0.198853
0.201483
0.197703
0.199511
0.19573
0.196552
0.197374
0.198031
0.198196
0.196223
0.193922
0.19721
0.19721
0.19721
0.19721
0.19573
0.200825
0.204606
0.199182
0.198853
0.200661
0.197703
0.200497
0.198689
0.194744
0.196717
0.192115
0.197703
0.195566
0.197374
0.196717
0.198524
0.198524
0.19836
0.196717
0.200168
0.196059
0.199511
0.197045
0.198853
0.199675
0.197374
0.194909
0.196059
0.198196
0.198196
0.199018
0.195402
0.19721
0.19836
0.200825
0.200332
0.200004
0.200168
0.200004
0.201154
0.198853
0.201812
0.1908
0.196059
0.198196
0.197703
0.197867
0.199018
0.197045
0.198853
0.202305
0.201647
0.199675
0.192936
0.199018
0.199346
0.198031
0.199346
0.196388
0.199182
0.198031
0.202633
0.199675
0.198689
0.192443
0.192443
0.200661
0.199346
0.199511
0.199182
0.199018
0.200004
0.197374
0.195566
0.19836
0.196059
0.197045
0.197867
0.195073
0.200332
0.198524
0.198689
0.19573
0.202962
0.200661
0.200332
0.199511
0.198853
0.199839
0.198524
0.200168
0.199182
0.200497
0.196552
0.201483
0.199018
0.20099
0.205099
0.198524
0.200168
0.197374
0.202305
0.200332
0.201154
0.197703
0.200661
0.19836
0.201319
0.202305
0.199018
0.002118
0.013294
0.017567
0.026607
0.034496
0.041399
0.048467
0.054548
0.058164
0.070655
0.067861
0.076572
0.080352
0.081338
0.091364
0.091857
0.097116
0.104841
0.111087
0.115031
0.121277
0.120455
0.122756
0.126372
0.132289
0.130645
0.136233
0.13574
0.138205
0.144451
0.145273
0.14971
0.147574
0.152669
0.153819
0.1576
0.1576
0.160065
0.159408
0.161709
0.163023
0.167297
0.167954
0.168612
0.170913
0.167461
0.171241
0.171241
0.173871
0.173049
0.177651
0.175021
0.176665
0.17798
0.181596
0.179623
0.178144
0.184225
0.182417
0.180774
0.181596
0.182582
0.184225
0.184061
0.184225
0.181431
0.18439
0.187677
0.187348
0.190471
0.188334
0.187348
0.192608
0.190471
0.18932
0.188334
0.18817
0.189814
0.190964
0.191128
0.191786
0.193265
0.188334
0.194251
0.193758
0.194909
0.196059
0.193429
0.194251
0.193758
0.191457
0.192608
0.193758
0.192115
0.195073
0.19458
0.193265
0.196552
0.195073
0.196717
0.192936
0.194251
0.194909
0.196388
0.196388
0.19721
0.198524
0.198196
0.199511
0.194909
0.198853
0.201154
0.199346
0.193101
0.196223
0.19573
0.19721
0.196717
0.195566
0.201154
0.19721
0.197045
0.197045
0.199839
0.195073
0.196388
0.196717
0.200004
0.198196
0.199182
0.199839
0.198524
0.196881
0.19836
0.200004
0.198853
0.200661
0.196223
0.19836
0.202305
0.196552
0.200004
0.197374
0.19836
0.199839
0.199018
0.198853
0.198031
0.19836
0.199675
0.198689
0.199839
0.200004
0.201319
0.199182
0.199839
0.199675
0.199346
0.199346
0.198524
0.198853
0.201812
0.201154
0.200332
0.196717
0.200661
0.198689
0.198196
0.198689
0.197045
0.197538
0.200661
0.196881
0.197867
0.202633
0.197867
0.196881
0.203126
0.20099
0.201154
0.200332
0.200332
0.199511
0.20099
0.200497
0.200661
0.200004
0.19836
0.197867
0.200004
0.202305
0.202798
0.199839
0.201319
0.201812
0.199839
0.20099
0.197538
0.198524
0.198031
0.199182
0.198524
0.199346
0.201483
0.203455
0.19836
0.199018
0.200661
0.199018
0.197703
0.199018
0.19573
0.197374
0.199346
0.199839
0.201319
0.197867
0.201647
0.198524
0.198689
0.198031
0.199839
0.201319
0.200497
0.201976
0.20214
0.20362
0.199182
0.200004
0.202305
0.201647
0.196552
0.202962
0.199182
0.201154
0.201812
0.202633
0.198524
0.200661
0.199511
0.199839
0.199839
0.201483
0.202305
0.200497
0.199839
0.202798
0.203455
0.198689
0.201812
0.200497
0.20214
0.196881
0.201647
0.200497
0.196717
0.19836
0.202305
0.202633
0.19721
0.201483
0.199675
0.199346
0.196717
0.203126
0.196717
0.199511
0.198689
0.202962
0.202798
0.199675
0.20099
0.201319
0.200004
0.198689
0.199675
0.198853
0.201976
0.200168
0.203291
0.20099
0.203455
0.200661
0.201319
0.20362
0.198853
0.19836
0.199346
0.200004
0.200332
0.201812
0.198524
0.19836
0.199675
0.198853
0.199182
0.200661
0.199182
0.197703
0.200004
0.200332
0.201483
0.201319
0.200497
0.202305
0.19721
0.200168
0.197703
0.192936
0.199182
0.198031
0.200332
0.200168
0.199182
0.19721
0.198853
0.196552
0.198853
0.197538
0.200661
0.200497
0.203455
0.20362
0.199018
0.201812
0.200661
0.201483
0.199511
0.201976
0.198031
0.199675
0.198853
0.199511
0.199675
0.201319
0.20214
0.201483
0.202305
0.199346
0.203126
0.196388
0.197045
0.200004
0.201154
0.198196
0.200661
0.200661
0.199675
0.198031
0.19836
0.201154
0.19836
0.199675
0.200661
0.199018
0.202633
0.201319
0.200825
0.203291
0.201483
0.200825
0.199346
0.19836
0.197538
0.198031
0.198853
0.199511
0.192443
0.196223
0.200168
0.200168
0.201976
0.201647
0.20099
0.200661
0.201976
0.200332
0.201154
0.196388
0.201812
0.200168
0.197703
0.200825
0.200168
0.200168
0.199346
0.200661
0.200332
0.200825
0.198853
0.203455
0.200661
0.201976
0.201647
0.201647
0.202469
0.195566
0.19721
0.197703
0.197538
0.195895
0.201483
0.200168
0.199018
0.201319
0.202305
0.199182
0.201647
0.201812
0.201319
0.196881
0.197374
0.19836
0.19721
0.199346
0.19573
0.195895
0.194416
0.202469
0.199182
0.200332
0.202469
0.198853
0.201812
0.202305
0.201319
0.201976
0.20099
0.19836
0.200004
0.198524
0.199839
0.200004
0.180938
0.1576
0.160229
0.159572
0.088241
0.045837
0.050439
0.00294
0.01313
0.018554
0.026443
0.035975
0.008363
0.021183
0.025785
0.031373
0.038605
0.046166
0.048467
0.057342
0.059478
0.060465
0.063587
0.068189
0.07312
0.070983
0.07838
0.084132
0.087912
0.089556
0.095473
0.097938
0.104184
0.109772
0.114209
0.118976
0.122756
0.120784
0.128837
0.12818
0.132617
0.135411
0.138534
0.138205
0.141328
0.147574
0.147409
0.151354
0.151354
0.156778
0.155134
0.158914
0.157928
0.161544
0.163352
0.163352
0.166146
0.165489
0.167625
0.167625
0.170255
0.167625
0.149875
0.151847
0.153162
0.155956
0.156778
0.159736
0.160558
0.160394
0.159736
0.158914
0.149382
0.141821
0.141
0.146423
0.145108
0.143629
0.147903
0.137548
0.134097
0.133768
0.134425
0.134918
0.131796
0.129988
0.132782
0.136891
0.137712
0.137877
0.140835
0.13952
0.138534
0.141328
0.140506
0.138534
0.137548
0.134918
0.133439
0.125057
0.120455
0.120784
0.115195
0.110922
0.10632
0.103855
0.096952
0.089227
0.079201
0.076407
0.070983
0.0769
0.068682
0.065395
0.05652
0.052575
0.046659
0.041728
0.038276
0.030223
0.026607
0.02069
0.020855
0.01691
0.018225
0.014609
0.018225
0.007377
0.005569
0.008528
0.007213
0.004748
0.005076
0.003761
0.002775
0.007377
0.00672
0.005241
0.008363
0.004583
0.00294
0.005734
0.002775
0.002447
0.001954
-0.000676
0.001132
0.001132
0.002611
0.001954
0.001296
0.003104
0.001789
0.000474
0.002118
-1.9e-05
0.000967
0.000639
-0.000512
0.001132
0.001132
0.000803
0.001954
0.002447
-0.000512
0.00146
0.001954
0.001132
0.003268
0.004255
0.004419
0.00672
0.005734
0.00787
0.007377
0.009678
0.013459
0.024799
0.02973
0.035975
0.045344
0.052575
0.051589
0.061122
0.069997
0.07575
0.080352
0.078873
0.091528
0.094651
0.098595
0.104348
0.109936
0.110429
0.11536
0.117496
0.123085
0.123906
0.12818
0.133275
0.135083
0.136398
0.141986
0.143465
0.14593
0.149546
0.149382
0.152833
0.155463
0.155792
0.160394
0.160887
0.162037
0.161709
0.168118
0.168283
0.168447
0.166804
0.170748
0.170913
0.173378
0.174693
0.177651
0.176665
0.179295
0.179952
0.179623
0.18061
0.181267
0.180281
0.18061
0.180116
0.183239
0.186691
0.185047
0.18554
0.186526
0.190471
0.189485
0.190307
0.189156
0.1908
0.188663
0.18932
0.190635
0.18932
0.191128
0.189814
0.191786
0.188499
0.1908
0.190471
0.184554
0.192936
0.194087
0.191621
0.195073
0.191128
0.19836
0.195073
0.194416
0.196552
0.194251
0.19573
0.194087
0.194744
0.196059
0.195237
0.193594
0.195073
0.194744
0.195237
0.196059
0.194251
0.197374
0.194251
0.198689
0.196717
0.197867
0.196388
0.196552
0.19573
0.19721
0.196717
0.195895
0.194416
0.194744
0.195237
0.19836
0.196552
0.197538
0.19836
0.196717
0.198689
0.198689
0.200825
0.197374
0.195895
0.199511
0.197867
0.196881
0.19836
0.19721
0.197374
0.197045
0.196881
0.198853
0.197703
0.199511
0.196717
0.196059
0.198524
0.198853
0.198196
0.198031
0.193594
0.198524
0.196388
0.198524
0.196223
0.201319
0.198031
0.196552
0.199346
0.19836
0.19836
0.197867
0.200168
0.195895
0.200661
0.196388
0.199182
0.197538
0.197374
0.196552
0.196223
0.19458
0.196881
0.196717
0.198524
0.200497
0.198031
0.199675
0.200661
0.200004
0.199018
0.202469
0.197867
0.199839
0.200004
0.196223
0.20099
0.198689
0.199839
0.198853
0.199182
0.199839
0.202962
0.200661
0.201976
0.199346
0.200168
0.198689
0.197703
0.19721
0.198524
0.197374
0.195237
0.199346
0.200825
0.199182
0.198689
0.199839
0.197374
0.200825
0.200004
0.200497
0.197867
0.199346
0.200332
0.196881
0.197538
0.198196
0.197374
0.199182
0.199018
0.200661
0.20099
0.201483
0.202798
0.200004
0.201319
0.200332
0.199182
0.200332
0.200168
0.200332
0.201483
0.204934
0.199346
0.20099
0.201976
0.200332
0.199182
0.20099
0.200661
0.199182
0.198524
0.199018
0.199675
0.199839
0.199346
0.201154
0.200661
0.200825
0.195566
0.197538
0.198689
0.197703
0.202469
0.199346
0.201647
0.199675
0.202633
0.198853
0.198196
0.19836
0.19836
0.199675
0.19836
0.199018
0.197867
0.195402
0.198196
0.198031
0.197538
0.201812
0.200497
0.201483
0.203291
0.195237
0.197703
0.198853
0.198853
0.199511
0.200825
0.198853
0.200004
0.199346
0.20099
0.199675
0.201154
0.198689
0.202798
0.198031
0.201483
0.202469
0.198031
0.197045
0.196552
0.196717
0.197374
0.200004
0.198853
0.200168
0.198031
0.198031
0.199511
0.19836
0.19836
0.20099
0.200168
0.200332
0.200004
0.200661
0.199675
0.200497
0.199675
0.201319
0.200497
0.198524
0.198196
0.193101
0.199346
0.197045
0.199511
0.20214
0.202798
0.200661
0.202305
0.197045
0.202469
0.202633
0.199675
0.202305
0.200004
0.200332
0.199675
0.201647
0.200168
0.202469
0.200168
0.199182
0.201483
0.201154
0.200661
0.202305
0.204113
0.200661
0.202469
0.201319
0.201154
0.199511
0.201319
0.198524
0.201647
0.196881
0.197045
0.200004
0.200825
0.200497
0.199346
0.201812
0.199675
0.20099
0.200004
0.201319
0.200168
0.200332
0.201154
0.201647
0.195566
0.195566
0.198031
0.198031
0.196552
0.198524
0.199839
0.20214
0.19721
0.203784
0.204441
0.202962
0.202305
0.200825
0.200332
0.200004
0.202633
0.198853
0.201154
0.197703
0.201812
0.201319
0.199839
0.201647
0.200004
0.200825
0.203948
0.201319
0.200168
0.202633
0.200332
0.201976
0.201483
0.200168
0.202469
0.199511
0.197703
0.199018
0.19836
0.197703
0.200825
0.200004
0.20099
0.201647
0.202305
0.200661
0.201154
0.200825
0.199018
0.19721
0.186362
0.169433
0.158093
0.14478
0.135411
0.135083
0.130809
0.128015
0.127029
0.129823
0.132946
0.132453
0.136398
0.142314
0.143465
0.147081
0.146423
0.151847
0.15119
0.153984
0.155627
0.156613
0.157107
0.162037
0.162037
0.164174
0.165653
0.166639
0.169598
0.169105
0.1742
0.171899
0.17798
0.175515
0.176172
0.175515
0.175679
0.178144
0.178309
0.177158
0.179623
0.180774
0.179788
0.185212
0.184061
0.186691
0.184718
0.188663
0.18817
0.18817
0.183897
0.182253
0.186855
0.186691
0.187841
0.193265
0.192115
0.188663
0.194416
0.191457
0.194744
0.183239
0.193429
0.194087
0.194744
0.19458
0.194909
0.197703
0.193922
0.194744
0.195073
0.195402
0.188663
0.195566
0.194909
0.197374
0.193594
0.196388
0.196388
0.193265
0.20099
0.197045
0.198853
0.1908
0.194909
0.19458
0.198524
0.19721
0.197538
0.19573
0.196388
0.196059
0.19836
0.196388
0.1908
0.196388
0.197045
0.200661
0.196388
0.197867
0.193594
0.195402
0.19458
0.196881
0.193758
0.193265
0.197867
0.196388
0.195237
0.196223
0.195402
0.197538
0.195073
0.195895
0.196881
0.195073
0.195402
0.193758
0.19573
0.194744
0.19721
0.193922
0.197374
0.194416
0.19573
0.193594
0.193758
0.197045
0.191457
0.193922
0.196059
0.195566
0.193922
0.193922
0.192443
0.193758
0.195402
0.197374
0.200825
0.196552
0.198196
0.197867
0.197045
0.198524
0.196388
0.194416
0.198524
0.19573
0.199839
0.202305
0.199839
0.195237
0.199182
0.198524
0.199018
0.197045
0.196552
0.20099
0.199018
0.199182
0.204441
0.198196
0.200825
0.202469
0.196059
0.199839
0.198031
0.199675
0.199346
0.201483
0.199018
0.203784
0.198196
0.201154
0.201319
0.199182
0.200332
0.198524
0.19836
0.200661
0.199511
0.200004
0.203784
0.197703
0.19721
0.200497
0.20099
0.200497
0.204277
0.197538
0.200825
0.203455
0.202469
0.203455
0.198031
0.200004
0.200332
0.200332
0.198689
0.197703
0.193101
0.198031
0.198524
0.198196
0.199675
0.199675
0.200004
0.201483
0.200497
0.199839
0.200497
0.19836
0.200168
0.200661
0.200168
0.197538
0.198853
0.19721
0.198524
0.198689
0.198853
0.198689
0.196552
0.203455
0.199839
0.201319
0.20214
0.201647
0.198853
0.201647
0.200168
0.201154
0.199018
0.199675
0.202633
0.200661
0.201483
0.200497
0.200332
0.198689
0.201647
0.20099
0.200332
0.199511
0.200004
0.202633
0.201483
0.20362
0.202469
0.201647
0.19721
0.197045
0.193101
0.198524
0.198031
0.199018
0.200168
0.202633
0.201812
0.202469
0.200168
0.202633
0.202633
0.201319
0.19836
0.198689
0.201812
0.200332
0.200497
0.200168
0.204113
0.197045
0.201647
0.199182
0.19836
0.198853
0.201647
0.200004
0.201812
0.201483
0.201647
0.204606
0.200004
0.198689
0.197374
0.19836
0.19836
0.200661
0.199018
0.200661
0.199675
0.200332
0.201976
0.199511
0.199839
0.200497
0.199675
0.203948
0.202798
0.200661
0.20099
0.196717
0.205921
0.199346
0.200825
0.194087
0.199511
0.201154
0.199346
0.201483
0.204113
0.202633
0.201483
0.201647
0.200825
0.202469
0.202305
0.202962
0.199839
0.202305
0.208386
0.20362
0.200168
0.201319
0.198524
0.20099
0.198689
0.201483
0.20214
0.200168
0.201154
0.204441
0.202305
0.198689
0.202469
0.198196
0.200497
0.199675
0.200004
0.197867
0.201154
0.198196
0.200332
0.201154
0.200661
0.202962
0.201812
0.199675
0.200004
0.201812
0.200825
0.199346
0.196881
0.204934
0.201319
0.199182
0.198853
0.201976
0.197045
0.201647
0.201319
0.197703
0.202633
0.200168
0.201647
0.203948
0.20214
0.202798
0.204113
0.200332
0.204441
0.201319
0.20099
0.20099
0.199018
0.20099
0.20099
0.200661
0.19836
0.202305
0.198196
0.201483
0.200332
0.205099
0.199839
0.201976
0.201154
0.202469
0.200825
0.200168
0.20099
0.200332
0.197867
0.200497
0.199346
0.199346
0.202305
0.201319
0.203784
0.197045
0.199511
0.198689
0.201976
0.192443
0.19721
0.200661
0.19721
0.201483
0.201483
0.201483
0.202305
0.201154
0.197703
0.202305
0.195895
0.203126
0.199182
0.201319
0.20099
0.201154
0.204441
0.201154
0.201483
0.200004
0.203455
0.198689
0.199839
0.199346
0.198689
0.200332
0.203291
0.201154
0.198524
0.199018
0.199346
0.200825
0.198689
0.200825
0.200168
0.199839
0.197374
0.202305
0.197867
0.200497
0.199675
0.201976
0.199346
0.200497
0.199182
0.198031
0.197703
0.199018
0.199839
0.197867
0.196881
0.200497
0.197703
0.197867
0.200004
0.198689
0.199182
0.201483
0.20099
0.200004
0.202305
0.201483
0.199018
0.200497
0.200332
0.200168
0.200825
0.202469
0.200497
0.201647
0.200004
0.204277
0.200332
0.199182
0.200332
0.199018
0.198524
0.199839
0.19836
0.199018

Kurve 3

-0.002977
0.001789
0.002611
-0.000841
-0.000676
0.000474
-1.9e-05
0.000967
-1.9e-05
0.002447
0.003761
-0.001498
0.001296
0.003268
0.00294
0.001789
-1.9e-05
-0.000183
-0.000183
-0.00347
-0.000347
-0.001991
-0.001827
-0.001169
0.000146
-0.001662
-0.004456
0.002282
0.002447
0.004583
0.002118
0.001296
0.00146
-0.000347
-0.001334
0.000803
-0.00347
-0.003799
-0.005771
-0.003963
-0.002484
-0.004621
-0.000676
-0.001498
0.002118
-0.000841
0.00294
-0.000347
-1.9e-05
-0.000512
0.000639
-0.00232
-0.001498
-0.004128
-0.001169
0.00031
-0.002648
0.001625
-0.001662
-0.000841
-0.000841
-1.9e-05
-0.001334
-0.000183
-0.000183
0.00031
-0.000183
0.000474
-0.004949
-0.0061
-0.004128
-0.004785
-0.002813
-0.004292
-0.001991
-0.002648
-0.000512
-0.000512
-0.000347
0.000474
0.00146
0.00031
0.000146
-0.000347
-0.001005
-0.003635
-0.001827
-0.006264
-0.009551
-0.004128
-0.002813
-0.003635
-0.004456
-0.000183
-0.001169
0.000474
-0.00347
0.000803
0.000474
-0.00232
-1.9e-05
-0.000347
0.000639
-0.003142
-0.001334
-0.001498
-0.001005
-0.004456
0.002118
-0.002648
-0.001827
-0.001334
0.001789
-0.001005
0.000146
-0.002155
-0.000841
-1.9e-05
-0.004292
0.002118
-0.000676
0.000639
-0.001827
0.000146
-0.003142
0.000639
-0.004621
-0.000347
-0.003142
-0.002977
0.000803
-0.001334
0.00031
-0.001334
0.002118
-0.004785
-0.000512
-0.003142
-0.000676
0.000146
-0.004621
-0.000183
-0.002648
-0.002813
-0.002813
0.00146
-0.001991
-0.001498
-0.002484
-0.002813
-0.000512
-0.001169
-0.000841
0.00031
-0.000676
-0.000183
-1.9e-05
0.001132
-0.002813
-0.001498
-0.002155
-0.000841
-0.002648
-0.002484
0.000967
-0.001334
-0.002813
0.000967
-0.000512
-0.002484
0.000639
-0.000841
-0.001498
-0.001169
-1.9e-05
-0.002155
-0.002977
-0.002484
-0.00232
-0.003963
-0.002648
-0.000841
-1.9e-05
-0.002648
-0.002813
0.000146
-0.001662
0.000474
-0.003963
0.000639
-0.005443
-0.004456
-0.003306
-0.004456
-0.004785
-0.005771
-0.00232
-0.004785
-0.000183
-0.001991
-0.002977
-0.002484
-0.000841
-0.000676
-1.9e-05
-0.001334
-0.001005
0.000639
-0.001991
-0.001005
-0.000676
-0.002484
-0.001991
-0.002155
-0.004292
-0.001005
-0.003799
-0.002484
-0.003635
0.000146
-0.003635
0.000639
-0.00347
-0.002484
-0.001169
-0.001991
-0.001991
-0.003142
-0.003306
-0.001662
-0.001498
-0.003142
-0.001662
-0.003963
-0.00347
-0.002155
-0.000841
-0.002648
-0.00232
-0.001334
-0.001662
-0.002648
-0.002977
-0.001334
-0.00725
-0.00347
-0.002155
-0.002155
-0.003799
-0.001498
-0.004785
-0.001169
-0.002484
-0.002813
-0.000183
-1.9e-05
-0.001169
-0.000841
-0.001334
-0.002648
0.000146
-0.002813
-0.001005
-0.001334
-0.000841
-0.002813
-0.002155
-0.001498
-0.000676
0.000474
0.00146
0.000146
-0.001005
0.00031
-0.001005
-0.001498
-0.002977
-0.002155
-0.004128
-0.001827
-0.002155
-0.002155
-0.002977
-0.003142
-0.00347
-0.002813
-0.001498
-0.000183
0.00031
-0.005607
0.000146
-0.005936
-0.003142
-0.004128
-0.001498
-0.002813
-0.003635
0.000803
-0.006593
-0.00232
-0.002648
-0.003142
-0.001991
-0.002155
-0.002977
0.001132
-0.002155
-0.001662
-0.002648
-0.006922
-0.002484
-0.001169
-1.9e-05
-0.000676
0.000146
-0.002977
-0.003963
-0.001005
-0.001827
-0.004785
-0.00988
-0.003306
-0.000676
-0.00347
-0.001662
-0.001827
-0.001827
-0.003142
0.002282
-0.001827
0.000474
-0.004785
-0.002484
-0.001662
-0.001498
-0.001827
-0.000841
-0.002484
-0.006429
-0.002977
-0.006429
-0.006593
-0.002155
-0.003142
-0.003635
0.000803
-0.001334
-1.9e-05
-0.000183
-0.001662
-0.000676
-0.000676
-0.004621
0.003268
0.000146
-0.003963
-1.9e-05
-0.002813
-0.00232
-0.001662
-0.002484
-0.000841
-0.000512
-0.002155
0.00409
-1.9e-05
-0.001334
0.000639
-1.9e-05
-0.001991
-0.001498
-0.004456
-0.00347
-0.002648
-0.004456
0.000639
-0.003963
-0.002977
-0.001005
0.000146
-0.001005
-0.001005
0.000639
-0.001827
-0.000183
-0.002813
-0.000347
-0.005443
-0.005114
-0.006757
-0.005278
-0.001169
-0.003799
-0.004785
-0.004785
-0.000841
-0.001169
0.000967
0.000803
-0.000841
-0.001498
0.000146
-0.001991
-0.001005
-0.003799
-0.001498
-0.002977
-0.002813
-0.00232
-0.002813
-0.002813
-0.003142
0.00031
-0.001662
-0.001498
-0.003306
-0.000512
-0.000512
0.00031
-1.9e-05
0.000474
-0.002155
-0.004128
-0.002484
-0.002813
-0.003306
-0.003142
-0.001169
-0.001827
0.00031
0.000474
-0.002155
-0.001662
0.000146
-0.001662
-0.001005
-0.001334
-0.001498
-0.001827
-0.001662
-0.002813
-0.005936
-0.005114
-0.00347
-0.000676
-0.00232
-0.001169
0.000803
-0.001991
-0.000676
0.002118
-0.002813
0.002447
-0.00232
-0.001005
-0.000512
-0.003963
-0.002648
0.000474
-0.002155
-0.001498
-0.000512
-0.002977
0.004912
-0.000183
-0.000676
-0.001662
0.00031
-0.003799
0.001132
0.001625
0.000967
-1.9e-05
-0.000841
-0.001005
-0.003306
-0.003142
-0.004128
-0.003142
-0.002813
0.000967
-0.001498
-1.9e-05
-0.00347
0.000146
-0.001498
-1.9e-05
0.003104
-0.001169
-0.001005
-0.00232
-0.001498
-0.000347
0.00409
-0.00232
-0.000676
-0.001991
0.001132
-0.00347
-0.001005
-0.003306
-0.001498
0.000967
0.001789
-0.00347
0.000474
0.00031
-0.003799
-0.001991
-0.002155
-0.001498
-0.001827
-0.001334
-0.001827
0.002775
-0.002155
-0.001662
-0.000183
-0.004128
-0.001498
0.001625
-0.000183
0.001132
0.001296
-0.000183
0.003433
-0.00347
-0.00232
0.000967
-0.000676
-0.004128
-0.001005
-0.001662
-0.005114
-0.004128
-0.000512
0.003597
-0.000183
-0.001498
-0.003635
0.00146
-0.003306
0.000146
-0.003799
-0.002977
-0.001662
0.001132
-0.00232
-0.001498
-0.001827
-0.001334
-0.000183
-0.004128
-0.000512
-0.001991
-0.002484
-1.9e-05
0.001954
-0.000347
0.003926
-0.001662
0.000474
0.00031
-0.005936
-0.005278
-0.001334
-0.002977
-0.002484
-0.000512
0.000146
-0.001991
0.001132
-1.9e-05
-0.000841
0.001954
0.000967
-0.001827
0.000146
-0.000512
-0.000183
-0.000347
-0.000676
-0.003142
-0.003142
0.000474
-0.001827
-0.002155
0.000146
-0.005443
-0.002484
-0.005771
0.00031
-0.002813
-0.004292
-0.002813
-0.001334
-0.000183
-0.001662
-0.001498
-0.001827
-0.001991
-0.001991
0.001789
-0.000676
0.001296
-0.001662
-0.001005
-0.001005
-1.9e-05
-0.001005
0.000639
0.000639
0.002447
0.001789
-0.001169
-0.001498
-0.001005
-0.002484
-0.002813
-0.000841
-0.004949
-1.9e-05
-0.002648
-0.001991
-0.001498
0.000146
-0.001498
-0.001827
-0.000676
-0.002155
0.000146
-0.004128
-1.9e-05
-0.00232
-0.001005
0.000967
-0.002648
-0.0061
-0.004949
-0.005278
-0.000512
-0.004785
-0.002813
-0.001498
-0.00232
0.006556
0.001296
0.00146
-0.000841
-0.000676
-0.000512
-0.000347
-0.000676
-0.003142
-0.002484
-0.000347
-0.001991
0.000967
0.000146
-0.002648
-0.000512
-0.000183
0.001132
-0.000841
0.00146
-0.001169
0.000146
-1.9e-05
-0.000512
0.00031
-0.003306
0.000146
0.000639
-0.002813
-0.001662
-0.001991
-0.002155
-0.000347
-0.001827
-0.001169
0.00031
0.000803
-0.001169
0.001625
0.00031
0.00031
-0.001827
-0.006922
-0.004785
-0.002977
-0.003799
-0.005114
-0.001334
-0.00347
-0.000512
0.000967
-0.002813
-0.002155
0.000639
-0.002484
0.000803
0.001789
0.00409
-0.000347
0.000146
-0.000347
-0.000676
-0.002484
-0.002484
-0.001498
-0.002977
-0.008237
0.001296
-0.000676
-0.001334
0.001296
-0.000676
-0.001005
-0.001334
0.000146
0.000474
-0.000183
-0.001498
-0.001498
-0.000183
-0.001827
-0.001498
-0.002977
-0.001334
-0.002484
-0.000676
-0.001662
0.000146
-0.00347
0.002611
-0.000676
0.002447
0.000474
-0.001827
-0.002813
-0.002813
-0.005443
-0.007086
-0.001662
-0.002813
-0.003635
-0.004949
-0.003635
-0.000512
-0.001334
-0.001498
0.005241
0.012308
0.018882
0.029237
0.032688
0.041235
0.045179
0.054876
0.059314
0.065395
0.065724
0.074764
0.07838
0.084954
0.090049
0.094322
0.101061
0.105498
0.108128
0.114538
0.118154
0.117332
0.122756
0.123578
0.128344
0.130316
0.132453
0.135083
0.141821
0.138534
0.145108
0.147903
0.147738
0.151354
0.152669
0.157107
0.159408
0.157107
0.156613
0.160887
0.161051
0.162366
0.147409
0.131302
0.131138
0.127194
0.122756
0.129988
0.132453
0.120455
0.119962
0.110758
0.109936
0.106978
0.110429
0.109607
0.112237
0.10895
0.114867
0.115195
0.118976
0.118811
0.123742
0.122756
0.124564
0.130152
0.129659
0.134261
0.136726
0.138041
0.136726
0.142479
0.143136
0.147245
0.149053
0.150697
0.152176
0.153819
0.156285
0.158093
0.159243
0.158914
0.163845
0.164503
0.164667
0.166311
0.170255
0.167297
0.17157
0.170419
0.172392
0.173871
0.176829
0.176008
0.176994
0.17535
0.176665
0.174693
0.172392
0.173214
0.17157
0.172227
0.174857
0.169105
0.159736
0.113059
0.11651
0.083475
0.072134
0.069669
0.00031
0.001789
0.003104
0.005076
0.004419
0.002447
0.009843
0.010171
0.010336
0.010993
0.000967
0.001625
0.011486
0.008692
0.014773
0.013623
0.009678
0.016746
0.018554
0.021183
0.024306
0.030059
0.028744
0.036469
0.039756
0.04748
0.046823
0.05915
0.062601
0.065395
0.07049
0.077229
0.080187
0.085118
0.089391
0.092186
0.098267
0.098431
0.100896
0.105334
0.111744
0.109607
0.118811
0.117825
0.122756
0.125057
0.12933
0.127522
0.132782
0.138699
0.141493
0.142972
0.140671
0.150204
0.146752
0.150039
0.152669
0.153655
0.152998
0.153326
0.157435
0.159736
0.163023
0.163845
0.166804
0.165324
0.169433
0.168447
0.17157
0.171734
0.175021
0.172885
0.175843
0.176501
0.177815
0.175515
0.177322
0.173049
0.177815
0.18061
0.178802
0.180281
0.182417
0.186033
0.18439
0.186855
0.185212
0.185869
0.183568
0.185869
0.18817
0.187184
0.186855
0.190471
0.191293
0.18817
0.188992
0.18817
0.191128
0.191457
0.190471
0.189649
0.193758
0.189485
0.193429
0.192772
0.194087
0.194087
0.19195
0.193265
0.194251
0.193594
0.194087
0.195237
0.19195
0.196059
0.194744
0.194744
0.19458
0.195073
0.195237
0.196881
0.195566
0.196717
0.197374
0.196388
0.197374
0.195895
0.194416
0.196223
0.194909
0.193265
0.19721
0.195895
0.193429
0.193758
0.199018
0.197045
0.199839
0.195402
0.201812
0.200004
0.197374
0.200661
0.201319
0.200825
0.200168
0.19721
0.197538
0.201647
0.196223
0.19721
0.196223
0.196881
0.198196
0.200661
0.199346
0.200661
0.20099
0.200661
0.200168
0.199675
0.198853
0.197867
0.198689
0.195073
0.200004
0.196552
0.197538
0.198031
0.198524
0.199675
0.199675
0.199182
0.201647
0.200332
0.198524
0.202305
0.197867
0.197374
0.197538
0.200661
0.19836
0.196388
0.199839
0.200004
0.197867
0.198853
0.201154
0.200332
0.205263
0.198031
0.201812
0.199839
0.203291
0.201976
0.203784
0.199511
0.198689
0.200332
0.197538
0.196717
0.196717
0.199182
0.197703
0.202305
0.199511
0.202962
0.198524
0.19836
0.198196
0.200168
0.19573
0.199182
0.201154
0.197703
0.198689
0.199018
0.200661
0.198196
0.198689
0.198196
0.198031
0.200004
0.199346
0.19836
0.198031
0.195402
0.204441
0.199675
0.198524
0.19836
0.198524
0.19836
0.19836
0.19836
0.199839
0.199839
0.19836
0.201154
0.204113
0.200004
0.200661
0.197045
0.198524
0.201976
0.199675
0.199675
0.199675
0.199346
0.201976
0.200168
0.197703
0.199182
0.200825
0.200661
0.200661
0.19721
0.197867
0.199511
0.202798
0.200497
0.201154
0.197867
0.20099
0.199018
0.200332
0.200825
0.198689
0.201483
0.199675
0.201154
0.200332
0.203126
0.198031
0.200825
0.197867
0.195566
0.194909
0.199511
0.198196
0.198853
0.201154
0.199018
0.201812
0.200168
0.200168
0.201483
0.200332
0.199182
0.201319
0.19721
0.198196
0.198524
0.196552
0.200004
0.201154
0.200168
0.200004
0.203126
0.198524
0.20362
0.196223
0.20099
0.200004
0.201319
0.20099
0.201154
0.199839
0.199675
0.198524
0.199182
0.199675
0.199511
0.200332
0.201319
0.201976
0.201154
0.202305
0.200004
0.200497
0.199839
0.202305
0.199511
0.200661
0.199182
0.200004
0.198031
0.197538
0.198689
0.199346
0.198524
0.192115
0.202798
0.199018
0.202962
0.201319
0.203291
0.202962
0.204441
0.197867
0.201976
0.198031
0.19836
0.200661
0.197867
0.201319
0.200661
0.20099
0.201154
0.201812
0.19721
0.202469
0.205263
0.200825
0.200825
0.201647
0.201154
0.198689
0.200332
0.199182
0.200497
0.198031
0.199346
0.19836
0.200825
0.199675
0.200004
0.200497
0.201812
0.200332
0.198853
0.204606
0.200168
0.199675
0.200004
0.199018
0.198853
0.197538
0.197045
0.200004
0.199346
0.198689
0.200661
0.200661
0.20099
0.202469
0.201647
0.202633
0.199839
0.200168
0.202305
0.200497
0.201976
0.199346
0.200168
0.199182
0.200004
0.199511
0.200332
0.19836
0.203948
0.199018
0.203291
0.202633
0.205263
0.200168
0.200825
0.201319
0.199018
0.201319
0.198031
0.199018
0.198031
0.202798
0.196881
0.202633
0.200332
0.199182
0.200661
0.200497
0.201647
0.198853
0.201647
0.200004
0.199018
0.199675
0.201483
0.19836
0.199511
0.197374
0.201483
0.197045
0.201976
0.20214
0.199346
0.201647
0.20099
0.201647
0.200004
0.200332
0.198853
0.199511
0.200168
0.197703
0.200497
0.201319
0.198689
0.20099
0.198524
0.198196
0.202962
0.196388
0.200332
0.196388
0.195895
0.199018
0.20214
0.198689
0.201483
0.200004
0.199675
0.200004
0.199675
0.199182
0.199675
0.199182
0.199839
0.200332
0.200825
0.198689
0.200004
0.201483
0.198689
0.201483
0.198853
0.200825
0.198031
0.201647
0.201319
0.197374
0.199018
0.201976
0.196552
0.202305
0.20099
0.199018
0.201319
0.198689
0.200661
0.201154
0.203126
0.200168
0.201319
0.200825
0.201319
0.201647
0.20099
0.200497
0.199018
0.202305
0.197867
0.20099
0.19573
0.205263
0.200332
0.201154
0.199675
0.201812
0.201976
0.201483
0.199675
0.201319
0.201812
0.200332
0.199346
0.200168
0.200661
0.197045
0.202962
0.200168
0.201319
0.200332
0.199675
0.20099
0.20099
0.200168
0.197045
0.199018
0.199839
0.201812
0.199511
0.200497
0.197374
0.19721
0.199018
0.199018
0.19721
0.202305
0.198524
0.200004
0.200004
0.201483
0.200168
0.203455
0.201483
0.201319
0.203126
0.199346
0.201976
0.19836
0.20362
0.202962
0.202305
0.199346
0.203948
0.195566
0.200497
0.201483
0.201154
0.197867
0.20099
0.200168
0.200661
0.203126
0.200004
0.20099
0.199018
0.201319
0.200332
0.199346
0.19836
0.200497
0.199018
0.20099
0.19721
0.198031
0.201154
0.198196
0.199839
0.201812
0.202305
0.199018
0.204934
0.19836
0.201154
0.19836
0.201812
0.200168
0.201154
0.199346
0.199511
0.199511
0.200332
0.20214
0.199346
0.201483
0.200661
0.20099
0.199675
0.201812
0.202305
0.200332
0.19836
0.200825
0.195566
0.199182
0.200661
0.200825
0.20099
0.199182
0.20099
0.198689
0.196059
0.201976
0.199675
0.197867
0.20099
0.199839
0.202305
0.199675
0.199018
0.20099
0.199346
0.194416
0.197703
0.201154
0.199346
0.198031
0.193265
0.196059
0.19836
0.199018
0.196881
0.206414
0.193101
0.200004
0.201647
0.200661
0.200168
0.199346
0.201812
0.199839
0.197867
0.201976
0.201812
0.188827
0.198524
0.199018
0.199346
0.199839
0.200825
0.197703
0.199675
0.200825
0.200825
0.20362
0.197045
0.200004
0.199675
0.200168
0.198031
0.200332
0.199675
0.199511
0.198524
0.201319
0.201319
0.200168
0.19573
0.202962
0.200825
0.199511
0.201483
0.201483
0.200661
0.19721
0.199839
0.200004
0.203784
0.194251
0.198524
0.199346
0.199839
0.200168
0.202798
0.200332
0.200825
0.204277
0.200332
0.2074
0.199018
0.200497
0.200332
0.200168
0.19836
0.200661
0.198689
0.198689
0.201812
0.197045
0.202798
0.199182
0.199346
0.200168
0.200661
0.199675
0.199182
0.198689
0.201319
0.198689
0.19836
0.200497
0.198689
0.199675
0.198031
0.200825
0.198689
0.201154
0.20099
0.201319
0.200497
0.201812
0.200168
0.203455
0.202633
0.196388
0.197538
0.19721
0.199675
0.197703
0.199839
0.198031
0.200332
0.198196
0.201647
0.200825
0.200497
0.201483
0.202633
0.200497
0.202633
0.20099
0.202798
0.199839
0.201154
0.199018
0.198853
0.200004
0.200004
0.199511
0.194744
0.201319
0.199675
0.199511
0.199839
0.204113
0.196881
0.199675
0.202305
0.200004
0.200661
0.200168
0.200332
0.200168
0.199346
0.199675
0.203784
0.198853
0.20099
0.199018
0.201319
0.199675
0.201319
0.199182
0.199018
0.197867
0.19721
0.19836
0.196552
0.199182
0.198524
0.200661
0.19836
0.200332
0.199839
0.203784
0.198196
0.201647
0.202798
0.198196
0.199839
0.200661
0.199511
0.201154
0.201976
0.20099
0.202633
0.198853
0.201647
0.197374
0.199675
0.199511
0.20099
0.201154
0.200661
0.200332
0.202305
0.202633
0.202962
0.198689
0.201976
0.20099
0.199675
0.203126
0.196223
0.200497
0.203784
0.20214
0.201319
0.201647
0.200168
0.199346
0.199675
0.199346
0.197538
0.199675
0.20214
0.198853
0.202305
0.199839
0.202305
0.200497
0.201647
0.199839
0.19836
0.200661
0.199018
0.198689
0.201319
0.201319
0.199511
0.201812
0.200497
0.204441
0.198031
0.202305
0.200168
0.202798
0.201319
0.198689
0.20362
0.201319
0.199839
0.202798
0.200825
0.199675
0.200004
0.198196
0.198689
0.195566
0.200497
0.200332
0.200168
0.200497
0.202633
0.201319
0.201647
0.201976
0.199346
0.196717
0.200332
0.200168
0.199346
0.200825
0.198853
0.200168
0.202469
0.199346
0.198196
0.199675
0.199346
0.199346
0.198196
0.199839
0.200661
0.199839
0.198524
0.198853
0.20099
0.197703
0.201976
0.199511
0.201976
0.199839
0.200661
0.201319
0.201976
0.200332
0.205756
0.196059
0.201647
0.200661
0.199346
0.201812
0.199675
0.201319
0.200332
0.200825
0.196223
0.202633
0.199182
0.199675
0.198524
0.202305
0.199182
0.202633
0.203291
0.200004
0.20099
0.199839
0.20214
0.198524
0.200004
0.200168
0.197045
0.197538
0.195566
0.199018
0.20214
0.19573
0.198196
0.202633
0.200004
0.19836
0.198524
0.202469
0.199511
0.20099
0.201976
0.201647
0.200497
0.20214
0.198196
0.201154
0.198524
0.200332
0.200661
0.200332
0.20099
0.198853
0.201812
0.200332
0.201154
0.202305
0.200825
0.19836
0.200825
0.199839
0.20214
0.200168
0.204277
0.200332
0.199182
0.203126
0.199675
0.200168
0.199346
0.199182
0.200825
0.200004
0.200661
0.203455
0.200004
0.203784
0.19836
0.199346
0.198853
0.197374
0.19836
0.200332
0.202798
0.198689
0.202305
0.19836
0.199346
0.201319
0.202305
0.197867
0.203784
0.201647
0.201319
0.201812
0.200332
0.201647
0.201319
0.200168
0.203948
0.202305
0.197867
0.198524
0.197703
0.200661
0.20099
0.201812
0.20214
0.201976
0.201319
0.202469
0.203455
0.198689
0.200004
0.198689
0.198524
0.199018
0.198853
0.200004
0.20099
0.199675
0.201812
0.20362
0.201154
0.200497
0.202633
0.201647
0.20099
0.198689
0.200661
0.200661
0.198853
0.199346
0.203291
0.199675
0.197867
0.20099
0.199018
0.200004
0.196552
0.20214
0.201976
0.20214
0.201812
0.201812
0.201483
0.20362
0.199839
0.200497
0.201319
0.19836
0.202469
0.19836
0.19721
0.197538
0.20099
0.20099
0.201483
0.201812
0.202469
0.201483
0.201154
0.202798
0.198031
0.196881
0.200168
0.200825
0.198196
0.199346
0.200168
0.201812
0.199018
0.200332
0.201319
0.199346
0.200332
0.199839
0.201483
0.198196
0.201154
0.199182
0.198031
0.196717
0.199511
0.202305
0.197703
0.199346
0.203291
0.199675
0.199839
0.200825
0.20099
0.199346
0.201483
0.200825
0.202962
0.20099
0.20099
0.203455
0.201976
0.201483
0.200661
0.20099
0.197867
0.199839
0.196717
0.201976
0.199018
0.201483
0.202962
0.201812
0.201483
0.198524
0.200168
0.198196
0.202798
0.199511
0.201154
0.199839
0.202633
0.198689
0.200825
0.198689
0.20099
0.201647
0.196059
0.199675
0.198853
0.20099
0.200661
0.201812
0.19836
0.199346
0.199675
0.200497
0.199346
0.19721
0.201976
0.199018
0.201647
0.200825
0.201976
0.199182
0.202469
0.198031
0.200332
0.199675
0.201483
0.199511
0.20099
0.202962
0.201976
0.203291
0.203948
0.199675
0.200168
0.20099
0.199182
0.201483
0.202798
0.199346
0.201812
0.199346
0.200661
0.204113
0.201154
0.202798
0.200168
0.203291
0.202305
0.199346
0.201812
0.201647
0.203784
0.203784
0.201483
0.199018
0.200168
0.196059
0.200497
0.196223
0.200332
0.201154
0.202305
0.202798
0.20362
0.206578
0.201319
0.202469
0.20099
0.202798
0.201647
0.199346
0.199839
0.202633
0.200497
0.201154
0.201647
0.201976
0.201319
0.201483
0.200825
0.205099
0.205592
0.200332
0.201647
0.203948
0.20099
0.199839
0.203291
0.199346
0.20099
0.199182
0.200004
0.200332
0.200004
0.200497
0.200497
0.204277
0.200661
0.202962
0.200825
0.202633
0.20362
0.203126
0.201647
0.200168
0.199182
0.199511
0.199346
0.197703
0.200661
0.198853
0.202469
0.202962
0.203291
0.205427
0.202798
0.202305
0.204277
0.20099
0.202798
0.203291
0.200661
0.20214
0.202798
0.20099
0.200825
0.201647
0.20099
0.20214
0.201812
0.201483
0.20214
0.204441
0.202798
0.20362
0.204113
0.202305
0.200825
0.204606
0.201319
0.200332
0.200332
0.202305
0.200825
0.199511
0.197538
0.199018
0.200661
0.199839
0.200168
0.198031
0.201647
0.199182
0.199839
0.19573
0.187677
0.075585
0.080681
0.082817
0.060136
0.066217
0.021348
0.029894
0.031209
0.037948
0.038276
0.045672
0.049288
0.05537
0.060629
0.060793
0.068354
0.07197
0.074435
0.077229
0.08216
0.081995
0.086597
0.087419
0.091857
0.08857
0.086762
0.07838
0.080352
0.082982
0.086926
0.090049
0.091364
0.093829
0.095473
0.100568
0.099582
0.104019
0.105827
0.109279
0.109607
0.118318
0.119797
0.119633
0.121277
0.124399
0.128673
0.131796
0.132453
0.138699
0.140342
0.138041
0.142972
0.146423
0.147081
0.145602
0.149053
0.153655
0.15497
0.157764
0.160722
0.162859
0.164667
0.164996
0.168612
0.168612
0.170091
0.172227
0.171406
0.174693
0.1742
0.175843
0.177158
0.179295
0.177815
0.181267
0.182253
0.181431
0.182582
0.182417
0.184883
0.183075
0.185212
0.185869
0.189156
0.184718
0.189485
0.187841
0.188663
0.188499
0.188499
0.191621
0.191621
0.19458
0.191128
0.192115
0.191128
0.19573
0.191457
0.194416
0.193101
0.195237
0.192608
0.192608
0.192608
0.195895
0.194251
0.194744
0.199182
0.196059
0.195073
0.19573
0.197867
0.197703
0.196717
0.198031
0.195895
0.200004
0.204113
0.202469
0.198031
0.197867
0.200168
0.199346
0.198853
0.198031
0.20099
0.199182
0.198031
0.201483
0.199182
0.200497
0.201154
0.196552
0.198031
0.199182
0.197867
0.201976
0.199511
0.200497
0.200332
0.200004
0.202305
0.198196
0.200661
0.199839
0.198524
0.197703
0.202305
0.199675
0.198031
0.197538
0.206085
0.200825
0.201812
0.200661
0.20214
0.201154
0.200497
0.202633
0.199839
0.201154
0.199675
0.204934
0.197045
0.200497
0.200661
0.201812
0.200332
0.20362
0.20099
0.201812
0.202305
0.201812
0.202798
0.199511
0.201647
0.198524
0.203126
0.20099
0.200004
0.200332
0.197867
0.202469
0.196717
0.200332
0.198196
0.199346
0.200497
0.201154
0.200332
0.202305
0.201647
0.202305
0.200497
0.201812
0.200497
0.201976
0.200497
0.200497
0.198196
0.195402
0.201976
0.199018
0.203291
0.199675
0.202469
0.202469
0.201647
0.200825
0.202633
0.201319
0.201976
0.199839
0.202305
0.201319
0.203291
0.200825
0.198853
0.199346
0.200497
0.202633
0.200497
0.201154
0.201976
0.201812
0.201319
0.2074
0.19836
0.205756
0.203291
0.204441
0.201812
0.199675
0.200332
0.199018
0.200004
0.19836
0.202469
0.201812
0.201647
0.201154
0.202305
0.199839
0.203291
0.201154
0.201812
0.202798
0.201154
0.201812
0.20099
0.197374
0.19721
0.205756
0.200168
0.199018
0.196717
0.199018
0.201483
0.202469
0.202469
0.203126
0.203291
0.202798
0.202305
0.200168
0.20214
0.202305
0.199839
0.20099
0.201647
0.199839
0.202469
0.199182
0.204277
0.198689
0.200004
0.201154
0.20362
0.201812
0.198853
0.199182
0.200004
0.200497
0.197538
0.198689
0.199018
0.198689
0.197045
0.203126
0.196388
0.200332
0.201154
0.201976
0.20099
0.203126
0.200661
0.202469
0.202305
0.198524
0.199511
0.196552
0.199511
0.200004
0.199182
0.202305
0.201976
0.200168
0.201154
0.20099
0.199675
0.205427
0.200825
0.202633
0.203784
0.202962
0.20099
0.200661
0.199511
0.201319
0.200168
0.201647
0.200168
0.199839
0.200168
0.200825
0.201319
0.203291
0.201154
0.203455
0.201154
0.205263
0.204934
0.203126
0.200332
0.199511
0.203126
0.199839
0.200661
0.199182
0.201483
0.200004
0.201154
0.200825
0.200825
0.200168
0.20099
0.20477
0.199346
0.202469
0.201154
0.205592
0.201319
0.200004
0.203291
0.20099
0.196552
0.199839
0.200497
0.20099
0.201154
0.200825
0.202633
0.200004
