Ladekurvenmessung
Zeit: 2018_05_04 09.57.23
Info: FVA3, v = 0.533, T = 23, F = 20, h = 381.9
Ladewiderstand[Ohm]: 1012700
Störkapazität[pF]: 0.000000
Entladezeit[ms]: 200
Abtastrate[Hz]: 250000
Anzahl der Messwerte: 2500.000000
Verzögerung[ms]: 3
Ladespannung[V]: 0.200000
	Kurve_1	Kurve_2	Kurve_3	Kurve_4	Kurve_5	Kurve_6
0	-0.002155	-0.00232	-0.000676	0.00146	0.002611	-0.002155
1	0.000803	0.000474	0.001954	0.00031	0.001132	-0.001005
2	-0.003306	0.000146	-0.000183	-0.000676	0.004419	0.000967
3	0.00146	0.001625	0.003433	0.002282	0.001296	0.00031
4	0.001789	0.000639	0.000146	0.001625	0.005569	-1.9e-05
5	0.002611	0.001296	0.00146	0.002118	0.001789	-0.001005
6	0.000639	-0.001169	-0.000841	-0.000676	0.002282	-0.000347
7	0.001296	0.000803	0.000474	0.000474	0.001954	-0.003799
8	-0.002155	-0.002155	-0.000676	0.002775	0.00409	-0.00347
9	0.000639	-0.00232	0.001132	-0.004785	0.002118	-0.005936
10	-0.00232	-0.001005	-1.9e-05	-0.001334	0.003761	-0.002155
11	-0.001169	-0.001827	0.000639	0.000146	0.003268	0.000146
12	-0.002648	-0.000347	-0.001827	-0.001498	0.001625	-0.006429
13	-0.000841	-0.001334	-0.000347	-0.002484	0.003597	0.001625
14	-0.006922	0.000146	-0.004785	-0.002648	0.000146	-0.001827
15	-0.001991	0.00146	-0.002648	-0.001005	0.005241	-0.001005
16	0.00031	-0.004949	-0.001334	-0.001662	0.004255	0.002118
17	-0.001662	-0.001169	-0.005114	-0.003306	0.00146	-0.001991
18	0.000639	0.003433	-0.003963	0.002775	-1.9e-05	-0.002155
19	-0.000512	-0.001991	-0.002977	-0.001169	0.001296	0.002447
20	-0.000183	0.003268	0.002775	0.000474	-0.000676	-0.000676
21	0.001296	0.001296	0.00031	-0.000183	-0.001662	0.000967
22	0.00031	0.000803	0.003597	0.00146	0.002447	-0.000512
23	0.003104	-0.001005	0.00409	-0.002484	0.000967	0.00146
24	-0.000512	0.00031	0.001625	-0.001498	0.00146	-0.000512
25	-0.003142	-0.002155	0.000967	-0.000512	0.005898	-0.001498
26	0.001625	-0.001169	0.002775	-0.001991	-0.000512	-0.000676
27	-0.000841	-0.001005	0.000146	-0.003963	0.00031	-0.001991
28	0.000146	-0.002155	0.000639	-0.002648	0.001789	-0.000512
29	-0.001169	0.001789	-0.001169	-0.001334	-0.000676	-0.003799
30	-0.001498	-0.000841	-0.000183	-0.003635	0.002447	0.004583
31	-0.002484	-0.000347	-0.002484	-0.001498	0.00031	-0.002155
32	-0.001827	-0.000841	-0.001827	-0.004456	0.001296	-0.001498
33	-0.002813	0.00031	-0.001498	-0.002648	0.000146	-0.001334
34	-0.002155	0.00031	-0.001662	-0.00347	-0.000841	-0.002648
35	0.003104	0.000639	0.001296	0.002447	-0.003142	-0.001498
36	0.00146	-0.000841	-1.9e-05	0.00031	0.00146	0.000474
37	0.002282	0.001625	-1.9e-05	-0.001334	-0.002813	-0.001498
38	0.002282	-0.000512	-0.002813	0.00031	-0.000841	0.002775
39	0.000639	-0.001498	0.001954	-0.003963	0.000639	0.001625
40	-0.001498	-0.006593	0.001954	-0.005936	0.002775	-0.00347
41	0.001789	-0.000512	0.001954	0.000803	0.001625	0.002775
42	-0.003306	-0.000183	0.00031	-0.001827	0.002282	-0.00347
43	0.000639	-0.002648	0.002118	-0.002648	0.002447	-0.002648
44	-0.001662	-0.001169	-0.00347	-0.001169	0.001132	-0.001827
45	-0.001334	0.00031	-0.000183	-0.002484	0.003597	-0.001169
46	0.00146	-0.000676	-0.00347	-0.000347	0.00146	-0.004128
47	-1.9e-05	-0.000841	-0.002484	-0.002977	0.006884	-1.9e-05
48	-0.001827	-0.000676	-0.003963	-0.000512	-0.004785	-0.001991
49	-0.004456	-0.000183	-0.001498	-0.0061	0.001132	-0.000841
50	-0.002813	-0.001169	-0.002813	-0.00347	0.000146	-0.001827
51	-0.004292	-0.003635	-0.001334	-0.001005	-0.00232	-0.002813
52	-0.001498	0.00146	-0.002813	-0.003635	-1.9e-05	0.000803
53	-0.002977	-0.001662	-0.001169	-0.001334	0.000146	-0.001991
54	-0.001005	0.002447	-0.000347	-0.001991	0.001132	-0.00232
55	-0.001827	-0.001991	-0.001827	-0.000841	0.003268	-0.001334
56	0.000474	-0.002155	0.002118	-0.00232	0.001954	-0.000183
57	-0.001662	-0.001169	-1.9e-05	0.002282	0.000803	-0.004949
58	-0.001991	-0.000512	0.003597	-0.001991	0.004583	-0.002155
59	-0.001498	-0.005114	-0.002484	-0.000347	-0.002648	-0.004292
60	0.00031	-0.001662	0.001296	-0.00347	0.00146	0.002282
61	-0.00232	-0.002484	-0.001334	-0.001169	0.001296	-0.001991
62	-0.003306	-0.0061	-0.002648	-0.000512	0.002282	-0.002648
63	-0.002484	-0.004621	-0.001991	0.001132	-0.000183	-0.001662
64	-0.003306	-0.003306	-0.003635	0.001296	-0.000512	0.002447
65	-0.002648	-0.00347	-0.004128	-0.002648	0.003104	-0.00347
66	-0.002977	-0.004128	-0.004785	-0.002813	0.000146	-0.001169
67	-0.001498	0.001132	0.000639	-0.003142	-0.003963	-0.000841
68	-0.002977	-0.001662	-0.002977	-0.004785	-0.001827	-1.9e-05
69	0.000967	-0.000183	0.00031	-0.003963	-0.001991	-0.000347
70	-0.001991	0.000146	-0.001169	-0.001334	-0.000841	0.000803
71	0.000803	0.002447	-0.000347	-0.006757	-0.000841	-0.000347
72	-0.002155	-0.001662	-0.003142	-0.003306	-0.001991	-0.005607
73	-0.000512	-0.005443	-0.003799	-0.001005	-0.000841	-0.001662
74	-0.00347	-0.001005	-0.001991	-0.003306	-0.000676	-0.003306
75	0.002447	-0.000347	0.000474	-0.00347	-0.000183	0.00294
76	0.00294	-0.002484	-0.00232	-0.003306	0.00031	-0.001169
77	0.001132	-0.003963	-0.000512	-0.001991	-0.00347	0.00031
78	-0.001991	0.002447	0.000803	0.001132	-0.000676	0.000474
79	0.001296	-0.004292	-0.004128	-0.002484	0.000803	-0.001662
80	0.000146	0.000967	0.002447	-0.001334	-0.000512	-0.002813
81	-0.00347	-0.002813	-0.001498	-0.000183	0.000967	-0.000841
82	-0.000512	-0.00232	-0.001498	-0.00232	-0.002155	-0.003963
83	-0.002484	-0.001498	0.001625	-0.001662	-0.002648	-0.004128
84	-0.002155	-0.001498	-0.001662	0.001954	-0.002155	-0.00232
85	-0.003142	-0.002155	-0.004456	-0.002484	-0.000512	0.002282
86	-0.000512	-0.000512	0.000803	-0.002648	-0.003799	-0.000183
87	-0.001662	-0.000183	-0.002648	-0.003635	-1.9e-05	-0.002484
88	-0.002648	-0.003306	0.00031	-0.000347	0.000803	0.001132
89	-0.000183	0.001132	0.002447	-0.001169	0.001296	-1.9e-05
90	0.00031	-0.00232	0.000639	0.000803	-0.000183	-0.000512
91	-0.001827	-0.004292	-0.000841	0.003433	0.000639	-0.001498
92	-0.003142	-0.001498	0.000967	0.00031	0.000146	0.000967
93	0.000474	-0.003306	-0.00232	0.001132	-0.001827	-0.003142
94	-1.9e-05	-0.002977	-0.000347	-0.00232	-0.001169	-0.002648
95	-0.001169	-0.001005	-0.003799	0.001625	-0.000512	-0.001334
96	0.000967	-0.002977	-0.001827	-0.001334	-0.000841	-0.000512
97	-0.001662	-0.000676	-0.001169	-0.002648	-0.00232	-0.002155
98	-0.004456	-0.005443	-0.000676	-0.002648	0.002775	-0.000512
99	-0.002648	-0.002648	-0.004292	-0.000676	-0.001827	-0.001005
100	-0.001498	-0.000841	0.001132	-0.003635	0.000474	-0.001169
101	-0.001169	-0.001827	-0.001169	-0.001662	-0.000841	-0.001498
102	-0.004621	-0.001334	-0.004621	-0.00347	0.001625	-0.002484
103	-0.002155	-0.001169	0.00146	-1.9e-05	-0.00347	-0.001662
104	-0.004949	-0.00232	-0.004621	-0.002484	-0.002977	-0.002484
105	-0.00347	-0.00232	-0.001334	-0.003963	-0.001334	-0.003635
106	-0.004621	-0.001005	-0.004128	-0.001991	0.001132	-0.003306
107	-0.004292	-0.000512	-0.00232	-0.000347	-0.00347	-0.001334
108	-0.000841	-1.9e-05	-0.000841	-0.003306	0.000146	-0.002484
109	0.000639	0.000146	-0.001827	-0.002813	0.000474	-0.001498
110	-0.00232	-0.000183	-0.002648	0.002282	-0.004456	-0.002813
111	-0.000347	-0.001827	0.000474	0.001625	-0.002648	-0.001498
112	0.00031	0.003926	-0.000512	-0.003799	-0.0061	-0.004128
113	0.000803	-0.000676	-0.003306	-0.003635	-0.000183	-0.001169
114	0.001296	-1.9e-05	-0.001498	0.003761	-0.003963	-0.00347
115	-0.002484	-0.000841	-0.003142	-0.006429	-0.001169	-0.002484
116	-0.001662	-0.0061	-0.001005	-0.001662	-0.006429	-0.001169
117	-0.002648	-0.00347	-0.00347	-0.001334	-0.005443	-0.003635
118	-0.000512	-0.002648	0.000967	-0.004128	-0.003635	-0.000183
119	-0.003142	-0.000841	-0.00232	-0.006593	-0.005278	-0.002813
120	-0.000183	-0.003306	-1.9e-05	-0.007415	-0.003799	0.002282
121	-0.003799	-0.005114	-0.003635	-0.000347	-0.004621	-0.00347
122	-0.002155	-0.000183	-0.000347	-0.007415	-0.002977	-0.002977
123	-0.002484	0.000967	-0.002977	-0.002977	-0.004949	-0.002648
124	-0.000841	-0.002813	-0.005443	-0.002484	0.000967	-0.001005
125	0.002118	0.001954	-0.002155	-0.000183	-0.003635	-0.00232
126	0.003926	-0.000347	-1.9e-05	-0.00232	-0.002813	0.001132
127	-0.002648	-0.000676	0.000146	-0.002813	-0.007415	-0.000512
128	-0.000183	-0.004292	-0.002648	-0.002813	-0.003963	-0.000512
129	-0.001005	0.001296	0.000639	-0.00232	-0.005771	-0.001827
130	-0.00347	-0.005443	-0.001169	-0.000183	-0.003635	0.000803
131	0.000474	-0.001991	0.001625	-0.001334	-0.003142	-0.000841
132	-0.00232	-0.004949	-0.002977	-0.000841	0.000146	-0.001498
133	0.000639	-0.001498	-1.9e-05	-0.001334	-0.004785	-0.001498
134	-0.003799	0.002447	-0.000676	0.001625	-0.002648	-0.000347
135	-0.004621	-0.002155	-0.000512	-0.004785	0.000639	0.000967
136	-0.005278	-0.002813	-0.001005	-0.001334	-0.007415	-0.00347
137	-0.00232	0.00031	-0.000347	-0.005278	-0.003635	0.00031
138	-0.006429	-0.000841	-0.004128	-0.002813	-0.003963	-0.002155
139	-0.002155	-0.003142	0.000639	-0.001005	-0.006757	-0.00232
140	-0.001991	0.000967	-0.004621	-1.9e-05	-0.0061	-0.000676
141	-0.001169	0.001132	-0.003799	-0.002813	-0.004785	-0.001827
142	-0.001005	0.00031	-0.000841	-0.003142	-0.004456	0.000803
143	-0.001005	-0.002648	-0.002813	-0.001498	-0.001334	0.001625
144	-0.000512	0.001789	-0.000183	-0.002155	-0.004128	-0.001498
145	-0.000183	0.00031	0.000146	-0.003142	-0.002155	-0.002155
146	0.001625	-0.001991	0.003433	-0.000183	-0.004456	0.000639
147	-0.002977	-0.002813	0.000639	0.000639	-0.004785	0.000474
148	-0.003635	-0.000676	0.003268	-0.001169	-0.002977	-0.001169
149	-0.007086	-0.004621	-0.002484	0.000803	-0.002155	0.00294
150	-0.003142	-0.002813	-0.001169	-0.003142	-0.003963	0.001789
151	-0.000841	-0.004128	-0.002484	-0.004128	-0.000347	-0.000347
152	-0.004128	-0.00347	-0.001662	-0.000841	-0.002648	0.000146
153	-0.001827	-0.000841	-0.001334	0.000146	-0.002484	-0.001498
154	-0.001498	-0.002813	-0.003635	-0.001005	-0.003306	-0.001005
155	-0.002155	0.001954	0.000474	-0.000841	-0.005771	-0.001498
156	-0.002484	-0.003142	-0.002648	-0.002977	-0.001005	-0.001498
157	-0.000676	0.000803	-0.001827	-0.001005	-0.003306	-0.005278
158	-0.001169	-0.000841	-0.003799	-0.002484	-0.002155	0.000803
159	0.000803	0.000474	-0.000183	-0.002648	-0.004456	-0.002813
160	-0.001498	-0.004456	-0.00232	-0.002484	-0.001991	-0.001169
161	0.001132	-0.002813	-0.001005	-0.000183	-0.006757	-0.004128
162	-0.001662	-0.002813	-0.001498	-0.001662	-0.006429	-0.000676
163	0.002447	-0.005114	-1.9e-05	-0.002977	-0.003799	0.001789
164	0.00146	-0.004621	-0.001827	-0.000676	0.004748	-0.001169
165	0.002447	-0.006429	-0.000676	0.001132	-0.002484	0.001132
166	-0.000512	-0.004949	-0.004785	-0.001334	-0.000676	0.00146
167	0.002118	-0.005607	-0.004292	-0.000512	-0.002977	-0.001334
168	-0.000512	-0.004456	-0.001991	0.007377	-0.005278	-0.001169
169	-0.002813	-0.007415	-0.001498	-0.004621	0.00031	-0.000512
170	-0.00347	-1.9e-05	-0.002648	0.000474	-0.002977	-0.001334
171	-0.000676	-0.003799	-0.003306	-0.002648	0.00031	0.001625
172	-0.003142	-0.002484	-0.003963	-0.002977	-0.003635	-0.002977
173	-0.001662	-0.004949	0.001296	-0.006922	-0.001498	-0.000841
174	-0.002484	-0.000347	-0.003799	-0.000512	-0.000841	-0.000347
175	-0.002813	-0.001169	-0.002484	-0.004949	0.002118	0.001296
176	-0.001334	0.000146	-0.001827	-0.002813	-0.003142	0.001132
177	-0.005936	0.000146	-0.001991	-0.004456	-0.001827	0.004912
178	-0.001498	0.000474	-0.001169	-0.001169	-0.00347	-0.002813
179	-0.001662	-0.000347	0.00031	-0.000841	-0.004456	0.002282
180	-0.00232	-0.000676	0.000146	-0.002648	-0.002813	0.001132
181	-0.000347	-1.9e-05	0.000146	-0.002813	-0.002484	-0.000676
182	-0.000512	-0.003306	0.001954	-0.001005	-0.001498	0.00031
183	-0.000841	-0.003963	-0.000676	-0.000183	-0.000183	0.003104
184	0.000639	-0.002813	0.000474	-0.005936	-0.005443	0.002611
185	-0.003635	-0.001498	0.002611	-0.000512	-0.003306	0.000639
186	-0.004456	-0.003799	-0.002484	-0.001005	-1.9e-05	0.001132
187	-0.003306	-0.000512	-0.002484	-0.000183	-0.005607	-0.002155
188	-0.004292	-0.001005	-0.000183	-0.002155	-0.005114	0.002775
189	-0.001991	0.002118	-0.007086	-0.000512	-0.001827	-0.003799
190	-0.001827	-0.001827	-0.000512	-0.004128	-0.001005	-0.000841
191	0.000474	-0.002813	-0.00232	-0.001005	-0.002977	-0.001662
192	-0.004785	0.007213	-0.002813	-0.005936	-0.00347	-0.002155
193	-0.000183	-0.001827	-0.001005	-0.002648	-0.002648	0.000474
194	-0.002484	-0.000841	-0.003142	-0.002813	-0.002155	-0.001827
195	-0.002484	0.001789	0.000146	-0.003142	-0.00347	0.000803
196	-0.001662	0.000474	-0.002155	0.00146	-0.004949	0.000474
197	-0.003799	-0.002155	-0.003963	-0.001005	-0.001991	0.001789
198	-0.00347	-0.000512	-0.004949	0.001296	-0.003142	-0.000841
199	-0.000347	-0.001991	-0.000512	-0.000183	-0.001334	0.003104
200	-0.002648	-0.001991	-0.002484	0.001132	-0.001334	0.000803
201	-0.002155	-0.001827	-1.9e-05	-1.9e-05	0.000474	0.002447
202	-0.001334	-0.001662	-0.001498	0.003268	-0.001662	0.000146
203	-0.002484	0.001625	-0.001498	-0.001005	-0.000183	-0.000841
204	-0.002155	0.000146	-0.000676	0.000967	-0.002484	-0.00347
205	-0.002484	-0.001169	-0.00232	-0.000676	-0.002648	-0.002648
206	-0.002484	-0.004785	-0.001498	-0.00232	-0.004621	-1.9e-05
207	-0.004785	-0.000841	-0.00347	-0.002155	-0.000347	-0.005443
208	0.003268	-0.002648	-0.000676	-0.000512	-0.002648	-0.002155
209	-0.004456	-0.001169	-0.005936	-0.003142	-0.001662	-0.000841
210	0.000803	0.001954	0.00146	-0.001827	-0.001827	-0.001991
211	-0.004292	-0.002155	-0.005114	-0.001005	-0.00232	-0.004949
212	0.000146	-0.001005	-0.000183	-0.000676	-0.001991	-0.002813
213	-0.001991	0.002447	0.000146	0.00672	-0.002648	0.005076
214	0.000639	0.004748	-0.002977	-0.001991	-0.000347	0.000474
215	0.002282	-0.003963	-0.001827	-0.000347	-0.001005	-0.001991
216	0.001296	-0.002484	0.00146	-0.000841	-0.000512	0.001132
217	-0.00232	-0.003799	-0.003635	0.000474	-0.001827	-0.000841
218	0.00031	-0.002648	-0.002484	0.000639	-0.001991	0.000474
219	0.001132	-0.000841	0.000146	0.005076	0.00031	0.00031
220	-0.003306	-0.001005	-0.005114	0.002447	0.001789	0.00294
221	-0.000512	-0.002977	0.001296	0.001789	0.002775	0.00031
222	-0.002977	-0.001334	-0.002155	-0.003306	-0.001169	-0.002648
223	-0.001169	0.000146	0.002611	-0.003635	0.000639	-0.001169
224	-0.001991	-0.003306	0.000639	0.00294	0.00146	-0.000841
225	-0.000676	0.001954	-1.9e-05	-0.00347	0.001132	-0.001169
226	-0.003799	-0.001991	-0.003306	-0.009551	-0.001827	0.000146
227	-0.002484	0.000474	-0.000841	-0.004128	0.000639	0.001296
228	-0.007415	-0.001498	-0.001827	-0.003963	-0.002155	0.00146
229	-0.001334	0.002447	-0.004949	-0.002813	-0.002484	-0.000676
230	-0.001662	0.000474	-0.001334	0.001954	-0.001662	-1.9e-05
231	-0.001991	-0.002155	-0.002155	-1.9e-05	-1.9e-05	0.00146
232	-0.001334	0.002447	-0.001169	-0.000347	-0.001334	-0.001334
233	0.00031	-0.001498	-1.9e-05	-0.005443	0.000474	0.002282
234	0.001296	-0.000676	0.002118	-0.002155	-0.003142	-0.001827
235	-0.001169	-0.002813	-0.000841	-0.00232	-0.003635	0.00031
236	0.001296	-0.002484	0.001296	-0.000512	-0.003142	-0.001005
237	-0.004785	-0.003635	-0.004128	-0.00232	-0.001169	-0.000841
238	-0.000676	-0.005607	-0.001991	0.002282	-1.9e-05	-0.000512
239	-0.001991	-0.002813	-0.008237	0.001789	0.001296	0.00294
240	-0.000676	0.002447	-0.001991	-0.000347	-0.001662	-0.002648
241	-0.001827	-0.005443	-0.001005	-0.000183	0.000639	-0.002155
242	-0.003142	-0.003306	-0.002648	0.001625	0.001789	0.000474
243	-0.003963	0.00146	-0.003635	0.002447	-0.001169	-0.001334
244	0.00031	-0.001169	0.002447	-0.001827	-0.001334	0.000146
245	-0.004456	-0.000347	-0.002648	0.000146	0.001296	-0.001662
246	-0.000183	-0.001005	-0.004621	-0.005607	-0.002484	-0.000347
247	0.001625	-0.010045	-0.00347	0.000474	-0.001169	-0.001991
248	-0.002484	-0.004456	-0.000512	-0.002648	0.000803	-0.000183
249	-0.00347	-0.005443	0.001132	-1.9e-05	-0.003963	-0.003142
250	-0.002484	-0.001827	-0.003306	-0.001662	0.00146	-0.000183
251	-0.001498	-0.00232	0.000967	0.002611	-0.00232	0.001132
252	-0.003306	-0.002155	-0.001334	0.000639	-0.000347	0.001625
253	-0.002648	0.00146	-0.001169	0.000803	-0.000841	-0.000512
254	-0.001662	-0.000512	-0.002155	0.000803	-0.000183	0.003597
255	0.000639	-0.000183	0.00031	0.001296	0.002775	-0.001827
256	-0.001498	-0.001498	-0.000512	0.001625	0.001296	-0.001169
257	-0.001334	-0.001334	-1.9e-05	-0.01514	-0.000841	-0.000676
258	-1.9e-05	-0.008072	0.00294	-0.001498	0.000967	-0.003306
259	-0.002648	-0.002155	-0.002813	-0.004128	0.002282	-0.001991
260	-0.001827	0.000803	-0.002813	-0.005114	-0.002484	-0.001498
261	-0.001662	-0.001169	-0.000512	-0.001991	0.001296	0.000967
262	-0.00232	-0.003306	-0.005607	-0.00347	-0.000183	-0.004292
263	-0.002977	-0.003963	-0.002977	-0.002813	0.003268	0.004748
264	-0.008401	-0.001991	-0.002813	0.000803	0.000803	-0.000183
265	-0.003963	-0.001498	-0.003799	-0.002648	0.002282	0.002118
266	0.000474	-0.004128	0.001132	0.001132	-0.001334	-0.000347
267	-0.004621	-0.00347	-0.002648	-0.000183	-0.000512	0.001132
268	-1.9e-05	0.000474	-0.001169	-0.009716	-0.001827	-0.000676
269	-0.000183	-0.007908	0.001954	0.00294	0.002118	-0.000676
270	0.000474	-0.001991	0.000474	0.001789	0.002611	0.003597
271	-0.001991	-0.001005	-0.001662	-0.000347	0.000146	0.003104
272	-0.000183	-0.004292	0.002118	-0.000512	-0.000347	-0.000676
273	-0.001498	-0.003142	0.001954	-0.000183	-0.001991	0.002118
274	0.000474	-0.000841	0.004583	-0.004128	-0.000841	0.000146
275	-0.001498	0.000967	0.001625	-0.002484	0.001625	-0.000183
276	0.000146	-0.001005	0.001296	-0.00232	0.000474	0.002118
277	-0.001169	0.000639	-0.000676	0.001625	-0.001991	-0.004128
278	-0.000841	-0.001991	-0.000183	0.002118	0.005405	0.000639
279	0.001132	-0.001169	-0.002813	-0.010373	-0.001991	-0.003635
280	-0.000676	-0.005443	0.00146	-0.003306	0.001954	-0.001827
281	-0.001169	-0.000676	-0.000183	0.002775	-0.000676	-0.001169
282	-0.001991	-0.00232	-0.004621	0.003104	-0.001169	-0.000676
283	0.004748	0.000803	0.000639	-0.003799	-0.001662	-0.001827
284	-0.000841	-0.00232	-0.005443	-0.005278	-0.000841	-0.000347
285	0.000146	0.003433	-0.001498	0.001296	-0.000676	0.001132
286	-0.001498	0.000146	-0.001991	-0.000183	-0.007579	-0.001662
287	0.00146	-0.001334	0.00031	-0.000183	-0.004621	0.002118
288	-0.000512	0.00031	-0.001169	0.002447	-0.006922	-0.001334
289	0.003104	-0.000512	-0.001991	-1.9e-05	-0.005114	-0.002648
290	-0.000347	0.00031	-0.001498	-0.004621	-0.005443	-0.00232
291	0.002775	0.002611	0.002447	-0.001334	-0.003635	0.000146
292	0.00031	-0.002484	-0.001827	-0.000676	-0.005936	-0.005443
293	-0.000676	-0.001827	-0.002648	-0.001005	-0.001005	0.002611
294	0.00031	0.001296	0.002118	-0.001827	-0.004128	-0.001334
295	-0.000183	-0.003635	-0.001827	-0.001827	-0.003799	-0.001662
296	0.001132	-0.004128	0.000803	-0.000347	-0.002977	-0.002813
297	-0.003963	-0.002813	-0.000183	-0.002155	0.001954	-0.00347
298	0.000803	-0.001005	0.004255	0.002611	0.00031	-0.000183
299	-0.001005	-0.002155	-0.000183	-0.001334	0.000146	-0.002484
300	-0.001334	0.000967	0.000146	-0.000841	-0.002155	-0.00347
301	-0.000183	-0.001498	-0.001334	-0.001005	-0.001991	-0.003799
302	-0.000347	-0.000183	0.000146	-0.001169	-0.001334	-0.002155
303	-0.001498	-0.000841	-0.001662	0.001954	-0.001991	-0.000676
304	-0.001827	-0.003142	-0.000676	0.000967	-0.001991	0.002282
305	-0.000841	0.000474	-0.000183	-1.9e-05	-0.001169	-0.001827
306	0.004255	-0.002484	0.00031	-0.000347	0.000639	-0.000676
307	0.000967	0.000146	0.003433	0.000474	0.000474	-0.002813
308	0.001296	0.003433	0.00294	-0.002977	-0.002813	-0.000841
309	0.002775	-0.004292	0.001789	0.004419	-0.001827	-0.001169
310	0.00146	-0.000512	0.000474	-0.001169	0.00294	-0.003799
311	0.001625	-0.002155	-0.000841	0.001625	-0.000347	-0.001991
312	-0.000183	-0.005278	-0.004292	-0.002155	0.002447	-0.001827
313	0.000474	-0.006429	0.000803	0.000146	0.000803	0.001954
314	-0.002155	-0.00232	-0.006757	-0.001827	0.000639	0.001625
315	0.001296	0.00031	-0.005114	-0.000183	-0.000183	-1.9e-05
316	-0.005443	-0.003799	-0.004949	-0.001498	0.00146	-0.001498
317	-0.000841	-0.000512	-0.002484	-0.000841	-0.001827	0.000967
318	-0.001005	-0.001827	-0.002484	-0.001169	0.000474	0.00146
319	-0.001827	-1.9e-05	0.000474	0.001132	0.00031	-0.004785
320	0.000803	-0.001991	-0.001662	0.003761	-0.001169	-0.001498
321	0.000967	-0.000676	0.003926	-0.001498	-0.001827	-0.001498
322	0.000967	-0.000183	0.000474	-0.000676	-0.003963	-0.003142
323	0.004748	-0.001498	0.00294	-0.000347	-1.9e-05	0.000639
324	-0.000347	0.00031	0.011158	-0.000512	-0.001334	-0.001005
325	0.002282	-0.003142	0.00031	-0.001827	0.001132	0.000639
326	0.002447	-0.000512	0.000639	-1.9e-05	-0.000347	0.001296
327	0.000474	-0.005114	-0.000347	0.00031	0.005241	-1.9e-05
328	0.002447	0.001954	0.000967	0.003433	0.000639	-0.001005
329	0.002447	-0.005278	-0.002813	0.00294	0.002118	0.000474
330	-0.000676	-0.000841	0.003597	-1.9e-05	0.000474	-0.004456
331	-0.001334	-0.00232	-0.001334	0.000474	0.003433	0.001625
332	-0.000183	-0.001169	0.000474	0.001132	0.002447	-0.0061
333	-0.001991	0.002282	-0.003142	-1.9e-05	-0.000183	-0.000676
334	-0.000183	0.00031	-1.9e-05	-0.00347	-0.002813	0.000639
335	0.000639	0.000803	0.004748	-0.000512	0.00294	-0.000183
336	0.000639	-0.001991	-0.003635	-0.000183	-0.004621	-0.001991
337	-0.000347	-0.002484	-0.003963	-0.000183	-0.002977	0.001625
338	-0.002648	-0.002484	-0.001498	-0.004456	-0.000347	0.003433
339	0.003268	-0.000841	-0.005443	0.004583	-0.004621	-0.000512
340	0.000803	-0.002648	-0.001498	-0.001005	0.00294	0.001132
341	-0.000841	-0.002977	0.001789	0.001132	-0.001662	-0.000183
342	0.002447	0.00294	-0.001662	-0.000841	-1.9e-05	0.003597
343	0.002775	0.000967	0.00409	-0.001991	0.000146	-0.002813
344	-0.001169	-0.002813	-0.000347	-0.005443	-0.000347	-0.002484
345	-0.000183	0.001132	0.00146	0.000803	-0.000347	-0.001662
346	-0.002155	-0.00232	0.000803	-1.9e-05	0.00031	-0.001498
347	-0.005771	-0.003635	-0.008072	-0.000183	-0.001498	-0.005443
348	-0.003142	-0.003306	0.000803	-0.000676	0.000803	0.002447
349	-0.001991	-0.001827	-0.000183	0.001625	0.000146	0.002447
350	-0.003635	-0.000183	-0.006264	-0.001991	-0.001662	0.00031
351	-0.001827	-0.000512	-0.003306	-1.9e-05	0.001132	0.002282
352	-0.001827	-0.001334	-0.001827	-0.001334	0.000803	-0.002155
353	-0.002977	-0.001005	0.000803	0.000803	-0.001498	0.006391
354	-0.001169	0.001625	-0.000512	0.002282	-0.001005	-0.001827
355	-0.001827	-0.001005	-0.000183	-0.001662	-0.000676	-0.001662
356	0.000474	0.00146	0.001296	-0.000676	-0.00347	-0.00347
357	0.001954	-0.002484	-0.006264	-0.002484	-0.001498	-0.000676
358	0.00031	-0.003635	-0.001498	0.002118	-0.001827	-0.001005
359	0.000474	-0.005278	0.00031	0.00294	-0.00232	-0.001005
360	0.001132	-0.001005	0.001132	0.003433	-0.001169	-0.001498
361	-0.001498	-0.005114	0.001132	0.00031	-0.00232	-0.001662
362	0.000967	-0.002155	0.002447	0.004255	-0.000183	-0.000512
363	-0.002155	0.006227	0.001132	0.000146	-0.001827	0.000967
364	0.000967	-1.9e-05	-0.001334	0.002447	-0.001498	0.003433
365	-0.003306	-0.001498	-0.001498	0.000146	-0.001662	-0.005771
366	-0.001005	-0.003963	-0.002484	0.003104	0.002282	0.000146
367	-0.004292	-0.000676	-0.005278	0.000967	-0.00232	-0.006264
368	0.000146	-0.001498	-0.012181	-0.001169	-0.003142	0.000803
369	-0.002813	-0.002155	-0.004128	0.004255	-0.003635	-0.003799
370	-0.000347	-0.002813	-0.002813	-0.000347	-0.001827	-1.9e-05
371	-0.001498	-0.000841	-0.002155	0.002611	-0.002648	-0.003799
372	-0.000347	-0.001827	-0.001334	0.000146	-0.003142	-0.000347
373	-0.001498	0.002118	0.002282	-0.000183	-0.001991	0.001296
374	-0.001498	-0.001005	0.00294	-0.001334	-0.000512	0.00031
375	0.001954	-0.001827	0.001296	0.003268	-0.001662	-0.000183
376	0.000146	-0.00347	0.00031	0.002775	-0.001169	-0.001005
377	0.002447	-1.9e-05	0.001954	0.004583	0.000474	0.00031
378	-0.002648	-0.000183	-0.002155	0.003104	-0.001498	-0.001991
379	-0.002813	-0.002484	-0.006429	0.002447	-0.001005	-1.9e-05
380	0.003268	0.00031	-0.002977	0.000146	0.00031	-0.000183
381	0.000639	-0.001827	-0.000676	0.001132	0.003761	0.002611
382	0.003268	0.000146	-0.001334	0.00031	-0.002155	-0.00232
383	0.002282	-0.002648	-0.000183	0.000474	0.003597	0.000639
384	-0.001005	-0.000676	-0.000676	0.000474	-0.000347	-0.002155
385	-0.002484	0.002118	-0.000183	0.000146	0.00031	0.004255
386	-0.001991	0.000803	0.002118	-0.000183	0.000146	-0.010702
387	-0.001498	0.002611	0.000639	-0.000347	-0.00347	-0.002155
388	0.001132	0.001132	-0.000841	-0.000676	-0.001334	-0.001827
389	-0.000841	-0.002648	-0.001827	-0.000512	-0.00232	-0.00232
390	0.00031	0.00409	-0.0061	-0.000183	-0.006429	-0.000512
391	-0.000841	0.000474	-0.003306	0.000146	-0.004785	0.001625
392	-0.001662	-0.002977	-0.002977	0.000146	0.000146	-0.001498
393	-1.9e-05	0.002118	-0.000347	0.000146	-0.00232	-0.001498
394	0.000803	-0.000676	-0.000183	0.00031	-0.002155	-0.000183
395	0.00031	-0.000183	-0.002977	0.000474	-0.000676	-0.001498
396	-0.002813	-0.001827	0.000967	0.000474	-0.000347	-0.000347
397	-0.001827	-0.001169	-0.001827	-0.000841	-0.000676	-0.013332
398	-0.001991	-0.003306	0.001954	0.000803	0.000639	-0.001498
399	-0.002813	-0.000676	-0.001334	-0.001991	0.000474	-0.002484
400	-0.00232	-0.002648	-0.006593	-0.001334	-0.000183	-0.001005
401	-0.000183	0.000474	-0.001662	0.005241	0.00031	-0.002484
402	-0.003142	0.001625	-0.001498	0.00031	0.000803	0.003104
403	-0.002155	-0.001169	-0.004128	0.002447	-0.002648	-0.001005
404	-0.000841	-0.001662	0.000803	-1.9e-05	0.000967	-0.002977
405	-0.003306	0.000967	-0.002977	0.002611	-0.001334	0.000474
406	-0.004621	-0.000841	-0.001334	0.00146	0.000967	0.002282
407	-0.000841	-0.000347	0.000639	-0.000676	-0.001827	-0.004621
408	0.001296	-0.007908	-0.000347	0.003433	-1.9e-05	-0.012017
409	-0.001169	-0.001827	0.000967	0.007049	-0.001005	-0.003142
410	-0.001005	-0.000841	-0.001169	0.003761	-0.000841	-0.002813
411	0.001789	-0.004128	-0.000183	0.004583	-0.000841	-0.001498
412	0.000803	-0.003142	-0.00347	0.005405	0.003597	-0.001991
413	0.001132	-0.001334	0.003104	0.005898	0.002118	0.001789
414	-0.000347	-0.004621	-0.002155	0.007706	-0.001169	-0.002813
415	0.001954	-0.008894	-0.001005	0.006391	0.001625	-0.003635
416	0.000803	-0.004128	0.000474	0.008857	-0.00347	-0.003306
417	-0.000841	-0.00347	-0.003306	0.007377	0.001296	-0.000512
418	-0.001827	-0.000841	-0.001991	0.011486	-0.001334	-0.001498
419	0.002282	-0.004949	-0.004621	-0.000183	0.000803	-0.005278
420	-0.001334	0.003268	0.000639	0.000639	-0.001498	-0.001498
421	-0.008237	0.00031	0.000803	-0.000183	-0.000347	0.000146
422	-0.002155	-0.000512	0.000474	-0.000676	-0.001662	0.00146
423	0.002282	0.00031	0.000967	-0.000512	-0.001334	-0.003635
424	-0.000347	0.00146	-0.002155	0.00031	-0.000676	0.000639
425	-0.004292	-1.9e-05	-0.003142	0.000146	-1.9e-05	-0.003306
426	-0.001991	-0.000183	-0.000676	0.000474	-0.001662	-0.000183
427	0.00031	0.000803	-0.001991	0.000146	-0.002977	-0.001005
428	-0.003799	-0.001498	-0.000841	0.00031	0.001132	0.00294
429	0.00146	0.000146	-0.000841	0.000146	-0.00232	-0.00232
430	0.004255	-0.002813	0.00031	-0.000183	-0.000841	-1.9e-05
431	-1.9e-05	0.00031	0.000474	-0.000347	-0.002648	-0.000512
432	0.000803	0.00031	0.001625	-0.000676	0.000474	-0.002484
433	0.00031	-0.002484	0.002282	-0.000676	-0.001662	-0.001662
434	0.001954	-0.003963	-0.001827	-0.000347	-0.004128	0.001296
435	-0.002484	0.001132	0.000146	-1.9e-05	-0.003963	-0.001169
436	-0.00232	0.000967	-0.001005	0.00031	0.001625	0.000474
437	0.000803	0.001625	0.001296	0.00031	-0.00232	-0.001334
438	-0.003142	0.004912	0.001954	0.000146	-0.006264	-0.000512
439	0.000803	0.001132	0.001954	0.000146	-0.000512	-0.001498
440	-0.001827	0.000474	-0.004128	0.000146	-0.001334	-0.002977
441	-0.002155	0.000474	0.002447	-0.000183	-0.000841	-0.000841
442	-0.005936	-0.000676	-0.00347	-0.000676	-0.003142	-0.000183
443	-0.001498	0.003926	-0.002155	-0.000183	0.001625	-0.001827
444	-0.00232	0.002775	-0.000676	-0.000512	-0.00347	0.002118
445	0.00146	-0.001334	-1.9e-05	-0.000183	0.00031	-0.003142
446	-0.000841	0.004419	-0.001169	0.000146	-0.002977	0.000146
447	-0.000347	0.000474	-0.001334	0.000146	-0.000676	0.00031
448	-0.001169	0.000967	0.000803	0.000146	-0.003963	-0.002648
449	-0.000183	0.000803	0.00031	0.00031	-0.002813	0.00146
450	-0.001991	0.001296	-0.001991	0.000474	0.000967	0.001296
451	0.000146	-0.001498	-0.001169	-1.9e-05	-0.001005	-0.001005
452	0.001132	0.002447	0.00146	0.000146	-1.9e-05	-0.005607
453	-0.003142	0.002118	0.000967	0.003926	0.000474	-0.002484
454	0.000639	-0.000183	-0.004456	0.001954	0.000967	-0.003635
455	0.000474	0.000639	0.00146	-0.000183	0.00031	-0.002813
456	0.002775	0.001789	-0.000347	-0.000183	-0.000347	-0.003963
457	-0.003306	0.001625	-0.001662	-1.9e-05	-0.002484	-0.009716
458	0.000146	-0.000347	-0.000183	0.000146	0.000146	-0.001334
459	-0.001827	0.001132	-0.003799	-1.9e-05	-0.000841	-0.005771
460	0.000967	0.000639	-0.001662	0.000474	-0.002155	-0.000183
461	0.002775	-0.001005	-0.000676	0.00031	0.002447	-0.003306
462	0.004748	-0.000676	0.002282	0.000803	-0.001005	0.002282
463	0.005569	0.00146	-0.001827	0.000146	-0.001662	-0.000676
464	0.005898	-0.001169	0.000474	-0.000183	0.001625	-0.000512
465	0.004255	0.001296	-1.9e-05	-0.000512	-0.003142	-0.001662
466	0.004419	0.001954	-0.001005	-0.000512	-0.004621	0.003268
467	0.004912	0.001789	0.001625	-0.000183	-0.000841	-0.002155
468	0.000474	0.003104	-0.001334	-0.000347	-0.000183	-0.001662
469	0.00409	0.003926	0.001132	0.000146	-0.001005	-0.000841
470	0.005241	0.000146	-0.001169	-0.00725	0.003433	-0.0061
471	0.005241	-0.000841	0.001132	-0.000512	-0.002484	-0.002813
472	-0.001334	-0.000676	-0.000841	-0.001498	0.00146	-0.00232
473	0.000967	0.00031	-0.00232	-0.000183	0.002118	-0.001498
474	0.001296	-0.000841	-0.006429	-0.002484	-0.001334	-0.002977
475	-0.001169	0.003268	-0.002484	-0.001334	0.002447	-0.001169
476	-0.000183	-1.9e-05	-0.002484	-1.9e-05	-0.001169	-0.001334
477	0.003268	0.002775	-0.002484	-0.001005	-0.001169	-0.004128
478	0.002118	0.000967	-0.000676	0.000146	-0.001334	-0.003306
479	-0.000183	0.004255	-1.9e-05	0.000474	-0.000347	0.003597
480	0.001789	0.003104	-0.000676	0.000639	-0.005443	-0.001662
481	0.005405	0.000474	0.00031	0.000474	-0.001991	-0.002155
482	0.000639	0.001954	-0.000841	0.00146	-0.004785	-0.000676
483	0.000967	0.002118	0.000146	0.00146	-0.008237	0.00294
484	0.00672	0.002118	0.002118	0.000474	-0.003799	0.002611
485	0.002118	-0.002648	-0.002977	-0.000183	-0.00347	0.000474
486	0.003761	0.00031	0.002611	0.00031	-0.002813	-0.001169
487	0.002447	-0.000347	-0.000676	0.000639	-0.000512	-0.001991
488	0.002611	-0.001334	0.000639	-0.000841	-0.000512	-0.001498
489	0.002447	0.00146	0.003926	-0.001005	-0.001662	-0.001498
490	-0.004621	-1.9e-05	0.004748	-0.000347	-0.001334	-0.001991
491	-0.005607	0.000639	-0.001662	-0.000512	0.000639	-0.003306
492	-0.001005	-0.001662	-1.9e-05	-0.000512	0.000639	-0.002813
493	0.000474	-0.001991	-0.00232	0.001132	0.000474	-0.000841
494	-0.00232	0.000803	-0.001991	-0.000512	0.001789	-0.000676
495	0.002118	0.003597	-0.002155	0.000967	-0.000512	-0.001991
496	0.003761	-0.001169	-0.005607	-0.000841	-0.002155	0.001954
497	0.002775	0.00294	0.002118	0.004912	-0.004128	-0.002813
498	0.002118	0.000474	-0.001498	0.000474	0.00294	-0.000347
499	0.001789	0.002775	-0.000512	0.002611	-0.005443	0.002775
500	0.005241	0.001789	-0.000512	0.002447	-0.001991	-0.000841
501	0.001789	0.002447	0.006391	0.003597	0.002118	0.001789
502	-0.000183	0.000146	0.000803	0.002282	-0.000676	0.001132
503	0.001789	-0.000512	0.002611	0.004748	0.00146	-0.003142
504	-0.000347	-0.000841	0.001132	0.003268	0.001296	-0.001498
505	-1.9e-05	0.00146	0.00031	0.000474	0.002118	-0.0061
506	0.007049	0.001625	-1.9e-05	-0.000183	-0.002813	-0.008401
507	0.00409	-0.003306	-0.002155	-0.005607	0.001625	-0.001169
508	0.00146	0.003926	-0.001169	-0.00232	-0.000183	-0.005278
509	0.001296	-0.000676	-1.9e-05	-0.00232	0.004583	-0.001827
510	-0.000841	0.002775	-0.003963	-0.00347	-0.005114	-0.003306
511	0.005898	0.002775	-0.003963	-0.001334	0.001132	0.000146
512	-0.001169	0.00146	-0.004128	0.000639	-0.002155	-0.002484
513	0.002118	-0.001827	-0.003635	-0.006757	-0.003963	0.002118
514	0.003926	0.002447	-0.001169	0.000146	-0.002484	-0.000841
515	0.000803	0.003268	-0.004456	0.002775	0.000146	0.001789
516	0.001954	0.003433	-0.002484	0.00146	-0.000841	-0.00232
517	0.004583	0.000967	-0.001169	0.00031	-0.001662	0.000639
518	0.007542	0.002447	0.000146	-0.001334	0.000967	0.001296
519	0.00294	0.00146	-0.002484	-0.000841	-0.002484	-0.002155
520	0.005076	0.000967	0.003761	0.002282	0.007377	0.000803
521	0.002118	0.000474	-1.9e-05	0.001954	-0.001498	-0.002155
522	0.00935	-1.9e-05	-0.002155	0.000474	0.000146	-0.000841
523	0.005734	0.000967	0.002611	0.000146	0.004255	-0.001827
524	0.003104	-0.002813	-0.00232	-0.000347	-0.001334	0.001132
525	0.001789	0.003104	-0.002155	-0.001827	0.000474	-0.002155
526	0.00146	0.00031	-0.001827	0.000639	0.002118	0.003104
527	0.002775	0.001625	-0.000841	0.001789	0.000967	0.001954
528	0.004419	-0.001334	-1.9e-05	-0.001498	0.00031	0.001954
529	0.005241	0.001625	-0.002484	0.002611	-0.000676	0.000639
530	0.000146	0.00294	-0.002484	-0.001005	0.001954	0.000803
531	0.004255	0.002775	0.001789	0.00031	0.005734	0.000803
532	0.001296	-0.001005	-0.001498	0.001296	-0.003799	-0.002484
533	-0.003963	0.004255	0.000803	0.003597	0.002775	0.000803
534	0.00146	0.005569	0.00294	0.000803	0.006556	-0.001498
535	0.00294	-0.001662	0.000803	0.003761	-0.001005	-0.000841
536	0.002775	0.003104	-0.001662	0.003926	0.00031	-0.000183
537	0.002282	-0.001827	0.001132	0.002118	0.00409	0.002118
538	0.004748	-1.9e-05	-1.9e-05	0.007049	0.001625	-0.002484
539	0.007706	-0.001498	-0.002155	0.00294	-0.000512	-0.000512
540	0.010007	0.000474	-0.000841	0.005734	-0.002648	-0.00232
541	0.007377	-0.000676	-1.9e-05	0.00146	0.001132	-0.000347
542	0.011486	0.00031	-0.000676	0.003597	0.000146	-0.003963
543	0.007706	-0.003963	-0.000676	0.00294	-0.001005	-0.001498
544	-0.00347	-0.001169	-1.9e-05	0.002282	-0.001498	-0.004128
545	0.004419	0.00031	0.00031	-0.001334	0.000474	-0.002484
546	0.005569	-0.002813	0.00031	0.000639	0.000474	-0.002155
547	0.005076	0.000803	-0.004456	-0.005114	-0.000841	-0.00232
548	0.005405	-0.003142	-0.002648	-0.001498	0.003104	-1.9e-05
549	0.005898	0.00031	-0.001827	-0.000512	0.00146	0.00031
550	0.008857	0.002282	-0.00347	-0.001662	0.001132	0.000474
551	0.011815	-0.001169	0.003433	0.005405	-0.002977	-0.001498
552	0.007213	-0.000676	0.000803	0.00294	0.000474	0.000474
553	0.009185	0.00146	0.00146	0.00294	-0.005114	-0.002977
554	0.01428	-0.003142	0.000146	0.002447	-0.002155	0.000146
555	0.001132	-0.001498	-0.000676	0.005734	0.000146	-0.002484
556	0.009021	-0.000512	0.001296	0.004912	0.00146	0.001954
557	0.01428	-0.006264	-0.000512	0.004255	-0.002155	-0.000676
558	0.005734	-0.004292	-0.001169	0.001625	0.000474	-0.003306
559	0.007213	-0.001169	-0.000512	0.003104	0.003104	-0.002648
560	0.004419	-0.003635	-0.001334	-0.001662	0.005405	0.001132
561	0.010336	-0.003799	-0.003635	-0.001827	-0.001169	-0.002648
562	0.008528	-0.001662	-0.003799	0.00146	0.00146	-0.001991
563	0.011486	-0.00232	-0.001991	0.000967	0.00672	0.001789
564	0.009021	-0.004128	-0.003306	-0.000841	-0.012674	-0.002648
565	0.011486	0.002611	-0.000841	0.000146	0.000146	-0.001334
566	-0.007908	-0.008072	-0.002977	0.000967	-0.000347	-0.000676
567	-0.014153	-0.005114	-0.000676	-0.003963	-0.001827	-0.002484
568	-0.007744	-0.002977	-0.00347	-0.004456	-0.001169	-0.005114
569	-0.007744	-0.004292	0.000639	0.006062	-0.001005	0.000967
570	-0.007744	-0.003963	0.000146	-0.000347	-0.000512	-0.001662
571	-0.004456	-0.005278	-1.9e-05	0.002611	-0.000512	0.003761
572	0.001954	-0.00232	0.000474	0.002282	-0.001662	-0.00232
573	0.003761	-0.002648	0.000803	-0.001827	0.000803	0.00031
574	0.005241	-0.001498	0.00294	0.003104	0.000639	0.003104
575	0.005734	-0.003963	0.00031	-0.001827	-0.0061	-0.000841
576	0.009185	-0.001827	-0.000347	0.001954	-0.003306	-0.000512
577	0.005734	-0.003799	0.001132	-0.002155	0.00031	-0.005771
578	0.008528	-0.003142	0.001296	-0.000183	-0.001334	-0.006593
579	0.008528	-0.005278	-0.002155	-0.000512	0.001132	-0.0061
580	0.008692	-0.003142	-1.9e-05	-0.000512	0.003761	-0.002155
581	0.009514	-0.002813	-0.002648	0.002447	0.001625	-0.001498
582	0.011486	-0.00232	-1.9e-05	0.00031	0.001789	-1.9e-05
583	0.011322	-0.003799	0.000639	0.000474	-0.003306	-0.003142
584	0.010664	-0.001662	-0.004621	0.000803	-0.005443	-0.001991
585	0.013459	0.00031	-0.001169	-0.00347	-0.000841	0.00031
586	0.015266	-0.004456	-0.000347	-0.001334	-0.008237	0.004748
587	0.014938	0.000803	-0.000512	0.000803	-0.008237	-0.001827
588	0.015431	-0.0061	-0.000676	-0.000183	-0.000183	0.000146
589	0.018389	-0.001169	-0.000841	-0.000676	-0.001498	-0.000183
590	0.018061	-0.003635	-0.005607	-0.001169	-0.001005	-0.001169
591	0.020362	-0.00347	-0.001005	0.00294	0.000146	-0.000512
592	0.010993	-0.009387	-0.00347	0.000146	0.001132	-0.002484
593	0.012472	-0.001498	-0.000183	-0.000512	0.002611	0.00031
594	0.019047	-0.006593	-0.002155	0.001296	-0.000347	-0.002648
595	0.019868	-0.005607	0.001132	-0.001169	0.000474	-0.001827
596	0.021348	-0.004785	0.000967	0.001132	-0.001005	-0.000512
597	0.016417	-0.004456	-0.001662	-0.002484	0.001132	-0.000183
598	0.000146	-0.002155	-0.004292	-0.001005	-0.003142	-0.002813
599	0.005405	-0.004621	-0.000183	-0.00232	0.001954	-0.000676
600	0.002611	-0.001662	-0.001827	-0.000841	-0.000841	-0.002648
601	0.006884	-0.004949	-0.001991	-0.001498	-0.000183	-0.001662
602	0.004419	-0.003963	-0.005278	0.001296	-0.001498	-0.002813
603	0.008528	0.00146	-0.003635	-1.9e-05	0.002118	0.000146
604	0.010007	-0.004456	-0.002155	0.00146	0.000967	-0.002484
605	0.009843	-0.003635	-0.001827	0.000803	-0.001498	-0.00232
606	0.012801	-0.003306	-0.004292	0.001296	0.000639	-0.005936
607	0.013623	-0.003635	-0.003306	-0.000183	-0.000183	-0.000347
608	0.011651	-0.007908	0.001954	0.002282	-0.004128	-0.003306
609	0.012472	-0.004128	-0.000347	-0.000512	-0.005443	-0.004128
610	0.011158	-0.002977	0.001789	-0.000183	0.000146	-0.004949
611	0.010336	-0.003963	0.000146	-0.002155	-0.001334	-0.00232
612	0.012144	-0.004128	0.000474	-0.002484	0.001132	-0.000347
613	0.009514	-0.004128	-0.001169	-0.001334	-0.001498	-0.001827
614	0.012144	-0.0061	-0.003635	-0.001991	0.003926	-0.001334
615	0.007213	-0.004292	-0.001827	-0.001827	0.001625	-0.002977
616	0.009021	-0.005936	-0.001498	-0.002648	0.002282	-0.003799
617	0.005241	-0.007415	-0.003799	-0.001498	0.00031	-0.002648
618	0.006556	-0.008401	-0.002977	-1.9e-05	0.000803	0.001625
619	0.011815	-0.002155	-0.002155	0.00146	-0.001334	-0.002813
620	0.007706	-0.003306	-0.002155	-0.002813	-0.000841	-0.001827
621	0.009185	0.00031	0.003433	-0.000347	-0.004621	-0.002813
622	0.001789	-0.003306	-0.000512	-0.002977	-1.9e-05	0.001132
623	0.006556	-0.001827	-0.001498	-0.005607	-0.002484	-0.001991
624	0.005734	-0.00232	-0.001498	-0.004128	-0.005114	-0.001827
625	0.007706	-0.001662	0.001132	-0.006429	0.003597	-0.001827
626	0.005076	-0.002813	-0.000183	-0.002484	-0.003306	-0.003142
627	0.009021	-0.003142	0.001789	-0.003635	-0.000512	-0.003306
628	0.006062	-0.002813	0.00031	-0.001827	0.00031	0.001789
629	0.010171	-0.002484	0.002611	-0.005443	-0.002648	0.006227
630	0.005076	-0.001169	-0.001498	-0.004292	-0.000512	0.000146
631	0.006391	-0.004949	0.000474	-0.003799	-0.003306	0.000146
632	0.00409	-0.004785	0.000803	-0.002813	-0.001991	-0.003963
633	0.001789	-0.005443	-0.002155	-0.003142	-0.000183	-0.000347
634	0.002282	-0.003142	-0.003799	-0.000183	-0.00347	-0.003963
635	0.001625	-0.004128	0.000639	-0.002155	0.00409	-0.002813
636	0.002775	-0.001334	-0.002648	-0.003306	0.002282	-0.000512
637	0.001132	-0.001169	-0.002648	-0.007908	-0.002648	0.00031
638	0.005898	0.000474	0.001625	-0.002977	-0.002484	0.00146
639	0.001132	-0.00232	0.00031	-0.001662	-0.001169	-1.9e-05
640	0.000639	-1.9e-05	0.00294	-0.000183	-0.002977	0.00031
641	0.001132	-0.002813	0.002118	-0.003963	-0.004949	0.000803
642	0.003433	-0.003799	0.000639	-0.002813	-0.001662	-0.001334
643	0.00672	-0.002484	0.001296	-0.004128	-0.003142	-0.002155
644	0.005076	-0.003963	0.001132	-0.00347	-0.000183	0.001132
645	0.002775	-0.003142	-0.001662	-0.00232	-0.001662	-0.002813
646	0.00294	-0.003635	-0.000512	-0.003306	-0.000512	-0.000347
647	0.004419	-0.002813	-1.9e-05	-0.00347	-0.000841	-0.002813
648	-0.000512	-0.004785	-0.002648	-0.005278	0.000803	0.001789
649	-0.004128	-0.002648	-0.000512	-1.9e-05	-0.000841	-0.000676
650	-0.001662	-0.001334	-0.002813	0.00146	0.001789	-0.003306
651	-0.001005	-0.001662	-0.000841	-0.001334	-0.001169	-0.001005
652	-0.000512	-0.001991	-0.001827	-0.005443	-0.001169	-0.003635
653	-0.001169	0.002775	-0.001334	-0.00232	0.000474	-0.002484
654	-0.000347	-0.001662	-0.008894	-0.008072	0.000474	-0.000183
655	-0.000512	0.000803	-0.000676	-0.005114	-0.001005	0.002282
656	-0.000183	-0.000841	-0.003142	-0.002813	-0.002155	0.001625
657	0.000146	-0.001991	-0.001662	-0.005771	-0.002648	-0.002648
658	0.000146	-0.009387	0.000967	-0.003963	-1.9e-05	-0.004621
659	-0.00232	-0.002648	0.002775	-0.003963	-0.004128	-0.002648
660	-0.000676	-0.002977	-0.000676	-0.004785	-0.00347	-0.003635
661	0.001625	-0.006429	0.002447	-0.002813	0.00146	-0.000183
662	0.000803	-0.00232	-0.00232	-0.001662	-0.005114	-0.002484
663	0.002775	-0.002155	-0.001169	-0.003963	-0.004128	-0.002155
664	-0.002484	-0.004128	0.003433	-0.000183	-1.9e-05	-0.001827
665	0.006884	-0.006429	-0.003635	-0.00347	-0.001169	-0.001498
666	-0.000512	-0.001827	-0.000841	-0.001991	-0.003142	-0.00232
667	-0.002813	-0.004785	-0.004292	-0.003799	0.00146	-0.001498
668	0.000967	-0.003142	0.000146	-0.005936	0.001132	-0.002813
669	-0.002155	0.000639	-0.00232	-0.005443	-0.001498	-0.001005
670	0.002447	0.00031	0.000146	-0.00347	-0.001005	-0.001498
671	0.003926	-0.001991	-0.003142	-0.006922	-0.000676	-0.001498
672	0.004255	0.000803	-0.002484	-0.005278	-0.001334	0.000474
673	0.001789	0.00031	-0.003306	-0.005114	-0.001827	0.000146
674	0.004255	-0.001005	-0.000676	-0.0061	-0.001991	-0.004292
675	0.002775	0.002611	-0.001991	-0.005607	-0.00232	-0.001169
676	0.003926	-0.002648	-0.000183	-0.001827	-0.002155	0.005734
677	0.003597	0.001625	0.001132	-0.004128	0.001132	0.000474
678	0.005241	-0.00347	0.00409	-0.006429	-0.000183	0.003597
679	0.005241	-0.000347	-0.002155	0.001296	-0.005278	-0.002648
680	0.000967	-0.00347	-1.9e-05	-0.005771	-0.006264	0.001789
681	0.00672	-0.002155	0.002611	0.002282	-0.003963	-0.003963
682	0.000803	-0.005443	-0.001827	-0.007086	-0.00347	-0.000512
683	-1.9e-05	-0.002648	0.001132	-0.000841	-0.004292	-0.002484
684	0.003926	-0.002155	-0.002813	-0.00232	-1.9e-05	-0.000512
685	0.001625	-0.002484	-0.001169	-0.002648	0.000474	-0.002484
686	-1.9e-05	-0.001334	-0.004949	-0.000183	0.000474	-0.001498
687	0.000803	-0.000183	0.000967	-0.000676	0.00146	-0.001334
688	-0.001334	0.000474	0.000146	-0.002813	-0.003306	-0.001827
689	-0.0061	-0.001827	0.00031	-0.004785	-0.000183	0.001954
690	-0.005443	0.00146	-0.004621	-0.005607	-0.002648	-0.002155
691	-0.001991	-0.002813	-0.000512	-0.005114	-1.9e-05	0.00031
692	-0.001991	-0.000347	0.000967	-0.001334	-0.002484	-0.000183
693	-0.002648	0.000474	-0.001169	-0.006429	0.000474	0.001296
694	-0.005443	0.00031	0.000803	-0.000347	-0.0061	-0.000841
695	-0.001991	-0.001827	0.001132	-0.003635	0.001132	0.001625
696	-0.001498	0.000474	0.000803	-1.9e-05	-0.001662	-0.001498
697	-0.003306	-0.002155	-0.000512	-0.003142	0.001132	0.000803
698	-0.000512	-0.000347	0.000639	-1.9e-05	-0.000512	-0.001169
699	-0.001005	-0.003799	0.001132	-0.001005	-0.000841	0.000474
700	-0.002648	-0.001498	0.000639	0.001132	0.001132	-0.00232
701	-0.002484	-0.001991	-0.002155	-0.001334	0.000146	-0.001334
702	-0.000841	-0.002155	-0.000676	-0.001827	0.000146	-0.000183
703	-0.001498	-0.000512	-0.000347	-0.004292	-0.001169	-0.003306
704	-0.001991	-0.001334	-0.003142	-0.007086	0.000803	-0.003963
705	-0.001498	0.00031	-0.000841	-0.005278	-0.001827	-0.002648
706	0.006884	0.00031	0.001132	-0.00725	0.000474	-0.001005
707	0.003268	0.000967	-0.001498	-0.003306	-0.001169	-0.001005
708	-0.001169	0.005898	0.000639	-0.005771	0.006391	0.00146
709	0.00031	-0.002813	0.002447	-0.001827	-0.001991	-0.002155
710	0.003268	-0.000512	-0.001334	-0.007415	0.001625	0.001132
711	0.003926	-0.002484	0.00031	-0.002648	-0.000676	-0.001005
712	0.003104	-0.007908	-0.00347	-0.002484	0.00146	0.000146
713	0.00672	-0.000512	-0.001827	-0.000676	-0.004128	-1.9e-05
714	0.007377	-0.002648	-0.000512	-0.002813	-0.006757	0.000639
715	0.009843	-0.00232	-0.0061	-0.001827	-0.001005	0.000639
716	0.007706	-0.003799	-0.000183	-0.005114	-0.003142	0.000474
717	0.016088	-0.000347	0.000146	-0.002648	-1.9e-05	0.001296
718	0.011815	0.00294	-0.003306	-0.001169	-0.000512	-0.001334
719	0.012308	0.00146	0.002775	-0.001662	0.003433	-0.000183
720	0.011651	0.000967	0.00031	-0.003635	-0.003306	-0.001169
721	0.013787	-0.002484	0.001296	-0.006429	-1.9e-05	0.000474
722	0.012472	0.000474	-0.001005	-0.0061	-0.001662	-0.003799
723	0.016253	-0.000347	0.001954	-0.006429	0.000474	0.001789
724	0.000803	-0.000676	-0.001498	-0.0061	-0.002484	0.001789
725	0.000967	-1.9e-05	0.000146	-0.007579	-0.001827	0.002611
726	-0.000347	0.000474	0.000967	-0.00347	0.001789	0.000474
727	0.00146	-0.003306	-0.003142	-0.004949	-0.001334	0.00031
728	-1.9e-05	0.000146	0.002282	-0.001991	-0.001005	0.00031
729	0.003268	-0.000841	-0.000512	-0.001662	-0.002977	-0.00232
730	0.004583	0.001625	-1.9e-05	-0.004456	0.001625	0.008692
731	0.00409	0.000967	-0.000347	-0.00347	-0.002813	0.000967
732	0.010664	0.00294	0.001625	-0.000347	-0.003306	0.000474
733	0.006556	-0.001334	-0.001991	-0.001662	-0.004785	-0.001005
734	0.009678	0.002282	0.002118	-0.000347	-0.003799	0.000146
735	0.005898	-0.00347	-0.001991	-0.004292	0.002118	-0.001334
736	0.008035	-0.001334	0.001625	-0.006593	-0.012181	0.002118
737	0.008363	-0.001169	-0.001334	-0.0061	0.001625	-0.000841
738	0.005734	-0.003306	-0.001827	-0.004128	-0.001005	-0.001662
739	0.005076	0.000146	-0.000512	-0.004621	-0.001662	-0.002813
740	0.008199	0.001132	-0.002648	-0.001169	0.001132	0.000146
741	0.006391	0.000803	-0.000183	-0.000347	0.001132	-0.001662
742	0.005405	0.002775	-0.005936	-0.007744	-0.000841	-0.001662
743	0.007377	0.002775	-0.000676	-0.00232	0.00146	-0.002155
744	-0.000841	-0.002648	-0.002155	-0.003799	0.000639	-0.00232
745	0.005241	0.000803	0.000146	-0.003799	-0.001827	-0.002155
746	0.003268	-0.002155	-0.002484	-0.00347	-0.000841	0.000967
747	0.002118	-0.000676	-0.003635	-0.002484	-0.003963	-0.001827
748	0.001132	-0.000347	-0.00347	-0.003635	-0.001334	-1.9e-05
749	0.002775	-0.002155	0.000967	0.004419	0.001625	0.001625
750	0.001789	-0.000512	-0.002484	0.00031	-0.003963	-0.000841
751	0.008857	0.000639	0.007706	0.004583	0.006391	0.00409
752	0.014609	0.011158	0.012308	0.010993	0.010664	0.008857
753	-0.000512	0.017403	0.020033	0.01313	0.018061	0.022991
754	-0.000512	0.026607	0.028251	0.022334	0.025128	0.02595
755	0.00031	0.031538	0.031702	0.028744	0.034661	0.03236
756	0.006227	0.041235	0.042057	0.036469	0.038276	0.035482
757	0.012965	0.044686	0.046166	0.042878	0.045672	0.048138
758	0.020033	0.056191	0.051754	0.049288	0.049453	0.050439
759	0.029072	0.058328	0.057671	0.052082	0.057999	0.058328
760	0.035647	0.063094	0.064574	0.063916	0.064574	0.063094
761	0.037783	0.071312	0.069011	0.063587	0.070983	0.071805
762	0.050439	0.075585	0.075421	0.072791	0.074599	0.076243
763	0.053726	0.078544	0.077393	0.078544	0.084625	0.082488
764	0.061615	0.082982	0.083803	0.084789	0.08594	0.085611
765	0.068682	0.08857	0.087912	0.087748	0.086433	0.092021
766	0.072298	0.093172	0.092186	0.0935	0.094651	0.096459
767	0.077886	0.091035	0.097116	0.102376	0.094815	0.098595
768	0.085118	0.103362	0.103362	0.100896	0.101718	0.105827
769	0.00031	0.105663	0.105663	0.106649	0.103362	0.107635
770	0.010829	0.108457	0.115195	0.106485	0.110265	0.113059
771	0.015595	0.11158	0.117825	0.113552	0.111908	0.117332
772	0.024142	0.114538	0.11273	0.11158	0.117332	0.120455
773	0.035154	0.12177	0.122098	0.118154	0.121112	0.120126
774	0.040249	0.121441	0.122592	0.121277	0.125386	0.124728
775	0.047152	0.126043	0.127194	0.125714	0.126536	0.124893
776	0.050274	0.129166	0.128837	0.127687	0.130809	0.1267
777	0.056027	0.132782	0.134261	0.131138	0.132453	0.132124
778	0.060136	0.133275	0.133275	0.132289	0.133439	0.135411
779	0.068847	0.140178	0.136562	0.137384	0.141164	0.14215
780	0.070655	0.140835	0.139027	0.139356	0.140178	0.14478
781	0.07575	0.146095	0.146752	0.139849	0.145108	0.144451
782	0.083803	0.145602	0.146588	0.146095	0.145437	0.145437
783	0.085611	0.14971	0.147574	0.147245	0.146752	0.150697
784	0.093993	0.150861	0.151025	0.147245	0.146423	0.150204
785	0.096459	0.151683	0.152998	0.147903	0.150532	0.153655
786	0.101061	0.156449	0.153491	0.151354	0.152176	0.154477
787	0.105498	0.155627	0.158257	0.153984	0.154312	0.160229
788	0.109443	0.155792	0.159736	0.156942	0.156942	0.156613
789	0.11651	0.155463	0.1576	0.156613	0.159901	0.160229
790	0.117496	0.161709	0.163023	0.158421	0.16138	0.158914
791	0.119304	0.16401	0.161215	0.16516	0.163516	0.161873
792	0.123742	0.16401	0.163352	0.15875	0.16401	0.161873
793	0.122756	0.162859	0.165489	0.163516	0.16894	0.164174
794	0.130974	0.166311	0.168776	0.165489	0.166475	0.16516
795	0.13311	0.167625	0.168118	0.164503	0.165982	0.167132
796	0.134425	0.169433	0.169926	0.165489	0.17157	0.170584
797	0.132289	0.170255	0.168283	0.16401	0.170255	0.169105
798	0.136069	0.175515	0.168447	0.168118	0.171406	0.17272
799	0.138041	0.172392	0.170584	0.171077	0.171077	0.173214
800	0.141986	0.17272	0.17157	0.171241	0.174693	0.174857
801	0.143958	0.175679	0.1742	0.173871	0.173049	0.177158
802	0.145437	0.176008	0.175021	0.172556	0.174857	0.177158
803	0.150697	0.176994	0.178473	0.173378	0.174857	0.177815
804	0.152505	0.176501	0.177815	0.178144	0.1742	0.181924
805	0.155627	0.178309	0.177815	0.176501	0.180445	0.179952
806	0.154477	0.178144	0.18176	0.177487	0.183075	0.17798
807	0.159243	0.178802	0.181924	0.179623	0.181103	0.1742
808	0.15612	0.177651	0.18176	0.180281	0.180774	0.175186
809	0.160394	0.182089	0.184718	0.179459	0.180116	0.175021
810	0.160558	0.182253	0.180116	0.174857	0.184061	0.179623
811	0.163023	0.179788	0.182417	0.179623	0.184718	0.181431
812	0.161051	0.181596	0.18061	0.178637	0.183732	0.181596
813	0.163845	0.182417	0.183568	0.182253	0.189156	0.189978
814	0.165489	0.182746	0.18061	0.178144	0.187019	0.183732
815	0.167297	0.182417	0.183239	0.182417	0.187019	0.184061
816	0.166475	0.188006	0.182911	0.18932	0.185869	0.188006
817	0.167461	0.187019	0.180281	0.18061	0.186526	0.186855
818	0.173378	0.189649	0.182089	0.183897	0.184225	0.186855
819	0.170748	0.186198	0.186033	0.18817	0.185212	0.188827
820	0.173378	0.18817	0.18932	0.186691	0.188663	0.187348
821	0.172885	0.184718	0.187348	0.184554	0.186033	0.192443
822	0.172556	0.187348	0.190142	0.187348	0.188334	0.188334
823	0.173707	0.183404	0.188992	0.181924	0.189649	0.189814
824	0.177487	0.1908	0.192608	0.149053	0.190964	0.185869
825	0.175843	0.186691	0.18817	0.14971	0.191293	0.184883
826	0.178966	0.187184	0.191128	0.151683	0.190635	0.189156
827	0.178637	0.189978	0.190964	0.15497	0.19195	0.188334
828	0.180938	0.189649	0.191621	0.058164	0.194416	0.1908
829	0.182417	0.18932	0.190964	0.002118	0.193922	0.190307
830	0.182417	0.192443	0.192772	0.013623	0.200004	0.190471
831	0.178637	0.192936	0.1908	0.020033	0.192608	0.185376
832	0.178802	0.190142	0.190471	0.023977	0.192115	0.191621
833	0.182253	0.195073	0.193265	0.003761	0.192115	0.191621
834	0.180938	0.192772	0.191293	0.010664	0.190307	0.193265
835	0.185705	0.195895	0.19458	0.018554	0.190964	0.194909
836	0.185047	0.192936	0.190471	0.023484	0.189649	0.19458
837	0.183897	0.193101	0.193265	0.03614	0.193265	0.194087
838	0.189978	0.195402	0.19573	0.041399	0.18932	0.195566
839	0.1908	0.193429	0.197045	0.050274	0.19458	0.193101
840	0.187513	0.193758	0.193429	0.052247	0.193101	0.190307
841	0.188334	0.191293	0.199346	0.063916	0.195237	0.193594
842	0.188334	0.193101	0.19458	0.065724	0.195073	0.189814
843	0.18817	0.191621	0.19458	0.074271	0.196717	0.194251
844	0.189485	0.192279	0.196717	0.0769	0.195237	0.190964
845	0.187019	0.19195	0.194909	0.079037	0.197867	0.188663
846	0.185212	0.195073	0.191621	0.08709	0.195237	0.195402
847	0.187019	0.190471	0.187513	0.087419	0.198196	0.196223
848	0.186691	0.194909	0.192443	0.096788	0.196059	0.191293
849	0.190307	0.197703	0.192608	0.097938	0.196388	0.196223
850	0.18932	0.197374	0.195895	0.104184	0.195073	0.194416
851	0.188663	0.194909	0.194416	0.105005	0.197703	0.19573
852	0.1908	0.198031	0.195566	0.107799	0.195402	0.193101
853	0.189978	0.200332	0.197538	0.112073	0.19573	0.195402
854	0.190635	0.196059	0.19573	0.115689	0.19573	0.196223
855	0.188992	0.195402	0.195402	0.118976	0.194251	0.194087
856	0.189814	0.193594	0.200825	0.127358	0.199675	0.196552
857	0.1908	0.194909	0.196223	0.127029	0.196223	0.194251
858	0.19458	0.195237	0.198196	0.129988	0.200168	0.195073
859	0.192279	0.190964	0.194744	0.136233	0.198524	0.192115
860	0.194744	0.197045	0.19836	0.132782	0.193922	0.193594
861	0.195566	0.197045	0.196552	0.138534	0.198031	0.192936
862	0.193922	0.191457	0.192443	0.138041	0.197703	0.194909
863	0.193101	0.196881	0.198196	0.139685	0.198524	0.195073
864	0.193265	0.200004	0.196059	0.143794	0.201812	0.198031
865	0.195895	0.190964	0.196881	0.143958	0.197703	0.195237
866	0.196388	0.196552	0.197538	0.143136	0.198524	0.19573
867	0.194416	0.196881	0.201647	0.149875	0.199018	0.19721
868	0.194251	0.192608	0.198196	0.151354	0.198031	0.198524
869	0.199346	0.200004	0.199018	0.153984	0.196059	0.200004
870	0.190964	0.197374	0.19573	0.15612	0.198196	0.196059
871	0.193758	0.195237	0.199018	0.157107	0.196223	0.197703
872	0.192608	0.200168	0.197538	0.159408	0.196059	0.194087
873	-0.001827	0.198524	0.200825	0.161873	0.200168	0.200497
874	0.012144	0.195237	0.196717	0.162695	0.195566	0.193101
875	0.021348	0.203948	0.201154	0.161215	0.199346	0.19836
876	0.028415	0.199018	0.197867	0.166804	0.199346	0.199018
877	0.037783	0.196059	0.198524	0.165489	0.197374	0.197374
878	0.042714	0.196717	0.199346	0.169269	0.201976	0.196388
879	0.050274	0.195073	0.197867	0.169433	0.202305	0.202633
880	0.055698	0.196717	0.196717	0.173378	0.193758	0.19721
881	0.058985	0.195895	0.198689	0.172556	0.200168	0.203126
882	0.066381	0.196552	0.19836	0.173378	0.197867	0.200661
883	0.069669	0.196223	0.198196	0.171241	0.196388	0.19721
884	0.076243	0.201812	0.198196	0.175515	0.196552	0.200332
885	0.079694	0.197045	0.200168	0.17535	0.198031	0.199018
886	0.091528	0.201976	0.199675	0.175021	0.193429	0.199511
887	0.087584	0.196717	0.196717	0.176829	0.193101	0.195895
888	0.098267	0.198196	0.197867	0.17798	0.193265	0.197867
889	0.098431	0.199018	0.198196	0.180938	0.197703	0.197867
890	0.10254	0.196881	0.19836	0.180774	0.19836	0.199182
891	0.107964	0.196881	0.198524	0.187513	0.197374	0.199182
892	0.112566	0.19836	0.198196	0.182417	0.200332	0.198196
893	0.115689	0.199018	0.201812	0.18439	0.198524	0.199839
894	0.120455	0.197538	0.200168	0.177158	0.198853	0.19721
895	0.124564	0.199182	0.200497	0.178637	0.199675	0.19721
896	0.125057	0.195895	0.201647	0.178966	0.198196	0.198853
897	0.132453	0.191293	0.205756	0.177322	0.197867	0.196881
898	0.131631	0.197374	0.199839	0.179459	0.200168	0.199182
899	0.13311	0.196388	0.20099	0.180938	0.199839	0.194251
900	0.133439	0.198524	0.197867	0.175021	0.200332	0.200004
901	0.13837	0.200168	0.200661	0.176336	0.200004	0.201319
902	0.136726	0.198689	0.196552	0.146588	0.199675	0.198853
903	0.143629	0.199675	0.200168	0.117496	0.201812	0.202962
904	0.143136	0.198853	0.20099	0.115853	0.199018	0.200168
905	0.145273	0.200825	0.197703	0.110758	0.19721	0.196388
906	0.150204	0.199839	0.200168	0.063916	0.196223	0.197374
907	0.15119	0.198853	0.198524	0.049781	0.199018	0.198031
908	0.156613	0.189649	0.200332	0.00294	0.193429	0.198689
909	0.155792	0.195073	0.199675	0.000967	0.201154	0.197703
910	0.158093	0.197374	0.197374	0.001296	0.199675	0.196717
911	0.160887	0.198853	0.197703	0.004748	0.199182	0.201319
912	0.16253	0.195402	0.198853	0.004748	0.197045	0.198689
913	0.160887	0.194744	0.197867	0.009021	0.199839	0.198689
914	0.162366	0.198853	0.199675	0.004912	0.197703	0.198689
915	0.167625	0.197538	0.193594	0.000474	0.201319	0.201154
916	0.169762	0.197045	0.195566	0.000474	0.201319	0.19836
917	0.167461	0.199018	0.197703	-1.9e-05	0.200332	0.197538
918	0.170255	0.201812	0.199346	-0.000841	0.201976	0.19836
919	0.170913	0.191457	0.197867	-1.9e-05	0.19721	0.197538
920	0.169269	0.197703	0.197867	-1.9e-05	0.200004	0.199182
921	0.168283	0.199346	0.200004	0.000146	0.199839	0.195895
922	0.171077	0.20214	0.196388	0.000146	0.20099	0.199018
923	0.168447	0.204277	0.199839	0.00031	0.200332	0.197374
924	0.172885	0.197703	0.198196	0.00031	0.204277	0.20099
925	0.176172	0.202633	0.198031	-1.9e-05	0.200168	0.200497
926	0.175843	0.199346	0.200004	-0.000183	0.200825	0.202798
927	0.179952	0.203126	0.199839	-0.000512	0.200825	0.199511
928	0.178309	0.201154	0.200825	-0.000512	0.201812	0.201319
929	0.179623	0.19836	0.20099	-0.000512	0.201319	0.198853
930	0.181431	0.195073	0.197703	-0.000183	0.195895	0.199018
931	0.180116	0.196881	0.200825	-1.9e-05	0.198689	0.198853
932	0.179295	0.19836	0.197867	0.000146	0.195073	0.194416
933	0.183404	0.196717	0.199839	0.00031	0.200168	0.198031
934	0.18061	0.199675	0.197374	0.00031	0.198524	0.200004
935	0.183239	0.199675	0.200168	0.000474	0.201647	0.196881
936	0.181103	0.20214	0.196552	-1.9e-05	0.202633	0.197703
937	0.184061	0.198524	0.200497	-0.000512	0.202469	0.199018
938	0.183897	0.199346	0.199182	-0.000512	0.203126	0.196717
939	0.181924	0.199839	0.196717	-0.000676	0.206578	0.198524
940	0.181924	0.203126	0.200168	-0.000347	0.202962	0.198031
941	0.188006	0.197703	0.195566	-0.000183	0.201647	0.20099
942	0.185212	0.203126	0.199675	0.000146	0.199675	0.19836
943	0.185047	0.199511	0.201154	0.000146	0.203455	0.197867
944	0.188827	0.200661	0.198196	0.000146	0.197374	0.200168
945	0.186855	0.198689	0.193429	0.00031	0.198689	0.201976
946	0.193101	0.200168	0.200168	0.00031	0.201154	0.202798
947	0.188499	0.198689	0.198031	-1.9e-05	0.20099	0.19836
948	0.190307	0.202469	0.202633	-0.000512	0.200825	0.199839
949	0.188992	0.198031	0.200332	-0.000347	0.200004	0.199346
950	0.186855	0.198031	0.20099	-0.000347	0.203126	0.196388
951	0.186198	0.198853	0.199511	-0.000676	0.200332	0.196388
952	0.187513	0.199182	0.200661	-0.000183	0.201812	0.198853
953	0.187348	0.196881	0.199018	0.000146	0.20099	0.197703
954	0.085611	0.199839	0.196059	-1.9e-05	0.206085	0.198524
955	0.092514	0.199018	0.197867	0.000146	0.201154	0.197867
956	0.096788	0.197867	0.199675	0.000474	0.200825	0.197703
957	0.094487	0.200332	0.197374	0.000146	0.201647	0.199346
958	0.098102	0.201812	0.197703	-1.9e-05	0.201812	0.200825
959	0.105498	0.207564	0.202469	-0.000347	0.199675	0.200825
960	0.111251	0.201483	0.195073	-0.000512	0.200168	0.203784
961	0.111087	0.19836	0.200168	-0.000512	0.200825	0.200497
962	0.11536	0.200168	0.198031	-0.017769	0.199675	0.20099
963	0.120455	0.196059	0.203784	0.000639	0.200497	0.20099
964	0.117332	0.19573	0.196717	-0.000512	0.198196	0.199018
965	0.122263	0.19836	0.197703	0.000146	0.203455	0.199839
966	0.064738	0.196881	0.19721	0.000146	0.198196	0.20099
967	0.06934	0.196717	0.199839	0.000146	0.201976	0.200004
968	0.073449	0.198689	0.202633	0.000146	0.203291	0.198853
969	0.077722	0.199675	0.201319	0.00031	0.200497	0.199675
970	0.083639	0.200332	0.200497	-0.000183	0.201483	0.198689
971	0.088734	0.198689	0.200168	-0.000512	0.206249	0.199839
972	0.090871	0.202633	0.196388	-0.000347	0.199675	0.199018
973	0.092679	0.200168	0.200332	0.000967	0.202305	0.199839
974	0.101061	0.201154	0.206085	0.000474	0.20099	0.202305
975	0.101225	0.197374	0.197703	0.000474	0.199839	0.203784
976	0.109114	0.202469	0.200825	0.00031	0.199346	0.20099
977	0.112073	0.200497	0.199018	-0.000512	0.20099	0.203784
978	0.115524	0.200332	0.202962	0.001789	0.201154	0.203291
979	0.121112	0.201319	0.197867	0.001132	0.204277	0.202469
980	0.120784	0.20099	0.202962	0.002611	0.201154	0.199511
981	0.126372	0.200004	0.201154	0.000146	0.140506	0.202798
982	0.130316	0.199511	0.201976	0.000146	0.144615	0.195402
983	0.130974	0.198524	0.200497	0.000639	0.147245	0.197867
984	0.136562	0.197538	0.202305	0.005734	0.116675	0.201812
985	0.13574	0.201976	0.207893	-0.000183	0.081667	0.196223
986	0.136233	0.193922	0.198196	0.000639	0.088734	0.200332
987	0.14215	0.198524	0.199346	-1.9e-05	0.095473	0.198196
988	0.141328	0.198031	0.200332	-0.000183	0.1101	0.201483
989	0.141821	0.199018	0.19721	0.000967	0.103362	0.199839
990	0.145437	0.202469	0.200825	0.001625	0.111251	0.197374
991	0.151025	0.200661	0.200661	0.002775	0.113388	0.200004
992	0.150039	0.197703	0.200004	-0.001334	0.115031	0.200004
993	0.154641	0.201976	0.201483	0.002775	0.118811	0.198196
994	0.154312	0.199839	0.201154	0.00031	0.121112	0.195237
995	0.154148	0.197045	0.202469	0.009514	0.124728	0.199839
996	0.163188	0.203291	0.201976	0.000474	0.128837	0.202633
997	0.155792	0.197374	0.197538	0.003104	0.13196	0.200661
998	0.155627	0.198853	0.201319	0.000967	0.133932	0.200332
999	0.164667	0.196881	0.202305	0.001625	0.138863	0.202469
1000	0.162037	0.197374	0.200825	0.000967	0.138534	0.197867
1001	0.166146	0.193758	0.20099	0.000474	0.142479	0.196881
1002	0.165489	0.200497	0.201812	0.001789	0.146095	0.195237
1003	0.170091	0.19721	0.200004	-0.000512	0.150204	0.202305
1004	0.171899	0.199018	0.200497	0.001296	0.152505	0.194744
1005	0.170584	0.198031	0.20099	0.000639	0.15497	0.196059
1006	0.174035	0.198689	0.20214	0.009843	0.154641	0.19573
1007	0.173542	0.200168	0.196552	-0.001169	0.156778	0.196717
1008	0.174857	0.196223	0.199182	-0.000841	0.158257	0.19836
1009	0.17272	0.197703	0.199182	0.00294	0.158093	0.202469
1010	0.180116	0.200332	0.202962	0.001296	0.162695	0.200661
1011	0.176501	0.198524	0.199018	0.001625	0.161051	0.200661
1012	0.177815	0.199018	0.198853	0.003597	0.165653	0.201812
1013	0.179952	0.200004	0.19836	0.006062	0.166146	0.20099
1014	0.184061	0.195073	0.20099	0.00146	0.16779	0.201483
1015	0.182746	0.199839	0.201647	0.00146	0.169598	0.196552
1016	0.186526	0.196881	0.201483	0.00409	0.171734	0.201319
1017	0.182089	0.197045	0.194251	0.007049	0.170419	0.199018
1018	0.184061	0.199182	0.195073	-0.003306	0.172227	0.201812
1019	0.18439	0.199346	0.19836	0.003104	0.171734	0.197045
1020	0.182417	0.197045	0.199182	0.000146	0.175843	0.201812
1021	0.188006	0.199839	0.201154	0.00294	0.17798	0.201319
1022	0.185047	0.195566	0.202305	0.001625	0.177651	0.199675
1023	0.183732	0.197374	0.200004	0.00294	0.176172	0.199182
1024	0.184225	0.196717	0.201812	0.00146	0.176501	0.201647
1025	0.185869	0.19836	0.203784	0.003268	0.182253	0.203291
1026	0.184225	0.196223	0.199346	0.000803	0.180938	0.19721
1027	0.188499	0.20362	0.201483	0.002118	0.181431	0.200497
1028	0.188006	0.201319	0.199839	-0.006264	0.183732	0.199182
1029	0.191457	0.198196	0.191128	0.000803	0.185376	0.200004
1030	0.187184	0.201483	0.198689	0.003433	0.183568	0.199675
1031	0.18932	0.195895	0.200497	0.008692	0.183568	0.202633
1032	0.188663	0.198524	0.201647	0.0105	0.182746	0.198524
1033	0.188992	0.198853	0.200661	0.011158	0.183239	0.205427
1034	0.189814	0.197374	0.198689	0.016088	0.18439	0.20477
1035	0.186033	0.200825	0.198853	0.011486	0.186362	0.19836
1036	0.195073	0.200004	0.205921	0.023813	0.186198	0.203126
1037	0.191786	0.198524	0.199839	0.027758	0.186526	0.197703
1038	0.190964	0.200825	0.202305	0.036469	0.188827	0.198524
1039	0.18932	0.199675	0.200168	0.029237	0.188006	0.198031
1040	0.193758	0.195402	0.191457	0.043371	0.186855	0.199839
1041	0.190471	0.198524	0.199182	0.051918	0.18817	0.19836
1042	0.193429	0.200004	0.200661	0.057342	0.189814	0.199839
1043	0.191293	0.200332	0.201319	0.059314	0.187841	0.198853
1044	0.195402	0.20099	0.198689	0.068518	0.190964	0.201319
1045	0.191293	0.200168	0.195566	0.074106	0.192443	0.199346
1046	0.193429	0.200497	0.200004	0.075914	0.18932	0.199018
1047	0.193265	0.200004	0.201976	0.087419	0.194416	0.199346
1048	0.18932	0.198031	0.194744	0.090871	0.192936	0.198031
1049	0.195237	0.198524	0.199182	0.096459	0.190964	0.19836
1050	0.195402	0.198524	0.198031	0.091857	0.192115	0.204606
1051	0.195566	0.198689	0.190307	0.10517	0.191621	0.199839
1052	0.191621	0.199839	0.197538	0.108293	0.189649	0.200661
1053	0.193922	0.198031	0.200497	0.113881	0.192443	0.203126
1054	0.194416	0.198524	0.199675	0.114867	0.193101	0.203455
1055	0.198689	0.200497	0.200825	0.11914	0.194251	0.199839
1056	0.194251	0.203291	0.201976	0.123085	0.193101	0.199511
1057	0.198031	0.192772	0.201319	0.120126	0.194416	0.196717
1058	0.196881	0.202305	0.202798	0.127029	0.193265	0.202305
1059	0.196881	0.200661	0.200168	0.13459	0.193265	0.200497
1060	0.196552	0.199182	0.197867	0.133603	0.193594	0.19836
1061	0.197538	0.199511	0.199346	0.13311	0.194087	0.200004
1062	0.193594	0.200004	0.192115	0.138534	0.193758	0.199511
1063	0.199182	0.200168	0.197045	0.145437	0.195895	0.200661
1064	0.198689	0.197867	0.199675	0.141493	0.19573	0.201647
1065	0.195402	0.187348	0.199511	0.143794	0.19458	0.204277
1066	0.200004	0.19836	0.198689	0.149875	0.192936	0.200004
1067	0.194909	0.198031	0.199511	0.147081	0.195566	0.202305
1068	0.198031	0.197045	0.205592	0.151354	0.193429	0.200004
1069	0.197867	0.201976	0.200004	0.156942	0.192115	0.208386
1070	0.197374	0.200661	0.201154	0.155627	0.194744	0.19836
1071	0.198196	0.199675	0.20099	0.15612	0.194416	0.20099
1072	0.201483	0.199511	0.201976	0.159243	0.192443	0.202469
1073	0.193758	0.201154	0.194744	0.158257	0.192279	0.20099
1074	0.197538	0.199675	0.201647	0.160394	0.193594	0.202962
1075	0.199346	0.200332	0.201319	0.163681	0.190471	0.205921
1076	0.197538	0.199018	0.200004	0.164831	0.191621	0.200825
1077	0.197538	0.20099	0.198031	0.167461	0.190142	0.202469
1078	0.198031	0.201154	0.201319	0.168612	0.196717	0.202469
1079	0.19836	0.201483	0.202633	0.169433	0.196717	0.197538
1080	0.198196	0.199675	0.199182	0.171406	0.188663	0.205756
1081	0.199018	0.200004	0.201812	0.175843	0.193922	0.197045
1082	0.195237	0.199018	0.19836	0.17913	0.189978	0.199675
1083	0.198689	0.201976	0.201812	0.173542	0.190471	0.200825
1084	0.198689	0.201154	0.196059	0.178637	0.190142	0.205427
1085	0.197045	0.205263	0.199182	0.177651	0.190307	0.198196
1086	0.19721	0.202469	0.199839	0.180445	0.19195	0.204277
1087	0.199182	0.202469	0.199839	0.181267	0.192279	0.202305
1088	0.198031	0.201154	0.202305	0.179459	0.190635	0.200168
1089	0.199018	0.201154	0.201976	0.184718	0.19573	0.200825
1090	0.19836	0.19836	0.20214	0.18061	0.185376	0.198689
1091	0.201976	0.201976	0.201976	0.182253	0.18817	0.199839
1092	0.199839	0.203126	0.199839	0.18932	0.188334	0.196388
1093	0.199675	0.198031	0.203948	0.186526	0.186033	0.199839
1094	0.20099	0.199839	0.20362	0.185869	0.183568	0.19721
1095	0.200825	0.198031	0.199839	0.184061	0.143465	0.200825
1096	0.199018	0.20099	0.200168	0.186526	0.143465	0.200168
1097	0.198689	0.196388	0.201976	0.185376	0.145273	0.200004
1098	0.197867	0.199018	0.199839	0.188334	0.150532	0.199182
1099	0.20214	0.199182	0.196881	0.188992	0.147903	0.201154
1100	0.199675	0.202633	0.200497	0.191293	0.154477	0.201483
1101	0.197374	0.199182	0.19836	0.188992	0.156285	0.201319
1102	0.198689	0.200825	0.199675	0.192936	0.153162	0.193922
1103	0.197538	0.20214	0.199346	0.192279	0.159079	0.201154
1104	0.201154	0.198853	0.20214	0.193101	0.157764	0.199675
1105	0.197703	0.200004	0.201319	0.191293	0.157107	0.197538
1106	0.199511	0.200332	0.201812	0.192772	0.16138	0.201483
1107	0.199182	0.201154	0.200004	0.192279	0.161709	0.197045
1108	0.20099	0.199182	0.198196	0.192608	0.165489	0.199675
1109	0.203126	0.200661	0.202633	0.192772	0.164667	0.203948
1110	0.198689	0.200332	0.20099	0.189814	0.166639	0.203291
1111	0.200497	0.197703	0.198031	0.194251	0.169433	0.199511
1112	0.194909	0.199675	0.198689	0.192443	0.172392	0.201483
1113	0.199182	0.197045	0.201319	0.195073	0.171406	0.188499
1114	0.198196	0.193429	0.194087	0.193594	0.177487	0.196059
1115	0.199018	0.198031	0.195237	0.200332	0.176172	0.20099
1116	0.198853	0.190964	0.196388	0.196223	0.17272	0.200168
1117	0.20099	0.196717	0.200004	0.194251	0.174857	0.201647
1118	0.196388	0.199018	0.195402	0.19836	0.1742	0.200497
1119	0.199346	0.19458	0.197703	0.197867	0.174693	0.201647
1120	0.198689	0.199511	0.194909	0.196552	0.17535	0.201976
1121	0.200661	0.196552	0.201319	0.195402	0.176501	0.202469
1122	0.197703	0.197703	0.198689	0.193758	0.177651	0.198853
1123	0.195895	0.19721	0.203291	0.19458	0.180445	0.202469
1124	0.201319	0.196388	0.201976	0.199018	0.178309	0.197045
1125	0.201976	0.198853	0.201483	0.19573	0.181103	0.203291
1126	0.20099	0.195073	0.202305	0.199346	0.183404	0.201319
1127	0.200825	0.196717	0.200168	0.197374	0.179952	0.201154
1128	0.200332	0.196388	0.201319	0.199018	0.180445	0.196717
1129	0.201154	0.193922	0.199346	0.199675	0.184883	0.200332
1130	0.198524	0.196881	0.197703	0.20099	0.186855	0.197374
1131	0.198196	0.197374	0.20099	0.199839	0.186198	0.196552
1132	0.198524	0.196717	0.198031	0.200168	0.184061	0.204441
1133	0.19458	0.193429	0.197538	0.198853	0.186526	0.199511
1134	0.199018	0.197374	0.199511	0.201154	0.181924	0.199511
1135	0.19836	0.19573	0.200168	0.200497	0.182746	0.193758
1136	0.199018	0.194087	0.199839	0.20099	0.186362	0.198853
1137	0.199839	0.197374	0.202798	0.202305	0.186855	0.199839
1138	0.20214	0.194909	0.199839	0.197374	0.183075	0.200004
1139	0.196717	0.004419	0.200661	0.199675	0.185869	0.199346
1140	0.199018	0.015595	0.199675	0.199346	0.188992	0.202469
1141	0.199839	0.003268	0.200168	0.201319	0.187348	0.198524
1142	0.198853	0.006884	0.198524	0.198196	0.191786	0.197703
1143	0.20099	0.016253	0.201319	0.205756	0.190471	0.200168
1144	0.197867	0.021676	0.200332	0.206249	0.192279	0.199511
1145	0.197867	0.032031	0.203455	0.203126	0.194251	0.19836
1146	0.199018	0.035647	0.199675	0.202305	0.193101	0.200497
1147	0.199182	0.043207	0.200168	0.203126	0.192279	0.198031
1148	0.19836	0.051096	0.203291	0.20099	0.194744	0.195895
1149	0.200004	0.057177	0.206249	0.205263	0.193758	0.196223
1150	0.19458	0.06408	0.196552	0.202305	0.192279	0.197045
1151	0.197374	0.071477	0.200004	0.201483	0.198689	0.20099
1152	0.196717	0.074271	0.198196	0.205099	0.192772	0.199182
1153	0.199346	0.081502	0.201483	0.200168	0.195895	0.197045
1154	0.199018	0.086926	0.200332	0.201976	0.191786	0.203291
1155	0.198031	0.089227	0.198196	0.200497	0.196059	0.197374
1156	0.200004	0.091364	0.203126	0.200168	0.193594	0.198853
1157	0.201812	0.006884	0.199182	0.200661	0.191457	0.199839
1158	0.202469	0.01691	0.201319	0.20099	0.195402	0.197045
1159	0.201154	0.021841	0.201483	0.199018	0.196059	0.204441
1160	0.201812	0.031373	0.200825	0.20214	0.194416	0.200168
1161	0.202305	0.035975	0.200825	0.205592	0.194087	0.199839
1162	0.196717	0.043207	0.200004	0.201976	0.196223	0.199346
1163	0.197703	0.025292	0.197374	0.203291	0.197703	0.199511
1164	0.201154	0.008692	0.197045	0.207235	0.19573	0.198524
1165	0.200004	0.017732	0.194909	0.201647	0.196717	0.200497
1166	0.199346	0.019704	0.200332	0.202305	0.198031	0.201483
1167	0.200332	0.030552	0.197538	0.202798	0.195566	0.198689
1168	0.201154	0.041728	0.198853	0.202469	0.196552	0.20099
1169	0.199346	0.044522	0.196059	0.201154	0.195566	0.198524
1170	0.199182	0.053726	0.201483	0.200825	0.197867	0.201976
1171	0.201483	0.060629	0.204113	0.202469	0.196717	0.200825
1172	0.203291	0.063094	0.200004	0.200825	0.196223	0.200332
1173	0.200497	0.072134	0.203291	0.198689	0.196059	0.200661
1174	0.19721	0.073942	0.200661	0.202469	0.196717	0.200825
1175	0.201976	0.080023	0.200497	0.200004	0.19573	0.200004
1176	0.198689	0.082817	0.200497	0.199675	0.197867	0.20214
1177	0.201154	0.090213	0.20099	0.203948	0.200332	0.201154
1178	0.200661	0.09235	0.199511	0.20099	0.197703	0.200825
1179	0.201483	0.096788	0.20099	0.205427	0.194909	0.198689
1180	0.198689	0.101554	0.201319	0.202305	0.194251	0.199511
1181	0.200332	0.10254	0.19836	0.203948	0.196717	0.199511
1182	0.20362	0.111251	0.200004	0.20362	0.197045	0.19836
1183	0.204113	0.113881	0.201319	0.203291	0.198031	0.200332
1184	0.197045	0.117496	0.200004	0.201812	0.193922	0.195237
1185	0.197703	0.125386	0.200168	0.199511	0.197703	0.201319
1186	0.199675	0.130316	0.199511	0.202962	0.19721	0.200168
1187	0.198853	0.128344	0.198031	0.20214	0.200661	0.202469
1188	0.203291	0.132124	0.201976	0.203291	0.201483	0.200168
1189	0.202469	0.136233	0.200004	0.200497	0.196059	0.201319
1190	0.204277	0.135576	0.199839	0.201647	0.199675	0.201647
1191	0.200168	0.137877	0.200004	0.202798	0.202633	0.199018
1192	0.199346	0.141	0.200497	0.203126	0.199839	0.197703
1193	0.19836	0.143465	0.197374	0.201483	0.198524	0.197374
1194	0.200332	0.144122	0.199182	0.206249	0.196552	0.199511
1195	0.197867	0.14856	0.198524	0.20362	0.198689	0.200004
1196	0.201154	0.146588	0.199346	0.203784	0.200168	0.198524
1197	0.197703	0.147081	0.199182	0.204606	0.199018	0.200497
1198	0.199182	0.148396	0.199346	0.202305	0.200661	0.200661
1199	0.19721	0.15119	0.201812	0.204277	0.199675	0.198853
1200	0.194416	0.154312	0.200004	0.201154	0.200661	0.201647
1201	0.196223	0.156285	0.200004	0.201647	0.203455	0.19836
1202	0.197374	0.156942	0.201483	0.197045	0.201319	0.20099
1203	0.200332	0.162037	0.201154	0.200497	0.203126	0.198524
1204	0.198689	0.161051	0.19836	0.199675	0.199839	0.200004
1205	0.194909	0.164338	0.202305	0.199675	0.200168	0.196552
1206	0.197045	0.164831	0.199346	0.197867	0.19836	0.200168
1207	0.200004	0.16401	0.198031	0.197703	0.200332	0.198689
1208	0.19836	0.165982	0.201647	0.199182	0.196881	0.202305
1209	0.202633	0.168776	0.200497	0.197374	0.20214	0.192772
1210	0.200332	0.168447	0.201319	0.201647	0.199182	0.200661
1211	0.201483	0.168776	0.201319	0.202798	0.200825	0.201319
1212	0.200332	0.170748	0.19721	0.201319	0.199182	0.199511
1213	0.202469	0.168447	0.19836	0.202962	0.198853	0.201647
1214	0.19836	0.170584	0.198031	0.200168	0.194416	0.199018
1215	0.201647	0.175186	0.20214	0.194744	0.201647	0.201483
1216	0.189156	0.171406	0.201319	0.199346	0.197374	0.199839
1217	0.199018	0.176008	0.200332	0.195402	0.198196	0.199346
1218	0.200004	0.178802	0.200332	0.196388	0.198853	0.198689
1219	0.199018	0.176336	0.200332	0.195566	0.201154	0.198689
1220	0.199675	0.179952	0.203126	0.19573	0.202305	0.200004
1221	0.199182	0.180774	0.199182	0.194909	0.202633	0.200004
1222	0.200825	0.183404	0.199018	0.194744	0.202798	0.200004
1223	0.201647	0.183568	0.197538	0.193265	0.200004	0.199346
1224	0.201319	0.183404	0.201154	0.193758	0.200661	0.197867
1225	0.198689	0.184718	0.199182	0.193758	0.200661	0.197045
1226	0.200168	0.186526	0.20099	0.193101	0.199675	0.20099
1227	0.190307	0.186362	0.198524	0.195237	0.199018	0.202633
1228	0.198031	0.186855	0.201483	0.19721	0.201647	0.199346
1229	0.200004	0.187184	0.199346	0.195895	0.198524	0.200004
1230	0.199346	0.186691	0.200661	0.195237	0.202305	0.19836
1231	0.200332	0.186691	0.200497	0.19721	0.198031	0.200825
1232	0.199675	0.186033	0.200661	0.19458	0.199182	0.201976
1233	0.201483	0.188827	0.201812	0.194416	0.200332	0.199675
1234	0.198524	0.183404	0.19836	0.19721	0.201319	0.199018
1235	0.200825	0.193265	0.202305	0.193922	0.19836	0.201812
1236	0.200825	0.185047	0.201483	0.19195	0.199675	0.203291
1237	0.199511	0.189649	0.201647	0.19573	0.199511	0.202962
1238	0.19573	0.1908	0.204441	0.193758	0.201976	0.199346
1239	0.202962	0.193101	0.201647	0.193429	0.202798	0.199182
1240	0.200168	0.189978	0.198031	0.191786	0.200497	0.198524
1241	0.20477	0.193101	0.204113	0.193265	0.202469	0.198524
1242	0.197867	0.193101	0.199346	0.192936	0.202469	0.197867
1243	0.201647	0.19195	0.199839	0.191457	0.208715	0.200497
1244	0.201319	0.194744	0.196388	0.191786	0.199346	0.199511
1245	0.202469	0.193594	0.19573	0.194087	0.200332	0.199839
1246	0.20099	0.192279	0.205756	0.195895	0.201647	0.203126
1247	0.200825	0.193922	0.201154	0.193758	0.203126	0.20362
1248	0.198031	0.193429	0.197867	0.197538	0.197867	0.20099
1249	0.197374	0.194087	0.201812	0.190964	0.201319	0.200004
1250	0.197703	0.194251	0.203455	0.193922	0.199346	0.196223
1251	0.19573	0.19195	0.19836	0.191293	0.205099	0.204441
1252	0.200004	0.196717	0.203126	0.194744	0.202798	0.195237
1253	0.198031	0.193758	0.201154	0.193101	0.203784	0.202469
1254	0.201812	0.194251	0.201483	0.193265	0.2074	0.197867
1255	0.201319	0.195237	0.199511	0.190471	0.202305	0.19458
1256	0.202469	0.195402	0.199182	0.195402	0.204113	0.196059
1257	0.199839	0.197703	0.199675	0.195237	0.202305	0.199346
1258	0.197538	0.197867	0.201154	0.188334	0.203948	0.19836
1259	0.199675	0.197538	0.197374	0.198689	0.202798	0.194251
1260	0.203455	0.19573	0.197703	0.192608	0.202469	0.19573
1261	0.199346	0.195237	0.201319	0.197045	0.202633	0.198196
1262	0.199018	0.196552	0.197538	0.196223	0.201154	0.200004
1263	0.201319	0.197867	0.201154	0.196223	0.199182	0.195073
1264	0.200497	0.193429	0.199511	0.194416	0.206907	0.204934
1265	0.199675	0.198853	0.204441	0.194744	0.20362	0.200332
1266	0.201483	0.200332	0.20099	0.193265	0.202305	0.200497
1267	0.201319	0.198853	0.201154	0.200168	0.204113	0.201483
1268	0.200497	0.197538	0.203784	0.193101	0.20214	0.201319
1269	0.204441	0.200497	0.201976	0.196059	0.20477	0.198031
1270	0.198524	0.197045	0.198689	0.192443	0.199182	0.199675
1271	0.205099	0.196059	0.198524	0.193429	0.208222	0.198524
1272	0.199346	0.196223	0.199018	0.193265	0.203126	0.196881
1273	0.199675	0.197867	0.201154	0.192279	0.202633	0.199511
1274	0.197703	0.198031	0.196552	0.192443	0.203126	0.19721
1275	0.199346	0.199511	0.195895	0.194416	0.207071	0.197374
1276	0.199018	0.200497	0.200825	0.195566	0.203784	0.196881
1277	0.198853	0.19836	0.19836	0.193758	0.203291	0.198853
1278	0.200825	0.200004	0.19836	0.197374	0.204113	0.199346
1279	0.199018	0.199182	0.201154	0.19721	0.204277	0.202469
1280	0.200332	0.200332	0.200332	0.19573	0.206907	0.197867
1281	0.199346	0.196388	0.200825	0.192772	0.202305	0.20099
1282	0.199675	0.199839	0.199675	0.19721	0.200825	0.199675
1283	0.198031	0.204277	0.202633	0.194251	0.203291	0.200168
1284	0.200004	0.205921	0.201812	0.197703	0.202798	0.199346
1285	0.199182	0.201319	0.199839	0.193922	0.202798	0.198853
1286	0.200168	0.200332	0.201319	0.193101	0.206249	0.200825
1287	0.198853	0.204441	0.198524	0.194909	0.203455	0.200332
1288	0.199511	0.197703	0.202305	0.19458	0.205099	0.196717
1289	0.20099	0.196717	0.200332	0.19458	0.20477	0.197538
1290	0.199018	0.200661	0.197374	0.193594	0.201976	0.199346
1291	0.200825	0.199182	0.200825	0.197538	0.204934	0.196388
1292	0.199018	0.199511	0.200004	0.196059	0.199511	0.196881
1293	0.199511	0.200497	0.199018	0.195402	0.201647	0.197538
1294	0.197538	0.200661	0.199511	0.191786	0.200004	0.20099
1295	0.200004	0.197045	0.200332	0.195895	0.199346	0.200168
1296	0.19836	0.198853	0.196717	0.194416	0.199018	0.201976
1297	0.199182	0.200168	0.199346	0.195073	0.199839	0.199511
1298	0.19836	0.199018	0.19721	0.19573	0.194416	0.201319
1299	0.200825	0.200825	0.198524	0.196552	0.198031	0.200661
1300	0.197867	0.19721	0.198689	0.195895	0.201976	0.200497
1301	0.200497	0.202305	0.204441	0.199182	0.201647	0.201319
1302	0.203455	0.199018	0.20099	0.195895	0.2074	0.197374
1303	0.203784	0.199675	0.20214	0.19721	0.199839	0.193101
1304	0.199839	0.196881	0.202305	0.201154	0.201319	0.199018
1305	0.199675	0.200497	0.20362	0.195073	0.203126	0.198524
1306	0.201319	0.197045	0.200497	0.195237	0.202633	0.193429
1307	0.200168	0.199018	0.198689	0.194416	0.203784	0.193101
1308	0.195895	0.20099	0.199675	0.197374	0.202633	0.192608
1309	0.20099	0.20099	0.199018	0.201647	0.20362	0.196717
1310	0.200825	0.201154	0.198031	0.198031	0.201812	0.197374
1311	0.198853	0.19836	0.198031	0.197374	0.206085	0.198524
1312	0.199675	0.200004	0.198689	0.200825	0.204934	0.197867
1313	0.199018	0.20362	0.199839	0.197867	0.210194	0.199346
1314	0.202633	0.20362	0.204934	0.197867	0.200004	0.198853
1315	0.196223	0.196552	0.20099	0.194416	0.202798	0.200332
1316	0.200825	0.205099	0.200661	0.202305	0.202633	0.199018
1317	0.198689	0.203291	0.202305	0.200004	0.199675	0.196223
1318	0.200497	0.200168	0.201647	0.198853	0.200825	0.198196
1319	0.200004	0.199839	0.200661	0.197867	0.203784	0.198689
1320	0.200332	0.20214	0.201976	0.195073	0.202305	0.197045
1321	0.201154	0.200168	0.202305	0.195073	0.202633	0.196881
1322	0.195895	0.199511	0.206414	0.198031	0.203455	0.198853
1323	0.199182	0.202633	0.201976	0.19836	0.204441	0.19721
1324	0.197703	0.200332	0.200497	0.197374	0.20477	0.200661
1325	0.19836	0.203126	0.202305	0.196223	0.20214	0.199839
1326	0.197867	0.201647	0.200004	0.199182	0.206742	0.200004
1327	0.200168	0.203948	0.200332	0.199182	0.204934	0.196223
1328	0.19836	0.20099	0.199346	0.196552	0.201976	0.19721
1329	0.199182	0.201976	0.201812	0.199511	0.202305	0.196552
1330	0.196717	0.201647	0.199839	0.193758	0.19836	0.199346
1331	0.199839	0.204277	0.20099	0.195895	0.197538	0.199182
1332	0.19836	0.201319	0.200497	0.197045	0.20362	0.198853
1333	0.198524	0.203291	0.201812	0.199018	0.203784	0.199511
1334	0.199182	0.200825	0.198689	0.200332	0.203291	0.198689
1335	0.19836	0.197867	0.20214	0.202469	0.199018	0.197867
1336	0.20099	0.201319	0.20362	0.199182	0.201154	0.196059
1337	0.199839	0.19721	0.202305	0.199511	0.206414	0.19721
1338	0.202305	0.196552	0.201319	0.199675	0.204934	0.190471
1339	0.195402	0.199675	0.199346	0.197867	0.204113	0.194909
1340	0.196388	0.202633	0.196223	0.198524	0.20362	0.197538
1341	0.198031	0.198524	0.198689	0.197374	0.206085	0.19573
1342	0.19721	0.20477	0.199018	0.200168	0.204113	0.194909
1343	0.201319	0.201319	0.199182	0.194744	0.207564	0.199839
1344	0.197867	0.201647	0.199675	0.19573	0.20362	0.194087
1345	0.199511	0.203291	0.200168	0.196388	0.206249	0.19458
1346	0.200661	0.20362	0.198524	0.199182	0.199018	0.196223
1347	0.19836	0.201812	0.199346	0.194416	0.203455	0.198689
1348	0.198689	0.20362	0.199511	0.200332	0.204934	0.196223
1349	0.20099	0.202962	0.197703	0.197867	0.200332	0.199182
1350	0.200004	0.203291	0.199511	0.196717	0.202962	0.198524
1351	0.196717	0.204441	0.196388	0.199182	0.204441	0.196388
1352	0.201483	0.201483	0.201154	0.19836	0.203784	0.199018
1353	0.19836	0.201319	0.200661	0.199018	0.20099	0.195402
1354	0.200497	0.199839	0.200661	0.199675	0.207071	0.195237
1355	0.196388	0.201319	0.199839	0.199675	0.202798	0.193101
1356	0.201319	0.202305	0.201812	0.19836	0.204934	0.200332
1357	0.20099	0.201319	0.19721	0.200497	0.19573	0.19573
1358	0.194909	0.200332	0.199182	0.197867	0.205592	0.196881
1359	0.199675	0.20362	0.202305	0.206249	0.208879	0.195073
1360	0.195895	0.199346	0.200497	0.199839	0.203784	0.199839
1361	0.201319	0.170091	0.201483	0.198196	0.207728	0.199018
1362	0.199511	-0.000841	0.19721	0.19721	0.202305	0.197374
1363	0.199675	0.013459	0.200168	0.196717	0.204441	0.194909
1364	0.200497	0.020855	0.202962	0.195566	0.199182	0.200168
1365	0.201647	0.029072	0.199182	0.199346	0.202469	0.200661
1366	0.196388	0.031045	0.197867	0.197374	0.203784	0.197867
1367	0.201812	0.044686	0.200661	0.196059	0.206578	0.197703
1368	0.200332	0.050439	0.20099	0.194744	0.195895	0.197045
1369	0.19836	0.054712	0.201319	0.196717	0.203948	0.199675
1370	0.199839	0.052082	0.200168	0.199839	0.201976	0.197867
1371	0.199018	0.059643	0.202305	0.198031	0.204441	0.200661
1372	0.200332	0.065067	0.202798	0.199839	0.202798	0.198689
1373	0.202469	0.013787	0.199839	0.196059	0.205263	0.193265
1374	0.200168	0.010829	0.20099	0.198031	0.201976	0.200168
1375	0.199839	0.017732	0.199182	0.197538	0.203455	0.199182
1376	0.20362	0.028251	0.201647	0.197703	0.204113	0.201154
1377	0.197703	0.032853	0.197703	0.196717	0.203455	0.199675
1378	0.200661	0.041892	0.203291	0.198689	0.206414	0.197374
1379	0.200825	0.01691	0.200332	0.197867	0.200168	0.199182
1380	0.200168	0.016088	0.202633	0.196881	0.207071	0.197703
1381	0.198031	-0.000512	0.199675	0.198031	0.20477	0.198031
1382	0.200497	0.005405	0.200825	0.196552	0.203948	0.201154
1383	0.198031	0.007377	0.197538	0.196552	0.199839	0.197703
1384	0.199675	0.016417	0.19836	0.199346	0.201483	0.197374
1385	0.197045	0.02973	0.199511	0.202305	0.203455	0.198196
1386	0.197867	0.03351	0.19836	0.200825	0.198196	0.201812
1387	0.198853	0.044193	0.200661	0.201812	0.202633	0.19836
1388	0.19836	0.048631	0.199675	0.198196	0.20214	0.19721
1389	0.204606	0.060793	0.20362	0.201976	0.202469	0.196388
1390	0.202962	0.015102	0.196388	0.198196	0.201647	0.198524
1391	0.201319	0.02447	0.202469	0.20214	0.201319	0.200004
1392	0.199346	-0.000841	0.199018	0.199511	0.200168	0.196059
1393	0.203455	0.012637	0.201483	0.196059	0.202962	0.199839
1394	0.199182	0.014609	0.198689	0.196552	0.200825	0.196717
1395	0.200661	0.024799	0.200332	0.198031	0.203126	0.194744
1396	0.202305	0.03351	0.200661	0.197045	0.203455	0.193265
1397	0.195073	0.008363	0.200168	0.198196	0.203948	0.199018
1398	0.195237	0.016417	0.196717	0.197045	0.20099	0.197867
1399	0.19721	0.02447	0.200825	0.198031	0.20362	0.197703
1400	0.194909	0.033181	0.200168	0.197538	0.201812	0.196881
1401	0.198031	0.040413	0.199511	0.196552	0.201319	0.200497
1402	0.201319	0.050439	0.199675	0.200497	0.198853	0.198524
1403	0.197045	0.054383	0.199018	0.199346	0.201319	0.199182
1404	0.199511	0.063094	0.200825	0.198031	0.199511	0.200332
1405	0.196552	0.003597	0.198196	0.197867	0.200168	0.201154
1406	0.199182	0.008692	0.20099	0.199018	0.201319	0.199839
1407	0.196388	0.016417	0.201483	0.197867	0.200004	0.204113
1408	0.19836	0.009514	0.199675	0.201483	0.196059	0.197867
1409	0.200332	0.003761	0.20099	0.201647	0.200661	0.197045
1410	0.199182	0.00146	0.20362	0.200168	0.20099	0.19836
1411	0.199182	0.013787	0.201812	0.200497	0.200004	0.19836
1412	0.19836	0.017896	0.205263	0.199346	0.200332	0.195895
1413	0.202798	0.025128	0.198031	0.195237	0.198524	0.198524
1414	0.200497	0.018554	0.20099	0.19721	0.19836	0.198524
1415	0.202962	0.022169	0.20099	0.198524	0.198031	0.196059
1416	0.200004	0.030059	0.198524	0.196552	0.201154	0.200332
1417	0.196717	0.034168	0.197867	0.19573	0.19721	0.197374
1418	0.199675	0.030387	0.198524	0.195237	0.199511	0.199346
1419	0.200168	0.040249	0.199511	0.200825	0.196388	0.199839
1420	0.199346	0.030059	0.196552	0.197374	0.199182	0.202633
1421	0.203126	0.041892	0.200004	0.200661	0.196717	0.199018
1422	0.199182	0.05011	0.20214	0.199182	0.199346	0.200332
1423	0.199839	0.057013	0.197703	0.197374	0.197703	0.201483
1424	0.199346	0.062273	0.194909	0.199839	0.199675	0.199839
1425	0.200497	0.065724	0.199346	0.198031	0.199346	0.199675
1426	0.203291	0.067532	0.199511	0.193429	0.193594	0.192936
1427	0.200825	0.063916	0.202305	0.197867	0.197867	0.199675
1428	0.200661	0.072298	0.200004	0.200825	0.196717	0.197045
1429	0.203126	0.067203	0.202305	0.194416	0.195895	0.198031
1430	0.200497	0.016253	0.200661	0.199018	0.195073	0.200004
1431	0.199346	0.022005	0.200825	0.199675	0.196881	0.198689
1432	0.200004	0.026771	0.198853	0.198031	0.193429	0.197703
1433	0.19836	0.037455	0.201976	0.197374	0.196388	0.199675
1434	0.200168	0.04748	0.200004	0.19836	0.194251	0.198196
1435	0.197703	0.053233	0.198524	0.19836	0.193429	0.199018
1436	0.200825	0.059643	0.197045	0.201976	0.199511	0.200004
1437	0.200168	0.065888	0.200497	0.197538	0.200661	0.199346
1438	0.201647	0.077722	0.203948	0.200004	0.199346	0.199182
1439	0.195402	0.076407	0.200168	0.198853	0.199511	0.201483
1440	0.19721	0.00294	0.201319	0.200497	0.194744	0.202798
1441	0.202962	0.00672	0.204113	0.200168	0.194251	0.202633
1442	0.199182	0.013294	0.201483	0.199511	0.195237	0.200661
1443	0.199182	0.021841	0.199839	0.19721	0.19458	0.203291
1444	0.202469	0.02973	0.205099	0.204277	0.194251	0.20099
1445	0.202469	0.034825	0.201154	0.198853	0.193758	0.200168
1446	0.198689	0.041564	0.200168	0.199511	0.194416	0.201976
1447	0.20099	0.045508	0.200497	0.201483	0.192279	0.196552
1448	0.199346	0.053726	0.201812	0.19836	0.193265	0.198031
1449	0.199018	0.060629	0.202962	0.199182	0.193265	0.199182
1450	0.195566	0.066217	0.199346	0.19836	0.195237	0.198524
1451	0.198031	0.072791	0.199675	0.200332	0.193758	0.199511
1452	0.195402	0.0769	0.199182	0.197374	0.193922	0.200661
1453	0.197045	0.085283	0.199839	0.200661	0.196552	0.196881
1454	0.192936	0.087748	0.197703	0.198689	0.193101	0.20477
1455	0.194087	0.0935	0.200825	0.198196	0.195895	0.202633
1456	0.199839	0.096788	0.199675	0.199182	0.19458	0.198853
1457	0.198524	0.101554	0.199839	0.196223	0.191293	0.196059
1458	0.199182	0.104841	0.199182	0.197703	0.1908	0.198524
1459	0.20099	0.10632	0.203126	0.200168	0.192936	0.199182
1460	0.199839	0.106978	0.199839	0.199182	0.188334	0.196388
1461	0.201483	0.110922	0.200497	0.200332	0.192279	0.200497
1462	0.20099	0.117496	0.197867	0.20099	0.191293	0.199839
1463	0.201976	0.106649	0.201154	0.199675	0.192443	0.199839
1464	0.198689	0.108457	0.196059	0.202305	0.1908	0.201647
1465	0.197867	0.115853	0.198196	0.199511	0.192115	0.201154
1466	0.201647	0.119469	0.203291	0.201483	0.19195	0.199182
1467	0.199346	0.012144	0.19836	0.199839	0.191457	0.199346
1468	0.20214	0.021676	0.201647	0.200168	0.194087	0.198853
1469	0.200168	0.028908	0.19721	0.203784	0.1908	0.200332
1470	0.197374	0.03729	0.202305	0.199182	0.195566	0.200168
1471	0.19721	0.040742	0.199346	0.19836	0.188499	0.201154
1472	0.199018	0.050439	0.199182	0.199839	0.19195	0.198853
1473	0.196223	0.000146	0.19573	0.196223	0.190307	0.201647
1474	0.199182	0.00672	0.198853	0.197045	0.189814	0.201319
1475	0.200332	0.015102	0.200332	0.197045	0.191786	0.204441
1476	0.198031	0.020362	0.199675	0.200661	0.192279	0.204934
1477	0.203455	0.029401	0.202962	0.199839	0.188499	0.202798
1478	0.200168	0.016088	0.200497	0.201319	0.190307	0.203291
1479	0.200332	0.00146	0.202305	0.201976	0.189485	0.196059
1480	0.198196	0.007213	0.200004	0.198196	0.187841	0.202305
1481	0.203126	0.017567	0.202469	0.202962	0.192443	0.201812
1482	0.197045	0.02595	0.197703	0.200497	0.186691	0.198689
1483	0.200825	0.029894	0.201319	0.194909	0.189156	0.19721
1484	0.196552	0.000967	0.199018	0.199675	0.191293	0.200168
1485	0.201154	0.001954	0.198689	0.19721	0.194416	0.200497
1486	0.198524	0.000474	0.202469	0.200004	0.18817	0.199346
1487	0.197374	0.003104	0.197374	0.198853	0.192936	0.200332
1488	0.200825	0.000639	0.20099	0.199018	0.189485	0.198689
1489	0.203291	-0.000512	0.202633	0.19836	0.191621	0.200661
1490	0.19721	-0.000347	0.199346	0.198524	0.193265	0.202305
1491	0.197045	-0.000512	0.201154	0.200661	0.1908	0.202633
1492	0.198853	0.001789	0.201319	0.197538	0.193758	0.201154
1493	0.199675	-0.000676	0.199346	0.199675	0.191786	0.207564
1494	0.200004	0.005076	0.198853	0.202633	0.188006	0.200168
1495	0.199675	0.003268	0.202798	0.201154	0.190471	0.200661
1496	0.201319	0.00031	0.199511	0.202469	0.1908	0.202633
1497	0.200825	0.000474	0.199018	0.200497	0.192115	0.200332
1498	0.199675	-0.000183	0.203455	0.202469	0.193265	0.199182
1499	0.196881	-1.9e-05	0.201319	0.201154	0.189978	0.200825
1500	0.201154	-0.000183	0.201976	0.202962	0.193922	0.198689
1501	0.198689	-0.000512	0.198524	0.199675	0.196881	0.199839
1502	0.198689	-0.000676	0.202305	0.203126	0.191128	0.199839
1503	0.199018	-0.000183	0.201319	0.19836	0.193429	0.197374
1504	0.19836	0.000146	0.200661	0.20099	0.193429	0.196881
1505	0.202305	0.006391	0.199018	0.199182	0.193758	0.196552
1506	0.200168	0.013952	0.199675	0.19836	0.192115	0.201319
1507	0.19836	0.000474	0.19836	0.198196	0.188992	0.200661
1508	0.201647	0.000803	0.199511	0.194251	0.196717	0.199346
1509	0.199839	-0.000183	0.20099	0.197703	0.192772	0.199511
1510	0.197867	0.000639	0.199346	0.20099	0.193429	0.203126
1511	0.203455	0.000146	0.198853	0.201154	0.195073	0.199182
1512	0.198524	0.002611	0.197538	0.198689	0.195237	0.200332
1513	0.200004	0.003761	0.19836	0.204113	0.192936	0.199346
1514	0.20099	-0.000183	0.195895	0.199346	0.190635	0.20099
1515	0.199839	-0.000183	0.199182	0.201319	0.192443	0.200004
1516	0.200004	-1.9e-05	0.197538	0.200332	0.192443	0.199511
1517	0.198524	0.000146	0.200332	0.201319	0.195566	0.200497
1518	0.198689	0.00031	0.201483	0.200497	0.195237	0.200168
1519	0.20099	0.00409	0.200497	0.202305	0.195895	0.201154
1520	0.199346	0.007049	0.199346	0.201319	0.194251	0.198853
1521	0.199839	0.014938	0.200497	0.196223	0.197045	0.201647
1522	0.199511	0.026443	0.19836	0.19836	0.192115	0.198524
1523	0.199182	0.03088	0.201976	0.196552	0.200661	0.201647
1524	0.200168	0.037948	0.201319	0.196717	0.194416	0.198689
1525	0.201154	0.04633	0.205263	0.196223	0.195237	0.201154
1526	0.197374	0.051096	0.201812	0.20099	0.193758	0.196717
1527	0.19721	0.056356	0.199675	0.200168	0.195895	0.199346
1528	0.202305	0.057342	0.203784	0.200332	0.19458	0.202305
1529	0.201154	0.064245	0.201483	0.201483	0.191621	0.201647
1530	0.202305	0.068354	0.200168	0.201319	0.192936	0.200004
1531	0.195073	0.069504	0.199675	0.204934	0.195402	0.202469
1532	0.203455	0.072791	0.200168	0.205263	0.194909	0.202305
1533	0.199182	0.080845	0.200332	0.199839	0.194087	0.199182
1534	0.200497	0.042385	0.20362	0.20362	0.198196	0.200825
1535	0.198196	0.047809	0.201154	0.200168	0.193594	0.20477
1536	0.200825	0.009185	0.201483	0.200497	0.196552	0.192608
1537	0.19836	-0.000512	0.195895	0.196717	0.19573	0.199839
1538	0.199018	0.005241	0.199839	0.201483	0.199511	0.202469
1539	0.200168	0.012144	0.198196	0.197045	0.197045	0.19721
1540	0.196881	0.02332	0.200332	0.199675	0.197045	0.203291
1541	0.201154	0.017567	0.201483	0.201647	0.197867	0.199182
1542	0.199839	0.00294	0.197867	0.200661	0.201483	0.197374
1543	0.201154	0.012144	0.201319	0.206085	0.19573	0.199346
1544	0.196552	0.01576	0.199511	0.197703	0.198031	0.200661
1545	0.199839	0.023649	0.202305	0.202962	0.200825	0.19836
1546	0.200332	0.029072	0.199511	0.201647	0.195895	0.201976
1547	0.19458	0.035811	0.201483	0.200825	0.196059	0.200332
1548	0.196552	0.034661	0.197703	0.199346	0.194909	0.199675
1549	0.198689	0.042385	0.19836	0.203455	0.200004	0.201812
1550	0.19721	0.001132	0.200497	0.200497	0.201319	0.201319
1551	0.199346	0.008363	0.204113	0.202469	0.197867	0.203291
1552	0.198524	0.012801	0.199839	0.202633	0.19573	0.199839
1553	0.199675	-1.9e-05	0.201154	0.199182	0.199346	0.200497
1554	0.201976	-1.9e-05	0.202469	0.200825	0.196223	0.196059
1555	0.199182	0.00031	0.201647	0.197538	0.195402	0.197703
1556	0.199511	-0.000183	0.20099	0.200497	0.199839	0.198031
1557	0.20214	-0.000512	0.197703	0.199839	0.20099	0.196223
1558	0.201483	-0.000841	0.200661	0.19836	0.195402	0.195895
1559	0.199675	0.003104	0.198853	0.195073	0.197703	0.197538
1560	0.199018	0.000474	0.203291	0.198031	0.19836	0.198689
1561	0.196881	0.002447	0.20099	0.200332	0.196223	0.201812
1562	0.200332	0.00935	0.197867	0.19836	0.197045	0.19836
1563	0.198853	0.014773	0.19836	0.198196	0.197703	0.201812
1564	0.197045	0.023813	0.195237	0.204606	0.197703	0.201154
1565	0.199675	0.006391	0.195237	0.201647	0.197538	0.200661
1566	0.205592	-0.000183	0.198853	0.201647	0.199675	0.199839
1567	0.204606	0.009843	0.19836	0.202305	0.196881	0.204606
1568	0.203784	0.016581	0.20099	0.204934	0.198524	0.200004
1569	0.203948	0.025292	0.201976	0.201647	0.195566	0.201319
1570	0.201647	0.027265	0.201319	0.198524	0.198031	0.201483
1571	0.201319	0.037948	0.20362	0.195895	0.199511	0.201154
1572	0.19836	0.042385	0.200661	0.197867	0.197045	0.200332
1573	0.201812	0.050932	0.201319	0.19836	0.199346	0.200332
1574	0.200497	0.056027	0.199675	0.19458	0.200004	0.199675
1575	0.200004	0.063423	0.203784	0.198853	0.20099	0.197538
1576	0.199018	0.065724	0.203455	0.197703	0.203126	0.201647
1577	0.20214	0.077229	0.204277	0.204277	0.200168	0.199018
1578	0.197374	0.077393	0.197703	0.199675	0.197867	0.199675
1579	0.200825	0.084789	0.202305	0.201976	0.199346	0.200168
1580	0.200004	0.08972	0.19836	0.197703	0.197045	0.200825
1581	0.197867	0.094487	0.198853	0.201483	0.199182	0.200825
1582	0.200497	0.100075	0.199511	0.202962	0.193265	0.198689
1583	0.199182	0.107306	0.200168	0.203948	0.197538	0.200825
1584	0.202798	0.106485	0.200661	0.20362	0.193594	0.197045
1585	0.196552	0.107142	0.202305	0.196388	0.19836	0.199182
1586	0.202305	0.114209	0.202469	0.202633	0.199675	0.199675
1587	0.197374	0.116675	0.199675	0.199182	0.20099	0.202633
1588	0.20099	0.120619	0.203455	0.202633	0.199018	0.199511
1589	0.200332	0.122756	0.200332	0.200168	0.197703	0.200332
1590	0.199346	0.130809	0.201483	0.20099	0.200497	0.194087
1591	0.200661	0.128673	0.202469	0.201154	0.199675	0.200497
1592	0.200332	0.1267	0.200004	0.197374	0.198853	0.201976
1593	0.199182	0.13574	0.199839	0.200497	0.199675	0.200168
1594	0.201483	0.136398	0.200661	0.199182	0.200497	0.199018
1595	0.201154	0.139192	0.19721	0.19721	0.196388	0.201976
1596	0.201483	0.141328	0.197867	0.196717	0.200168	0.204441
1597	0.201319	0.146752	0.197703	0.202798	0.200004	0.200661
1598	0.199511	0.148231	0.197374	0.199675	0.200497	0.205099
1599	0.200825	0.149217	0.199182	0.202305	0.20099	0.201483
1600	0.197374	0.150039	0.198689	0.203784	0.198196	0.199018
1601	0.198196	0.152505	0.20099	0.197538	0.195073	0.19573
1602	0.199675	0.156449	0.203291	0.199839	0.200004	0.202633
1603	0.197703	0.155134	0.20099	0.202305	0.199346	0.201154
1604	0.197867	0.156613	0.201154	0.198524	0.196552	0.201154
1605	0.200004	0.159408	0.201483	0.200497	0.195073	0.200168
1606	0.200497	0.159079	0.200497	0.199182	0.202798	0.202469
1607	0.202305	0.160722	0.200332	0.199675	0.202798	0.198689
1608	0.199182	0.163188	0.198524	0.201812	0.197538	0.200497
1609	0.201812	0.168118	0.203455	0.203455	0.201647	0.199346
1610	0.199346	0.16779	0.195402	0.19573	0.20362	0.197867
1611	0.200661	0.167625	0.198689	0.200168	0.199346	0.201154
1612	0.198853	0.169433	0.195237	0.198853	0.201154	0.200004
1613	0.198689	0.172227	0.197867	0.198196	0.200661	0.201483
1614	0.200497	0.167625	0.199346	0.201483	0.19836	0.203291
1615	0.201154	0.171734	0.195566	0.201647	0.199675	0.200168
1616	0.19836	0.174528	0.197374	0.202305	0.197867	0.201812
1617	0.194087	0.173871	0.197867	0.196388	0.198524	0.203784
1618	0.198853	0.175679	0.199018	0.201319	0.19836	0.203455
1619	0.19721	0.177158	0.199675	0.201319	0.200497	0.206578
1620	0.202469	0.180445	0.204441	0.199675	0.197867	0.202305
1621	0.200497	0.177815	0.201154	0.197045	0.199346	0.203126
1622	0.200661	0.178966	0.202305	0.200168	0.199839	0.203455
1623	0.20099	0.177651	0.200168	0.202798	0.199346	0.200168
1624	0.200825	0.180281	0.202305	0.197703	0.200825	0.202469
1625	0.199839	0.176829	0.202305	0.201319	0.195566	0.202962
1626	0.200497	0.181924	0.200004	0.20099	0.199675	0.200661
1627	0.200825	0.182253	0.195073	0.19836	0.19836	0.203455
1628	0.198524	0.180938	0.197867	0.200168	0.201976	0.201812
1629	0.199018	0.185376	0.199675	0.201647	0.199675	0.202798
1630	0.198031	0.187184	0.196552	0.199675	0.203455	0.205427
1631	0.199839	0.186362	0.203291	0.203784	0.201483	0.203291
1632	0.199346	0.188992	0.198524	0.202962	0.200332	0.196717
1633	0.201976	0.193594	0.202305	0.199018	0.199018	0.201647
1634	0.198689	0.185376	0.20214	0.204606	0.196552	0.203948
1635	0.198689	0.190471	0.203126	0.199346	0.200168	0.199018
1636	0.198853	0.187019	0.201647	0.200168	0.199346	0.206578
1637	0.203455	0.187513	0.199839	0.202469	0.193758	0.201976
1638	0.202305	0.187841	0.201647	0.201154	0.197867	0.204113
1639	0.20477	0.190142	0.200332	0.203455	0.199346	0.202962
1640	0.194416	0.184883	0.199511	0.201154	0.199675	0.203126
1641	0.20362	0.190142	0.202798	0.205427	0.202962	0.201812
1642	0.199346	0.186855	0.199018	0.200497	0.20099	0.204441
1643	0.201812	0.188827	0.20099	0.196388	0.200004	0.200332
1644	0.195073	0.188992	0.199182	0.200332	0.201154	0.202469
1645	0.193922	0.189814	0.20099	0.205592	0.200661	0.201976
1646	0.197867	0.193758	0.200825	0.199675	0.200825	0.202633
1647	0.198524	0.18932	0.197045	0.200332	0.202633	0.204606
1648	0.197045	0.192772	0.198031	0.200661	0.200332	0.198196
1649	0.199182	0.190635	0.199511	0.199346	0.200661	0.205756
1650	0.200661	0.194416	0.200497	0.198853	0.201812	0.20099
1651	0.195402	0.192608	0.198196	0.199839	0.200332	0.206414
1652	0.200661	0.198853	0.201319	0.203784	0.196388	0.201812
1653	0.197703	0.193922	0.200497	0.199675	0.199018	0.207564
1654	0.197867	0.19458	0.200825	0.202305	0.201154	0.199675
1655	0.198196	0.193101	0.199675	0.198853	0.198853	0.200168
1656	0.202962	0.194251	0.201154	0.205427	0.194416	0.205263
1657	0.202305	0.192279	0.201812	0.201483	0.196717	0.201647
1658	0.200497	0.189978	0.20099	0.201976	0.205592	0.201976
1659	0.200825	0.18932	0.199839	0.20362	0.193594	0.199018
1660	0.199182	0.191128	0.198689	0.203126	0.200168	0.202305
1661	0.201976	0.192279	0.199675	0.201483	0.200168	0.201976
1662	0.198853	0.192443	0.196552	0.202962	0.201812	0.201812
1663	0.200168	0.19836	0.200168	0.203126	0.199182	0.200168
1664	0.199511	0.192443	0.201647	0.201319	0.201483	0.206414
1665	0.195895	0.196059	0.202633	0.199182	0.198689	0.199511
1666	0.196552	0.19573	0.206249	0.200825	0.20099	0.203948
1667	0.199839	0.198196	0.199675	0.199182	0.201319	0.201976
1668	0.203455	0.19573	0.201812	0.198524	0.197538	0.204113
1669	0.201647	0.197045	0.197867	0.198196	0.201154	0.204113
1670	0.198031	0.195073	0.199018	0.198524	0.199675	0.202305
1671	0.203126	0.193429	0.20099	0.202305	0.201483	0.203455
1672	0.199018	0.197045	0.200497	0.200004	0.198689	0.20362
1673	0.199675	0.196552	0.201154	0.205099	0.201812	0.205427
1674	0.200332	0.198524	0.198853	0.199675	0.200497	0.199675
1675	0.202305	0.196717	0.202798	0.203455	0.202305	0.212824
1676	0.198524	0.196717	0.199018	0.203948	0.201483	0.200497
1677	0.20099	0.196059	0.200004	0.201812	0.201154	0.204277
1678	0.200497	0.19721	0.20099	0.19573	0.199511	0.201976
1679	0.200497	0.200661	0.202798	0.198196	0.199346	0.206907
1680	0.200004	0.196552	0.198689	0.19721	0.19836	0.200825
1681	0.198196	0.196881	0.201154	0.194087	0.197703	0.20477
1682	0.20099	0.19573	0.201483	0.200661	0.198524	0.206249
1683	0.197374	0.20477	0.199839	0.197703	0.199839	0.204934
1684	0.201154	0.199839	0.202798	0.203455	0.20099	0.200332
1685	0.197538	0.199018	0.201319	0.199182	0.199675	0.203126
1686	0.202305	0.199839	0.203126	0.199018	0.202962	0.209701
1687	0.199182	0.19721	0.19836	0.199675	0.198853	0.199346
1688	0.200168	0.199018	0.203455	0.20099	0.198196	0.204441
1689	0.202305	0.197374	0.199839	0.193429	0.197867	0.202798
1690	0.196552	0.202798	0.203948	0.200497	0.199182	0.203291
1691	0.199346	0.196552	0.200332	0.202798	0.198031	0.201976
1692	0.201154	0.196059	0.199182	0.201483	0.203455	0.203455
1693	0.201154	0.200004	0.202633	0.203291	0.200332	0.203784
1694	0.203455	0.195402	0.200825	0.202305	0.201647	0.204934
1695	0.206578	0.200332	0.202305	0.204277	0.202962	0.20362
1696	0.19721	0.195566	0.199018	0.205756	0.199675	0.203291
1697	0.199675	0.197867	0.204934	0.199018	0.201812	0.201812
1698	0.196552	0.196388	0.203455	0.200004	0.201647	0.203455
1699	0.198196	0.198524	0.202469	0.202469	0.203126	0.200825
1700	0.204277	0.198031	0.201647	0.189156	0.199511	0.202962
1701	0.199346	0.204441	0.203948	0.199675	0.201812	0.204441
1702	0.19573	0.197538	0.198524	0.199839	0.19836	0.205099
1703	0.199675	0.19573	0.20099	0.200825	0.202469	0.208222
1704	0.197045	0.200004	0.198689	0.198031	0.197374	0.203948
1705	0.199018	0.192608	0.199839	0.200661	0.197867	0.203948
1706	0.199182	0.19458	0.198524	0.201647	0.203291	0.203948
1707	0.200661	0.193594	0.201319	0.206249	0.199675	0.199839
1708	0.199018	0.190471	0.202469	0.200332	0.201812	0.193429
1709	0.202633	0.194416	0.20362	0.202962	0.200825	0.203948
1710	0.200661	0.193101	0.200004	0.205921	0.204441	0.201319
1711	0.20099	0.191128	0.203291	0.197867	0.200497	0.205427
1712	0.201647	0.194416	0.201812	0.201154	0.199839	0.202469
1713	0.199182	0.1908	0.198196	0.199018	0.202633	0.203784
1714	0.199839	0.192772	0.20099	0.200825	0.19836	0.202962
1715	0.200661	0.19195	0.197374	0.201319	0.200497	0.204934
1716	0.204113	0.193429	0.203948	0.202469	0.198689	0.205921
1717	0.201154	0.193594	0.20099	0.200332	0.200825	0.201812
1718	0.202798	0.195073	0.205756	0.203455	0.200661	0.204441
1719	0.199182	0.19195	0.202469	0.19836	0.200825	0.191293
1720	0.199675	0.197374	0.202469	0.196717	0.20477	0.203291
1721	0.198524	0.19458	0.202962	0.200661	0.199675	0.201976
1722	0.19836	0.197538	0.200004	0.200004	0.200497	0.202962
1723	0.200004	0.196223	0.203948	0.203948	0.200825	0.202962
1724	0.197374	0.195073	0.195402	0.199675	0.201483	0.205263
1725	0.20099	0.200332	0.203291	0.201319	0.199018	0.204113
1726	0.199839	0.199182	0.20214	0.202962	0.201812	0.206742
1727	0.199511	0.196881	0.201976	0.204441	0.198524	0.203455
1728	0.199346	0.194416	0.200825	0.203784	0.198853	0.20362
1729	0.20099	0.198196	0.206249	0.198689	0.199511	0.202469
1730	0.20099	0.194744	0.202633	0.19721	0.199675	0.193429
1731	0.201976	0.198689	0.204441	0.200004	0.201976	0.20362
1732	0.202798	0.195895	0.203291	0.199675	0.196881	0.203455
1733	0.200168	0.199346	0.200661	0.200004	0.200661	0.206085
1734	0.202469	0.189814	0.201319	0.199182	0.201976	0.205592
1735	0.199675	0.195895	0.198689	0.198689	0.203784	0.202633
1736	0.199018	0.199675	0.200004	0.199511	0.200825	0.206414
1737	0.200168	0.198031	0.201812	0.201319	0.204606	0.206578
1738	0.198689	0.198524	0.199346	0.199182	0.204277	0.202633
1739	0.201154	0.198689	0.198689	0.203126	0.201319	0.208222
1740	0.196059	0.201976	0.202633	0.201647	0.204277	0.202798
1741	0.199346	0.196717	0.200825	0.202798	0.201647	0.199675
1742	0.199511	0.204277	0.203784	0.203784	0.200004	0.201647
1743	0.198853	0.204113	0.201154	0.201976	0.20099	0.205263
1744	0.200168	0.199511	0.202633	0.204606	0.199346	0.202633
1745	0.202305	0.184718	0.209043	0.196881	0.198853	0.20477
1746	0.199346	0.200497	0.201812	0.201647	0.200332	0.205427
1747	0.201812	0.193429	0.202305	0.199511	0.199511	0.202798
1748	0.204113	0.200497	0.202633	0.200661	0.202305	0.204934
1749	0.200004	0.197538	0.199675	0.201319	0.195566	0.20362
1750	0.200825	0.196223	0.201483	0.199511	0.200497	0.205921
1751	0.198853	0.197538	0.201647	0.199511	0.200825	0.202798
1752	0.200168	0.19721	0.201154	0.200332	0.199839	0.200825
1753	0.200004	0.198689	0.20099	0.200825	0.201154	0.198196
1754	0.199675	0.199511	0.20099	0.200004	0.203948	0.199675
1755	0.200497	0.199511	0.199511	0.200332	0.205263	0.197538
1756	0.199018	0.192936	0.203784	0.197703	0.204606	0.202633
1757	0.200332	0.201319	0.199675	0.200168	0.201647	0.200168
1758	0.200497	0.198853	0.200332	0.199675	0.201812	0.201812
1759	0.201483	0.201483	0.202633	0.199675	0.205921	0.205263
1760	0.198689	0.198031	0.199346	0.198524	0.20099	0.202962
1761	0.200661	0.198196	0.20099	0.200332	0.201319	0.203784
1762	0.200004	0.196552	0.200004	0.199182	0.200497	0.204934
1763	0.202798	0.196388	0.203455	0.201483	0.198853	0.202469
1764	0.207235	0.19458	0.201483	0.201154	0.197538	0.201976
1765	0.201483	0.195237	0.196881	0.20099	0.201976	0.199346
1766	0.203291	0.19721	0.195073	0.201647	0.198524	0.205263
1767	0.205592	0.186691	0.201483	0.198196	0.199018	0.20099
1768	0.19836	0.196717	0.199182	0.199018	0.200332	0.201976
1769	0.201483	0.193922	0.201319	0.201483	0.201154	0.203948
1770	0.201154	0.196223	0.20099	0.199839	0.200825	0.203784
1771	0.199675	0.196552	0.199675	0.198196	0.206742	0.204277
1772	0.198689	0.197867	0.199511	0.197703	0.201647	0.201319
1773	0.200497	0.197538	0.200825	0.201812	0.203455	0.203126
1774	0.201812	0.195566	0.200004	0.199018	0.204934	0.203291
1775	0.198689	0.197538	0.20099	0.196223	0.202305	0.20362
1776	0.201483	0.197374	0.203126	0.202469	0.198031	0.202469
1777	0.19836	-0.000183	0.200168	0.200004	0.202305	0.203784
1778	0.201319	-0.001827	0.196552	0.201976	0.199182	0.204606
1779	0.198853	-1.9e-05	0.206085	0.201154	0.198689	0.204934
1780	0.202469	0.008199	0.205099	0.205592	0.199675	0.203291
1781	0.200168	0.002282	0.203126	0.200497	0.199182	0.202962
1782	0.201319	0.011322	0.198524	0.203291	0.198524	0.203784
1783	0.200497	0.015924	0.200004	0.199346	0.19458	0.196552
1784	0.199675	0.0271	0.202469	0.199511	0.197703	0.200825
1785	0.20214	0.03088	0.204113	0.201976	0.200332	0.201812
1786	0.200825	0.040084	0.200004	0.201154	0.202305	0.202962
1787	0.199346	0.049453	0.200497	0.201154	0.200004	0.20477
1788	0.196717	0.054055	0.199182	0.199675	0.205756	0.201319
1789	0.201319	0.059807	0.189485	0.20214	0.203784	0.200332
1790	0.198524	0.066381	0.200168	0.197867	0.203948	0.202305
1791	0.200825	0.076243	0.201483	0.204113	0.203784	0.202798
1792	0.199182	0.073613	0.19836	0.202305	0.200497	0.203784
1793	0.20099	0.078708	0.202633	0.198031	0.201812	0.202798
1794	0.198524	0.073284	0.200332	0.199675	0.200661	0.202469
1795	0.195402	0.080187	0.200497	0.200332	0.200168	0.200825
1796	0.201812	0.084296	0.202305	0.198853	0.201154	0.204441
1797	0.198853	0.090542	0.198524	0.201319	0.204934	0.202305
1798	0.20214	0.093172	0.198524	0.200825	0.201154	0.201483
1799	0.203291	0.096952	0.202305	0.20214	0.202798	0.201976
1800	0.19836	0.103362	0.191457	0.200661	0.198524	0.198031
1801	0.200825	0.107635	0.198689	0.201319	0.200825	0.199839
1802	0.197374	0.078873	0.19721	0.20214	0.200332	0.200168
1803	0.199182	0.084461	0.200497	0.200825	0.201812	0.205427
1804	0.200332	0.093172	0.199675	0.200332	0.203455	0.204934
1805	0.199018	0.090871	0.198524	0.198031	0.202633	0.203455
1806	0.199346	0.099582	0.203948	0.199839	0.20099	0.203126
1807	0.201154	0.097938	0.201319	0.199839	0.200497	0.202798
1808	0.202633	0.101718	0.20362	0.201647	0.199182	0.200661
1809	0.199346	0.101554	0.199839	0.199182	0.1908	0.199346
1810	0.199675	0.108293	0.200661	0.197538	0.197045	0.200661
1811	0.198689	0.112894	0.195073	0.197374	0.196717	0.204441
1812	0.199346	0.113059	0.195895	0.199346	0.197867	0.202962
1813	0.200004	0.119797	0.199346	0.198524	0.194251	0.204277
1814	0.200661	0.119633	0.200825	0.199839	0.19721	0.204606
1815	0.197045	0.124564	0.204277	0.202305	0.185705	0.202469
1816	0.201483	0.128015	0.197374	0.199839	0.190142	0.20362
1817	0.19573	0.127687	0.200004	0.202305	0.189649	0.202633
1818	0.202962	0.131796	0.20362	0.200168	0.190142	0.203126
1819	0.204934	0.136562	0.203948	0.203455	0.189814	0.204441
1820	0.193922	0.140013	0.198853	0.199839	0.190635	0.201976
1821	0.200332	0.144615	0.201154	0.201319	0.193101	0.201647
1822	0.196059	0.143301	0.200825	0.200661	0.19195	0.199839
1823	0.199182	0.148889	0.201976	0.202469	0.193758	0.201319
1824	0.198524	0.146588	0.199675	0.19573	0.192443	0.203784
1825	0.198689	0.152998	0.201812	0.195237	0.194744	0.200825
1826	0.199018	0.152669	0.200168	0.194087	0.191293	0.203126
1827	0.197538	0.156285	0.201154	0.199346	0.196717	0.203126
1828	0.198853	0.157764	0.201647	0.199675	0.19573	0.201812
1829	0.199346	0.159079	0.203455	0.203126	0.196717	0.20477
1830	0.199839	0.163023	0.202305	0.199182	0.195566	0.203455
1831	0.199182	0.160229	0.201812	0.202305	0.192608	0.203784
1832	0.198689	0.161873	0.204606	0.201483	0.194909	0.20099
1833	0.196881	0.159901	0.205263	0.202962	0.195237	0.204606
1834	0.197374	0.166639	0.200168	0.202305	0.190471	0.198853
1835	0.197703	0.16779	0.200332	0.200332	0.195073	0.203291
1836	0.19721	0.167461	0.202962	0.204934	0.197374	0.202305
1837	0.197703	0.170255	0.19836	0.201976	0.195895	0.201976
1838	0.199346	0.171077	0.205427	0.201154	0.198853	0.202469
1839	0.196552	0.172392	0.201647	0.199182	0.19721	0.200497
1840	0.200004	0.175843	0.20214	0.201319	0.196717	0.200661
1841	0.197045	0.176501	0.202305	0.196552	0.196552	0.201483
1842	0.198196	0.176665	0.202633	0.197538	0.201154	0.200004
1843	0.202633	0.177158	0.200168	0.197538	0.196388	0.202798
1844	0.200825	0.17535	0.201647	0.200825	0.198196	0.204606
1845	0.196223	0.176994	0.199511	0.198524	0.196717	0.200004
1846	0.196552	0.177322	0.198689	0.20099	0.199182	0.205263
1847	0.196223	0.17913	0.195895	0.200004	0.197538	0.20099
1848	0.195402	0.179788	0.198524	0.201154	0.196881	0.202633
1849	0.19836	0.183239	0.201976	0.205592	0.195566	0.200004
1850	0.195566	0.182911	0.197374	0.19836	0.196717	0.200004
1851	0.19836	0.185376	0.200332	0.20477	0.18061	0.204606
1852	0.194087	0.184061	0.20099	0.201319	0.158914	0.203455
1853	0.199182	0.18439	0.200661	0.204113	0.156613	0.204113
1854	0.195566	0.183897	0.200004	0.199839	0.148067	0.203126
1855	0.201647	0.185376	0.202962	0.201812	0.151683	0.196881
1856	0.19458	0.18554	0.199511	0.200497	0.152669	0.198031
1857	0.201483	0.183075	0.20362	0.199018	0.157271	0.199839
1858	0.198196	0.18932	0.200168	0.198031	0.157928	0.199182
1859	0.197538	0.185705	0.201812	0.199675	0.145437	0.200497
1860	0.200497	0.190635	0.197867	0.201154	0.125057	0.198524
1861	0.199346	0.18932	0.199675	0.201483	0.135083	0.202469
1862	0.20099	0.186198	0.196717	0.201812	0.129659	0.201319
1863	0.198031	0.187677	0.198853	0.20099	0.132617	0.201812
1864	0.194251	0.190471	0.198853	0.203126	0.136891	0.198524
1865	0.195237	0.187513	0.203126	0.200004	0.135576	0.20362
1866	0.201647	0.189156	0.20214	0.202962	0.139849	0.20099
1867	0.199018	0.190142	0.198853	0.200661	0.141821	0.202305
1868	0.19836	0.192279	0.20099	0.203126	0.145108	0.202962
1869	0.195895	0.193101	0.200661	0.199839	0.146423	0.199675
1870	0.195895	0.192279	0.200825	0.197538	0.14856	0.202469
1871	0.198689	0.192608	0.204113	0.20099	0.151847	0.201647
1872	0.199018	0.193101	0.203126	0.198196	0.154641	0.200497
1873	0.203455	0.191457	0.199182	0.198853	0.15612	0.199346
1874	0.202305	0.194251	0.203126	0.199182	0.157764	0.201483
1875	0.200004	0.194909	0.20214	0.194416	0.157271	0.198689
1876	0.200497	0.193758	0.20214	0.199182	0.160722	0.201483
1877	0.202962	0.195237	0.201483	0.20099	0.16253	0.198689
1878	0.196552	0.195895	0.198196	0.199346	0.165489	0.201154
1879	0.20099	0.194416	0.196059	0.201483	0.09991	0.19573
1880	0.197867	0.19458	0.196717	0.199839	0.074928	0.198524
1881	0.199511	0.196223	0.204277	0.204606	0.076572	0.200661
1882	0.197374	0.190964	0.199346	0.20099	0.084954	0.201154
1883	0.201154	0.192608	0.202633	0.200825	0.090049	0.203784
1884	0.198524	0.194087	0.199675	0.201812	0.092021	0.204277
1885	0.19836	0.198853	0.199675	0.204606	0.097116	0.201976
1886	0.199511	0.196717	0.201647	0.205099	0.098267	0.202798
1887	0.200497	0.197045	0.201483	0.207071	0.000146	0.201483
1888	0.200825	0.196059	0.200168	0.202962	-0.000183	0.198853
1889	0.201647	0.198196	0.202962	0.202962	0.005076	0.199511
1890	0.200661	0.195237	0.201154	0.201154	0.004748	0.200497
1891	0.201154	0.197045	0.202962	0.198524	0.004255	0.199018
1892	0.199182	0.197374	0.206907	0.199346	-0.000841	0.199018
1893	0.199182	0.198031	0.203455	0.19836	0.000146	0.200168
1894	0.202633	0.197538	0.203455	0.200332	-0.000347	0.198031
1895	0.202469	0.193101	0.200168	0.202469	-0.000512	0.200332
1896	0.201483	0.200661	0.203455	0.201976	-0.000512	0.197374
1897	0.196388	0.195073	0.19836	0.199675	-0.000512	0.19836
1898	0.196388	0.200332	0.202469	0.203784	-0.000347	0.197045
1899	0.193429	0.197538	0.196223	0.203126	-1.9e-05	0.200004
1900	0.197867	0.20214	0.201483	0.20099	-1.9e-05	0.205427
1901	0.195073	0.198031	0.200661	0.203126	0.000803	0.202962
1902	0.197045	0.199346	0.200004	0.202469	0.00031	0.200332
1903	0.19721	0.201976	0.201647	0.203126	0.000146	0.201812
1904	0.199018	0.199675	0.201483	0.201319	-0.000183	0.201812
1905	0.201483	0.198196	0.200825	0.199346	-0.000347	0.195237
1906	0.203126	0.196881	0.200661	0.200661	-0.000512	0.205427
1907	0.201319	0.200332	0.203455	0.20214	-0.000512	0.198031
1908	0.201319	0.198689	0.201812	0.198524	-0.000512	0.19721
1909	0.202962	0.20099	0.202633	0.200332	-0.000183	0.199675
1910	0.199675	0.194251	0.198853	0.202798	0.000967	0.200004
1911	0.204606	0.198196	0.201319	0.200497	0.00031	0.197045
1912	0.197703	0.198031	0.199511	0.199839	0.00031	0.199675
1913	0.196881	0.195402	0.203784	0.200168	0.000474	0.195895
1914	0.201483	0.199675	0.198196	0.200004	-1.9e-05	0.199511
1915	0.199675	0.199182	0.199675	0.199346	-0.002977	0.198524
1916	0.199839	0.198524	0.197703	0.194744	0.005734	0.199675
1917	0.205099	0.204934	0.200168	0.200661	0.01428	0.200004
1918	0.197538	0.203126	0.200497	0.200825	0.011322	0.201647
1919	0.200168	0.201483	0.20477	0.199018	-0.000512	0.198689
1920	0.20362	0.20099	0.19836	0.198689	0.002611	0.198524
1921	0.203291	0.200332	0.204934	0.202633	0.012472	0.201319
1922	0.20214	0.201483	0.204277	0.19836	0.018225	0.200004
1923	0.200168	0.200497	0.203455	0.199182	0.028744	0.200825
1924	0.203291	0.199182	0.202633	0.199018	0.034003	0.19836
1925	0.201647	0.197703	0.202305	0.203126	0.041892	0.20099
1926	0.202305	0.20099	0.201483	0.200168	0.049288	0.19836
1927	0.200825	0.197703	0.20099	0.198689	0.051261	0.201319
1928	0.202798	0.199675	0.20214	0.201319	0.059314	0.198524
1929	0.199839	0.200332	0.201483	0.199182	0.065888	0.203126
1930	0.19836	0.199675	0.200825	0.202305	0.070819	0.198853
1931	0.202305	0.199182	0.200661	0.200004	0.07312	0.200332
1932	0.200332	0.201319	0.201483	0.203784	0.078708	0.195237
1933	0.198031	0.201812	0.202633	0.198853	0.085776	0.200332
1934	0.197045	0.197867	0.20362	0.200497	0.091857	0.202469
1935	0.197867	0.198853	0.196881	0.197538	0.09498	0.200661
1936	0.199839	0.200168	0.201154	0.201154	0.101061	0.203784
1937	0.201319	0.200168	0.200825	0.201483	0.103526	0.199346
1938	0.202962	0.200168	0.201483	0.201812	0.106978	0.200497
1939	0.203455	0.197703	0.201319	0.201647	0.105498	0.198853
1940	0.201812	0.199182	0.202305	0.203126	0.114867	0.201976
1941	0.205592	0.203455	0.19721	0.203455	0.113881	0.198689
1942	0.201319	0.199346	0.198524	0.19836	0.118318	0.199346
1943	0.207071	0.200168	0.202633	0.205921	0.127194	0.195073
1944	0.199018	0.199346	0.20099	0.202469	0.12555	0.198031
1945	0.201483	0.201647	0.201154	0.200332	0.127851	0.198031
1946	0.198853	0.199511	0.200661	0.201812	0.13459	0.198196
1947	0.202469	0.201647	0.200004	0.206085	0.138041	0.197703
1948	0.199018	0.199675	0.199675	0.196223	0.140671	0.19836
1949	0.20099	0.200661	0.201483	0.20099	0.142807	0.202469
1950	0.199182	0.20099	0.197867	0.201483	0.144122	0.196388
1951	0.197703	0.200825	0.201812	0.200497	0.14478	0.200168
1952	0.19836	0.20477	0.197867	0.20214	0.144944	0.199182
1953	0.199346	0.20362	0.201976	0.199839	0.147409	0.19721
1954	0.208057	0.203784	0.201483	0.200825	0.147903	0.195402
1955	0.197538	0.202962	0.200661	0.199018	0.153162	0.199346
1956	0.201319	0.200497	0.202469	0.202798	0.153819	0.199182
1957	0.200332	0.199182	0.20099	0.200661	0.155956	0.198031
1958	0.200332	0.200497	0.20362	0.202305	0.159572	0.197703
1959	0.202305	0.198524	0.199018	0.201319	0.16253	0.197703
1960	0.204441	0.198853	0.203784	0.20099	0.16401	0.199018
1961	0.19836	0.195237	0.199839	0.201319	0.161544	0.200332
1962	0.198853	0.200004	0.200332	0.202798	0.159901	0.198524
1963	0.201319	0.19721	0.200168	0.202469	0.169105	0.198031
1964	0.204934	0.198524	0.201319	0.201483	0.167461	0.196881
1965	0.210194	0.199182	0.198196	0.200168	0.167461	0.196881
1966	0.198689	0.203455	0.200825	0.20362	0.171241	0.199018
1967	0.201812	0.200825	0.200004	0.199675	0.170255	0.198031
1968	0.20099	0.201483	0.201976	0.199675	0.173049	0.199182
1969	0.199018	0.200497	0.20362	0.201319	0.173871	0.199018
1970	0.19836	0.200661	0.202305	0.196717	0.175679	0.199182
1971	0.202469	0.200497	0.206249	0.199839	0.176008	0.199018
1972	0.197045	0.199839	0.19721	0.201483	0.174528	0.201976
1973	0.200661	0.204606	0.201812	0.200332	0.178144	0.200004
1974	0.200004	0.199182	0.205099	0.200825	0.179459	0.200825
1975	0.200168	0.200004	0.200004	0.200661	0.176994	0.196881
1976	0.203948	0.199511	0.201647	0.200332	0.17798	0.199675
1977	0.198853	0.199018	0.205756	0.203455	0.178144	0.19573
1978	0.200168	0.199346	0.199346	0.198689	0.176994	0.197703
1979	0.203126	0.200004	0.202962	0.202469	0.182746	0.19836
1980	0.20099	0.199675	0.199182	0.20477	0.186033	0.196881
1981	0.201976	0.200004	0.203126	0.201319	0.18439	0.200004
1982	0.201483	0.200497	0.200004	0.199018	0.180938	0.197374
1983	0.200332	0.203948	0.199675	0.200497	0.184225	0.197703
1984	0.200168	0.20099	0.200661	0.202305	0.184061	0.198853
1985	0.198524	0.201812	0.203291	0.196552	0.192608	0.199511
1986	0.201647	0.200168	0.201812	0.200004	0.184225	0.195073
1987	0.201483	0.200332	0.201483	0.19836	0.18554	0.201647
1988	0.196388	0.200661	0.204934	0.198524	0.186526	0.197867
1989	0.197703	0.199018	0.200168	0.200332	0.183568	0.200332
1990	0.196881	0.201647	0.200497	0.199675	0.186362	0.196223
1991	0.201483	0.198853	0.205921	0.199018	0.18932	0.199839
1992	0.200497	0.201319	0.207235	0.202962	0.189814	0.198689
1993	0.200497	0.199511	0.203126	0.199182	0.187677	0.19836
1994	0.200004	0.200661	0.20214	0.203784	0.188499	0.199675
1995	0.201483	0.197867	0.201812	0.201812	0.186362	0.196223
1996	0.201154	0.20099	0.201647	0.20362	0.196059	0.200168
1997	0.197867	0.197703	0.20099	0.205592	0.18176	0.196223
1998	0.196388	0.197045	0.202633	0.200004	0.17272	0.200332
1999	0.201154	0.199675	0.202633	0.201483	0.17157	0.198031
2000	0.197703	0.199018	0.201647	0.197045	0.180938	0.195402
2001	0.201154	0.200168	0.201483	0.201319	0.177322	0.193922
2002	0.199839	0.200168	0.199018	0.19836	0.178966	0.199839
2003	0.201154	0.20362	0.203126	0.198524	0.180281	0.197045
2004	0.201319	0.199018	0.20099	0.198524	0.176665	0.200004
2005	0.199182	0.201154	0.199018	0.198853	0.182417	0.197703
2006	0.200332	0.201483	0.201319	0.203948	0.180445	0.197374
2007	0.202962	0.200497	0.203126	0.199018	0.183075	0.195237
2008	0.199018	0.202798	0.200168	0.200661	0.179952	0.196388
2009	0.188499	0.198524	0.203291	0.202962	0.183075	0.194909
2010	0.198524	0.198853	0.199675	0.20214	0.18061	0.201154
2011	0.20477	0.200004	0.199675	0.203126	0.182582	0.201976
2012	0.200497	0.197703	0.19836	0.20099	0.182582	0.195895
2013	0.205427	0.198196	0.201483	0.202633	0.192279	0.202305
2014	0.204606	0.198196	0.202633	0.202962	0.185869	0.198689
2015	0.201483	0.199511	0.200497	0.199182	0.186362	0.199346
2016	0.203455	0.201154	0.197703	0.199675	0.018225	0.200332
2017	0.202469	0.196552	0.201812	0.200332	0.0105	0.199018
2018	0.202305	0.203784	0.202469	0.200661	0.00409	0.198196
2019	0.200497	0.199511	0.199182	0.201154	0.011322	0.200168
2020	0.192443	0.201483	0.201483	0.200168	0.018882	0.197703
2021	0.195566	0.202305	0.200661	0.196059	0.028579	0.198689
2022	0.202798	0.202305	0.206249	0.199839	0.035647	0.198689
2023	0.201647	0.199839	0.200332	0.199675	0.041892	0.197867
2024	0.200332	0.201976	0.206907	0.19836	0.050932	0.20099
2025	0.199675	0.201319	0.200497	0.197374	0.058492	0.202305
2026	0.20099	0.201976	0.202469	0.200661	0.061944	0.199839
2027	0.199182	0.200661	0.199839	0.201812	0.065231	0.198196
2028	0.201154	0.201976	0.20214	0.20362	0.072956	0.201976
2029	0.202962	0.198196	0.200332	0.201812	0.060958	0.19721
2030	0.201154	0.202633	0.202633	0.202469	0.080845	0.199346
2031	0.194744	0.20099	0.202469	0.204113	0.086762	0.199675
2032	0.198689	0.198689	0.201976	0.203291	0.087912	0.200004
2033	0.200332	0.201319	0.201976	0.200004	0.093829	0.201154
2034	0.199675	0.202469	0.199839	0.201647	0.09876	0.197867
2035	0.203126	0.203948	0.201154	0.201647	0.106156	0.198031
2036	0.199675	0.200661	0.200497	0.201483	0.110265	0.201483
2037	0.202633	0.201319	0.201812	0.201319	0.112401	0.196388
2038	0.20099	0.199839	0.199839	0.20362	0.114867	0.199346
2039	0.205263	0.200661	0.204441	0.204441	0.11651	0.197867
2040	0.200168	0.202962	0.202469	0.198196	0.109772	0.19836
2041	0.201154	0.202633	0.204606	0.201647	0.124893	0.199511
2042	0.196223	0.200825	0.195402	0.200497	0.126043	0.195895
2043	0.199182	0.203948	0.198853	0.202469	0.131631	0.199675
2044	0.201976	0.200661	0.199182	0.201154	0.131302	0.200004
2045	0.197867	0.199182	0.199182	0.202305	0.135247	0.200332
2046	0.20362	0.200661	0.199675	0.201812	0.140178	0.198524
2047	0.199839	0.19721	0.203126	0.202633	0.141657	0.201812
2048	0.202305	0.197703	0.201812	0.203126	0.141164	0.201976
2049	0.201976	0.197703	0.200661	0.202469	0.144944	0.197867
2050	0.202305	0.198031	0.204934	0.201976	0.145766	0.196881
2051	0.198853	0.199675	0.201647	0.201319	0.143794	0.199018
2052	0.201976	0.199675	0.205263	0.199511	0.151354	0.19836
2053	0.200332	0.199839	0.198853	0.199675	0.151025	0.19836
2054	0.202305	0.200497	0.204606	0.014773	0.14856	0.199182
2055	0.201154	0.200497	0.200004	0.017896	0.15234	0.197045
2056	0.199839	0.200004	0.201976	0.000474	0.157107	0.196717
2057	0.199182	0.200168	0.200168	0.004583	0.155134	0.197374
2058	0.200168	0.200825	0.201647	0.013459	0.16138	0.202633
2059	0.199839	0.199675	0.199675	0.021512	0.155792	0.200825
2060	0.19836	0.198853	0.194416	0.029566	0.162695	0.199018
2061	0.20214	0.202798	0.198689	0.040742	0.162037	0.20214
2062	0.201154	0.197703	0.20099	0.046001	0.160558	0.201483
2063	0.205427	0.20099	0.200661	-0.000347	0.164503	0.199839
2064	0.203455	0.197538	0.197867	-0.000347	0.160887	0.202305
2065	0.200825	0.200004	0.20477	-0.001005	0.162695	0.197867
2066	0.203291	0.199511	0.201319	0.000146	0.166639	0.201976
2067	0.204277	0.201319	0.200661	0.00031	0.166804	0.202305
2068	0.200661	0.198689	0.202633	0.000639	0.170255	0.200168
2069	0.20477	0.20099	0.205756	0.009185	0.171077	0.201154
2070	0.201976	0.200168	0.203948	0.003926	0.171734	0.200661
2071	0.200825	0.199839	0.197374	-1.9e-05	0.175186	0.201154
2072	0.206578	0.200825	0.199511	-0.009387	0.174693	0.199839
2073	0.203948	0.202305	0.202962	-0.002155	0.178309	0.199675
2074	0.20214	0.201154	0.198853	0.011815	0.174857	0.19836
2075	0.199018	0.201976	0.201483	0.006391	0.17913	0.202633
2076	0.201154	0.201976	0.199182	-0.000841	0.178802	0.202962
2077	0.199182	0.20099	0.200332	0.000474	0.178802	0.200661
2078	0.201319	0.202633	0.198524	0.005241	0.177322	0.201647
2079	0.201154	0.199839	0.200332	0.013459	0.177158	0.202962
2080	0.202469	0.20099	0.202962	0.021019	0.176665	0.200004
2081	0.199839	0.200497	0.199346	0.026607	0.179295	0.204277
2082	0.19836	0.201976	0.202305	0.010007	0.182746	0.201319
2083	0.200497	0.198853	0.201647	0.013952	0.182253	0.200168
2084	0.203455	0.199346	0.205099	-1.9e-05	0.183732	0.19721
2085	0.201154	0.199346	0.202798	-0.001005	0.181596	0.201647
2086	0.205099	0.199018	0.206085	0.010007	0.18439	0.199018
2087	0.199182	0.198196	0.201154	0.01691	0.185376	0.198196
2088	0.203126	0.20099	0.202469	0.00031	0.18554	0.196881
2089	0.204113	0.198196	0.201647	0.000474	0.183075	0.198853
2090	0.202305	0.19836	0.20099	0.013952	0.188663	0.200004
2091	0.201647	0.200497	0.197867	0.019704	0.185376	0.19836
2092	0.202798	0.201483	0.203126	0.027593	0.190471	0.201319
2093	0.198689	0.201319	0.20099	0.036797	0.18932	0.198196
2094	0.201154	0.201319	0.200332	0.0437	0.192115	0.199346
2095	0.200497	0.203455	0.199182	0.035482	0.190635	0.197538
2096	0.200661	0.199346	0.200332	0.000639	0.188992	0.200661
2097	0.202633	0.200332	0.200825	-0.000183	0.189978	0.200004
2098	0.199346	0.199346	0.200661	0.000146	0.189814	0.20214
2099	0.205921	0.201483	0.200825	0.000146	0.190964	0.194251
2100	0.200004	0.201647	0.200004	-0.000512	0.189978	0.19836
2101	0.202469	0.201319	0.204113	0.010336	0.191786	0.199675
2102	0.199675	0.198031	0.200497	0.012965	0.188499	0.198689
2103	0.199839	0.199839	0.204934	0.02332	0.19195	0.196881
2104	0.201483	0.197045	0.201154	0.030223	0.18554	0.196388
2105	0.200661	0.198196	0.203126	0.037455	0.193265	0.197538
2106	0.198031	0.202633	0.203948	0.041892	0.193594	0.196881
2107	0.200825	0.201319	0.197538	0.04748	0.191293	0.201483
2108	0.201483	0.20099	0.200661	0.052247	0.190307	0.200497
2109	0.20099	0.201976	0.202798	0.058492	0.194087	0.200497
2110	0.201154	0.20099	0.19721	0.063587	0.192936	0.200497
2111	0.201154	0.201154	0.198689	0.055041	0.1908	0.203291
2112	0.202962	0.200004	0.199346	0.065067	0.189485	0.198689
2113	0.202633	0.198524	0.197867	0.063916	0.187841	0.202962
2114	0.205756	0.201483	0.202305	0.064902	0.186362	0.201647
2115	0.198689	0.200497	0.199018	0.068847	0.189485	0.201976
2116	0.205263	0.204606	0.202962	0.077886	0.190307	0.201483
2117	0.201812	0.200497	0.201154	0.076079	0.185376	0.200497
2118	0.20099	0.199839	0.201483	0.07838	0.189814	0.195895
2119	0.203455	0.201154	0.199511	0.077065	0.187348	0.198524
2120	0.200332	0.199675	0.206742	0.079859	0.188499	0.20099
2121	0.202962	0.197374	0.204606	0.08216	0.187513	0.19836
2122	0.201483	0.201319	0.199675	0.085283	0.188499	0.200004
2123	0.206085	0.20099	0.197045	0.089391	0.18817	0.19836
2124	0.197703	0.199346	0.199182	0.091692	0.187677	0.199511
2125	0.199839	0.201154	0.203455	0.094322	0.187513	0.197045
2126	0.201976	0.199675	0.196388	0.098431	0.190142	0.200825
2127	0.202633	0.201976	0.199182	0.099582	0.18932	0.199839
2128	0.201647	0.200825	0.198196	0.100568	0.188827	0.200332
2129	0.200168	0.20362	0.203784	0.10632	0.187019	0.200332
2130	0.200168	0.20099	0.198689	0.003104	0.181267	0.201319
2131	0.203948	0.202305	0.204277	0.010336	0.183897	0.199346
2132	0.199346	0.199018	0.19836	0.020033	0.185869	0.203455
2133	0.20099	0.204113	0.200661	0.027758	0.185705	0.19836
2134	0.20214	0.200004	0.20099	0.033017	0.184225	0.199182
2135	0.201976	0.196552	0.202305	0.029894	0.18439	0.202305
2136	0.201154	0.19836	0.200332	0.026936	0.185376	0.199018
2137	0.199346	0.197538	0.20477	0.036304	0.188992	0.199839
2138	0.200332	0.199511	0.201319	0.039263	0.184061	0.200497
2139	0.203948	0.199675	0.200004	0.049781	0.185376	0.199346
2140	0.203455	0.202469	0.197538	0.05389	0.190307	0.198689
2141	0.201647	0.20099	0.200168	0.059643	0.187184	0.200497
2142	0.206085	0.199675	0.203291	0.000146	0.191786	0.197703
2143	0.200168	0.19836	0.198196	-0.000347	0.190635	0.203126
2144	0.20362	0.196388	0.196059	0.007049	0.188499	0.197374
2145	0.201647	0.199511	0.197867	0.011651	0.191128	0.20099
2146	0.20214	0.200332	0.200168	0.023649	0.1908	0.199182
2147	0.198689	0.199018	0.197867	0.027429	0.191621	0.201647
2148	0.20477	0.201647	0.200168	0.038441	0.19458	0.200004
2149	0.203291	0.206742	0.200168	0.043371	0.191786	0.200004
2150	0.200168	0.206742	0.199675	0.050932	0.193758	0.197538
2151	0.20099	0.201976	0.201647	0.058164	0.194909	0.199839
2152	0.201319	0.200004	0.201976	0.06556	0.192115	0.196717
2153	0.206085	0.200661	0.201319	0.067532	0.190142	0.200168
2154	0.202962	0.197867	0.201154	0.074106	0.190964	0.201812
2155	0.201319	0.199018	0.199839	0.079037	0.189649	0.197045
2156	0.202633	0.200004	0.200332	0.083968	0.195237	0.200825
2157	0.204113	0.199511	0.201812	0.090378	0.189978	0.197867
2158	0.201483	0.196223	0.198689	0.091364	0.196552	0.19836
2159	0.20855	0.204606	0.201812	0.096294	0.199346	0.193429
2160	0.201647	0.205099	0.200661	-0.000512	0.195237	0.198689
2161	0.206414	0.191293	0.202633	0.010664	0.195566	0.195895
2162	0.20099	0.197045	0.199346	0.014938	0.197374	0.19836
2163	0.206578	0.200168	0.203455	0.028251	0.196881	0.200332
2164	0.208386	0.197045	0.197045	0.032524	0.194251	0.20099
2165	0.205263	0.199346	0.199018	0.038441	0.19836	0.204113
2166	0.203126	0.198853	0.199182	0.04748	0.197538	0.200825
2167	0.203784	0.199511	0.199018	0.057013	0.200332	0.197045
2168	0.20214	0.203455	0.202469	0.061944	0.195073	0.20214
2169	0.201154	0.199018	0.197703	0.004748	0.196717	0.202962
2170	0.202798	0.200004	0.199182	0.009514	0.169926	0.198689
2171	0.203455	0.20099	0.201483	0.023813	0.149382	0.203126
2172	0.203784	0.20099	0.20362	0.030716	0.140506	0.199511
2173	0.200168	0.200004	0.203291	0.03236	0.104019	0.200168
2174	0.201319	0.19836	0.204277	0.046166	0.076079	0.197538
2175	0.201976	0.200168	0.200168	0.04633	0.056356	0.198196
2176	0.206578	0.196717	0.203291	-0.001005	0.046823	0.199018
2177	0.201483	0.198853	0.199182	0.002282	0.036469	0.199182
2178	0.203126	0.20099	0.201154	0.008857	0.033017	0.19721
2179	0.204277	0.198031	0.199346	0.016417	0.021676	0.202633
2180	0.201976	0.200825	0.199511	0.023649	0.018061	0.197867
2181	0.202305	0.200332	0.202633	0.034332	0.012637	0.200332
2182	0.20362	0.202469	0.200825	0.040413	0.009678	0.203291
2183	0.201812	0.20099	0.198853	0.047152	0.011322	0.198196
2184	0.20099	0.200004	0.203291	0.050439	0.01313	0.198524
2185	0.203291	0.201812	0.203455	0.061451	0.009185	0.20099
2186	0.202305	0.200825	0.202633	0.065888	0.008035	0.201483
2187	0.201319	0.200004	0.199675	0.071312	0.010336	0.199511
2188	0.197703	0.200168	0.199182	0.080352	0.013952	0.200825
2189	0.20214	0.203784	0.199346	0.086104	0.019868	0.201154
2190	0.201976	0.206742	0.202469	0.08331	0.019868	0.201647
2191	0.203948	0.199839	0.205427	0.090542	0.027758	0.20099
2192	0.202305	0.195237	0.204113	0.095801	0.02069	0.199346
2193	0.20477	0.203455	0.201812	0.097774	0.016746	0.198524
2194	0.203784	0.197538	0.203126	0.103526	0.013623	0.200497
2195	0.204606	0.200168	0.20477	0.10517	0.022827	0.197867
2196	0.204606	0.199511	0.204113	0.108621	0.023813	0.200497
2197	0.203126	0.201154	0.202962	0.113716	0.001132	0.200168
2198	0.205427	0.199839	0.199346	0.116017	0.003104	0.199346
2199	0.203291	0.198524	0.200332	0.120126	0.009185	0.198524
2200	0.199018	0.200004	0.198689	0.124399	0.003433	0.196717
2201	0.200661	0.196717	0.201319	0.126207	0.007049	0.19836
2202	0.199018	0.203126	0.199839	0.128673	0.008692	0.201154
2203	0.201483	0.199182	0.199018	0.111744	0.009185	0.200332
2204	0.205099	0.201647	0.200825	0.000146	0.000639	0.197374
2205	0.201319	0.199675	0.200497	0.008857	-0.001498	0.200168
2206	0.204934	0.201154	0.201647	0.015595	0.003597	0.199675
2207	0.20099	0.200004	0.201647	0.006884	0.001132	0.199839
2208	0.205921	0.200332	0.201483	0.013623	0.002611	0.195895
2209	0.20362	0.189814	0.200332	0.017567	0.002282	0.195073
2210	0.205263	0.196223	0.201812	0.028086	0.003104	0.200332
2211	0.204441	0.200332	0.201483	0.033839	0.001789	0.200168
2212	0.202633	0.19836	0.200332	0.040249	0.001954	0.200661
2213	0.201319	0.196388	0.197045	0.042714	-0.000347	0.199675
2214	0.205263	0.198853	0.198853	0.053069	0.004583	0.20099
2215	0.205921	0.200661	0.194909	-0.000347	0.002611	0.199511
2216	0.204606	0.20099	0.199346	-0.001498	0.005898	0.201483
2217	0.203455	0.201812	0.197045	0.009843	0.00409	0.197867
2218	0.199018	0.196881	0.19458	0.020197	0.00294	0.19836
2219	0.207071	0.201483	0.20099	0.026771	0.000146	0.200332
2220	0.198524	0.199182	0.19458	0.032195	-0.000512	0.201647
2221	0.205099	0.20214	0.197374	0.039098	0.004583	0.196223
2222	0.200497	0.199675	0.195895	0.046001	0.003433	0.205756
2223	0.202962	0.201976	0.200004	0.052082	0.002611	0.203455
2224	0.20099	0.20099	0.197045	0.055205	0.00031	0.199346
2225	0.205427	0.200332	0.197045	0.063587	0.004255	0.202305
2226	0.205263	0.200497	0.197538	0.067203	0.006884	0.199839
2227	0.20477	0.201483	0.198524	0.077393	0.012144	0.200168
2228	0.20477	0.199675	0.195566	0.080023	0.015924	0.197538
2229	0.202798	0.200332	0.197374	0.084132	0.018554	0.197538
2230	0.209701	0.203784	0.19721	0.087748	0.025621	0.199675
2231	0.201483	0.197374	0.193594	0.093829	0.031867	0.200332
2232	0.184061	0.20099	0.19721	0.096952	0.035318	0.194416
2233	0.176008	0.200497	0.194416	0.096623	0.046659	0.201812
2234	0.177651	0.199018	0.192936	0.112237	0.051425	0.202305
2235	0.178637	0.200825	0.194416	0.109772	0.058328	0.201976
2236	0.184061	0.201483	0.194744	0.118811	0.06556	0.198853
2237	0.177651	0.199839	0.19195	0.116182	0.067532	0.202962
2238	0.183568	0.205099	0.195402	0.12177	0.079859	0.199182
2239	0.182911	0.197374	0.193922	0.123578	0.080516	0.201976
2240	0.182582	0.198031	0.196059	0.124893	0.082817	0.197703
2241	0.187019	0.204441	0.194909	0.126043	0.086433	0.201154
2242	0.18554	0.200497	0.198689	0.13311	0.093007	0.200661
2243	0.187184	0.200168	0.193758	0.133932	0.093993	0.197703
2244	0.187184	0.20099	0.185212	0.137877	0.100896	0.200661
2245	0.188334	0.200004	0.18439	0.139849	0.103362	0.199675
2246	0.187841	0.199346	0.175515	0.140013	0.10895	0.200004
2247	0.192608	0.197374	0.172392	0.14593	0.113059	0.197538
2248	0.185376	0.199675	0.171734	0.146095	0.116839	0.199346
2249	0.187677	0.201812	0.171241	0.151683	0.120619	0.197703
2250	0.187841	0.199346	0.165489	0.149382	0.123578	0.196881
2251	0.188827	0.199675	0.147738	0.154312	0.126536	0.195895
2252	0.188992	0.201483	0.138699	0.149053	0.130809	0.198853
2253	0.190471	0.203126	0.125221	0.156285	0.135247	0.198524
2254	0.189156	0.199182	0.059643	0.157107	0.136726	0.198524
2255	0.191293	0.202962	0.019704	0.157764	0.143958	0.19836
2256	0.188827	0.200332	0.024306	0.160229	0.140013	0.199511
2257	0.1908	0.200332	0.031209	0.160229	0.143958	0.199839
2258	0.19195	0.197703	0.02973	0.163681	0.142807	0.198689
2259	0.192936	0.200661	0.030716	0.166475	0.148231	0.202305
2260	0.194416	0.202305	0.027922	0.165324	0.149053	0.20214
2261	0.19458	0.196388	0.035975	0.168118	0.151354	0.20099
2262	0.192443	0.197045	0.035482	0.169433	0.150204	0.201154
2263	0.1908	0.197703	0.027429	0.169269	0.156449	0.199182
2264	0.188827	0.197374	0.020855	0.170748	0.158257	0.199675
2265	0.190471	0.197703	0.011322	0.171241	0.156285	0.199511
2266	0.194087	0.201319	0.013623	0.17157	0.165489	0.198031
2267	0.18932	0.199675	0.017896	0.173871	0.160722	0.198853
2268	0.195566	0.200661	0.022827	0.172392	0.164503	0.198853
2269	0.194416	0.201483	0.030716	0.175843	0.166804	0.198853
2270	0.192279	0.203948	0.031373	0.177158	0.169762	0.197703
2271	0.194087	0.200497	0.034661	0.177487	0.168776	0.199346
2272	0.194251	0.204934	0.044686	0.178144	0.17157	0.201483
2273	0.190635	0.198689	0.041564	0.17535	0.168612	0.203784
2274	0.192772	0.20214	0.047645	0.18061	0.1742	0.200332
2275	0.196388	0.20214	0.04107	0.181431	0.16779	0.200168
2276	0.19458	0.201154	0.0437	0.182911	0.174035	0.20099
2277	0.194087	0.201319	0.047645	0.183239	0.173049	0.200004
2278	0.197703	0.200497	0.051754	0.184554	0.175021	0.201483
2279	0.191786	0.199182	0.032688	0.183568	0.175515	0.199346
2280	0.1908	0.196881	0.025457	0.185705	0.176336	0.197045
2281	0.193429	0.201647	0.007213	0.187677	0.178802	0.201483
2282	0.190142	0.198031	0.002447	0.185212	0.181103	0.196881
2283	0.195237	0.202962	0.012308	0.186855	0.183897	0.200825
2284	0.189649	0.198853	0.012965	0.188827	0.18061	0.202633
2285	0.19195	0.199346	-0.005114	0.189485	0.183897	0.196552
2286	0.191786	0.199839	0.00409	0.186362	0.186526	0.198689
2287	0.193594	0.200332	0.003926	0.191128	0.186198	0.197867
2288	0.189814	0.202633	0.010007	0.187184	0.182911	0.198031
2289	0.193101	0.207235	0.016088	0.185047	0.18554	0.201647
2290	0.1908	0.200004	0.018554	0.184554	0.185869	0.200497
2291	0.191786	0.197867	0.026607	0.201154	0.187677	0.197867
2292	0.190964	0.202633	0.035975	0.193265	0.186526	0.200825
2293	0.192279	0.199675	0.028251	0.191128	0.188827	0.199839
2294	0.194087	0.200825	0.034989	0.194251	0.186855	0.198524
2295	0.191621	0.200004	0.037783	0.193101	0.189156	0.200825
2296	0.193265	0.201812	0.040249	0.193265	0.191786	0.19721
2297	0.190635	0.197374	0.049124	0.191457	0.187184	0.197867
2298	0.191293	0.199675	0.053233	0.195895	0.191457	0.19721
2299	0.187841	0.197538	0.00294	0.193922	0.189978	0.20362
2300	0.192772	0.201647	0.017239	0.193429	0.193429	0.200004
2301	0.191786	0.200004	0.010829	0.193429	0.192443	0.200497
2302	0.192772	0.199346	0.016088	0.195566	0.194909	0.197374
2303	0.193594	0.202305	0.0271	0.194416	0.191128	0.197703
2304	0.195073	0.202798	0.011322	0.193429	0.194744	0.19573
2305	0.193758	0.201976	0.009678	0.1908	0.194251	0.196059
2306	0.193101	0.202633	0.01954	0.195073	0.192608	0.19836
2307	0.196223	0.203126	0.022827	0.19195	0.194416	0.196717
2308	0.194251	0.203126	0.027593	0.193594	0.193758	0.19836
2309	0.196388	0.205099	0.034825	0.195073	0.1908	0.201483
2310	0.192772	0.196059	0.037783	0.19458	0.191128	0.20477
2311	0.19721	0.201647	0.046494	0.197703	0.191786	0.201319
2312	0.19458	0.201976	0.051754	0.199182	0.191786	0.200004
2313	0.191786	0.20214	0.058164	0.201154	0.19458	0.199839
2314	0.195237	0.199839	0.063423	0.197045	0.191128	0.203291
2315	0.19458	0.201154	0.070655	0.200497	0.19195	0.198524
2316	0.193758	0.199018	0.075914	0.197538	0.192443	0.201647
2317	0.196059	0.203126	0.081338	0.195073	0.193101	0.196552
2318	0.196717	0.20099	0.083968	0.191128	0.188992	0.197045
2319	0.196388	0.199018	0.084625	0.195402	0.192279	0.200004
2320	0.196059	0.202633	0.080187	0.192936	0.189814	0.197374
2321	0.195073	0.20214	0.085611	0.194416	0.195237	0.199511
2322	0.197703	0.201154	0.086104	0.192608	0.193922	0.197045
2323	0.195895	0.201647	0.088898	0.194744	0.195895	0.200497
2324	0.196059	0.201976	0.07953	0.197374	0.194744	0.200825
2325	0.201154	0.203948	0.088734	0.198031	0.191457	0.200825
2326	0.199675	0.202962	0.08972	0.199018	0.193758	0.199511
2327	0.193101	0.199182	0.097609	0.19836	0.191128	0.198689
2328	0.198031	0.202798	0.101225	0.20099	0.195566	0.19721
2329	0.19458	0.199839	0.104348	0.197374	0.191621	0.201647
2330	0.192936	0.202633	0.104019	0.199839	0.192608	0.199018
2331	0.198031	0.200004	0.107142	0.19721	0.192279	0.199182
2332	0.19573	0.20214	0.105663	0.201154	0.197374	0.203291
2333	0.198689	0.200004	0.073613	0.200825	0.196388	0.203126
2334	0.196059	0.200661	0.018225	0.204277	0.198524	0.199675
2335	0.194909	0.201319	0.000146	0.200825	0.185212	0.200661
2336	0.200661	0.201154	0.005734	0.200168	0.185212	0.198031
2337	0.197867	0.202633	0.000967	0.196717	0.183732	0.196717
2338	0.197538	0.199675	0.002282	0.197867	0.185705	0.198689
2339	0.200661	0.200168	0.000146	0.198853	0.187348	0.200661
2340	0.196223	0.203784	0.009843	0.194744	0.188663	0.199511
2341	0.200004	0.20099	0.00146	0.200332	0.18817	0.200168
2342	0.197045	0.20214	-0.000676	0.197867	0.188992	0.197538
2343	0.198524	0.201154	0.001296	0.199018	0.193758	0.199675
2344	0.19573	0.197867	0.000146	0.197538	0.187019	0.198689
2345	0.197867	0.202962	0.006556	0.20099	0.193101	0.200332
2346	0.190307	0.200497	0.002447	0.199018	0.191786	0.202305
2347	0.19458	0.204277	0.005898	0.201976	0.188499	0.19836
2348	0.196717	0.201483	0.00031	0.199346	0.189814	0.199182
2349	0.197374	0.200825	0.001625	0.203455	0.195895	0.200497
2350	0.195895	0.200004	0.002611	0.199018	0.189485	0.205427
2351	0.198853	0.20214	0.011651	0.200825	0.192279	0.201154
2352	0.197374	0.19836	0.00031	0.199839	0.18817	0.201154
2353	0.195895	0.200004	0.002447	0.198031	0.190635	0.19721
2354	0.199182	0.201319	0.003104	0.196223	0.188827	0.198853
2355	0.197374	0.198689	0.000146	0.197045	0.189814	0.199346
2356	0.200497	0.202962	-0.001169	0.202305	0.192936	0.199346
2357	0.198196	0.202633	-0.001169	0.200332	0.193758	0.200004
2358	0.201154	0.202633	-0.000347	0.199182	0.194087	0.196717
2359	0.200004	0.199839	-0.001498	0.199018	0.196881	0.198031
2360	0.198031	0.199018	-0.000347	0.200168	0.195073	0.199839
2361	0.196717	0.199839	-0.000512	0.196059	0.186855	0.199511
2362	0.200004	0.204441	-0.003963	0.197867	0.197703	0.195895
2363	0.198196	0.192772	0.000146	0.197867	0.193594	0.201812
2364	0.200825	0.198524	0.000146	0.20099	0.19458	0.19836
2365	0.198031	0.200004	0.000474	0.197867	0.193101	0.202633
2366	0.198689	0.198689	0.000639	0.201812	0.195237	0.201319
2367	0.199346	0.199346	0.00031	0.202305	0.191128	0.200168
2368	0.200004	0.200497	0.00031	0.199346	0.192279	0.20099
2369	0.200004	0.202305	-0.000183	0.196552	0.193594	0.200332
2370	0.199511	0.201647	-0.000183	0.196059	0.19458	0.197703
2371	0.200004	0.200661	-0.000841	0.197045	0.195237	0.196059
2372	0.197538	0.200168	-0.000512	0.201154	0.19458	0.202305
2373	0.202962	0.204441	-0.000841	0.192936	0.19573	0.197538
2374	0.198853	0.197867	0.000146	0.196552	0.196223	0.199839
2375	0.199511	0.201483	-0.000183	0.199675	0.19573	0.195566
2376	0.19721	0.199839	0.000146	0.197045	0.196717	0.201812
2377	0.192443	0.202962	0.00031	0.202305	0.195402	0.199182
2378	0.19458	0.200332	0.00031	0.200825	0.196881	0.197374
2379	0.196223	0.205099	0.00031	0.202798	0.197867	0.200004
2380	0.195073	0.20214	-0.000183	0.20099	0.193594	0.203126
2381	0.196059	0.202798	0.00031	0.203455	0.196223	0.198853
2382	0.196059	0.202962	-0.000512	0.200497	0.195237	0.200004
2383	0.188827	0.201812	-0.001334	0.208222	0.195895	0.200332
2384	0.19195	0.206085	-0.001827	0.201647	0.193101	0.196717
2385	0.188006	0.200661	0.000474	0.197703	0.194909	0.201319
2386	0.176994	0.201319	0.000967	0.200661	0.191457	0.198853
2387	0.164338	0.200332	0.000803	0.199018	0.196552	0.200332
2388	0.153819	0.205427	-0.000183	0.198853	0.199346	0.199018
2389	0.133932	0.200497	0.000639	0.201154	0.197703	0.201319
2390	0.007049	0.205263	-0.001498	0.201647	0.198689	0.197374
2391	0.003433	0.205592	0.000146	0.200825	0.19836	0.201483
2392	0.000803	0.200004	-0.001334	0.197045	0.197703	0.19458
2393	-0.00347	0.20214	-0.002648	0.197374	0.196059	0.19721
2394	-0.000676	0.202305	0.000803	0.206578	0.199511	0.199346
2395	0.001954	0.204606	0.001296	0.196059	0.197374	0.19836
2396	0.003104	0.199839	0.000474	0.198031	0.199839	0.199839
2397	0.001789	0.200661	-0.000183	0.201319	0.197045	0.202469
2398	0.009678	0.200497	0.006391	0.201976	0.199182	0.200332
2399	0.010829	0.201647	0.016088	0.20099	0.19721	0.201319
2400	0.002118	0.202305	0.021841	0.205099	0.200004	0.19721
2401	0.010829	0.200825	0.033839	0.202633	0.197045	0.202633
2402	0.002611	0.202305	0.043207	0.20214	0.196388	0.204113
2403	0.000146	0.201812	0.046166	0.199018	0.195402	0.198524
2404	0.000967	0.199346	0.054219	0.200332	0.198524	0.201976
2405	0.002118	0.202305	0.061122	0.199346	0.199675	0.199182
2406	0.000474	0.196059	0.06934	0.198524	0.193101	0.200497
2407	0.006227	0.200332	0.069669	0.199346	0.197538	0.197374
2408	0.002775	0.195566	0.074435	0.200332	0.194909	0.199675
2409	0.008363	0.194087	0.081995	0.199839	0.19721	0.199511
2410	0.002775	0.197045	0.084132	0.200168	0.200004	0.196881
2411	0.003433	0.198524	0.090542	0.203948	0.199675	0.19458
2412	-0.001005	0.199839	0.092843	0.200825	0.19836	0.195073
2413	0.003761	0.205592	0.099417	0.198031	0.203126	0.203784
2414	0.0105	0.202798	0.096623	0.198524	0.197538	0.199182
2415	0.008528	0.205427	0.100239	0.199346	0.199675	0.199839
2416	0.007213	0.205427	0.106156	0.192936	0.196223	0.200332
2417	0.004748	0.190964	0.119633	0.198031	0.197703	0.201812
2418	0.01313	0.199182	0.11536	0.199018	0.199675	0.198524
2419	0.019211	0.199182	0.11799	0.196388	0.195073	0.208057
2420	0.021183	0.20362	0.124728	0.199182	0.200332	0.201812
2421	0.023484	0.199018	0.127194	0.196223	0.198196	0.200497
2422	0.026114	0.200661	0.132289	0.202305	0.201976	0.198689
2423	0.026443	0.200661	0.130809	0.201319	0.200661	0.199346
2424	0.017239	0.203126	0.137055	0.200332	0.200661	0.198196
2425	0.018225	0.198031	0.137384	0.197045	0.198524	0.19836
2426	0.017239	0.200004	0.141328	0.200497	0.20214	0.196881
2427	0.018554	0.201319	0.143465	0.186855	0.19573	0.19836
2428	0.014445	0.189814	0.150368	0.198524	0.197703	0.200168
2429	0.007049	0.198031	0.144615	0.198853	0.196552	0.193922
2430	0.012472	0.201976	0.150204	0.199511	0.200661	0.202633
2431	0.002118	0.198031	0.15119	0.197374	0.196881	0.200168
2432	0.007706	0.202798	0.153819	0.200497	0.198524	0.198853
2433	0.000474	0.202633	0.155792	0.201319	0.19836	0.198196
2434	-0.00232	0.201647	0.156613	0.203291	0.197538	0.198031
2435	0.001789	0.202305	0.162202	0.199018	0.200004	0.201976
2436	0.00031	0.200661	0.161051	0.200168	0.200497	0.199675
2437	0.002282	0.197703	0.163188	0.200661	0.200004	0.19836
2438	-0.001169	0.202305	0.160722	0.190471	0.196717	0.200168
2439	0.002611	0.191786	0.16894	0.201319	0.199839	0.196552
2440	0.000146	0.193758	0.162859	0.19836	0.195237	0.198031
2441	0.004419	0.199511	0.170255	0.197374	0.200004	0.198031
2442	0.002118	0.198031	0.167132	0.199511	0.195237	0.200332
2443	0.007706	0.201483	0.169926	0.202798	0.200168	0.198196
2444	0.006062	0.198853	0.173378	0.201647	0.199018	0.199018
2445	-0.000841	0.202633	0.170748	0.200168	0.200332	0.199346
2446	0.005405	0.203455	0.172063	0.201154	0.201483	0.199675
2447	0.000639	0.199675	0.172885	0.200825	0.200497	0.198689
2448	0.001296	0.201154	0.170091	0.200497	0.201483	0.196388
2449	0.000474	0.200825	0.175021	0.195402	0.198689	0.199839
2450	-0.000183	0.199675	0.170748	0.199346	0.202633	0.195895
2451	-0.000183	0.197538	0.176336	0.198524	0.199839	0.19836
2452	0.005734	0.200661	0.181924	0.199346	0.199675	0.20099
2453	0.00409	0.200332	0.179952	0.197374	0.198853	0.200497
2454	0.001789	0.19836	0.182417	0.201647	0.200168	0.199839
2455	0.005076	0.200661	0.181924	0.201154	0.199839	0.199839
2456	0.006391	0.201647	0.184883	0.20214	0.208386	0.19721
2457	0.003597	0.197703	0.185212	0.200004	0.19721	0.202469
2458	0.005405	0.20214	0.187841	0.197703	0.201976	0.196223
2459	0.00409	0.197867	0.183075	0.202469	0.197867	0.197374
2460	0.00146	0.199839	0.185376	0.20099	0.199511	0.198031
2461	0.004583	0.198196	0.176008	0.198689	0.198689	0.198853
2462	0.001954	0.198853	0.183568	0.19836	0.200004	0.199511
2463	0.002775	0.201812	0.183239	0.203126	0.200004	0.203784
2464	0.002611	0.197045	0.186526	0.200168	0.198524	0.205099
2465	0.000803	0.200168	0.18554	0.19721	0.200497	0.199675
2466	0.005569	0.200332	0.188006	0.200332	0.200661	0.201647
2467	0.001789	0.201154	0.190307	0.202962	0.202633	0.200825
2468	-0.000841	0.199346	0.189814	0.197045	0.19836	0.209208
2469	0.000639	0.203291	0.190964	0.196388	0.203455	0.200332
2470	-0.000841	0.200661	0.190964	0.196552	0.201647	0.202798
2471	-0.000347	0.201483	0.191457	0.199511	0.201319	0.199675
2472	-0.000347	0.200168	0.179788	0.193758	0.199182	0.201319
2473	0.000474	0.19721	0.191621	0.200168	0.201319	0.201319
2474	0.000146	0.19458	0.188334	0.201319	0.197867	0.201319
2475	0.000803	0.200661	0.192608	0.20099	0.198031	0.202305
2476	0.000803	0.199018	0.191293	0.202633	0.196059	0.199675
2477	0.001132	0.19836	0.193758	0.20099	0.197538	0.199346
2478	0.000803	0.200497	0.195237	0.200004	0.198689	0.197374
2479	0.000146	0.197703	0.195402	0.202469	0.197538	0.208715
2480	-0.000183	0.201812	0.193265	0.201647	0.19836	0.195895
2481	-0.000841	0.199675	0.193922	0.199018	0.200661	0.199675
2482	-0.000347	0.200168	0.194744	0.200332	0.200004	0.199675
2483	-0.000841	0.200332	0.186362	0.195895	0.200661	0.202469
2484	-0.000183	0.201812	0.194416	0.200004	0.200825	0.199839
2485	-0.000512	0.199182	0.192936	0.199018	0.19836	0.203291
2486	0.000146	0.204441	0.197045	0.198689	0.20099	0.206249
2487	0.000146	0.200332	0.193922	0.199018	0.192772	0.200004
2488	0.00031	0.204277	0.195566	0.200497	0.201319	0.201483
2489	0.000146	0.199018	0.19836	0.199675	0.200168	0.199018
2490	-1.9e-05	0.197045	0.195402	0.202633	0.199182	0.197867
2491	-0.000512	0.197867	0.196388	0.201483	0.199675	0.199018
2492	-0.000183	0.196881	0.197045	0.205756	0.200332	0.199018
2493	-0.000512	0.199839	0.198196	0.205099	0.197703	0.198853
2494	-0.000676	0.194087	0.194744	0.199839	0.199018	0.200825
2495	-1.9e-05	0.199511	0.197867	0.200661	0.200004	0.199182
2496	0.000146	0.198524	0.196059	0.200497	0.197867	0.203784
2497	-1.9e-05	0.20099	0.196388	0.199839	0.199675	0.200332
2498	0.000146	0.196388	0.196223	0.200004	0.197045	0.201647
2499	0.00031	0.201483	0.201154	0.200004	0.201319	0.199839
