Ladekurvenmessung
Zeit: 2018_05_04 10.04.57
Info: FVA3, v = 1.05, T = 23, F = 20, h = 591.0
Ladewiderstand[Ohm]: 1012700
Störkapazität[pF]: 0.000000
Entladezeit[ms]: 200
Abtastrate[Hz]: 250000
Anzahl der Messwerte: 2500.000000
Verzögerung[ms]: 1
Ladespannung[V]: 0.200000
	Kurve_1	Kurve_2	Kurve_3	Kurve_4	Kurve_5
0	-0.000841	-0.002484	0.001296	0.002282	-0.001169
1	0.001789	-0.001991	0.001132	-0.002977	0.005241
2	-0.002155	-0.001827	0.007049	0.000967	0.001132
3	-0.000676	-0.002484	-0.000183	0.001954	0.002611
4	0.000639	-0.005278	0.001625	0.001296	0.004419
5	-1.9e-05	-0.001334	0.001625	0.002447	0.00409
6	-0.000347	-0.005278	-1.9e-05	0.001625	0.001954
7	-0.002155	-0.001498	-0.001334	0.002611	0.001954
8	0.000803	-0.002155	0.001296	0.000474	0.000146
9	0.002611	-0.006264	-0.000183	0.003268	0.004419
10	0.004419	-0.003963	0.001132	-0.002977	0.002118
11	-0.000347	-0.003635	0.000639	0.00409	0.003104
12	0.000639	-0.003799	0.000967	0.00031	0.001789
13	0.000967	-0.002977	-0.00988	0.001625	0.000967
14	0.001789	-0.00347	0.000146	-0.000676	-0.001498
15	-0.000347	-0.004292	0.000967	0.001296	0.001132
16	0.00146	-0.002484	-0.001498	0.001296	0.000803
17	-0.001827	-0.001991	0.001789	0.001954	0.00031
18	-0.004128	-0.005443	-1.9e-05	0.00146	0.001789
19	-0.001827	-0.002813	-0.001169	0.000967	0.002611
20	-0.000347	-0.002648	-0.000676	0.002282	0.001954
21	-0.001662	-0.002155	-0.000183	0.002775	-0.000183
22	0.000474	-0.00232	-0.000512	0.006884	0.000474
23	0.003433	-0.004785	0.000967	0.001789	-0.000676
24	0.002282	-0.003306	-0.014153	0.002447	0.002118
25	-0.000676	-0.002648	-0.001498	0.000474	-0.001169
26	-0.001169	-0.002813	0.003433	0.002447	0.001954
27	0.003104	-0.003306	-0.002484	-1.9e-05	0.000146
28	-0.001334	-0.004292	-0.003963	0.001296	0.000967
29	0.002282	-0.002648	-0.001991	-0.002484	-0.000347
30	-0.002484	-0.000676	-0.003306	0.002611	-0.001498
31	0.002118	-0.001991	-0.003963	0.003268	-1.9e-05
32	-0.00232	-0.002155	0.001132	-0.000512	-0.003306
33	0.00031	-0.004621	-0.000183	0.001954	-0.001498
34	-0.001498	-0.003799	0.00146	0.00146	-0.003799
35	-0.000347	-0.004785	-0.003306	-0.001169	-0.000183
36	-0.001334	-0.004949	-0.001991	-0.000512	-0.001169
37	-0.002155	-0.002484	-0.001827	0.003926	-0.000841
38	-0.001662	-0.00873	-0.001169	-0.000676	-0.001334
39	-0.000676	-0.00725	-0.001662	0.00146	-0.001498
40	-0.00347	0.000639	-0.000183	0.001789	0.001132
41	0.002447	-0.002813	-0.006922	0.00146	-1.9e-05
42	-0.003142	-0.005607	-0.003142	0.00031	0.001789
43	-0.000183	-0.00347	-0.002648	0.003104	0.000967
44	0.000639	-0.005278	-0.003799	0.001954	-0.001991
45	0.000474	-0.004621	-0.003963	0.000146	-0.000676
46	0.000146	-0.005278	-0.00873	-0.001498	0.001625
47	-0.001662	-0.000183	-0.002813	-1.9e-05	-0.001498
48	0.002282	-0.003963	-0.000676	-0.000183	-0.001498
49	-0.001005	-0.00347	-0.004292	-0.000347	0.00146
50	-0.000676	-0.004292	-0.003306	-0.002813	0.000146
51	-0.005114	-0.001662	0.000803	-0.006264	-0.000676
52	0.002118	-0.004621	-0.001169	-0.001169	-0.000676
53	0.00146	-0.008401	-0.002155	-0.000841	0.00294
54	-0.002813	-0.002977	0.000639	0.00146	0.001954
55	0.001296	-0.001991	-0.001498	0.001296	-0.000841
56	-0.001827	-0.002484	-0.003799	0.003104	0.000639
57	-0.001827	-0.005443	-0.002648	0.001296	0.002282
58	-0.004785	-0.001991	-0.003306	0.002611	0.001789
59	-0.001827	-0.006264	-0.00347	0.001625	0.000146
60	0.000474	-0.002155	-0.002977	0.000967	0.000146
61	0.003761	-0.005278	-0.00347	-0.003142	-0.000183
62	-0.001005	-0.002813	-0.000676	0.000474	0.002118
63	0.002447	-0.002484	-0.002484	-0.001662	0.000474
64	0.00294	-0.002813	-0.002648	-0.004292	0.00294
65	0.001132	-0.001991	-0.001827	0.00146	0.000146
66	0.001625	-0.004128	-0.000512	-0.001498	-0.000512
67	0.001132	-0.003306	-0.001827	0.002282	-1.9e-05
68	-0.00232	-0.002813	0.000474	-0.000512	0.001132
69	0.000803	-0.003142	-0.001991	0.001789	0.000639
70	-0.002155	-0.004621	-0.001169	0.001296	0.001789
71	-0.001827	-0.003799	-0.000347	0.000474	0.001954
72	-0.000841	-0.004128	-1.9e-05	-0.00232	-0.002155
73	-0.000676	-0.005936	-0.000676	0.003104	0.004748
74	-1.9e-05	-0.0061	-0.006757	0.000803	-0.000676
75	-0.002648	-0.000676	-0.002977	-1.9e-05	0.00146
76	0.00146	-0.007086	-0.001827	0.001789	-0.000676
77	0.002775	-0.003635	-0.000183	0.003268	0.00294
78	0.004583	-0.003306	0.001296	-0.000676	0.000967
79	0.000967	-0.001991	0.002282	-0.000183	0.001789
80	0.003761	-0.002977	-0.001827	-0.002813	0.000474
81	-0.000183	-0.002484	-0.000676	0.000967	-0.001334
82	-0.000183	-0.000841	-0.006264	0.002611	-0.003142
83	-0.001005	-0.004128	0.002447	-0.001005	-0.001498
84	-0.002484	-0.001169	-0.001005	0.000967	0.001296
85	-0.000676	-0.003142	0.000474	-0.000676	0.002118
86	0.000639	-0.004128	-0.000512	-0.001498	0.003104
87	0.001789	-0.004128	0.002447	0.002611	-0.002484
88	-0.002155	0.000474	0.000967	0.002118	-0.001991
89	0.002611	-0.001662	-0.002648	0.000146	-0.002813
90	-0.003142	-0.004621	0.000474	0.001954	0.001789
91	-0.000841	-0.003963	0.001296	-0.000512	-1.9e-05
92	-0.003963	-0.005443	-0.002977	-0.000347	0.00146
93	-0.001169	-0.003963	-0.004456	-0.001334	0.002611
94	-0.001498	-0.003963	-0.005114	-0.002484	0.002282
95	-0.00232	-0.002977	-0.001169	-0.005443	0.001625
96	0.003433	-0.002484	-0.000183	-0.006757	0.000967
97	0.001625	-0.00232	-0.003142	0.00294	0.003761
98	0.001296	-0.000512	-0.004949	-0.000841	-1.9e-05
99	0.001296	-0.004785	-0.003142	0.005405	-0.000183
100	-0.001334	-0.002813	-0.001662	-0.005771	0.000474
101	-0.006429	-0.005114	0.000146	-0.00347	0.002611
102	-0.001169	-0.005771	0.001789	-0.003799	-0.001169
103	-0.001334	-0.002484	-0.000183	-0.001334	0.000474
104	-0.002813	0.00146	-0.005114	-0.003635	-0.004292
105	-0.000512	-0.001334	0.00146	-0.000347	-0.000841
106	0.000639	-0.001827	-0.003306	-0.003799	0.000146
107	-0.001334	-0.006593	-0.001169	0.002118	0.002611
108	-0.002813	-0.001662	-0.003142	-0.001498	0.002282
109	-0.004621	0.001954	0.000474	0.002282	0.001132
110	0.00031	0.001132	-0.001498	0.002447	0.00031
111	-0.003799	-0.007415	-0.001005	-0.002648	0.001296
112	0.001132	-0.004949	-0.002484	0.000146	0.001789
113	-0.001169	-0.003799	0.003926	-0.003963	-0.001498
114	0.000803	-0.003306	-0.000183	0.003433	0.00294
115	-0.00232	-0.00232	-0.000183	-0.001498	-0.001005
116	0.006884	-0.003306	0.00146	0.000803	0.001789
117	0.001954	-0.003799	-0.001005	-0.002977	-0.001991
118	0.001625	0.000967	0.00031	0.002118	0.00294
119	0.000639	-0.002155	-0.001334	-0.002155	0.001789
120	0.000803	0.000146	0.000639	-0.001169	0.001625
121	0.002118	-0.003142	0.00409	0.00031	0.001954
122	0.000639	-0.001005	-0.000183	0.00146	0.001954
123	0.000639	-0.001991	-0.000512	-0.000512	0.001296
124	-0.000183	-0.00347	0.003761	-0.001005	-0.000183
125	0.000803	-0.000841	-0.000183	0.000474	0.003597
126	-0.000676	-0.000841	-0.000512	-0.001991	0.000967
127	0.000639	-0.001334	-0.00232	-1.9e-05	0.000146
128	-0.000676	-0.000841	-0.001991	-0.000347	0.00294
129	0.001625	0.00031	-0.00347	0.001132	0.003104
130	0.00146	-0.000183	-0.003799	0.000146	0.000967
131	0.001132	-0.000676	-0.001334	-0.001991	0.005076
132	0.000967	-0.004785	-0.000676	-0.004292	-0.004949
133	0.003104	0.001789	-0.002484	-0.001005	0.000639
134	-1.9e-05	-0.002813	-0.001498	-0.002977	0.004748
135	-0.00725	-0.001498	0.001954	0.001789	-0.000676
136	-0.002648	-0.001662	-0.002813	-0.001334	-0.003799
137	0.00294	0.000639	-0.003799	-0.002648	0.000474
138	0.002775	0.001132	-0.001662	-0.001498	0.000967
139	0.000639	0.000967	-0.001662	0.000474	-0.001498
140	0.003104	0.00031	-0.003142	0.00031	-0.000347
141	0.000639	0.002447	-0.002155	0.00031	0.003104
142	0.001625	0.00294	-0.002977	0.000803	0.004419
143	0.001625	-0.003635	-0.000347	-0.001498	0.002118
144	0.002282	-0.00347	-0.004292	0.002118	0.000967
145	-0.004949	-0.002648	0.00031	-0.004785	0.00409
146	0.00031	-0.001662	-0.00232	0.000474	0.001954
147	0.001296	-0.004949	-0.002977	0.003433	-0.001334
148	0.002447	-0.000347	-0.000347	-0.001498	0.002775
149	0.001132	-0.006429	-0.000512	0.001954	0.00031
150	-0.001498	-0.002977	0.001625	0.001296	0.000639
151	0.008035	-0.001498	-0.004456	0.000967	0.000803
152	-0.000512	-0.001662	0.000639	-0.000841	0.000639
153	0.005076	0.003761	0.000146	-0.003799	-0.001334
154	0.001789	-0.001169	-0.001169	0.000146	0.00146
155	0.004255	-0.003799	-0.005114	0.001132	-0.003142
156	0.00031	-0.002648	0.001954	-0.001169	-1.9e-05
157	0.000967	-0.002484	-0.001662	0.00031	0.000146
158	-0.001498	-0.000841	0.003761	0.006391	-0.000676
159	0.000639	-0.003963	-0.001991	-0.000512	0.002282
160	0.001625	-0.005114	-0.001662	-0.001169	-0.001005
161	-0.002977	-0.00725	-0.000347	0.000639	0.000474
162	0.001954	-0.005607	-0.001334	0.001296	-0.001498
163	0.000803	-0.006429	-0.00232	0.006391	0.00031
164	0.005405	-0.011688	-0.000183	-0.001005	0.001954
165	0.00409	-0.000347	-0.001827	-0.000841	0.001296
166	0.004583	-0.008894	-0.002484	0.001789	-1.9e-05
167	0.002282	-0.0061	-0.000512	-0.000512	0.00146
168	0.000639	-0.002484	-0.002977	-0.001169	-1.9e-05
169	0.001954	-0.002813	-0.002155	-0.002155	-0.000183
170	-0.000512	-0.002648	-0.003142	-0.00232	-0.001334
171	0.00409	-0.00232	-0.000676	-0.001169	-0.003635
172	0.002611	-0.001498	-0.001169	0.00031	-0.001827
173	0.004748	0.000639	0.000146	0.00031	0.00031
174	0.005569	-0.001169	-0.005443	0.001625	-0.003306
175	0.003104	-0.013496	0.002118	-0.000841	-0.000676
176	0.005569	-0.002484	-0.001005	-0.002155	-1.9e-05
177	-0.000183	-0.001334	0.001296	0.002118	0.001132
178	0.003597	0.000474	-0.001169	0.000967	0.001625
179	0.004419	-0.007415	-0.004621	0.000146	-0.000841
180	0.00294	0.001296	-0.00347	-0.007579	0.001296
181	0.003926	-0.007744	-0.004128	-0.001991	-0.000676
182	0.003761	-0.003142	-0.002484	0.000639	-0.000347
183	0.002611	-0.000183	-0.000676	-0.00232	-0.00232
184	0.006062	-0.003142	-0.001991	-0.000183	0.005076
185	0.012965	-0.001005	-0.005771	-0.003142	-0.000347
186	0.005734	-0.005278	0.00146	-0.001991	-0.002648
187	0.004583	-0.00347	-0.003635	-0.002484	0.000146
188	0.005734	0.000639	-0.001334	-0.001991	-0.001498
189	0.005898	0.003268	0.000639	-0.001169	0.00031
190	0.004583	-0.001334	0.000146	-1.9e-05	-0.004128
191	0.005405	0.001789	-0.002977	-0.005771	-0.001334
192	0.004419	-1.9e-05	-0.000676	-0.003306	-0.004128
193	0.00294	0.000803	-0.005443	-0.000512	0.002611
194	0.004912	0.00031	0.000146	0.001132	-0.000512
195	0.004255	-0.000676	0.002447	0.001132	0.000639
196	0.002447	-0.00232	-0.006757	-1.9e-05	-0.004456
197	0.005569	-0.001991	-0.001169	0.002118	0.001132
198	0.007049	-0.004456	-0.001334	-0.002977	0.000967
199	0.005734	-0.002648	-0.001827	0.001132	0.002775
200	0.006884	-0.003635	-0.003799	0.00031	-0.000512
201	0.008199	-0.001662	-0.001334	-0.001498	0.003104
202	0.00672	-0.00232	-0.003142	-0.001991	0.001625
203	0.006227	-0.001498	-0.000183	-0.003306	0.000639
204	0.010664	-0.001662	-0.004456	-0.001005	0.004255
205	0.008857	0.001296	0.000474	-0.001662	-0.000676
206	0.007049	0.000639	-0.000183	-0.000183	-1.9e-05
207	0.008692	-0.001498	-1.9e-05	-0.00347	-0.004456
208	0.008363	0.001789	0.001625	0.002447	0.000474
209	0.004583	-0.001662	0.002447	-0.002813	-0.001169
210	0.007377	-0.001334	0.000474	0.000967	-0.000183
211	0.008035	-0.001169	0.003433	0.00146	0.001132
212	0.00935	0.003597	-0.001005	-0.002155	0.00146
213	0.008363	-0.001334	0.000474	-0.005607	-0.002155
214	0.007377	-0.002648	-1.9e-05	0.000803	0.002775
215	0.008363	-0.004128	-0.000676	-0.000512	-0.000183
216	0.012965	0.002447	0.000803	-0.000676	0.001132
217	0.017239	-0.005607	-0.00232	0.00146	-0.000676
218	0.010664	0.00146	0.000967	0.000639	-0.002484
219	0.016253	-0.001498	-0.001991	-1.9e-05	0.00146
220	0.010336	0.003433	0.001132	0.000803	-0.001334
221	0.014773	0.005241	0.00031	0.001954	0.001625
222	0.011158	-0.002648	-0.000183	0.000803	-0.006264
223	0.009514	0.003761	0.002118	-1.9e-05	-0.001334
224	0.016581	0.000639	-0.002648	-0.002813	-0.000512
225	0.010007	0.003433	-0.001169	0.001296	-0.001005
226	0.013294	-0.000347	-0.000183	-0.001498	-0.000512
227	0.015266	0.003761	-1.9e-05	-0.000841	-0.000183
228	0.013952	-0.001662	-0.000183	-1.9e-05	-0.002813
229	0.01313	0.002118	-0.000841	0.000803	-0.002155
230	0.01428	0.00294	-0.001991	0.000474	0.000967
231	0.012637	0.003926	0.000803	-0.001991	0.001132
232	0.016253	-0.000347	-0.001827	0.003104	0.001296
233	0.014609	0.000474	-0.000183	0.00031	0.000803
234	0.015595	0.000803	-0.001334	0.001789	-0.001827
235	0.011979	-0.00347	-0.001498	0.00031	0.000474
236	0.012308	0.000146	-0.001169	0.001954	-0.002484
237	0.017896	-0.000841	-0.001991	0.00031	-0.005607
238	0.020362	0.002775	-0.001005	-0.002484	-1.9e-05
239	0.019211	0.004255	-0.000676	0.000474	-0.001991
240	0.020033	0.002775	0.002447	-0.00232	-0.003306
241	0.017239	0.003104	0.000803	-0.004785	-0.001498
242	0.015924	0.004419	-0.001662	0.003104	0.000803
243	0.015924	0.00031	-0.002484	-0.000676	0.000967
244	0.016088	0.002775	0.002282	0.00031	0.002611
245	0.014445	-0.000676	-0.005114	0.000639	-0.001334
246	0.01691	0.002282	-0.00347	0.00031	0.000803
247	0.017567	-0.000183	-0.005114	-0.000676	-0.000512
248	0.017074	-0.000512	-0.005771	-0.000347	0.000803
249	0.02447	0.001954	-1.9e-05	-0.001991	0.002282
250	0.018882	0.000967	-0.00347	-0.001827	0.000967
251	0.025457	0.005405	0.008199	0.007049	0.005569
252	0.032853	0.013623	0.014938	0.010007	0.01313
253	0.039756	0.024306	0.018554	0.017896	0.020526
254	0.050439	0.025621	0.027758	0.025621	0.024306
255	0.056191	0.032853	0.033674	0.034989	0.035647
256	0.057835	0.042057	0.040413	0.043371	0.039756
257	0.06671	0.04896	0.046166	0.044029	0.047316
258	0.076243	0.05537	0.053069	0.048467	0.057999
259	0.081009	0.063423	0.060465	0.058492	0.059643
260	0.090213	0.064738	0.06293	0.064409	0.062601
261	0.090542	0.074599	0.072134	0.069997	0.071641
262	0.102704	0.082488	0.079694	0.077065	0.073778
263	0.105992	0.081831	0.083639	0.082324	0.081502
264	0.112894	0.08972	0.084954	0.08594	0.085776
265	0.118483	0.091692	0.093007	0.092514	0.090049
266	0.116839	0.095637	0.094815	0.09613	0.09613
267	0.12292	0.099253	0.100568	0.100403	0.097281
268	0.127358	0.105663	0.104677	0.104348	0.099582
269	0.131631	0.110265	0.106649	0.111087	0.10895
270	0.137219	0.11536	0.115031	0.110429	0.112401
271	0.143958	0.117003	0.113059	0.114374	0.117003
272	0.147574	0.11914	0.118318	0.120126	0.123413
273	0.147081	0.122756	0.127358	0.121112	0.122263
274	0.152176	0.128344	0.129001	0.127029	0.127851
275	0.153984	0.132782	0.127687	0.127687	0.128508
276	0.155792	0.130316	0.132946	0.133768	0.132289
277	0.155627	0.133275	0.132289	0.133439	0.136398
278	0.161709	0.140671	0.139192	0.135576	0.136069
279	0.162037	0.142479	0.138205	0.140013	0.137219
280	0.166146	0.144615	0.141164	0.141821	0.139192
281	0.168776	0.148396	0.14215	0.142972	0.145108
282	0.172556	0.147903	0.145602	0.145273	0.144451
283	0.176172	0.152176	0.148724	0.149217	0.148396
284	0.172885	0.151683	0.15234	0.149053	0.14856
285	0.176994	0.154312	0.154806	0.152998	0.148067
286	0.181924	0.156778	0.15234	0.149382	0.148889
287	0.179295	0.155627	0.152669	0.158586	0.155134
288	0.177322	0.15612	0.159408	0.150368	0.156613
289	0.180774	0.16138	0.157928	0.160558	0.160722
290	0.183732	0.162859	0.159901	0.161709	0.158586
291	0.184225	0.165653	0.163352	0.163188	0.163516
292	0.187019	0.162859	0.162037	0.159901	0.16516
293	0.183568	0.169269	0.166804	0.164503	0.162366
294	0.18817	0.166311	0.164503	0.166804	0.168283
295	0.186198	0.168776	0.16401	0.166804	0.168283
296	0.188992	0.168776	0.165653	0.170748	0.169762
297	0.188334	0.169598	0.17157	0.166311	0.170913
298	0.187513	0.17272	0.169598	0.172556	0.170255
299	0.183075	0.16894	0.173049	0.170913	0.171241
300	0.181596	0.173378	0.178637	0.173542	0.175679
301	0.18439	0.173542	0.175679	0.172885	0.174364
302	0.182253	0.174528	0.17913	0.178802	0.1742
303	0.184554	0.171899	0.173542	0.175515	0.176172
304	0.185376	0.172392	0.18061	0.17913	0.181103
305	0.182089	0.172556	0.176829	0.179459	0.180774
306	0.183075	0.176008	0.180774	0.183732	0.181924
307	0.18176	0.175679	0.180116	0.182417	0.182746
308	0.180116	0.177651	0.182582	0.184883	0.183568
309	0.18554	0.176994	0.181103	0.183897	0.184225
310	0.177322	0.178309	0.184554	0.182582	0.186691
311	0.180116	0.178802	0.18439	0.183075	0.183239
312	0.176336	0.179459	0.182089	0.185047	0.184883
313	0.179788	0.176336	0.184554	0.186362	0.187513
314	0.176008	0.178473	0.188334	0.184061	0.187513
315	0.177651	0.181267	0.184554	0.184061	0.184061
316	0.179295	0.181267	0.188827	0.187019	0.184554
317	0.174035	0.185376	0.18817	0.186198	0.187841
318	0.174364	0.187513	0.18817	0.18554	0.185705
319	0.176172	0.186198	0.191293	0.187841	0.188827
320	0.166968	0.186033	0.187513	0.189649	0.18932
321	0.173378	0.187184	0.190471	0.189978	0.195402
322	0.178309	0.185376	0.186691	0.190307	0.184061
323	0.1742	0.18817	0.188334	0.191621	0.193922
324	0.175843	0.18554	0.189156	0.192115	0.192772
325	0.173707	0.185705	0.189649	0.188663	0.191621
326	0.177158	0.189156	0.189978	0.194744	0.193429
327	0.173871	0.188006	0.1908	0.190635	0.193265
328	0.177487	0.191457	0.193922	0.188827	0.190307
329	0.176008	0.186526	0.192115	0.1908	0.193594
330	0.178637	0.188499	0.192279	0.192608	0.195895
331	0.167132	0.190142	0.193265	0.1908	0.193758
332	0.170748	0.191786	0.195566	0.194909	0.188827
333	0.176172	0.189485	0.197374	0.189485	0.191128
334	0.180445	0.195402	0.193922	0.192772	0.195073
335	0.180116	0.187513	0.195237	0.196059	0.189978
336	0.178966	0.192443	0.196059	0.196223	0.191293
337	0.18176	0.190635	0.193429	0.191621	0.19458
338	0.181431	0.192772	0.198853	0.195895	0.195895
339	0.179952	0.1908	0.194909	0.196881	0.198524
340	0.177322	0.19573	0.193101	0.194909	0.198689
341	0.179788	0.193922	0.193594	0.196388	0.19721
342	0.176172	0.190964	0.194909	0.194744	0.197867
343	0.177158	0.194087	0.194909	0.195402	0.186198
344	0.179623	0.191786	0.191786	0.197045	0.194087
345	0.18061	0.194251	0.185869	0.195237	0.198689
346	0.180281	0.192443	0.195402	0.195895	0.196223
347	0.179952	0.1908	0.196223	0.19721	0.192608
348	0.18176	0.196059	0.197538	0.19458	0.197538
349	0.18061	0.196059	0.201647	0.194744	0.198196
350	0.18061	0.193922	0.198031	0.192443	0.193594
351	0.181267	0.196388	0.197703	0.193265	0.199839
352	0.182582	0.193758	0.196388	0.195402	0.196059
353	0.18061	0.194087	0.199018	0.19573	0.199675
354	0.178802	0.18932	0.197703	0.194416	0.194416
355	0.178309	0.192772	0.200825	0.198031	0.195566
356	0.181431	0.190964	0.198031	0.198031	0.199346
357	0.175515	0.189978	0.199346	0.200825	0.197374
358	0.17913	0.189814	0.197703	0.197045	0.19836
359	0.182582	0.194744	0.199839	0.197374	0.198689
360	0.177815	0.192443	0.199675	0.198689	0.199511
361	0.179295	0.192279	0.19836	0.194087	0.197703
362	0.181924	0.190307	0.195237	0.198689	0.196881
363	0.183897	0.192279	0.200661	0.198031	0.19573
364	0.183568	0.196388	0.20099	0.198689	0.199182
365	0.181431	0.194416	0.200004	0.196223	0.19721
366	0.184554	0.19458	0.205263	0.197867	0.196552
367	0.184554	0.193429	0.198689	0.197045	0.198524
368	0.181924	0.197045	0.200825	0.199182	0.196059
369	0.182089	0.193922	0.201319	0.198524	0.19573
370	0.179788	0.197867	0.201647	0.19836	0.198196
371	0.178309	0.197045	0.202633	0.196552	0.195566
372	0.179952	0.194251	0.201812	0.199182	0.197538
373	0.18061	0.194087	0.198196	0.199018	0.201483
374	0.17798	0.196388	0.202305	0.19836	0.199839
375	0.179295	0.194251	0.200004	0.200661	0.199182
376	0.178309	0.19573	0.201483	0.198689	0.202962
377	0.179788	0.195402	0.203291	0.20099	0.205099
378	0.178309	0.196388	0.200332	0.198524	0.199839
379	0.179295	0.196388	0.201976	0.199346	0.200825
380	0.179459	0.192772	0.201647	0.19836	0.197867
381	0.177815	0.200168	0.201812	0.197045	0.200332
382	0.177651	0.198196	0.201319	0.195895	0.201647
383	0.180116	0.200004	0.203291	0.19836	0.196388
384	0.177651	0.195237	0.197045	0.197538	0.19721
385	0.173214	0.201319	0.204606	0.193101	0.199675
386	0.177815	0.201483	0.201154	0.197867	0.196223
387	0.176501	0.195402	0.203126	0.202633	0.197867
388	0.172392	0.19721	0.191621	0.204441	0.201647
389	0.173378	0.198031	0.202305	0.196717	0.198689
390	0.176829	0.197538	0.201483	0.201483	0.196552
391	0.169762	0.197045	0.200004	0.196059	0.199839
392	0.174857	0.201319	0.198689	0.20099	0.200661
393	0.17272	0.196717	0.201647	0.19836	0.201154
394	0.178144	0.201319	0.195895	0.200332	0.201319
395	0.178309	0.196717	0.197538	0.199675	0.198853
396	0.176008	0.201976	0.201319	0.197703	0.202798
397	0.177158	0.194909	0.200825	0.197045	0.198689
398	0.178473	0.199839	0.204277	0.195402	0.206414
399	0.177651	0.198524	0.192279	0.197374	0.205263
400	0.17272	0.200004	0.199839	0.19836	0.20099
401	0.180281	0.202633	0.198853	0.196552	0.200332
402	0.174857	0.200332	0.199018	0.193429	0.198524
403	0.178144	0.197703	0.201976	0.198853	0.202962
404	0.174857	0.199346	0.20214	0.197045	0.199675
405	0.175843	0.196717	0.200004	0.200168	0.197374
406	0.175186	0.198689	0.202305	0.193594	0.200497
407	0.172885	0.200332	0.202798	0.197703	0.202962
408	0.175021	0.196223	0.201976	0.201483	0.201647
409	0.176994	0.196881	0.200497	0.204606	0.203126
410	0.174857	0.196059	0.198524	0.200661	0.201483
411	0.176665	0.196552	0.199182	0.201319	0.200661
412	0.176665	0.198196	0.196552	0.199675	0.199511
413	0.177815	0.203291	0.202633	0.195402	0.202798
414	0.182417	0.202469	0.200004	0.201319	0.200661
415	0.180281	0.200825	0.197703	0.197374	0.200332
416	0.184061	0.200825	0.19836	0.198689	0.200497
417	0.177651	0.204277	0.199675	0.197867	0.200168
418	0.184718	0.202962	0.200004	0.199018	0.202633
419	0.181596	0.201976	0.199018	0.202962	0.200332
420	0.183404	0.201154	0.199346	0.199511	0.199018
421	0.181596	0.201483	0.202305	0.198196	0.201647
422	0.182253	0.201647	0.199182	0.199182	0.200168
423	0.180445	0.201812	0.200332	0.198689	0.198196
424	0.182253	0.203948	0.198689	0.198853	0.202469
425	0.180281	0.203948	0.198689	0.199182	0.199346
426	0.181431	0.20214	0.195566	0.20099	0.201812
427	0.187348	0.203455	0.197045	0.199511	0.194251
428	0.180938	0.205921	0.198031	0.201154	0.203784
429	0.187019	0.201483	0.20099	0.199182	0.200332
430	0.183239	0.205099	0.199675	0.203948	0.202798
431	0.187677	0.20477	0.19573	0.198524	0.202469
432	0.183404	0.204277	0.201812	0.199182	0.204606
433	0.183404	0.204113	0.195566	0.200004	0.200168
434	0.184554	0.204441	0.198031	0.199839	0.199511
435	0.188334	0.206085	0.194909	0.199675	0.20099
436	0.185869	0.207071	0.197867	0.197374	0.197703
437	0.188992	0.203126	0.196388	0.199182	0.196388
438	0.188663	0.204441	0.198524	0.200004	0.201483
439	0.190307	0.207564	0.19721	0.203455	0.201812
440	0.18817	0.205427	0.199182	0.202305	0.200332
441	0.190142	0.205756	0.194744	0.203291	0.201154
442	0.189978	0.20477	0.193758	0.199675	0.201319
443	0.186198	0.209536	0.200332	0.200825	0.204934
444	0.189978	0.205427	0.191293	0.197538	0.198196
445	0.182582	0.206907	0.196717	0.202469	0.198689
446	0.190964	0.206414	0.195402	0.200004	0.203948
447	0.188499	0.209372	0.196059	0.199018	0.200825
448	0.189814	0.204934	0.19721	0.19721	0.204606
449	0.191457	0.209043	0.197867	0.196388	0.201154
450	0.191457	0.205921	0.196388	0.199018	0.204113
451	0.190635	0.208879	0.196388	0.200168	0.20214
452	0.189649	0.206907	0.194416	0.198196	0.202469
453	0.192936	0.205427	0.199018	0.198196	0.201647
454	0.190635	0.211016	0.198196	0.198196	0.203784
455	0.189156	0.204113	0.199675	0.197045	0.201319
456	0.193429	0.20855	0.198031	0.199182	0.202962
457	0.187513	0.207071	0.194087	0.200332	0.196552
458	0.188827	0.214631	0.197703	0.198853	0.201812
459	0.189814	0.206742	0.197045	0.195895	0.201812
460	0.18817	0.207893	0.19836	0.197538	0.198031
461	0.194087	0.208222	0.196223	0.198031	0.203126
462	0.193429	0.208879	0.199511	0.200497	0.201483
463	0.19195	0.20477	0.197867	0.19836	0.202633
464	0.194087	0.205921	0.198031	0.202469	0.20362
465	0.192608	0.205756	0.19721	0.200004	0.203455
466	0.192936	0.203126	0.200004	0.198689	0.202633
467	0.192772	0.205756	0.192279	0.200497	0.201319
468	0.187677	0.208715	0.200004	0.198524	0.201319
469	0.193101	0.21118	0.189649	0.199182	0.202798
470	0.194251	0.210358	0.195895	0.199182	0.201483
471	0.194416	0.210358	0.197703	0.200497	0.201319
472	0.196552	0.209536	0.196388	0.198689	0.201647
473	0.193758	0.212824	0.198196	0.200661	0.203291
474	0.193594	0.207728	0.196059	0.197374	0.201154
475	0.195073	0.211016	0.198196	0.202469	0.202305
476	0.194909	0.206742	0.197703	0.199018	0.196552
477	0.195566	0.208222	0.199018	0.200168	0.196881
478	0.194744	0.211344	0.195895	0.199839	0.200825
479	0.192608	0.212988	0.200825	0.199511	0.199346
480	0.195237	0.211509	0.198524	0.200168	0.201483
481	0.189978	0.210523	0.199511	0.199018	0.202305
482	0.198689	0.209536	0.199018	0.200825	0.200168
483	0.196223	0.206907	0.196717	0.197867	0.201647
484	0.199511	0.21118	0.195402	0.201483	0.201483
485	0.196717	0.205099	0.197703	0.199511	0.202305
486	0.197374	0.209536	0.194416	0.200661	0.203291
487	0.196717	0.206578	0.199018	0.20099	0.199182
488	0.197867	0.209208	0.200004	0.198853	0.200332
489	0.198524	0.210687	0.193265	0.197867	0.204606
490	0.192115	0.21233	0.197703	0.199182	0.202962
491	0.194744	0.210029	0.197045	0.199346	0.200661
492	0.19458	0.210194	0.196223	0.197867	0.201319
493	0.196059	0.208222	0.19458	0.19836	0.199182
494	0.19458	0.209208	0.19195	0.196881	0.202962
495	0.198031	0.213645	0.193758	0.200168	0.202633
496	0.194087	0.203784	0.196059	0.19573	0.201976
497	0.197703	0.205099	0.19458	0.19721	0.198031
498	0.193101	0.206907	0.199018	0.200825	0.204113
499	0.194744	0.202798	0.194087	0.200661	0.206414
500	0.194087	0.203784	0.198524	0.197867	0.198031
501	0.196223	0.206742	0.196552	0.201647	0.207071
502	0.194909	0.201319	0.196717	0.197867	0.201319
503	0.197867	0.207728	0.197538	0.200497	0.204606
504	0.197045	0.204277	0.19721	0.198196	0.201319
505	0.197045	0.20214	0.193922	0.202962	0.20477
506	0.199511	0.204606	0.194744	0.202633	0.203784
507	0.196388	0.203291	0.198524	0.199839	0.202469
508	0.199675	0.19721	0.196059	0.200332	0.201483
509	0.19458	0.202469	0.196059	0.198524	0.201976
510	0.193594	0.200661	0.200825	0.203126	0.200497
511	0.196223	0.196552	0.197045	0.201154	0.202305
512	0.202469	0.200168	0.197045	0.200825	0.204934
513	0.191621	0.198031	0.198524	0.200497	0.200661
514	0.196059	0.196059	0.199675	0.200168	0.20477
515	0.196881	0.19458	0.195895	0.199346	0.199675
516	0.19573	0.191293	0.198031	0.201319	0.204606
517	0.195237	0.185376	0.197374	0.198031	0.203784
518	0.194251	0.195073	0.198689	0.203784	0.204113
519	0.198524	0.193594	0.195566	0.199675	0.204441
520	0.196059	0.197045	0.19573	0.199675	0.208057
521	0.196717	0.192772	0.196059	0.200825	0.202469
522	0.197045	0.194087	0.196717	0.199839	0.204441
523	0.200004	0.19458	0.197374	0.19836	0.204606
524	0.197045	0.193922	0.196881	0.19836	0.203948
525	0.198031	0.194744	0.196881	0.199511	0.203784
526	0.199018	0.194087	0.198524	0.198031	0.206578
527	0.199182	0.191621	0.19573	0.19836	0.206085
528	0.195566	0.184554	0.200332	0.199839	0.204934
529	0.197703	0.190964	0.202305	0.198031	0.2074
530	0.198031	0.190964	0.200332	0.201647	0.202633
531	0.19721	0.192279	0.197867	0.197374	0.207893
532	0.194087	0.189814	0.199675	0.199511	0.201319
533	0.197045	0.191128	0.200497	0.199346	0.201319
534	0.202305	0.18932	0.195237	0.195566	0.204606
535	0.196223	0.188827	0.200004	0.198853	0.204277
536	0.197703	0.188992	0.196881	0.195895	0.202469
537	0.196717	0.192279	0.196223	0.201976	0.208057
538	0.199018	0.193594	0.196881	0.199346	0.207728
539	0.196717	0.188827	0.201976	0.19573	0.206742
540	0.19721	0.187019	0.196552	0.196717	0.205592
541	0.19836	0.192279	0.199018	0.200332	0.206414
542	0.199018	0.188992	0.19836	0.19721	0.206742
543	0.195237	0.190142	0.198196	0.199675	0.205756
544	0.200332	0.18817	0.191457	0.20214	0.206414
545	0.199346	0.189156	0.193429	0.196717	0.204277
546	0.198031	0.188006	0.19721	0.19721	0.205099
547	0.196881	0.187513	0.193594	0.195237	0.201976
548	0.198689	0.192115	0.197703	0.199182	0.208057
549	0.193265	0.186691	0.200004	0.196717	0.203455
550	0.197045	0.18932	0.20099	0.199346	0.209536
551	0.198689	0.188827	0.199182	0.197374	0.209043
552	0.197374	0.187513	0.199346	0.20362	0.207893
553	0.199182	0.186855	0.198689	0.199675	0.205099
554	0.197703	0.191786	0.196223	0.19836	0.214138
555	0.196717	0.187841	0.195073	0.205427	0.208057
556	0.199346	0.188499	0.195895	0.198031	0.208222
557	0.197045	0.186855	0.195073	0.195566	0.207728
558	0.19836	0.188827	0.199511	0.200004	0.209372
559	0.201976	0.188663	0.196717	0.202633	0.208057
560	0.195073	0.188663	0.198689	0.193594	0.209043
561	0.19573	0.188499	0.20099	0.199182	0.210687
562	0.197045	0.187348	0.199511	0.19721	0.209208
563	0.197374	0.190635	0.196881	0.201154	0.211016
564	0.196059	0.185705	0.201319	0.198853	0.209043
565	0.20099	0.183897	0.200661	0.199675	0.21118
566	0.196881	0.18554	0.19721	0.201319	0.206249
567	0.196388	0.192115	0.200497	0.200004	0.210523
568	0.201319	0.188499	0.199018	0.200661	0.210851
569	0.190471	0.188992	0.204934	0.201976	0.211837
570	0.203291	0.187677	0.199018	0.200497	0.210029
571	0.19836	0.191786	0.200004	0.201647	0.211837
572	0.197374	0.185705	0.199675	0.201319	0.21233
573	0.199018	0.18817	0.199346	0.202305	0.21496
574	0.200497	0.189485	0.19721	0.199018	0.21496
575	0.197045	0.191128	0.199675	0.200661	0.209865
576	0.200661	0.189814	0.196717	0.200825	0.213481
577	0.199511	0.189814	0.201319	0.201154	0.210851
578	0.199839	0.192115	0.199346	0.202305	0.209208
579	0.199675	0.187677	0.20099	0.198031	0.213974
580	0.196717	0.192443	0.198689	0.201647	0.215946
581	0.200497	0.193429	0.199182	0.19721	0.213152
582	0.195237	0.193265	0.200661	0.199346	0.21759
583	0.20099	0.192608	0.201483	0.201647	0.214303
584	0.19836	0.192936	0.198853	0.202469	0.214631
585	0.198689	0.193101	0.197867	0.201647	0.21233
586	0.197374	0.193922	0.199511	0.204113	0.214467
587	0.199018	0.193922	0.202633	0.202469	0.211509
588	0.197538	0.199511	0.199675	0.203948	0.213645
589	0.199182	0.196717	0.197867	0.204606	0.214138
590	0.197703	0.194416	0.199182	0.197703	0.215782
591	0.201976	0.196059	0.195237	0.20099	0.220055
592	0.201483	0.196552	0.19721	0.200661	0.216275
593	0.20099	0.199511	0.197703	0.201154	0.221041
594	0.199511	0.195566	0.195073	0.200332	0.218083
595	0.196223	0.19573	0.189156	0.202469	0.219398
596	0.200168	0.197374	0.196388	0.198031	0.22137
597	0.196223	0.197867	0.199346	0.20362	0.220384
598	0.197703	0.19573	0.199018	0.200661	0.219727
599	0.197867	0.201976	0.199018	0.201483	0.222685
600	0.198031	0.19836	0.198031	0.198196	0.216932
601	0.197703	0.200332	0.201812	0.200332	0.21874
602	0.200004	0.199839	0.19573	0.201483	0.220713
603	0.199182	0.199511	0.202962	0.19721	0.221534
604	0.200168	0.19721	0.196059	0.200168	0.224329
605	0.194416	0.20362	0.202633	0.196717	0.22137
606	0.198524	0.196881	0.203784	0.199346	0.223014
607	0.197045	0.199346	0.201812	0.200497	0.222192
608	0.196223	0.201319	0.199346	0.20214	0.223671
609	0.199839	0.197867	0.200497	0.201319	0.222521
610	0.195566	0.201154	0.197703	0.199675	0.224
611	0.199346	0.198031	0.195237	0.19721	0.224657
612	0.197703	0.199346	0.199018	0.206249	0.224822
613	0.200825	0.200497	0.199182	0.19573	0.224986
614	0.200825	0.203126	0.198031	0.205756	0.227616
615	0.199346	0.20099	0.196881	0.202962	0.223671
616	0.199018	0.206249	0.199018	0.198031	0.22515
617	0.201483	0.205921	0.199839	0.201976	0.22515
618	0.202305	0.20362	0.200004	0.201483	0.223014
619	0.197867	0.202633	0.201812	0.203784	0.226136
620	0.196881	0.202305	0.199675	0.201812	0.220877
621	0.199346	0.207728	0.199511	0.201647	0.227944
622	0.19573	0.20099	0.200497	0.199018	0.224493
623	0.197703	0.199675	0.199675	0.206249	0.226136
624	0.200332	0.20362	0.199675	0.199675	0.227944
625	0.199839	0.207893	0.201483	0.203455	0.228602
626	0.201319	0.201976	0.198524	0.201647	0.224822
627	0.196552	0.205592	0.196717	0.201647	0.228437
628	0.200332	0.204441	0.200825	0.20099	0.227616
629	0.196717	0.201812	0.199018	0.20477	0.221699
630	0.200497	0.203291	0.197538	0.199018	0.224
631	0.197045	0.20362	0.200168	0.200168	0.22663
632	0.200825	0.203291	0.199346	0.199182	0.219233
633	0.199346	0.205263	0.197538	0.19721	0.224164
634	0.198689	0.202798	0.198031	0.201154	0.224
635	0.198524	0.205592	0.201812	0.19836	0.220877
636	0.201319	0.206742	0.198196	0.201647	0.224164
637	0.196223	0.204606	0.200661	0.198853	0.222849
638	0.197374	0.203455	0.202633	0.202633	0.22663
639	0.200168	0.205921	0.200825	0.200661	0.22515
640	0.197045	0.204113	0.199839	0.202798	0.22515
641	0.198689	0.20477	0.199346	0.199018	0.224329
642	0.194087	0.206085	0.19721	0.204277	0.225643
643	0.196388	0.204606	0.19458	0.199018	0.224493
644	0.19836	0.205921	0.197703	0.198196	0.225315
645	0.197538	0.204606	0.193265	0.201976	0.223671
646	0.197538	0.206414	0.196059	0.196059	0.223671
647	0.200497	0.205263	0.194909	0.198689	0.218247
648	0.198196	0.2074	0.199346	0.196552	0.217754
649	0.201647	0.206578	0.199018	0.198031	0.218576
650	0.198196	0.209043	0.198853	0.196059	0.214303
651	0.201647	0.208879	0.200497	0.19836	0.21759
652	0.19836	0.209372	0.200004	0.196552	0.21496
653	0.196717	0.209208	0.200661	0.19836	0.213645
654	0.198689	0.206249	0.199839	0.197045	0.213974
655	0.196552	0.203455	0.201812	0.195895	0.21118
656	0.196223	0.206249	0.202962	0.192772	0.208222
657	0.197045	0.208222	0.200332	0.198853	0.210029
658	0.196552	0.206907	0.199839	0.19573	0.207728
659	0.197867	0.206742	0.20099	0.198689	0.204934
660	0.200497	0.202305	0.201319	0.19836	0.204441
661	0.199511	0.206249	0.201154	0.200168	0.206907
662	0.201647	0.206085	0.199182	0.204113	0.202962
663	0.197538	0.204441	0.200497	0.199182	0.20362
664	0.202469	0.203455	0.197703	0.197703	0.122263
665	0.200332	0.207728	0.198524	0.200004	0.118811
666	0.201647	0.209043	0.195073	0.195402	0.120126
667	0.200332	0.207235	0.198196	0.19721	0.123249
668	0.202469	0.211837	0.197538	0.197045	0.124235
669	0.197045	0.206578	0.199182	0.195566	0.126043
670	0.199511	0.208057	0.201154	0.196881	0.125714
671	0.198031	0.205592	0.205921	0.197374	0.133768
672	0.19721	0.209372	0.198689	0.19721	0.133603
673	0.200825	0.204441	0.201154	0.197045	0.131467
674	0.197867	0.205756	0.202469	0.199182	0.138534
675	0.197703	0.207564	0.195402	0.198689	0.138699
676	0.197045	0.205592	0.198196	0.2074	0.140342
677	0.199511	0.205921	0.199018	0.197374	0.140835
678	0.197045	0.207564	0.20099	0.198689	0.147245
679	0.198196	0.206249	0.197045	0.195237	0.148396
680	0.197045	0.203291	0.19836	0.197045	0.144451
681	0.200661	0.205592	0.202305	0.197538	0.148724
682	0.200332	0.20477	0.196552	0.194416	0.149875
683	0.202469	0.208057	0.200004	0.198031	0.146095
684	0.195895	0.203455	0.200332	0.193265	0.148724
685	0.197867	0.206907	0.199182	0.196717	0.155463
686	0.201154	0.205263	0.201154	0.195402	0.153984
687	0.196388	0.20362	0.200825	0.197703	0.150368
688	0.199182	0.204441	0.199675	0.198524	0.152833
689	0.197867	0.208057	0.200825	0.200661	0.155627
690	0.197538	0.204277	0.200661	0.198524	0.156449
691	0.194087	0.206249	0.199675	0.198524	0.159736
692	0.194909	0.20477	0.198689	0.199182	0.160722
693	0.193101	0.205099	0.196552	0.200004	0.162859
694	0.201319	0.204277	0.201154	0.197867	0.163188
695	0.196059	0.203784	0.203126	0.199346	0.162859
696	0.197374	0.20214	0.194251	0.197867	0.164174
697	0.200004	0.201976	0.194087	0.196881	0.165982
698	0.20099	0.204277	0.19573	0.18554	0.16779
699	0.199018	0.203784	0.199182	0.192279	0.167132
700	0.200661	0.205263	0.198031	0.199018	0.172556
701	0.20099	0.205921	0.199182	0.195566	0.173707
702	0.197538	0.204934	0.198689	0.200004	0.170584
703	0.20099	0.205427	0.198031	0.198031	0.169926
704	0.198853	0.209043	0.200004	0.195237	0.171899
705	0.200332	0.208057	0.200497	0.194744	0.166311
706	0.197538	0.205921	0.202469	0.198689	0.173707
707	0.196059	0.200661	0.197867	0.199675	0.170748
708	0.195237	0.202305	0.198689	0.19721	0.171406
709	0.197374	0.203948	0.197867	0.19573	0.173214
710	0.193101	0.202469	0.20099	0.197045	0.172885
711	0.196388	0.202633	0.199182	0.200661	0.175679
712	0.197538	0.203784	0.200332	0.197867	0.173049
713	0.197703	0.201976	0.199346	0.19836	0.176994
714	0.199018	0.20099	0.200168	0.195402	0.177158
715	0.199511	0.204606	0.198524	0.199018	0.175843
716	0.200168	0.198853	0.201647	0.195237	0.172227
717	0.204113	0.199675	0.197374	0.199018	0.178473
718	0.201647	0.198196	0.198524	0.199839	0.175021
719	0.197045	0.195237	0.199346	0.199182	0.176008
720	0.202305	0.199675	0.198031	0.19721	0.174693
721	0.196223	0.203948	0.20099	0.196059	0.175021
722	0.200497	0.195895	0.199346	0.198031	0.17535
723	0.198196	0.201647	0.200168	0.19836	0.174693
724	0.198031	0.199182	0.199511	0.199018	0.174035
725	0.197703	0.201154	0.199182	0.199346	0.173707
726	0.199675	0.199182	0.196223	0.19836	0.176829
727	0.196223	0.201812	0.201812	0.19836	0.175843
728	0.201319	0.19836	0.199839	0.196881	0.172885
729	0.196223	0.197703	0.197703	0.200661	0.183075
730	0.197374	0.197045	0.19721	0.201647	0.1742
731	0.199182	0.197867	0.201976	0.200825	0.175021
732	0.198031	0.196388	0.19721	0.200497	0.174693
733	0.201483	0.192115	0.199182	0.197045	0.173542
734	0.197538	0.200168	0.198031	0.199675	0.174857
735	0.197867	0.194416	0.198196	0.19721	0.171734
736	0.200332	0.200497	0.200004	0.199182	0.175679
737	0.200004	0.196388	0.197374	0.197538	0.1742
738	0.200004	0.203455	0.20099	0.20099	0.174693
739	0.204934	0.194909	0.199839	0.197374	0.173049
740	0.195402	0.200004	0.199511	0.201319	0.177815
741	0.198853	0.193265	0.194909	0.198524	0.174693
742	0.195237	0.198196	0.200661	0.197703	0.173049
743	0.199018	0.197867	0.197538	0.200168	0.17535
744	0.198524	0.191786	0.199346	0.196717	0.173214
745	0.198853	0.195402	0.200661	0.200332	0.177815
746	0.197703	0.194087	0.202305	0.192115	0.176172
747	0.199018	0.194744	0.200332	0.200332	0.176501
748	0.199346	0.193758	0.198689	0.196552	0.176008
749	0.199346	0.194909	0.198853	0.197538	0.178473
750	0.19836	0.190964	0.198524	0.201319	0.176336
751	0.194909	0.196717	0.198689	0.197867	0.174528
752	0.198689	0.192115	0.199182	0.199018	0.17157
753	0.198031	0.195566	0.198031	0.199675	0.174857
754	0.200661	0.191786	0.19573	0.196552	0.174857
755	0.201319	0.194087	0.201154	0.194416	0.174693
756	0.199182	0.199018	0.197703	0.199182	0.17798
757	0.197045	0.198524	0.196223	0.198524	0.174857
758	0.196059	0.195566	0.19573	0.197867	0.176501
759	0.197538	0.197374	0.200497	0.197703	0.177158
760	0.197703	0.197374	0.200004	0.199018	0.178637
761	0.192772	0.193101	0.200332	0.197867	0.176994
762	0.196388	0.193101	0.20099	0.198524	0.181267
763	0.196059	0.196717	0.197045	0.196552	0.176665
764	0.196223	0.195895	0.199839	0.178309	0.176501
765	0.195073	0.192772	0.198853	0.104019	0.17798
766	0.197374	0.195237	0.204277	0.04748	0.178966
767	0.199182	0.195566	0.197045	0.053562	0.177487
768	0.19836	0.198031	0.199675	0.058657	0.181596
769	0.198196	0.191457	0.199511	-0.000512	0.181267
770	0.198689	0.192936	0.198853	0.006556	0.179295
771	0.200661	0.196552	0.200661	0.013952	0.180938
772	0.196388	0.192936	0.201483	0.024964	0.182417
773	0.198031	0.193594	0.200168	0.028908	0.185376
774	0.201154	0.196059	0.202305	0.034003	0.18439
775	0.199511	0.19573	0.199018	0.044193	0.182417
776	0.198031	0.195402	0.199182	0.050439	0.183404
777	0.197703	0.19836	0.196881	0.057177	0.183732
778	0.197703	0.19836	0.199182	0.061122	0.180445
779	0.19836	0.198196	0.199511	0.067203	0.18554
780	0.197538	0.197374	0.200004	0.07049	0.183239
781	0.198524	0.198031	0.200497	0.079694	0.184883
782	0.199511	0.196717	0.200332	0.083968	0.180445
783	0.201976	0.197538	0.201976	0.089556	0.186033
784	0.202798	0.194909	0.199839	0.093172	0.190471
785	0.196388	0.198031	0.203291	0.097938	0.182253
786	0.198689	0.197867	0.201647	0.100075	0.186691
787	0.200168	0.194251	0.197374	0.109772	0.187184
788	0.199346	0.198031	0.199182	0.111087	0.186033
789	0.197867	0.197867	0.200168	0.113388	0.187677
790	0.199018	0.196552	0.199018	0.116839	0.187677
791	0.198031	0.197703	0.200004	0.116182	0.187184
792	0.20099	0.198196	0.198853	0.126043	0.190142
793	0.200825	0.199511	0.197538	0.125386	0.189156
794	0.203948	0.197045	0.195895	0.128015	0.189814
795	0.199511	0.194416	0.20099	0.130481	0.191621
796	0.196717	0.200004	0.202962	0.134425	0.19573
797	0.199182	0.194909	0.199018	0.133275	0.188334
798	0.198031	0.196059	0.200825	0.141328	0.191128
799	0.196552	0.19836	0.20099	0.139849	0.189485
800	0.197867	0.198689	0.204277	0.146916	0.190964
801	0.201812	0.197703	0.199182	0.14478	0.19195
802	0.198853	0.196388	0.200661	0.148724	0.193922
803	0.200004	0.19458	0.201319	0.153326	0.193922
804	0.19721	0.194251	0.20362	0.148067	0.193265
805	0.197538	0.19836	0.198524	0.155463	0.196223
806	0.197374	0.199018	0.201647	0.155956	0.191293
807	0.203784	0.199182	0.19721	0.158421	0.191293
808	0.197867	0.197867	0.17157	0.159079	0.19195
809	0.200332	0.194909	0.158586	0.164503	0.194416
810	0.196717	0.196552	0.160394	0.162695	0.190471
811	0.199182	0.200004	0.163681	0.169105	0.192936
812	0.199182	0.194416	0.163516	0.163352	0.191293
813	0.198524	0.19721	0.165982	0.168283	0.193429
814	0.200332	0.196059	0.168118	0.17272	0.192115
815	0.198031	0.19836	0.172392	0.170748	0.19195
816	0.200497	0.198031	0.17272	0.172885	0.192279
817	0.194909	0.197538	0.172556	0.17535	0.184225
818	0.195402	0.197374	0.170913	0.174528	0.193101
819	0.197374	0.193429	0.172885	0.175186	0.196717
820	0.196552	0.192115	0.173049	0.177651	0.193101
821	0.196552	0.193758	0.176008	0.176172	0.195895
822	0.199182	0.196717	0.176336	0.178637	0.194087
823	0.198689	0.197703	0.176829	0.17798	0.194251
824	0.201154	0.194416	0.176994	0.179295	0.196552
825	0.200168	0.198031	0.176829	0.181596	0.196881
826	0.200004	0.201483	0.17913	0.179295	0.196717
827	0.201647	0.198031	0.181431	0.183075	0.198689
828	0.197538	0.199018	0.180774	0.180938	0.185376
829	0.198689	0.197045	0.186033	0.181596	0.191786
830	0.200004	0.199839	0.182911	0.178966	0.197045
831	0.201976	0.197538	0.185869	0.183568	0.194087
832	0.196717	0.201976	0.186198	0.182582	0.195237
833	0.200497	0.200661	0.185047	0.185212	0.19573
834	0.202305	0.198196	0.187841	0.186526	0.196881
835	0.201647	0.196881	0.186855	0.188499	0.193429
836	0.197703	0.199675	0.18817	0.187841	0.195566
837	0.198689	0.197703	0.187841	0.188992	0.19573
838	0.203784	0.195895	0.191293	0.191128	0.195237
839	0.198031	0.198853	0.184883	0.19458	0.194416
840	0.198031	0.196552	0.190471	0.189156	0.193758
841	0.196552	0.199018	0.186691	0.18932	0.197538
842	0.200004	0.19721	0.18932	0.195073	0.196388
843	0.203291	0.20099	0.192608	0.189978	0.198853
844	0.199675	0.197867	0.188499	0.188499	0.195237
845	0.19458	0.200332	0.187841	0.19195	0.195566
846	0.199511	0.201812	0.187019	0.187348	0.20099
847	0.199182	0.196717	0.189978	0.19195	0.19836
848	0.199675	0.198196	0.194744	0.188992	0.198853
849	0.203948	0.197538	0.194909	0.19721	0.199511
850	0.197703	0.199675	0.193429	0.189814	0.197538
851	0.196881	0.196059	0.19721	0.192279	0.193101
852	0.198689	0.197045	0.194416	0.193758	0.201154
853	0.195237	0.198196	0.196552	0.191128	0.198196
854	0.197374	0.200168	0.193758	0.188663	0.198196
855	0.195237	0.195073	0.193758	0.191128	0.197045
856	0.196552	0.198853	0.196059	0.196223	0.200004
857	0.199018	0.19721	0.193922	0.192115	0.19573
858	0.202305	0.199675	0.193265	0.197374	0.200661
859	0.198196	0.19721	0.197374	0.19458	0.19836
860	0.18932	0.195237	0.199675	0.194251	0.199511
861	0.201647	0.195566	0.19573	0.194744	0.198853
862	0.197703	0.194744	0.199839	0.194087	0.196059
863	0.205427	0.197703	0.191786	0.195895	0.199018
864	0.199675	0.198031	0.194087	0.196881	0.197045
865	0.197703	0.19721	0.196388	0.194251	0.197703
866	0.20099	0.199182	0.195237	0.192936	0.196552
867	0.196552	0.199511	0.19721	0.197374	0.198524
868	0.196881	0.197867	0.202962	0.195895	0.19573
869	0.199511	0.199018	0.199018	0.19458	0.200497
870	0.197374	0.198524	0.199182	0.196717	0.198031
871	0.188006	0.197045	0.199018	0.196881	0.197867
872	0.19721	0.196552	0.198689	0.196717	0.196717
873	0.197045	0.199182	0.20362	0.199675	0.19836
874	0.199511	0.194251	0.194744	0.198196	0.199018
875	0.19836	0.198196	0.195237	0.199346	0.195073
876	0.199675	0.193594	0.195402	0.195402	0.200332
877	0.199839	0.199018	0.198853	0.197374	0.19836
878	0.199675	0.19573	0.199839	0.196717	0.200168
879	0.199675	0.200497	0.199018	0.19573	0.196552
880	0.199018	0.197703	0.193265	0.19573	0.198196
881	0.201319	0.199675	0.199182	0.19458	0.201647
882	0.200004	0.203291	0.197703	0.196552	0.196223
883	0.19721	0.200661	0.199511	0.194251	0.196059
884	0.200661	0.201154	0.198524	0.200332	0.198196
885	0.196881	0.200004	0.198196	0.195895	0.195895
886	0.199182	0.200004	0.197867	0.197867	0.195402
887	0.199346	0.197045	0.19836	0.19836	0.19458
888	0.19721	0.197867	0.198524	0.200661	0.196717
889	0.199675	0.200825	0.195566	0.198196	0.197867
890	0.197538	0.199018	0.197538	0.198689	0.198196
891	0.19836	0.196717	0.194909	0.198689	0.203126
892	0.199346	0.200825	0.192936	0.195402	0.200168
893	0.199182	0.195566	0.197374	0.200168	0.198524
894	0.193429	0.197703	0.196388	0.196388	0.200497
895	0.197045	0.197045	0.183568	0.196881	0.207564
896	0.196881	0.199182	0.197374	0.194744	0.199675
897	0.200661	0.198689	0.192279	0.19721	0.203126
898	0.197538	0.200168	0.198031	0.19458	0.199018
899	0.200661	0.196388	0.196223	0.199346	0.200004
900	0.198689	0.202633	0.196717	0.198689	0.198031
901	0.20214	0.201319	0.195073	0.19573	0.198853
902	0.198524	0.197374	0.197374	0.199675	0.196717
903	0.197374	0.200004	0.200332	0.196388	0.198853
904	0.199511	0.198031	0.198689	0.19195	0.196223
905	0.194416	0.199346	0.200168	0.19836	0.199018
906	0.199675	0.199346	0.19195	0.198689	0.200825
907	0.196388	0.19721	0.19721	0.200168	0.200661
908	0.199511	0.198689	0.197538	0.196717	0.196059
909	0.198031	0.201647	0.200497	0.200332	0.200497
910	0.199018	0.196552	0.199018	0.199675	0.199675
911	0.197538	0.201154	0.19721	0.196223	0.200497
912	0.200825	0.200332	0.195073	0.195237	0.199018
913	0.201647	0.200168	0.195402	0.199346	0.201154
914	0.200332	0.200332	0.196223	0.197045	0.199675
915	0.200661	0.197867	0.197374	0.196388	0.197703
916	0.198689	0.19721	0.197045	0.197045	0.200497
917	0.200497	0.200004	0.200332	0.196552	0.20099
918	0.20214	0.201647	0.198853	0.199018	0.198853
919	0.200332	0.198031	0.199675	0.197703	0.196388
920	0.199839	0.201483	0.198524	0.198196	0.200168
921	0.200004	0.197374	0.199182	0.197045	0.201647
922	0.198524	0.201319	0.200497	0.198196	0.199839
923	0.200497	0.197374	0.197045	0.199018	0.198524
924	0.194744	0.200497	0.199346	0.198853	0.201319
925	0.201647	0.201483	0.200168	0.200661	0.200168
926	0.198524	0.197867	0.197867	0.200332	0.199346
927	0.199675	0.197538	0.19458	0.200825	0.20099
928	0.197867	0.198524	0.196717	0.201483	0.203948
929	0.200004	0.198853	0.194909	0.201812	0.199346
930	0.19836	0.198689	0.196059	0.197703	0.196881
931	0.201154	0.210687	0.196552	0.199675	0.201483
932	0.199675	0.200168	0.196059	0.198196	0.198196
933	0.194251	0.201976	0.197374	0.19573	0.199182
934	0.198689	0.199839	0.197703	0.19721	0.197867
935	0.199675	0.201483	0.197703	0.197045	0.199346
936	0.200825	0.199675	0.201154	0.19836	0.203784
937	0.198524	0.199839	0.196881	0.200332	0.197703
938	0.201976	0.198524	0.198524	0.197374	0.200168
939	0.198031	0.196059	0.198689	0.200332	0.19836
940	0.195237	0.199346	0.193429	0.195895	0.197867
941	0.199018	0.200661	0.199182	0.200661	0.200004
942	0.198689	0.197374	0.195895	0.197703	0.200168
943	0.196881	0.197867	0.19721	0.196388	0.200497
944	0.199839	0.196717	0.19195	0.199182	0.199675
945	0.199675	0.196388	0.194087	0.196223	0.200825
946	0.198853	0.197374	0.196388	0.196223	0.204934
947	0.202798	0.196223	0.200825	0.197867	0.199018
948	0.198689	0.196552	0.201319	0.200497	0.201976
949	0.204934	0.196388	0.196059	0.196059	0.201154
950	0.199511	0.197867	0.196059	0.197538	0.20099
951	0.200497	0.197045	0.196717	0.196388	0.196388
952	0.197703	0.198524	0.194744	0.200661	0.201483
953	0.199511	0.197867	0.194909	0.196717	0.19836
954	0.196552	0.201154	0.194744	0.197867	0.198853
955	0.193265	0.19836	0.195402	0.197538	0.200332
956	0.201483	0.197703	0.196223	0.194087	0.197867
957	0.19573	0.198853	0.194909	0.202962	0.199839
958	0.195073	0.19836	0.198031	0.193758	0.19836
959	0.200497	0.194909	0.195895	0.202962	0.198689
960	0.197045	0.195073	0.197374	0.200661	0.200497
961	0.195402	0.19573	0.19721	0.200661	0.199675
962	0.196388	0.197703	0.198196	0.19836	0.198689
963	0.199018	0.199511	0.195073	0.201319	0.199346
964	0.199839	0.193101	0.192115	0.197867	0.199511
965	0.198524	0.198031	0.19721	0.195073	0.201483
966	0.200168	0.196552	0.195237	0.196881	0.199018
967	0.203784	0.196059	0.195402	0.199839	0.198031
968	0.202469	0.192443	0.19458	0.199839	0.201483
969	0.198689	0.198853	0.19836	0.201319	0.200004
970	0.201976	0.195402	0.195895	0.199675	0.19836
971	0.19836	0.201812	0.196388	0.198196	0.20099
972	0.198853	0.198031	0.199511	0.199018	0.201154
973	0.199346	0.199018	0.200332	0.200661	0.198196
974	0.199839	0.202469	0.194744	0.200661	0.200332
975	0.198031	0.196388	0.196059	0.197703	0.196388
976	0.198853	0.198031	0.195402	0.198196	0.200004
977	0.197538	0.201319	0.196881	0.198031	0.199675
978	0.199511	0.199511	0.198524	0.200004	0.197045
979	0.200332	0.197374	0.195073	0.198031	0.197703
980	0.19721	0.199346	0.197538	0.202962	0.20362
981	0.200332	0.190964	0.198689	0.198196	0.199675
982	0.200497	0.192115	0.194416	0.201812	0.198524
983	0.199511	0.192936	0.195895	0.198031	0.199511
984	0.197045	0.195566	0.198196	0.19836	0.198853
985	0.197867	0.195566	0.193265	0.200661	0.19573
986	0.198196	0.200661	0.194087	0.197538	0.19836
987	0.199511	0.197867	0.18932	0.198689	0.202962
988	0.196552	0.199182	0.196223	0.19573	0.196881
989	0.200332	0.199511	0.195073	0.195402	0.195895
990	0.199182	0.199182	0.193265	0.195566	0.196552
991	0.198853	0.201812	0.194416	0.201647	0.201812
992	0.19836	0.195566	0.197867	0.199018	0.19836
993	0.199182	0.198031	0.196388	0.199346	0.200332
994	0.197374	0.197045	0.195895	0.199675	0.199018
995	0.195895	0.195402	0.198524	0.199511	0.201483
996	0.198853	0.196717	0.195895	0.197374	0.203126
997	0.205427	0.195895	0.197703	0.19573	0.201319
998	0.200497	0.195237	0.196881	0.199182	0.200332
999	0.198524	0.19836	0.193101	0.197703	0.201976
1000	0.202469	0.195402	0.193265	0.197374	0.197703
1001	0.197703	0.197045	0.190635	0.197374	0.202962
1002	0.200661	0.198196	0.195566	0.200661	0.202305
1003	0.200004	0.196223	0.199675	0.199839	0.199346
1004	0.201319	0.197045	0.198524	0.199839	0.200661
1005	0.196223	0.198853	0.196552	0.200661	0.204113
1006	0.20099	0.198196	0.199346	0.195073	0.199182
1007	0.197045	0.197703	0.196223	0.195402	0.195237
1008	0.197867	0.200332	0.196388	0.197867	0.200661
1009	0.197045	0.19573	0.200497	0.195895	0.199346
1010	0.193758	0.198031	0.196388	0.198524	0.199018
1011	0.196881	0.195237	0.199675	0.198689	0.200497
1012	0.195402	0.190471	0.197703	0.200661	0.200661
1013	0.195237	0.192772	0.196059	0.201812	0.199018
1014	0.199182	0.19458	0.197045	0.19836	0.201154
1015	0.199182	0.194251	0.197703	0.200004	0.200332
1016	0.196552	0.197538	0.199018	0.203948	0.199346
1017	0.197867	0.196552	0.19721	0.204934	0.201154
1018	0.196717	0.19836	0.199511	0.202469	0.200332
1019	0.20099	0.194251	0.19195	0.198524	0.199182
1020	0.196552	0.196881	0.197703	0.197703	0.192279
1021	0.197867	0.197374	0.200332	0.199346	0.200168
1022	0.200661	0.197538	0.201976	0.197703	0.200004
1023	0.200497	0.200004	0.197703	0.202469	0.200497
1024	0.200332	0.201647	0.200004	0.198853	0.198689
1025	0.198853	0.193265	0.199182	0.197867	0.200332
1026	0.198524	0.199839	0.199346	0.197374	0.197538
1027	0.199018	0.198031	0.197538	0.195073	0.198853
1028	0.197867	0.193758	0.200168	0.198031	0.199182
1029	0.193758	0.196552	0.199018	0.20214	0.201319
1030	0.200004	0.194416	0.196223	0.19721	0.201319
1031	0.195237	0.197045	0.201154	0.199346	0.200661
1032	0.198196	0.196388	0.196388	0.200661	0.198196
1033	0.198196	0.202469	0.197703	0.198196	0.20477
1034	0.204113	0.197374	0.196552	0.199018	0.201483
1035	0.199018	0.199182	0.200661	0.199018	0.199346
1036	0.199346	0.196059	0.197867	0.198031	0.199346
1037	0.199839	0.196223	0.197045	0.201154	0.194744
1038	0.197867	0.198853	0.197045	0.19458	0.198524
1039	0.198853	0.198031	0.19721	0.195402	0.199018
1040	0.199511	0.198196	0.197703	0.192443	0.199182
1041	0.199675	0.198524	0.198853	0.195566	0.198853
1042	0.19721	0.199346	0.198524	0.199839	0.198689
1043	0.199346	0.200661	0.199182	0.196717	0.197867
1044	0.199675	0.19721	0.197538	0.199018	0.206907
1045	0.19836	0.196059	0.197538	0.19721	0.198524
1046	0.197045	0.188006	0.202469	0.198031	0.204441
1047	0.20099	0.195237	0.197045	0.196223	0.201319
1048	0.196388	0.197703	0.195237	0.197538	0.200168
1049	0.199346	0.196059	0.198196	0.202305	0.202798
1050	0.196388	0.196717	0.199675	0.195566	0.198689
1051	0.197538	0.196388	0.200661	0.185869	0.203784
1052	0.199511	0.196388	0.199346	0.197045	0.19573
1053	0.201483	0.197703	0.198031	0.200332	0.200825
1054	0.201483	0.19721	0.198524	0.197045	0.201154
1055	0.199675	0.199182	0.196388	0.202962	0.202469
1056	0.200004	0.19721	0.197703	0.199182	0.197538
1057	0.197703	0.191293	0.199346	0.197867	0.197538
1058	0.199018	0.19458	0.199182	0.196059	0.198853
1059	0.199675	0.196223	0.201483	0.199511	0.198689
1060	0.197374	0.195073	0.202962	0.197703	0.199675
1061	0.193265	0.200661	0.200825	0.19721	0.199018
1062	0.200332	0.199346	0.197374	0.192772	0.198196
1063	0.198689	0.199839	0.200661	0.196717	0.199182
1064	0.19721	0.19573	0.20099	0.198689	0.196881
1065	0.198524	0.196388	0.200332	0.199346	0.200168
1066	0.200004	0.198689	0.198031	0.199839	0.201154
1067	0.196881	0.196881	0.197374	0.197867	0.202305
1068	0.196388	0.197867	0.200661	0.199839	0.200004
1069	0.199346	0.195566	0.197703	0.19458	0.200661
1070	0.198689	0.197703	0.194909	0.200497	0.19836
1071	0.199346	0.198031	0.194909	0.195566	0.197867
1072	0.199018	0.196717	0.195237	0.199839	0.199346
1073	0.198689	0.199839	0.198031	0.200168	0.196552
1074	0.201976	0.200825	0.193429	0.196059	0.197045
1075	0.200497	0.199839	0.196552	0.200825	0.199675
1076	0.200168	0.199839	0.201483	0.199839	0.20099
1077	0.20099	0.196059	0.19458	0.195895	0.198524
1078	0.19836	0.201812	0.198689	0.197374	0.201483
1079	0.19836	0.202798	0.200004	0.196059	0.200497
1080	0.199018	0.200661	0.201154	0.195895	0.200332
1081	0.20099	0.199511	0.197867	0.200661	0.201647
1082	0.196223	0.207564	0.200168	0.198524	0.199018
1083	0.19721	0.195237	0.200168	0.200332	0.199018
1084	0.199182	0.194909	0.200497	0.198689	0.197045
1085	0.202305	0.19721	0.200497	0.199675	0.199511
1086	0.200004	0.196552	0.19836	0.197703	0.199346
1087	0.201647	0.198031	0.199346	0.200332	0.199675
1088	0.203126	0.197374	0.198524	0.197374	0.196388
1089	0.199182	0.201319	0.198524	0.203126	0.198031
1090	0.198196	0.196881	0.199511	0.200661	0.196881
1091	0.199675	0.199675	0.200661	0.198196	0.200497
1092	0.202469	0.197374	0.193594	0.20099	0.201647
1093	0.195566	0.198524	0.198853	0.197045	0.201812
1094	0.199346	0.197538	0.199346	0.198853	0.199018
1095	0.198853	0.200168	0.196552	0.199675	0.199346
1096	0.200825	0.200497	0.196388	0.197867	0.204113
1097	0.199182	0.201647	0.196388	0.196717	0.200825
1098	0.198689	0.198689	0.199182	0.197538	0.200661
1099	0.197045	0.201976	0.200168	0.198031	0.199839
1100	0.19836	0.197374	0.199182	0.197703	0.201812
1101	0.19573	0.199511	0.202633	0.195895	0.198196
1102	0.197374	0.199346	0.201812	0.199018	0.197703
1103	0.200661	0.196717	0.197538	0.201812	0.20099
1104	0.199675	0.198853	0.199839	0.202633	0.200661
1105	0.200168	0.196881	0.195073	0.20099	0.196223
1106	0.198689	0.200168	0.198196	0.207071	0.196388
1107	0.196881	0.195402	0.198524	0.200332	0.198689
1108	0.196717	0.196223	0.199018	0.200497	0.201647
1109	0.19721	0.197703	0.195566	0.199675	0.199511
1110	0.201319	0.198031	0.203784	0.199511	0.199675
1111	0.198853	0.196223	0.201647	0.198031	0.19836
1112	0.198031	0.200497	0.198524	0.198853	0.199182
1113	0.199675	0.205099	0.199675	0.198689	0.200004
1114	0.20099	0.198031	0.200661	0.198853	0.199182
1115	0.196552	0.200332	0.199018	0.201812	0.198524
1116	0.198853	0.200497	0.204934	0.19836	0.195073
1117	0.202469	0.198689	0.198031	0.19573	0.19836
1118	0.19836	0.197867	0.199839	0.192936	0.198689
1119	0.197703	0.198196	0.200168	0.197867	0.20214
1120	0.201812	0.200332	0.198196	0.198031	0.199511
1121	0.20099	0.200825	0.199018	0.198689	0.20099
1122	0.200004	0.197867	0.200004	0.199346	0.197045
1123	0.200497	0.201812	0.206742	0.204441	0.201483
1124	0.197538	0.198031	0.198031	0.202305	0.202305
1125	0.199346	0.196881	0.199018	0.203948	0.200497
1126	0.198853	0.197045	0.197867	0.202305	0.202305
1127	0.197538	0.19836	0.200497	0.200004	0.197703
1128	0.201483	0.198853	0.198196	0.20099	0.201483
1129	0.199182	0.201154	0.200004	0.194251	0.202305
1130	0.199511	0.200332	0.195566	0.202305	0.20362
1131	0.20099	0.199182	0.198031	0.196881	0.196388
1132	0.200332	0.203291	0.200332	0.199346	0.194251
1133	0.19836	0.197703	0.204277	0.197538	0.19573
1134	0.196552	0.197867	0.200004	0.19721	0.197703
1135	0.196717	0.202305	0.199839	0.199018	0.195566
1136	0.198689	0.199511	0.200661	0.200661	0.198524
1137	0.199018	0.197374	0.197374	0.199346	0.199346
1138	0.199018	0.200332	0.20099	0.205756	0.199018
1139	0.200661	0.193101	0.196388	0.202305	0.197538
1140	0.196223	0.198524	0.197538	0.202469	0.202305
1141	0.197703	0.194909	0.19721	0.202798	0.201647
1142	0.197703	0.196881	0.198524	0.202305	0.200497
1143	0.202305	0.195895	0.194416	0.202305	0.20099
1144	0.198196	0.19573	0.199182	0.197374	0.195566
1145	0.199018	0.197045	0.196717	0.199346	0.202305
1146	0.200332	0.199182	0.196552	0.197703	0.199839
1147	0.200004	0.19721	0.19836	0.200332	0.203291
1148	0.196881	0.196881	0.199511	0.197538	0.199511
1149	0.196552	0.19721	0.198524	0.199839	0.201976
1150	0.198689	0.196717	0.197374	0.195237	0.196717
1151	0.192772	0.199675	0.197045	0.199182	0.200168
1152	0.197538	0.197045	0.196059	0.200661	0.196717
1153	0.199839	0.20099	0.202469	0.201319	0.197867
1154	0.198031	0.197703	0.198689	0.200825	0.199839
1155	0.197703	0.196881	0.200825	0.20099	0.196059
1156	0.201647	0.194744	0.202798	0.199346	0.20099
1157	0.192936	0.197374	0.200497	0.202305	0.202962
1158	0.196388	0.198031	0.199346	0.202305	0.202469
1159	0.196881	0.195566	0.200004	0.202469	0.202305
1160	0.196223	0.195237	0.199018	0.201976	0.199182
1161	0.193922	0.195402	0.198524	0.196552	0.20099
1162	0.197703	0.194087	0.19458	0.20477	0.198196
1163	0.198196	0.195073	0.19836	0.198524	0.198689
1164	0.201483	0.195402	0.198031	0.198031	0.199182
1165	0.199511	0.196059	0.199346	0.197538	0.196717
1166	0.199839	0.198689	0.20099	0.199346	0.198689
1167	0.199839	0.197538	0.201812	0.197045	0.196552
1168	0.19836	0.202305	0.198524	0.19721	0.200497
1169	0.200004	0.196881	0.197703	0.197045	0.199182
1170	0.196717	0.197045	0.196552	0.201483	0.20099
1171	0.198689	0.198196	0.173871	0.199346	0.197538
1172	0.196059	0.19836	0.032031	0.201483	0.200497
1173	0.197703	0.193758	-0.002155	0.202633	0.203126
1174	0.198196	0.194909	0.009843	0.196552	0.199675
1175	0.19836	0.196059	0.018061	0.199346	0.199018
1176	0.19573	0.196717	0.022334	0.199675	0.201976
1177	0.201483	0.197867	0.028415	0.200497	0.201812
1178	0.19573	0.200332	0.038276	0.199675	0.200004
1179	0.202633	0.197045	0.038934	0.197045	0.203126
1180	0.199346	0.192279	0.009021	0.198524	0.194251
1181	0.199346	0.19721	0.000474	0.197374	0.204113
1182	0.20099	0.196223	-0.000676	0.195895	0.194251
1183	0.19721	0.198689	-0.000347	0.198031	0.196717
1184	0.202633	0.199182	0.008035	0.198196	0.197538
1185	0.197867	0.195566	0.018554	0.19721	0.196059
1186	0.19721	0.196059	0.025621	0.195566	0.197703
1187	0.19458	0.198853	0.03351	0.201154	0.199018
1188	0.199018	0.196388	0.040577	0.200168	0.204277
1189	0.194251	0.197538	0.046494	0.195237	0.200004
1190	0.198524	0.198524	0.051425	0.200168	0.200168
1191	0.199346	0.196388	0.058821	0.19836	0.200168
1192	0.195566	0.196388	0.062273	0.199839	0.189156
1193	0.198031	0.192608	0.067696	0.197538	0.198524
1194	0.200497	0.198689	0.069504	0.199675	0.200661
1195	0.195073	0.197045	0.077886	0.199675	0.196552
1196	0.198031	0.198196	0.085447	0.196552	0.196717
1197	0.200168	0.195402	0.087255	0.198853	0.199182
1198	0.195566	0.199018	0.093665	0.195237	0.201319
1199	0.201647	0.197867	0.099582	0.195895	0.197867
1200	0.199182	0.198689	0.106485	0.196388	0.200661
1201	0.212824	0.199346	0.108128	0.195566	0.198196
1202	0.206578	0.199346	0.110593	0.199346	0.198689
1203	0.200497	0.197867	0.112237	0.198689	0.191457
1204	0.199018	0.197538	0.117661	0.197374	0.198196
1205	0.195073	0.197703	0.119304	0.200004	0.197867
1206	0.19573	0.195073	0.126207	0.139685	0.198524
1207	0.198689	0.193429	0.127029	0.101225	0.202962
1208	0.195566	0.196059	0.130974	0.111415	0.200004
1209	0.191457	0.199511	0.134754	0.114209	0.202798
1210	0.198031	0.194416	0.136069	0.117496	0.197538
1211	0.191293	0.19721	0.138041	0.122756	0.202962
1212	0.198853	0.191786	0.139849	0.125386	0.195073
1213	0.192443	0.193101	0.143629	0.130645	0.199675
1214	0.194087	0.191128	0.146423	0.129988	0.200004
1215	0.19836	0.192443	0.150368	0.135083	0.197867
1216	0.200825	0.195237	0.148889	0.136726	0.199018
1217	0.19836	0.198524	0.154312	0.142314	0.193594
1218	0.201319	0.196552	0.153326	0.139192	0.19836
1219	0.201319	0.200332	0.155792	0.143465	0.194416
1220	0.19573	0.199018	0.164338	0.150697	0.200004
1221	0.197538	0.200004	0.163681	0.147903	0.19836
1222	0.198524	0.19721	0.161544	0.151847	0.200497
1223	0.200004	0.199346	0.167461	0.150368	0.197538
1224	0.188006	0.19836	0.166146	0.15234	0.201154
1225	0.197045	0.195895	0.168283	0.154312	0.198031
1226	0.197045	0.197374	0.169269	0.159736	0.196552
1227	0.198031	0.19721	0.16779	0.159572	0.199018
1228	0.19721	0.197045	0.168612	0.166311	0.19721
1229	0.200004	0.1908	0.172556	0.159736	0.192443
1230	0.19836	0.199839	0.170913	0.163845	0.200004
1231	0.195895	0.196223	0.172885	0.166639	0.198196
1232	0.20099	0.194909	0.175186	0.162202	0.196388
1233	0.201647	0.199018	0.170419	0.166968	0.195566
1234	0.199346	0.197703	0.178309	0.167297	0.19836
1235	0.194744	0.192936	0.177322	0.170748	0.197374
1236	0.197703	0.19836	0.177651	0.169762	0.197374
1237	0.19836	0.196223	0.186198	0.170584	0.198196
1238	0.199018	0.198689	0.178473	0.043207	0.197045
1239	0.199018	0.199839	0.179952	0.050768	0.199018
1240	0.203948	0.195566	0.181431	0.053397	0.19836
1241	0.202798	0.198689	0.179295	0.060465	0.200661
1242	0.197045	0.195895	0.179295	0.06556	0.197045
1243	0.199839	0.197374	0.182253	0.071477	0.199182
1244	0.199511	0.196223	0.178637	0.077393	0.197538
1245	0.195566	0.196881	0.182911	0.083968	0.197538
1246	0.199018	0.194416	0.182089	0.005241	0.197045
1247	0.197374	0.197703	0.188663	0.000474	0.19836
1248	0.198524	0.194416	0.185376	0.008692	0.198524
1249	0.198524	0.197045	0.178637	0.014609	0.19721
1250	0.202469	0.195073	0.182253	0.024306	0.199018
1251	0.197374	0.193758	0.185047	0.021183	0.197703
1252	0.203126	0.19573	0.182746	0.008035	0.20362
1253	0.195073	0.200004	0.185705	0.011979	0.197374
1254	0.201976	0.197538	0.183404	0.024635	0.199511
1255	0.199511	0.196388	0.183732	0.028744	0.198689
1256	0.198853	0.203291	0.187513	0.040249	0.200332
1257	0.201812	0.196388	0.187348	0.042878	0.199839
1258	0.193265	0.198689	0.188827	0.048795	0.198031
1259	0.19458	0.195073	0.176665	0.058164	0.196388
1260	0.201319	0.195402	0.1908	0.062108	0.19573
1261	0.205263	0.198031	0.186526	0.067368	0.197538
1262	0.199346	0.192115	0.189978	0.073449	0.199018
1263	0.199511	0.193101	0.186198	0.072956	0.199511
1264	0.201812	0.19721	0.18932	0.084132	0.198689
1265	0.19836	0.197045	0.189485	0.090542	0.200168
1266	0.19721	0.193101	0.187019	0.091692	0.202633
1267	0.201647	0.194909	0.189156	0.097609	0.198031
1268	0.19836	0.196388	0.191128	0.10139	0.200332
1269	0.198196	0.19573	0.191128	0.105334	0.201647
1270	0.198196	0.196881	0.182417	0.113223	0.199511
1271	0.199675	0.198031	0.187019	0.112566	0.199839
1272	0.20099	0.196388	0.189649	0.112894	0.199675
1273	0.198853	0.199675	0.191457	0.123085	0.199839
1274	0.200332	0.199182	0.192115	0.121934	0.199346
1275	0.19836	0.199346	0.188499	0.12555	0.200168
1276	0.198853	0.198031	0.189485	0.130152	0.194251
1277	0.200497	0.199182	0.18932	0.131631	0.197703
1278	0.199346	0.198196	0.192115	0.132617	0.198196
1279	0.198031	0.195237	0.193429	0.138699	0.196059
1280	0.199018	0.198196	0.191293	0.139849	0.198031
1281	0.197538	0.198853	0.193265	0.141328	0.200497
1282	0.19836	0.196717	0.192279	0.146588	0.19458
1283	0.19721	0.196388	0.193265	0.14478	0.19573
1284	0.199511	0.197538	0.188827	0.149546	0.20214
1285	0.197538	0.199511	0.193594	0.151354	0.197538
1286	0.201483	0.202798	0.191621	0.150368	0.198853
1287	0.199346	0.196552	0.192279	0.15119	0.197045
1288	0.204113	0.199675	0.193101	0.155627	0.200825
1289	0.199018	0.198689	0.193922	0.155792	0.200004
1290	0.19195	0.19721	0.194744	0.160558	0.202305
1291	0.197045	0.198031	0.194909	0.159572	0.197703
1292	0.198196	0.199018	0.196388	0.162366	0.200661
1293	0.198524	0.196552	0.197374	0.163023	0.19721
1294	0.197374	0.197867	0.193101	0.163023	0.198524
1295	0.198524	0.199182	0.192608	0.164996	0.19836
1296	0.196388	0.198196	0.196717	0.167625	0.199839
1297	0.199346	0.197374	0.194416	0.16779	0.196717
1298	0.198524	0.197374	0.199018	0.167132	0.197045
1299	0.199182	0.195895	0.195566	0.172885	0.200497
1300	0.19721	0.198689	0.196881	0.173542	0.198524
1301	0.197374	0.195073	0.196717	0.174035	0.199675
1302	0.202633	0.197538	0.199346	0.177322	0.197045
1303	0.199182	0.199346	0.199346	0.177651	0.20362
1304	0.200004	0.194416	0.196388	0.177158	0.19836
1305	0.198524	0.19573	0.199018	0.180281	0.196552
1306	0.193429	0.198031	0.194909	0.179623	0.198689
1307	0.198853	0.20099	0.198524	0.179295	0.198689
1308	0.201976	0.19836	0.196059	0.179295	0.194909
1309	0.198031	0.199839	0.19836	0.181267	0.19573
1310	0.199675	0.192279	0.196552	0.179952	0.199346
1311	0.19573	0.197374	0.200661	0.184061	0.198524
1312	0.195566	0.197867	0.197538	0.186526	0.199018
1313	0.198689	0.198031	0.201647	0.184883	0.19836
1314	0.200332	0.196552	0.197045	0.18817	0.200168
1315	0.19573	0.196388	0.197867	0.186362	0.198853
1316	0.200168	0.19721	0.19836	0.188499	0.201647
1317	0.196552	0.196552	0.197045	0.186526	0.19836
1318	0.199182	0.199018	0.197703	0.189485	0.201483
1319	0.200168	0.198031	0.196223	0.18817	0.196223
1320	0.199675	0.196717	0.19458	0.18932	0.200661
1321	0.199346	0.195073	0.196223	0.186526	0.201154
1322	0.200661	0.197703	0.199839	0.193429	0.200497
1323	0.201647	0.192772	0.195895	0.194416	0.199839
1324	0.200168	0.200661	0.198031	0.196059	0.19836
1325	0.199675	0.19573	0.195402	0.190964	0.20099
1326	0.199018	0.199182	0.201812	0.18932	0.198524
1327	0.200825	0.198031	0.199346	0.19721	0.19573
1328	0.198853	0.200661	0.200004	0.189814	0.198031
1329	0.200332	0.206578	0.197538	0.192936	0.202469
1330	0.197703	0.196717	0.199675	0.193101	0.198031
1331	0.198524	0.197867	0.200004	0.192772	0.200168
1332	0.19836	0.195895	0.200661	0.19458	0.19836
1333	0.19721	0.198524	0.201812	0.194087	0.199018
1334	0.200004	0.195566	0.200004	0.195402	0.19836
1335	0.200825	0.198524	0.200497	0.199182	0.200661
1336	0.201154	0.192608	0.198689	0.195073	0.198031
1337	0.199511	0.193101	0.199182	0.19573	0.19836
1338	0.197867	0.19458	0.198031	0.197703	0.199018
1339	0.200661	0.197703	0.199675	0.194744	0.199182
1340	0.205263	0.197538	0.196059	0.197538	0.199018
1341	0.197703	0.197867	0.197374	0.195895	0.200661
1342	0.200497	0.196881	0.197867	0.194909	0.197867
1343	0.195566	0.197045	0.196717	0.19573	0.198853
1344	0.204277	0.199018	0.196552	0.198689	0.199018
1345	0.197867	0.195402	0.200661	0.198196	0.198689
1346	0.201319	0.197374	0.199839	0.196059	0.199511
1347	0.200004	0.194251	0.200004	0.196552	0.202798
1348	0.19836	0.196388	0.051425	0.196552	0.199346
1349	0.197538	0.19573	0.022005	0.195073	0.199182
1350	0.197045	0.199675	0.006062	0.197538	0.201319
1351	0.199018	0.196223	0.017074	0.19573	0.196717
1352	0.197867	0.196223	0.022991	0.199346	0.201483
1353	0.201976	0.195237	0.03236	0.198031	0.200332
1354	0.200497	0.197374	0.040906	0.198524	0.200661
1355	0.200168	0.196223	0.045837	0.201976	0.199018
1356	0.196552	0.193101	0.053069	0.199018	0.200332
1357	0.199346	0.195073	0.05652	0.200168	0.200497
1358	0.197703	0.202633	0.064574	0.202962	0.196223
1359	0.198689	0.19458	0.069504	0.195895	0.200825
1360	0.191293	0.196388	0.074435	0.201154	0.199839
1361	0.199018	0.196552	0.077558	0.198196	0.200332
1362	0.203126	0.195895	0.085447	0.192115	0.200332
1363	0.199182	0.200661	0.093007	0.200661	0.199839
1364	0.201976	0.195895	0.096459	0.197703	0.196223
1365	0.19721	0.197374	0.098267	0.200168	0.202305
1366	0.199346	0.197703	0.104348	0.198031	0.200004
1367	0.199839	0.193758	0.109279	0.20099	0.198689
1368	0.200332	0.196552	0.109443	0.199018	0.198853
1369	0.197538	0.19836	0.113881	0.201319	0.20214
1370	0.202962	0.194909	0.116346	0.200332	0.198031
1371	0.19573	0.199182	0.123578	0.199839	0.200332
1372	0.19573	0.194087	0.124728	0.199018	0.199018
1373	0.202633	0.196223	0.126865	0.198524	0.20099
1374	0.199018	0.199839	0.128673	0.199346	0.19836
1375	0.199182	0.195566	0.135411	0.198031	0.197538
1376	0.20214	0.199675	0.13459	0.198031	0.201319
1377	0.200168	0.196388	0.140178	0.200332	0.200004
1378	0.200497	0.200825	0.141493	0.198853	0.202798
1379	0.200661	0.201319	0.141493	0.196717	0.198689
1380	0.199675	0.198524	0.144287	0.199182	0.196552
1381	0.198689	0.195895	0.150204	0.195237	0.196881
1382	0.197867	0.199511	0.14971	0.195073	0.196388
1383	0.198853	0.196552	0.152011	0.189485	0.195895
1384	0.199018	0.197045	0.156778	0.197045	0.197374
1385	0.200332	0.197374	0.152505	0.198196	0.19721
1386	0.19836	0.201319	0.160722	0.196388	0.195895
1387	0.201976	0.19573	0.156285	0.200168	0.20099
1388	0.196223	0.203291	0.161709	0.199839	0.199346
1389	0.196388	0.195402	0.164831	0.198031	0.200332
1390	0.197374	0.19721	0.162202	0.198853	0.199018
1391	0.200661	0.197374	0.16138	0.201154	0.199346
1392	0.20362	0.195402	0.165653	0.196059	0.198031
1393	0.199346	0.19836	0.164338	0.200168	0.200497
1394	0.201154	0.196059	0.166968	0.199018	0.201154
1395	0.201976	0.19458	0.169269	0.197867	0.198031
1396	0.200168	0.197538	0.1742	0.19458	0.199839
1397	0.197374	0.197703	0.172063	0.195895	0.198031
1398	0.201647	0.196388	0.173214	0.19721	0.201154
1399	0.200004	0.203291	0.175515	0.196388	0.202305
1400	0.196717	0.194744	0.175679	0.194416	0.200332
1401	0.201319	0.199018	0.17798	0.19836	0.200004
1402	0.19836	0.197045	0.176501	0.201976	0.196388
1403	0.195895	0.19721	0.176994	0.200168	0.196223
1404	0.197374	0.198853	0.180116	0.201319	0.201483
1405	0.196223	0.19836	0.180281	0.199346	0.193429
1406	0.198853	0.194744	0.17913	0.199839	0.199839
1407	0.196059	0.198031	0.183239	0.199018	0.198853
1408	0.196388	0.196717	0.181103	0.201976	0.199675
1409	0.20099	0.194251	0.182746	0.200497	0.200168
1410	0.204934	0.202798	0.182253	0.201647	0.20099
1411	0.201483	0.192443	0.183239	0.196059	0.205099
1412	0.197703	0.192115	0.183897	0.194909	0.199511
1413	0.197374	0.198689	0.182417	0.193594	0.200004
1414	0.19721	0.204113	0.188334	0.199839	0.196388
1415	0.200661	0.197045	0.185047	0.197374	0.199182
1416	0.200825	0.200497	0.186691	0.194416	0.200332
1417	0.201812	0.194909	0.184225	0.201647	0.196881
1418	0.196223	0.200168	0.188006	0.196223	0.196388
1419	0.20099	0.19836	0.187348	0.200825	0.199182
1420	0.201319	0.197045	0.195566	0.205099	0.197703
1421	0.199511	0.202962	0.189814	0.196059	0.199839
1422	0.19836	0.196059	0.191128	0.196717	0.199346
1423	0.199018	0.193265	0.189814	0.20099	0.199675
1424	0.198689	0.195402	0.188992	0.200332	0.199839
1425	0.19836	0.194087	0.189814	0.20362	0.20099
1426	0.198689	0.197045	0.187019	0.198689	0.199018
1427	0.199839	0.197045	0.183075	0.203455	0.199018
1428	0.199675	0.197374	0.184718	0.198853	0.195402
1429	0.199018	0.195402	0.189649	0.198031	0.200497
1430	0.201976	0.196717	0.189156	0.199182	0.197045
1431	0.200661	0.200004	0.192772	0.196059	0.197867
1432	0.200004	0.193101	0.1908	0.195402	0.197703
1433	0.200004	0.199346	0.192279	0.200168	0.199346
1434	0.200497	0.194744	0.191786	0.205263	0.196717
1435	0.199839	0.202305	0.193101	0.197538	0.197045
1436	0.200168	0.196717	0.195566	0.203784	0.19721
1437	0.197703	0.198031	0.195895	0.197538	0.196388
1438	0.200497	0.203291	0.19195	0.197867	0.201976
1439	0.201976	0.197045	0.191128	0.198031	0.198031
1440	0.196552	0.199346	0.194416	0.200825	0.199346
1441	0.19836	0.197045	0.19195	0.198689	0.196881
1442	0.198524	0.196881	0.191786	0.200661	0.19836
1443	0.200825	0.183239	0.194251	0.199511	0.20099
1444	0.197867	0.196717	0.193101	0.19836	0.201483
1445	0.19836	0.193922	0.192772	0.201812	0.200497
1446	0.19836	0.196388	0.195402	0.198196	0.202469
1447	0.201976	0.19573	0.196881	0.19573	0.19573
1448	0.197374	0.198031	0.196717	0.200332	0.19458
1449	0.201976	0.198196	0.19458	0.196059	0.19836
1450	0.198853	0.200332	0.196717	0.195237	0.199675
1451	0.19721	0.198031	0.196388	0.196881	0.19836
1452	0.199018	0.19836	0.197703	0.19573	0.19836
1453	0.199839	0.198853	0.194744	0.199675	0.200497
1454	0.195402	0.187841	0.00031	0.194909	0.198031
1455	0.196059	0.197867	0.010993	0.197374	0.20099
1456	0.197867	0.196388	0.02069	0.199018	0.198196
1457	0.196388	0.198853	0.027922	0.200497	0.200004
1458	0.199182	0.19836	0.033674	0.19836	0.19836
1459	0.201976	0.197045	0.041728	0.202469	0.197867
1460	0.200661	0.194744	0.046494	0.199511	0.200168
1461	0.197045	0.196881	0.054548	0.200332	0.203948
1462	0.200497	0.193594	0.060136	0.203784	0.197538
1463	0.203784	0.199675	0.065067	0.202469	0.197374
1464	0.204606	0.198689	0.070983	0.200004	0.20099
1465	0.198853	0.192608	0.077558	0.198689	0.197538
1466	0.203291	0.196552	0.080352	0.197045	0.197703
1467	0.202305	0.200004	0.086597	0.198196	0.196552
1468	0.200004	0.196059	0.091199	0.198689	0.19836
1469	0.199511	0.199675	0.100239	0.195237	0.196552
1470	0.198689	0.20214	0.102376	0.197045	0.19836
1471	0.199182	0.19721	0.106813	0.195895	0.196388
1472	0.198689	0.200497	0.109443	0.199839	0.194416
1473	0.199511	0.201154	0.113223	0.196552	0.195237
1474	0.20214	0.198031	0.11651	0.201483	0.197538
1475	0.199182	0.197867	0.117825	0.199839	0.202962
1476	0.196059	0.198196	0.124399	0.197045	0.199018
1477	0.19721	0.192936	0.128837	0.200661	0.200332
1478	0.19836	0.201319	0.132617	0.198524	0.20099
1479	0.199182	0.198196	0.133275	0.201154	0.199511
1480	0.198524	0.197045	0.135411	0.195566	0.199675
1481	0.200332	0.19836	0.134918	0.200004	0.200661
1482	0.199018	0.194909	0.141493	0.200004	0.198031
1483	0.200661	0.200168	0.143794	0.19836	0.19836
1484	0.201483	0.198031	0.144615	0.196059	0.194909
1485	0.20362	0.198853	0.146588	0.196717	0.199182
1486	0.201154	0.200825	0.147409	0.192279	0.198031
1487	0.19573	0.200661	0.153162	0.197703	0.199675
1488	0.196717	0.19573	0.157928	0.195237	0.19721
1489	0.201483	0.197538	0.157271	0.197045	0.200168
1490	0.198196	0.200004	0.158586	0.200332	0.197045
1491	0.19721	0.198031	0.163023	0.198524	0.197703
1492	0.196223	0.193922	0.157928	0.199346	0.197703
1493	0.192608	0.19836	0.166475	0.198689	0.201812
1494	0.198031	0.196388	0.163845	0.195402	0.198689
1495	0.197538	0.198689	0.164503	0.19721	0.200825
1496	0.20214	0.197703	0.163188	0.199675	0.202305
1497	0.199675	0.196388	0.165982	0.195895	0.199675
1498	0.201319	0.198524	0.170584	0.199182	0.20362
1499	0.199182	0.196059	0.171899	0.196717	0.199511
1500	0.20214	0.198689	0.172063	0.200332	0.197538
1501	0.198853	0.200004	0.174035	0.197703	0.198689
1502	0.200168	0.197045	0.175186	0.200004	0.196223
1503	0.202962	0.193922	0.176336	0.198031	0.194416
1504	0.201154	0.199346	0.174857	0.200661	0.197045
1505	0.200497	0.196717	0.177487	0.198196	0.195237
1506	0.202633	0.20099	0.180774	0.19836	0.199182
1507	0.200004	0.197045	0.181267	0.198853	0.200661
1508	0.19573	0.199346	0.182582	0.198689	0.197867
1509	0.198031	0.196552	0.184554	0.200332	0.199839
1510	0.19458	0.19458	0.185212	0.199346	0.199511
1511	0.197538	0.19721	0.184718	0.19836	0.197703
1512	0.194087	0.19573	0.18554	0.199675	0.20099
1513	0.193922	0.196881	0.188827	0.204113	0.199511
1514	0.197374	0.197045	0.185869	0.202962	0.19836
1515	0.198853	0.19836	0.186198	0.203291	0.200168
1516	0.199018	0.198031	0.187841	0.200332	0.197538
1517	0.20214	0.200332	0.185869	0.200497	0.200661
1518	0.200825	0.19836	0.188006	0.199018	0.196881
1519	0.202798	0.200661	0.193922	0.198689	0.197867
1520	0.201483	0.198689	0.187513	0.198689	0.20099
1521	0.19836	0.200168	0.189156	0.199346	0.198031
1522	0.201647	0.198689	0.190964	0.201647	0.199018
1523	0.199018	0.197703	0.189649	0.202305	0.202798
1524	0.197867	0.200004	0.192443	0.200168	0.196388
1525	0.196881	0.199839	0.192115	0.200168	0.196388
1526	0.199839	0.199346	0.190471	0.201976	0.198196
1527	0.196388	0.201483	0.197045	0.200332	0.198031
1528	0.204441	0.200825	0.191786	0.197045	0.198524
1529	0.197374	0.203291	0.192115	0.198853	0.198524
1530	0.19836	0.19836	0.192772	0.206414	0.196552
1531	0.201154	0.200004	0.19195	0.203126	0.197374
1532	0.201647	0.199511	0.189649	0.200332	0.200168
1533	0.198689	0.197374	0.192443	0.197867	0.199346
1534	0.201319	0.20099	0.194416	0.205756	0.201483
1535	0.199346	0.196388	0.194087	0.20214	0.198524
1536	0.20099	0.199511	0.193429	0.20362	0.200332
1537	0.203455	0.199018	0.191128	0.199182	0.199018
1538	0.197867	0.197538	0.192936	0.200661	0.200332
1539	0.201154	0.193265	0.191293	0.198689	0.199346
1540	0.197867	0.203126	0.195237	0.198524	0.197867
1541	0.199018	0.198196	0.194909	0.198524	0.196388
1542	0.201483	0.199675	0.196059	0.19836	0.198689
1543	0.197374	0.202305	0.193101	0.198689	0.20099
1544	0.198853	0.199018	0.195237	0.19836	0.197374
1545	0.196223	0.198853	0.194087	0.200825	0.203948
1546	0.198031	0.197374	0.192279	0.194744	0.19573
1547	0.198196	0.198524	0.188827	0.208222	0.198031
1548	0.199346	0.198853	0.195073	0.195073	0.196552
1549	0.198853	0.197703	0.192936	0.199018	0.200825
1550	0.200825	0.199182	0.192936	0.196059	0.199182
1551	0.198196	0.20214	0.193594	0.199182	0.200168
1552	0.199839	0.199346	0.193101	0.200168	0.19573
1553	0.201154	0.198196	0.193101	0.19836	0.198853
1554	0.200661	0.20099	0.190307	0.198031	0.202469
1555	0.197045	0.198853	0.190142	0.19721	0.199018
1556	0.198031	0.198524	0.192115	0.197374	0.197538
1557	0.196881	0.201154	0.191786	0.196223	0.198524
1558	0.198689	0.200661	0.190964	0.193429	0.199346
1559	0.193265	0.200661	0.192772	0.19458	0.199675
1560	0.19573	0.197374	0.191457	0.202305	0.19836
1561	0.195073	0.198524	0.190307	0.194909	0.197374
1562	0.19836	0.202305	0.189485	0.194909	0.200332
1563	0.198524	0.200332	0.190307	0.195073	0.196223
1564	0.196717	0.198853	0.189978	0.197867	0.198853
1565	0.201483	0.199675	0.188006	0.195402	0.19721
1566	0.200332	0.201483	0.186526	0.198524	0.199675
1567	0.20099	0.197538	0.187841	0.196059	0.193265
1568	0.199018	0.200168	0.186691	0.196881	0.198524
1569	0.201647	0.198853	-0.003142	0.183568	0.197538
1570	0.199182	0.200661	0.003104	0.194251	0.199182
1571	0.201483	0.19836	0.011979	0.197045	0.199018
1572	0.202469	0.199675	0.022663	0.19458	0.197374
1573	0.198524	0.198853	0.026114	0.195566	0.194416
1574	0.201319	0.201647	0.036797	0.195566	0.198524
1575	0.201976	0.20099	0.042878	0.195895	0.200332
1576	0.20099	0.203784	0.051754	0.192936	0.195237
1577	0.200332	0.200497	0.053069	0.197045	0.199839
1578	0.200168	0.198196	0.058492	0.195566	0.196717
1579	0.200332	0.207728	0.066217	0.193922	0.198689
1580	0.197045	0.200332	0.072134	0.191128	0.195566
1581	0.199018	0.20214	0.07838	0.189485	0.198689
1582	0.197867	0.200004	0.081338	0.197703	0.196059
1583	0.201976	0.203784	0.087912	0.195895	0.196388
1584	0.200004	0.198689	0.089885	0.193594	0.19836
1585	0.197703	0.201319	0.095966	0.19721	0.197045
1586	0.203126	0.198689	0.098102	0.193922	0.199182
1587	0.201812	0.201483	0.104512	0.193429	0.19836
1588	0.203291	0.199346	0.106649	0.196388	0.201154
1589	0.19836	0.201812	0.110593	0.195237	0.197703
1590	0.200332	0.202633	0.110758	0.196881	0.201154
1591	0.199675	0.203948	0.116839	0.193101	0.198689
1592	0.202469	0.201154	0.119633	0.195402	0.197374
1593	0.204441	0.200332	0.118154	0.193429	0.200004
1594	0.201483	0.203784	0.126043	0.195895	0.199511
1595	0.198031	0.200168	0.130152	0.196059	0.196717
1596	0.201154	0.20362	0.134754	0.195237	0.199018
1597	0.200332	0.19573	0.134754	0.194087	0.198196
1598	0.199346	0.204113	0.140671	0.195073	0.19721
1599	0.201976	0.200004	0.139849	0.192279	0.199511
1600	0.197374	0.200661	0.144122	0.200497	0.20099
1601	0.201154	0.202305	0.146095	0.195402	0.200332
1602	0.197703	0.202962	0.145437	0.195237	0.19573
1603	0.198524	0.195895	0.148889	0.19573	0.195402
1604	0.198524	0.199018	0.151354	0.194744	0.201154
1605	0.19836	0.20099	0.146588	0.197703	0.199346
1606	0.196552	0.199675	0.155463	0.195402	0.198031
1607	0.201319	0.200825	0.153819	0.197538	0.202469
1608	0.196223	0.197045	0.154477	0.195402	0.199839
1609	0.199675	0.200825	0.157107	0.19458	0.20099
1610	0.20099	0.198524	0.159243	0.194909	0.201647
1611	0.197703	0.200004	0.160887	0.199182	0.202469
1612	0.201154	0.194744	0.162695	0.196223	0.195895
1613	0.201812	0.200332	0.166639	0.193265	0.19836
1614	0.200497	0.199182	0.16779	0.192936	0.197538
1615	0.203126	0.198689	0.169269	0.196059	0.197045
1616	0.20362	0.200825	0.167461	0.195566	0.198031
1617	0.195237	0.200332	0.17157	0.19721	0.197867
1618	0.204441	0.199839	0.173707	0.198031	0.199018
1619	0.198853	0.199675	0.171241	0.197374	0.199346
1620	0.198524	0.200168	0.169926	0.199675	0.198853
1621	0.197703	0.198031	0.173871	0.198689	0.197867
1622	0.197045	0.198689	0.172392	0.200497	0.203455
1623	0.196552	0.199346	0.174364	0.197538	0.19573
1624	0.200825	0.199182	0.17535	0.199675	0.203291
1625	0.200661	0.200497	0.176665	0.19721	0.197374
1626	0.201319	0.199346	0.180445	0.198031	0.19836
1627	0.200661	0.200825	0.179459	0.195566	0.198853
1628	0.199346	0.199675	0.181431	0.197538	0.196881
1629	0.201647	0.197538	0.182911	0.193594	0.19721
1630	0.200661	0.203948	0.181267	0.193101	0.197703
1631	0.200661	0.203126	0.184225	0.191457	0.195237
1632	0.199839	0.203291	0.187184	0.195073	0.196717
1633	0.200497	0.201812	0.187184	0.200497	0.199839
1634	0.19836	0.198524	0.187677	0.200332	0.194744
1635	0.199182	0.197538	0.184718	0.195566	0.197703
1636	0.193922	0.200825	0.187348	0.201154	0.198524
1637	0.194087	0.19836	0.186033	0.200004	0.200497
1638	0.196552	0.200825	0.187184	0.198689	0.199511
1639	0.19721	0.199346	0.187841	0.199675	0.20099
1640	0.201483	0.202469	0.186198	0.199018	0.198196
1641	0.200332	0.202305	0.183239	0.198689	0.202469
1642	0.200825	0.199182	0.185869	0.197374	0.19836
1643	0.206249	0.200825	0.187677	0.199346	0.199839
1644	0.201154	0.199675	0.187348	0.196388	0.19836
1645	0.20099	0.201319	0.18932	0.198196	0.199346
1646	0.200825	0.197867	0.188499	0.195566	0.197045
1647	0.200332	0.201154	0.190471	0.199675	0.196717
1648	0.199675	0.203126	0.190307	0.195402	0.200825
1649	0.199839	0.203455	0.19458	0.196388	0.19721
1650	0.200332	0.201647	0.191293	0.197867	0.197045
1651	0.199018	0.202305	0.193429	0.194251	0.196552
1652	0.200168	0.201154	0.191293	0.197045	0.200825
1653	0.196059	0.198689	0.194909	0.195402	0.197374
1654	0.19836	0.199018	0.191128	0.201483	0.199511
1655	0.19721	0.201976	0.192279	0.199346	0.201154
1656	0.198196	0.199018	0.193922	0.202962	0.199346
1657	0.198853	0.198196	0.192772	0.197703	0.199182
1658	0.195895	0.199675	0.190635	0.20477	0.201319
1659	0.204113	0.199182	0.192608	0.199839	0.197045
1660	0.198524	0.198689	0.193922	0.198689	0.198853
1661	0.202469	0.200661	0.193101	0.197538	0.200168
1662	0.201647	0.198196	0.196552	0.196717	0.198196
1663	0.202469	0.19836	0.194087	0.199675	0.199839
1664	0.200332	0.201647	0.196223	0.196552	0.198524
1665	0.201483	0.200825	0.196717	0.197867	0.198031
1666	0.194416	0.202305	0.197045	0.196552	0.203126
1667	0.195895	0.200661	0.193922	0.20099	0.196881
1668	0.197374	0.203784	0.199511	0.19721	0.197045
1669	0.198196	0.202305	0.196881	0.201154	0.199839
1670	0.199675	0.201319	0.194744	0.198031	0.198689
1671	0.198196	0.202962	0.196223	0.200168	0.194087
1672	0.199511	0.200004	0.195073	0.200168	0.194416
1673	0.199839	0.201319	0.193922	0.201319	0.199675
1674	0.201647	0.199346	0.195073	0.199018	0.196881
1675	0.199018	0.201483	0.194909	0.200004	0.199018
1676	0.20214	0.199346	0.196059	0.20099	0.200661
1677	0.198853	0.200004	0.195402	0.197867	0.20362
1678	0.201154	0.199675	0.195073	0.197538	0.197867
1679	0.198689	0.199346	0.199182	0.196388	0.199511
1680	0.199511	0.19721	0.200661	0.197538	0.195402
1681	0.198689	0.205921	0.199182	0.198853	0.197045
1682	0.201319	0.200825	0.19721	0.199511	0.198031
1683	0.199182	0.202633	0.200332	0.195237	0.19573
1684	0.199839	0.201812	0.196717	0.200661	0.198031
1685	0.200497	0.199839	0.200332	0.20099	0.195566
1686	0.200004	0.203291	0.199675	0.200004	0.203126
1687	0.204606	0.197374	0.200168	0.199346	0.19458
1688	0.195402	0.200497	0.201483	0.201647	0.192936
1689	0.199346	0.200004	0.199182	0.198689	0.199182
1690	0.196717	0.203126	0.192772	0.198031	0.198196
1691	0.200332	0.199346	0.194909	0.200332	0.199182
1692	0.197374	0.200004	0.193429	0.198689	0.199346
1693	0.202305	0.197538	0.193101	0.200004	0.199839
1694	0.200661	0.200661	0.195895	0.196552	0.199346
1695	0.200497	0.199675	0.192443	0.196059	0.201319
1696	0.201483	0.201319	0.196059	0.196059	0.199675
1697	0.202305	0.201976	0.19573	0.196552	0.200497
1698	0.199839	0.201812	0.197045	0.197538	0.198524
1699	0.152998	0.198524	0.198196	0.198031	0.188006
1700	0.156613	0.199346	0.200168	0.196552	0.195566
1701	0.155956	0.203126	0.198524	0.199018	0.197703
1702	0.155627	0.198853	0.198853	0.197538	0.199182
1703	0.004748	0.204606	0.197538	0.198524	0.201976
1704	0.011651	0.198853	0.193101	0.198196	0.192936
1705	0.01691	0.202962	0.197374	0.203784	0.196881
1706	0.028415	0.202305	0.200825	0.198689	0.198853
1707	0.033346	0.20477	0.19721	0.199511	0.197045
1708	0.042878	0.199675	0.19836	0.197538	0.199511
1709	0.040084	0.203126	0.199675	0.201976	0.201154
1710	0.054712	0.200004	0.196881	0.20099	0.190307
1711	0.061451	0.197045	0.201647	0.198196	0.197374
1712	0.071148	0.201647	0.194251	0.201976	0.200497
1713	0.072791	0.206249	0.199839	0.202633	0.198524
1714	0.085118	0.202962	0.196059	0.203784	0.200332
1715	0.083475	0.19836	0.196717	0.198689	0.197867
1716	0.08709	0.202633	0.198853	0.199346	0.200825
1717	0.092514	0.202633	0.197867	0.197867	0.196717
1718	0.100568	0.202469	0.198524	0.199511	0.199511
1719	0.104841	0.202962	0.204277	0.197045	0.197538
1720	0.097281	0.203291	0.197374	0.20099	0.197867
1721	0.113223	0.200332	0.198196	0.199511	0.197538
1722	0.11158	0.203126	0.19836	0.201154	0.199018
1723	0.118154	0.202962	0.196388	0.201154	0.197703
1724	0.119304	0.202798	0.197045	0.201483	0.201812
1725	0.125386	0.201154	0.197867	0.199675	0.202798
1726	0.126536	0.199346	0.198524	0.198196	0.198524
1727	0.130974	0.201647	0.196059	0.200168	0.199182
1728	0.132946	0.201647	0.199018	0.199346	0.198196
1729	0.137712	0.20477	0.197045	0.199346	0.201647
1730	0.141821	0.199018	0.196881	0.199182	0.19721
1731	0.139685	0.201483	0.196552	0.205756	0.20099
1732	0.141821	0.20099	0.195402	0.200168	0.195402
1733	0.143958	0.201483	0.198196	0.200825	0.196717
1734	0.149382	0.20214	0.196059	0.195895	0.198524
1735	0.151354	0.200825	0.197867	0.200168	0.198853
1736	0.154641	0.201154	0.19836	0.196717	0.197867
1737	0.152011	0.200825	0.197867	0.193594	0.20214
1738	0.157271	0.200497	0.197703	0.198031	0.195566
1739	0.157928	0.204113	0.201319	0.199346	0.197867
1740	0.159572	0.202633	0.193101	0.199839	0.198196
1741	0.15875	0.198689	0.201647	0.197045	0.19721
1742	0.163352	0.197703	0.199018	0.200825	0.200004
1743	0.157928	0.199346	0.196388	0.200332	0.19836
1744	0.168612	0.199511	0.20099	0.201154	0.199511
1745	0.167625	0.199182	0.19721	0.199675	0.198853
1746	0.171241	0.200497	0.195566	0.20099	0.200661
1747	0.173707	0.198196	0.196388	0.196388	0.197867
1748	0.170091	0.199182	0.196881	0.200168	0.199839
1749	0.1742	0.198689	0.196059	0.197703	0.199018
1750	0.173707	0.200004	0.197703	0.198031	0.199511
1751	0.17913	0.202305	0.199018	0.199182	0.202469
1752	0.178144	0.20362	0.198196	0.198524	0.200497
1753	0.181267	0.200004	0.195073	0.200004	0.201647
1754	0.178473	0.202798	0.196881	0.200004	0.204441
1755	0.181267	0.200661	0.204606	0.201812	0.197703
1756	0.181431	0.20477	0.197867	0.200168	0.195566
1757	0.18176	0.199511	0.196223	0.201483	0.199675
1758	0.179788	0.201812	0.200168	0.195402	0.196717
1759	0.187019	0.200332	0.196388	0.199511	0.199018
1760	0.185047	0.199018	0.198689	0.200497	0.198853
1761	0.185212	0.20099	0.19836	0.201154	0.197045
1762	0.188334	0.201483	0.198689	0.198853	0.203126
1763	0.186362	0.19836	0.197045	0.199182	0.201154
1764	0.190471	0.19573	0.199182	0.200825	0.197374
1765	0.190471	0.199839	0.197045	0.206414	0.199675
1766	0.189649	0.199182	0.194416	0.200168	0.19836
1767	0.195073	0.198853	0.196552	0.203291	0.200332
1768	0.195237	0.204441	0.195895	0.201812	0.198689
1769	0.192279	0.199018	0.201812	0.200497	0.199018
1770	0.197045	0.20099	0.20099	0.20099	0.198689
1771	0.194909	0.204113	0.199511	0.199511	0.200004
1772	0.19721	0.199675	0.197867	0.200168	0.198853
1773	0.194909	0.202962	0.199346	0.199182	0.20099
1774	0.194416	0.203126	0.196881	0.200004	0.200497
1775	0.193429	0.199675	0.200168	0.20099	0.196552
1776	0.202469	0.201647	0.198689	0.201976	0.195237
1777	0.19458	0.201319	0.187841	0.201319	0.197867
1778	0.194416	0.196223	0.194744	0.202798	0.196059
1779	0.196717	0.199346	0.197867	0.203784	0.195895
1780	0.193758	0.204934	0.19721	0.204934	0.198196
1781	0.197703	0.199182	0.196552	0.201483	0.19836
1782	0.196552	0.201976	0.197703	0.202305	0.198689
1783	0.199346	0.198853	0.197045	0.201976	0.19573
1784	0.196717	0.199511	0.197703	0.200661	0.201812
1785	0.198524	0.198524	0.196388	0.201647	0.201647
1786	0.197703	0.200497	0.199675	0.201154	0.198524
1787	0.203784	0.199839	0.200004	0.201647	0.199675
1788	0.196881	0.20099	0.19458	0.20477	0.200497
1789	0.200004	0.199675	0.195073	0.202962	0.198524
1790	0.200004	0.200825	0.198524	0.199346	0.196881
1791	0.198524	0.199346	0.200004	0.203291	0.200168
1792	0.197045	0.196059	0.200497	0.200004	0.19721
1793	0.196059	0.197374	0.199839	0.201647	0.201154
1794	0.201319	0.199511	0.201319	0.201812	0.195566
1795	0.198196	0.19721	0.198196	0.203784	0.200332
1796	0.197867	0.199675	0.198031	0.199182	0.200004
1797	0.197045	0.197538	0.197538	0.205099	0.19836
1798	0.200332	0.197867	0.201154	0.203291	0.200825
1799	0.198031	0.198524	0.198689	0.203455	0.198031
1800	0.196059	0.196388	0.197045	0.204934	0.197538
1801	0.197045	0.199346	0.198524	0.202798	0.199018
1802	0.198524	0.195073	0.194909	0.202305	0.199675
1803	0.193758	0.198524	0.199675	0.203784	0.197045
1804	0.195237	0.198524	0.199839	0.201483	0.200661
1805	0.196717	0.199346	0.201319	0.200332	0.19836
1806	0.196717	0.199018	0.197867	0.200168	0.201483
1807	0.194416	0.199675	0.201319	0.205592	0.200168
1808	0.196223	0.19573	0.200004	0.204934	0.200332
1809	0.200332	0.196552	0.200332	0.199346	0.197867
1810	0.19721	0.197045	0.200497	0.201812	0.201812
1811	0.19458	0.192443	0.200332	0.200004	0.198524
1812	0.194087	0.19195	0.199675	0.203455	0.200168
1813	0.194251	0.19458	0.199346	0.198853	0.197867
1814	0.193758	0.199511	0.199182	0.200332	0.199018
1815	0.196717	0.19458	0.202633	0.202469	0.200004
1816	0.194251	0.198853	0.198524	0.200497	0.197374
1817	0.194416	0.196717	0.19721	0.203455	0.200168
1818	0.193101	0.196388	0.199839	0.200825	0.200661
1819	0.19573	0.197045	0.196388	0.205592	0.199182
1820	0.196059	0.195566	0.20362	0.195237	0.202798
1821	0.194251	0.198689	0.19836	0.200332	0.199675
1822	0.192279	0.197703	0.200004	0.19836	0.196388
1823	0.193758	0.198031	0.198524	0.197374	0.200004
1824	0.194744	0.196388	0.199839	0.19573	0.199182
1825	0.192443	0.198524	0.198853	0.200168	0.196717
1826	0.193594	0.196223	0.201976	0.196059	0.199675
1827	0.193594	0.199182	0.200497	0.197538	0.203455
1828	0.192443	0.194087	0.197703	0.198524	0.199182
1829	0.192279	0.195073	0.202633	0.201812	0.200004
1830	0.193429	0.193101	0.197538	0.202962	0.200497
1831	0.189814	0.196388	0.20362	0.198689	0.199182
1832	0.189156	0.194744	0.200825	0.199511	0.199675
1833	0.192608	0.199018	0.202798	0.200168	0.196881
1834	0.190964	0.194909	0.198524	0.199675	0.199182
1835	0.187841	0.195073	0.201154	0.19836	0.197045
1836	0.194251	0.199182	0.198853	0.199839	0.197867
1837	0.190471	0.19721	0.198524	0.201976	0.195895
1838	0.193758	0.198853	0.198853	0.200497	0.200004
1839	0.192608	0.19836	0.200497	0.19836	0.20099
1840	0.018061	0.198853	0.194744	0.200332	0.200825
1841	0.025621	0.195566	0.199839	0.197703	0.197867
1842	0.03088	0.198196	0.202305	0.197703	0.19836
1843	0.03729	0.19573	0.200825	0.198853	0.196717
1844	0.046494	0.200661	0.201483	0.198031	0.200168
1845	0.051096	0.196388	0.197538	0.200497	0.197374
1846	0.056356	0.201154	0.201483	0.199511	0.197867
1847	0.064245	0.200661	0.200497	0.201483	0.198196
1848	0.065067	0.199675	0.201647	0.200168	0.199675
1849	0.076243	0.19836	0.198524	0.19836	0.20855
1850	0.080187	0.195402	0.200332	0.198689	0.197867
1851	0.084954	0.19573	0.201812	0.202798	0.203291
1852	0.08857	0.192772	0.201647	0.199018	0.195566
1853	0.090049	0.196223	0.201319	0.198853	0.19836
1854	0.095966	0.195073	0.203126	0.194416	0.193922
1855	0.102211	0.197867	0.199346	0.198031	0.201812
1856	0.103691	0.196881	0.200332	0.194909	0.199182
1857	0.108457	0.196059	0.200497	0.198031	0.19836
1858	0.112566	0.195073	0.198524	0.197867	0.202305
1859	0.117661	0.195237	0.20099	0.19836	0.198689
1860	0.122427	0.193922	0.201812	0.197538	0.200661
1861	0.119469	0.199182	0.201319	0.196717	0.20099
1862	0.128673	0.19721	0.200825	0.200168	0.199182
1863	0.129166	0.197703	0.205756	0.200168	0.197045
1864	0.135083	0.198524	0.199182	0.195895	0.199182
1865	0.13196	0.197374	0.202633	0.197867	0.198031
1866	0.135083	0.195237	0.201812	0.198853	0.198689
1867	0.139027	0.195402	0.201154	0.197703	0.196717
1868	0.138205	0.197538	0.200825	0.199018	0.196223
1869	0.141164	0.197374	0.197703	0.195237	0.199839
1870	0.144287	0.200004	0.195895	0.198031	0.199675
1871	0.150532	0.19573	0.201483	0.196388	0.199675
1872	0.150368	0.19721	0.199511	0.198853	0.200168
1873	0.152505	0.198689	0.199346	0.203784	0.198689
1874	0.155956	0.197374	0.201976	0.197045	0.199346
1875	0.159243	0.19458	0.200661	0.197374	0.199018
1876	0.154312	0.199182	0.199675	0.199018	0.200661
1877	0.159079	0.192115	0.204606	0.191128	0.199511
1878	0.160558	0.198689	0.201319	0.200661	0.196717
1879	0.161709	0.197374	0.199346	0.196059	0.197045
1880	0.163681	0.201319	0.207071	0.19573	0.195073
1881	0.163516	0.194087	0.19836	0.197045	0.197045
1882	0.16779	0.195073	0.203455	0.19573	0.200004
1883	0.172885	0.196059	0.204113	0.197538	0.200168
1884	0.166804	0.19721	0.202633	0.196059	0.196552
1885	0.168776	0.191293	0.20214	0.198524	0.195895
1886	0.171406	0.192936	0.203126	0.197374	0.199839
1887	0.16894	0.196717	0.200661	0.199675	0.200661
1888	0.173214	0.195237	0.201976	0.196059	0.198031
1889	0.172556	0.199182	0.199018	0.202962	0.199675
1890	0.175679	0.192936	0.194416	0.196223	0.198524
1891	0.175186	0.196552	0.197867	0.196552	0.200825
1892	0.177487	0.194251	0.19573	0.197374	0.200168
1893	0.178144	0.197374	0.20214	0.197867	0.20362
1894	0.184554	0.199839	0.19721	0.194251	0.202633
1895	0.180445	0.199346	0.199675	0.197703	0.198689
1896	0.183075	0.19573	0.199018	0.194744	0.199675
1897	0.183239	0.194251	0.201812	0.193922	0.196717
1898	0.182089	0.19836	0.199675	0.197538	0.197867
1899	0.182089	0.193922	0.202798	0.195237	0.198031
1900	0.184061	0.195895	0.199839	0.19836	0.199182
1901	0.184061	0.19721	0.202469	0.196717	0.196717
1902	0.184883	0.194087	0.197867	0.197538	0.199839
1903	0.183897	0.194744	0.198031	0.197045	0.197867
1904	0.183897	0.19836	0.198524	0.200497	0.199182
1905	0.187348	0.194909	0.198196	0.20099	0.197538
1906	0.186855	0.198689	0.200004	0.197045	0.202305
1907	0.188499	0.192608	0.198031	0.198853	0.198853
1908	0.183732	0.193594	0.202305	0.198031	0.200825
1909	0.189978	0.193594	0.199018	0.198524	0.201976
1910	0.189814	0.19458	0.19836	0.197374	0.198689
1911	0.1908	0.197867	0.199839	0.189156	0.201154
1912	0.192443	0.193922	0.198853	0.193758	0.196717
1913	0.194744	0.193594	0.197867	0.196388	0.198031
1914	0.189978	0.19573	0.200004	0.193429	0.197374
1915	0.193594	0.19836	0.200004	0.198031	0.198853
1916	0.194909	0.197045	0.198853	0.196059	0.19836
1917	0.192772	0.202798	0.201812	0.196388	0.199675
1918	0.1908	0.19458	0.200497	0.197867	0.196552
1919	0.194909	0.197045	0.204113	0.197703	0.19836
1920	0.197045	0.194744	0.197703	0.199839	0.19721
1921	0.195402	0.195566	0.19836	0.200332	0.192772
1922	0.197045	0.194087	0.196552	0.191457	0.197867
1923	0.196388	0.196059	0.19836	0.197867	0.199182
1924	0.195402	0.194087	0.197867	0.200661	0.198196
1925	0.191293	0.196388	0.198853	0.200168	0.201154
1926	0.201154	0.197045	0.195566	0.199675	0.203126
1927	0.196388	0.195895	0.198689	0.198031	0.193758
1928	0.196717	0.193758	0.197374	0.199511	0.199018
1929	0.200661	0.197538	0.199839	0.193429	0.197703
1930	0.199018	0.196717	0.199346	0.200168	0.19836
1931	0.196059	0.199839	0.200168	0.194744	0.196223
1932	0.199182	0.199675	0.199346	0.199346	0.196388
1933	0.20099	0.195895	0.204441	0.195073	0.191786
1934	0.200661	0.197867	0.198524	0.191457	0.199346
1935	0.198031	0.195237	0.197703	0.196059	0.199182
1936	0.198689	0.19836	0.201319	0.201154	0.197374
1937	0.201812	0.200004	0.203126	0.199018	0.198853
1938	0.198196	0.192279	0.193101	0.199018	0.198196
1939	0.201319	0.185376	0.197374	0.201812	0.200825
1940	0.198524	0.195073	0.196881	0.204441	0.200497
1941	0.201647	0.193758	0.197867	0.203455	0.201483
1942	0.200661	0.196059	0.197045	0.201812	0.201483
1943	0.206414	0.199182	0.194909	0.204441	0.200497
1944	0.20214	0.197045	0.199018	0.198853	0.199346
1945	0.203455	0.198031	0.197538	0.196717	0.200332
1946	0.206907	0.195895	0.198853	0.198524	0.199018
1947	0.206085	0.200004	0.198853	0.200168	0.199839
1948	0.204934	0.197703	0.199346	0.19573	0.196388
1949	0.205427	0.201483	0.197867	0.197867	0.196552
1950	0.203784	0.193594	0.202305	0.198524	0.196717
1951	0.204441	0.197703	0.201154	0.197703	0.200168
1952	0.204277	0.195895	0.19836	0.201647	0.197045
1953	0.202305	0.197867	0.201812	0.201812	0.199675
1954	0.20362	0.195895	0.199018	0.205099	0.19721
1955	0.200004	0.197867	0.201319	0.206085	0.195895
1956	0.203948	0.196552	0.199346	0.201483	0.198853
1957	0.199839	0.200825	0.198853	0.202633	0.198853
1958	0.199675	0.194251	0.199182	0.204441	0.199839
1959	0.20214	0.195566	0.200004	0.200661	0.200332
1960	0.206742	0.199018	0.196552	0.202962	0.199182
1961	0.206578	0.195073	0.200825	0.198689	0.200497
1962	0.209865	0.196388	0.198196	0.201154	0.199839
1963	0.207728	0.194251	0.197374	0.203455	0.200332
1964	0.208386	0.196388	0.197538	0.199346	0.19836
1965	0.208222	0.195237	0.198689	0.198031	0.198031
1966	0.206249	0.197703	0.199675	0.199018	0.201647
1967	0.208222	0.193429	0.200825	0.199018	0.197538
1968	0.208386	0.199182	0.197703	0.200497	0.198689
1969	0.21381	0.198689	0.199675	0.200661	0.198689
1970	0.212988	0.19836	0.200661	0.200497	0.19458
1971	0.210194	0.19721	0.207893	0.201812	0.194251
1972	0.205756	0.196552	0.201647	0.202962	0.19721
1973	0.208879	0.195895	0.199675	0.20099	0.200661
1974	0.208715	0.196717	0.199839	0.200825	0.199018
1975	0.208386	0.195237	0.196223	0.203455	0.20099
1976	0.208879	0.196552	0.199839	0.200661	0.198689
1977	0.209865	0.196223	0.195237	0.202798	0.201976
1978	0.212002	0.19458	0.196388	0.201154	0.197867
1979	0.211509	0.198196	0.194744	0.201647	0.199182
1980	0.214631	0.198196	0.19836	0.201647	0.196552
1981	0.210687	0.19836	0.199675	0.19721	0.198853
1982	0.211509	0.196059	0.19836	0.19721	0.195402
1983	0.209372	0.198524	0.201483	0.201154	0.19573
1984	0.212166	0.199346	0.197703	0.194087	0.199839
1985	0.215289	0.19721	0.193758	0.199511	0.198689
1986	0.211344	0.193758	0.200661	0.202305	0.199018
1987	0.210851	0.195895	0.19836	0.199839	0.198031
1988	0.211837	0.196388	0.200332	0.20214	0.199511
1989	0.209208	0.193265	0.19721	0.202962	0.194087
1990	0.212166	0.195895	0.194087	0.202962	0.200497
1991	0.212988	0.19836	0.200168	0.195237	0.194744
1992	0.215618	0.195402	0.197045	0.197703	0.201483
1993	0.218576	0.196059	0.198853	0.202633	0.197867
1994	0.21496	0.199675	0.194087	0.200168	0.200661
1995	0.215782	0.194744	0.199675	0.198524	0.198524
1996	0.21381	0.198853	0.197045	0.200497	0.20099
1997	0.214467	0.194416	0.197538	0.19836	0.201976
1998	0.213645	0.199346	0.199675	0.201976	0.201319
1999	0.219398	0.194909	0.196059	0.197703	0.202633
2000	0.214467	0.194087	0.198689	0.198031	0.19836
2001	0.215125	0.198689	0.199346	0.198853	0.19836
2002	0.219891	0.200332	0.201483	0.196388	0.198031
2003	0.216439	0.197045	0.197867	0.197045	0.198524
2004	0.217426	0.19836	0.20362	0.197045	0.196223
2005	0.21233	0.195566	0.200332	0.200497	0.197867
2006	0.213645	0.199346	0.201483	0.197703	0.196552
2007	0.217426	0.192115	0.198196	0.197703	0.199346
2008	0.212002	0.193922	0.199182	0.198689	0.197703
2009	0.207728	0.196223	0.200332	0.199346	0.198524
2010	0.21381	0.195073	0.197538	0.197045	0.197374
2011	0.215618	0.198853	0.197703	0.203948	0.157271
2012	0.215946	0.194251	0.197867	0.197867	0.158586
2013	0.219069	0.200825	0.197045	0.19573	0.162202
2014	0.219727	0.201319	0.198853	0.193594	0.16138
2015	0.215453	0.197045	0.200004	0.194087	0.156449
2016	0.218247	0.197867	0.199018	0.196388	0.144451
2017	0.216111	0.203291	0.200332	0.191457	0.147738
2018	0.220055	0.197867	0.197045	0.196881	0.149053
2019	0.215453	0.200661	0.199018	0.19573	0.152669
2020	0.214796	0.197867	0.195073	0.196881	0.151025
2021	0.214467	0.199182	0.197374	0.193101	0.156285
2022	0.213152	0.198853	0.197374	0.19721	0.159408
2023	0.213152	0.197374	0.20214	0.194909	0.155463
2024	0.217754	0.201319	0.196388	0.19573	0.164174
2025	0.212988	0.198031	0.19721	0.194087	0.16138
2026	0.212988	0.199182	0.200332	0.196552	0.160394
2027	0.21759	0.19836	0.199675	0.196552	0.164996
2028	0.210851	0.201647	0.196552	0.195402	0.166475
2029	0.213481	0.196388	0.197045	0.197045	0.167625
2030	0.212824	0.199182	0.196881	0.198689	0.168612
2031	0.209536	0.196717	0.199675	0.193922	0.168447
2032	0.209536	0.197867	0.195895	0.192772	0.167954
2033	0.211509	0.198031	0.194416	0.195895	0.170091
2034	0.208879	0.196881	0.195895	0.192936	0.173214
2035	0.212495	0.19721	0.194087	0.000639	0.176008
2036	0.205263	0.196552	0.195566	0.008692	0.174857
2037	0.207235	0.195895	0.198689	0.016746	0.176994
2038	0.206414	0.197374	0.19721	0.024142	0.178473
2039	0.205592	0.201647	0.196059	0.03236	0.178802
2040	0.207893	0.194251	0.19836	0.03614	0.178473
2041	0.204441	0.200004	0.195566	0.043043	0.186526
2042	0.205592	0.197703	0.19721	0.052247	0.178473
2043	0.203784	0.197538	0.197374	0.059478	0.180445
2044	0.20362	0.198031	0.192608	0.065724	0.183075
2045	0.201647	0.197045	0.19721	0.071148	0.180938
2046	0.204606	0.198853	0.195895	0.074599	0.184718
2047	0.198853	0.200004	0.192279	0.078873	0.184554
2048	0.200168	0.197538	0.196881	0.029072	0.18932
2049	0.200661	0.19836	0.199511	0.029072	0.18439
2050	0.201319	0.198524	0.197538	0.040413	0.190635
2051	0.195237	0.198031	0.201154	0.046494	0.188334
2052	0.186855	0.197538	0.196552	0.057342	0.195237
2053	0.184883	0.19836	0.200661	0.059807	0.186198
2054	0.190307	0.199511	0.196552	0.06671	0.192115
2055	0.189814	0.199511	0.19836	0.075914	0.185212
2056	0.184718	0.205427	0.197374	0.080845	0.185705
2057	0.187348	0.201812	0.19721	0.083146	0.185212
2058	0.187677	0.199839	0.19721	0.089063	0.18439
2059	0.189485	0.196881	0.200332	0.096788	0.184554
2060	0.183075	0.201154	0.199182	0.098267	0.188499
2061	0.186855	0.195402	0.197867	0.101225	0.188663
2062	0.182746	0.195402	0.197703	0.107635	0.185705
2063	0.182746	0.196881	0.195566	0.109772	0.181267
2064	0.184883	0.197374	0.202962	0.109936	0.188663
2065	0.173378	0.196717	0.195073	0.119962	0.189156
2066	0.173707	0.199182	0.19836	0.120948	0.1908
2067	0.175021	0.196717	0.195566	0.124071	0.192443
2068	0.172556	0.197045	0.199018	0.127687	0.190471
2069	0.173378	0.199839	0.196223	0.131467	0.193265
2070	0.17157	0.200497	0.195073	0.132124	0.186855
2071	0.173871	0.200497	0.196552	0.135411	0.19721
2072	0.171077	0.19836	0.197867	0.135247	0.195073
2073	0.160394	0.201154	0.199182	0.14478	0.192936
2074	0.171406	0.199346	0.198196	0.140506	0.187348
2075	0.171077	0.201154	0.198689	0.145766	0.190307
2076	0.176008	0.198031	0.197045	0.147081	0.191128
2077	0.175186	0.199182	0.199018	0.149382	0.194909
2078	0.172885	0.19836	0.198031	0.151025	0.192936
2079	0.175843	0.200497	0.202633	0.153326	0.19195
2080	0.179788	0.197374	0.195073	0.15875	0.195237
2081	0.1742	0.198524	0.198689	0.157107	0.197045
2082	0.175843	0.19721	0.199511	0.158914	0.196223
2083	0.172885	0.197538	0.197867	0.159572	0.194087
2084	0.170748	0.200332	0.19836	0.164174	0.199675
2085	0.172227	0.198689	0.202469	0.161709	0.194909
2086	0.17535	0.203948	0.197867	0.163188	0.196717
2087	0.176665	0.197538	0.195402	0.166475	0.195237
2088	0.177322	0.198689	0.196881	0.169762	0.199018
2089	0.176994	0.19721	0.197538	0.166146	0.200168
2090	0.176172	0.201319	0.197374	0.169598	0.199346
2091	0.177487	0.197703	0.196881	0.167132	0.197703
2092	0.177815	0.201319	0.197538	0.170419	0.198689
2093	0.176008	0.199839	0.198031	0.170584	0.198689
2094	0.176336	0.196388	0.199675	0.171241	0.200004
2095	0.182089	0.198031	0.195566	0.176829	0.199511
2096	0.174693	0.200168	0.198853	0.175679	0.197538
2097	0.180445	0.19721	0.200168	0.177487	0.198689
2098	0.178144	0.198524	0.203291	0.178309	0.199839
2099	0.179459	0.195895	0.19836	0.179459	0.201154
2100	0.179295	0.195402	0.199182	0.175515	0.20099
2101	0.17913	0.199675	0.198689	0.180116	0.203291
2102	0.179623	0.196223	0.198853	0.180445	0.202633
2103	0.18061	0.198524	0.199182	0.181267	0.20214
2104	0.182253	0.196223	0.196552	0.181596	0.206578
2105	0.181431	0.198689	0.19836	0.182746	0.204606
2106	0.183404	0.193758	0.199018	0.177487	0.205592
2107	0.179952	0.192608	0.198524	0.184554	0.201976
2108	0.185047	0.191128	0.205427	0.186198	0.20099
2109	0.187677	0.195895	0.199182	0.181924	0.201976
2110	0.188334	0.196388	0.199018	0.187513	0.202962
2111	0.183075	0.198196	0.202305	0.183404	0.205592
2112	0.184718	0.197045	0.197374	0.187841	0.203948
2113	0.183568	0.196881	0.201647	0.186033	0.201154
2114	0.186526	0.19836	0.198689	0.18439	0.202962
2115	0.184554	0.195402	0.199511	0.1908	0.202962
2116	0.184061	0.197374	0.202962	0.188334	0.204441
2117	0.185376	0.19721	0.199675	0.193101	0.203784
2118	0.183404	0.197703	0.199182	0.192279	0.204934
2119	0.187348	0.195895	0.196223	0.191293	0.205099
2120	0.185376	0.199675	0.194087	0.191786	0.202798
2121	0.186691	0.19721	0.19836	0.193429	0.205921
2122	0.18554	0.195237	0.199839	0.189814	0.206085
2123	0.190471	0.199018	0.197045	0.193429	0.20477
2124	0.188827	0.200497	0.200825	0.193265	0.202962
2125	0.191293	0.196388	0.198524	0.19195	0.201812
2126	0.190471	0.202798	0.198524	0.18817	0.204113
2127	0.191457	0.198031	0.198689	0.193265	0.202469
2128	0.189978	0.197538	0.201483	0.191457	0.200825
2129	0.193265	0.200004	0.200004	0.192115	0.202633
2130	0.191128	0.195895	0.192115	0.192936	0.201483
2131	0.190142	0.198853	0.200168	0.197867	0.203291
2132	0.190307	0.196388	0.201483	0.194251	0.199839
2133	0.188827	0.193429	0.201154	0.193922	0.197867
2134	0.190307	0.196552	0.200004	0.196881	0.201154
2135	0.18932	0.198853	0.201319	0.198196	0.201976
2136	0.193594	0.198196	0.198689	0.19195	0.200497
2137	0.192936	0.200004	0.191621	0.197374	0.203455
2138	0.191786	0.200332	0.199675	0.197867	0.203455
2139	0.193101	0.198853	0.198031	0.196388	0.202469
2140	0.193101	0.198031	0.195073	0.196059	0.198853
2141	0.191786	0.200332	0.197867	0.194744	0.200168
2142	0.19195	0.199346	0.198853	0.197045	0.200168
2143	0.192443	0.198196	0.197703	0.19721	0.19721
2144	0.195566	0.196388	0.19836	0.197045	0.199839
2145	0.193429	0.200332	0.199346	0.193922	0.202798
2146	0.193594	0.197045	0.201154	0.197045	0.19721
2147	0.19458	0.19573	0.207564	0.190964	0.196059
2148	0.192936	0.198689	0.201812	0.193594	0.199675
2149	0.189649	0.197867	0.204441	0.192772	0.197045
2150	0.196223	0.194251	0.202633	0.197045	0.195895
2151	0.194087	0.199018	0.202633	0.197374	0.19836
2152	0.193101	0.198689	0.199839	0.202305	0.199018
2153	0.193429	0.196881	0.199511	0.201647	0.196552
2154	0.192772	0.195402	0.201319	0.19836	0.198196
2155	0.19458	0.19573	0.196388	0.20099	0.192443
2156	0.194251	0.199346	0.199346	0.196881	0.19458
2157	0.194909	0.199675	0.199346	0.197867	0.197045
2158	0.194251	0.200332	0.201483	0.195566	0.193922
2159	0.194744	0.198031	0.196881	0.198031	0.196059
2160	0.198031	0.196717	0.20099	0.197703	0.195073
2161	0.198689	0.199346	0.20099	0.199346	0.193922
2162	0.199346	0.196552	0.200497	0.194251	0.191457
2163	0.196388	0.196223	0.199182	0.202305	0.195566
2164	0.196059	0.19458	0.202469	0.197374	0.193265
2165	0.19458	0.200332	0.202962	0.199018	0.189156
2166	0.19573	0.198524	0.200497	0.199018	0.192115
2167	0.192936	0.200004	0.202798	0.198853	0.197703
2168	0.195237	0.198689	0.199182	0.200168	0.188827
2169	0.195073	0.199018	0.200661	0.199018	0.194251
2170	0.200497	0.196059	0.196223	0.199675	0.189649
2171	0.193758	0.199346	0.202305	0.200661	0.192443
2172	0.198524	0.201319	0.199182	0.201647	0.193101
2173	0.20099	0.196059	0.200661	0.199675	0.191457
2174	0.202469	0.19836	0.197374	0.200497	0.195895
2175	0.197045	0.198031	0.200825	0.196881	0.189156
2176	0.197867	0.199511	0.197538	0.200825	0.191457
2177	0.19836	0.20099	0.20362	0.199675	0.190964
2178	0.195566	0.20099	0.201483	0.199675	0.191128
2179	0.201154	0.200497	0.201647	0.198031	0.190635
2180	0.196552	0.200004	0.201976	0.196717	0.188992
2181	0.198689	0.199182	0.199182	0.197703	0.19195
2182	0.197703	0.202305	0.199182	0.199182	0.186691
2183	0.196717	0.197045	0.200661	0.201483	0.189485
2184	0.197867	0.202469	0.199182	0.199839	0.191128
2185	0.198196	0.198853	0.197538	0.073778	0.191293
2186	0.194909	0.199182	0.201647	0.067039	0.190307
2187	0.199675	0.195073	0.196717	0.074928	0.192115
2188	0.19458	0.197703	0.196717	0.077886	0.190307
2189	0.197374	0.200004	0.195402	0.085611	0.193594
2190	0.196223	0.197045	0.196223	0.086597	0.191293
2191	0.201319	0.200332	0.193758	0.093829	0.193594
2192	0.201812	0.19836	0.197045	0.099417	0.193758
2193	0.201154	0.201483	0.196223	0.106485	0.193429
2194	0.203126	0.198196	0.195895	0.107306	0.19195
2195	0.200497	0.198031	0.200332	0.110429	0.195566
2196	0.199018	0.194251	0.200332	0.115031	0.194251
2197	0.196059	0.198196	0.199346	0.114702	0.193758
2198	0.197538	0.199839	0.192443	0.117168	0.192279
2199	0.197538	0.203455	0.197045	0.122427	0.193922
2200	0.19836	0.200497	0.198196	0.125221	0.190471
2201	0.196388	0.200168	0.198524	0.124399	0.19458
2202	0.197867	0.200168	0.194909	0.136233	0.192443
2203	0.19573	0.198524	0.200497	0.137384	0.190964
2204	0.195895	0.202469	0.197703	0.141164	0.196717
2205	0.196717	0.20214	0.19836	0.144944	0.191128
2206	0.199182	0.200332	0.198031	0.145766	0.192279
2207	0.198689	0.198853	0.197538	0.14593	0.19195
2208	0.198689	0.198689	0.197045	0.150697	0.193265
2209	0.200004	0.192443	0.197538	0.152833	0.195073
2210	0.196223	0.200168	0.194251	0.154312	0.195895
2211	0.197374	0.199346	0.196059	0.155463	0.194416
2212	0.198196	0.197374	0.196552	0.156449	0.194909
2213	0.198196	0.197703	0.196717	0.161051	0.192115
2214	0.198031	0.200168	0.198689	0.15875	0.19573
2215	0.200497	0.199675	0.199839	0.16253	0.195237
2216	0.198196	0.203291	0.197538	0.165324	0.194251
2217	0.201483	0.199675	0.196388	0.163188	0.193922
2218	0.199182	0.200661	0.199511	0.168118	0.192115
2219	0.199346	0.201154	0.19836	0.169926	0.198031
2220	0.196059	0.199511	0.198689	0.170091	0.184718
2221	0.199839	0.20362	0.197867	0.173378	0.191786
2222	0.198196	0.201154	0.201647	0.168612	0.19573
2223	0.203784	0.202305	0.195566	0.176665	0.197703
2224	0.201319	0.201154	0.195402	0.173378	0.192608
2225	0.197538	0.201976	0.195073	0.179295	0.196717
2226	0.202962	0.201483	0.192936	0.17798	0.196059
2227	0.194251	0.201647	0.191128	0.179459	0.199018
2228	0.196717	0.200004	0.193594	0.182417	0.195237
2229	0.196059	0.203784	0.197703	0.180116	0.196223
2230	0.19836	0.200661	0.195237	0.18061	0.196388
2231	0.200497	0.20099	0.199675	0.176994	0.193758
2232	0.202305	0.201154	0.196717	0.180281	0.18932
2233	0.199839	0.199018	0.195566	0.180281	0.193429
2234	0.200497	0.202962	0.196717	0.181267	0.198031
2235	0.196881	0.202633	0.197045	0.182911	0.192772
2236	0.202305	0.201812	0.19721	0.18554	0.197045
2237	0.198524	0.203455	0.201483	0.184225	0.194744
2238	0.199675	0.203291	0.197867	0.184883	0.196717
2239	0.200332	0.20099	0.199018	0.187184	0.196388
2240	0.196881	0.199346	0.197374	0.1908	0.200168
2241	0.199839	0.201812	0.198524	0.183075	0.197867
2242	0.196717	0.200004	0.195895	0.187841	0.199182
2243	0.199182	0.198853	0.196223	0.189978	0.195237
2244	0.198524	0.197045	0.194744	0.18817	0.199018
2245	0.19721	0.198689	0.191457	0.186691	0.196388
2246	0.198853	0.200825	0.193758	0.188334	0.197538
2247	0.203455	0.198853	0.195895	0.18554	0.201154
2248	0.199182	0.202305	0.201976	0.187677	0.197703
2249	0.203784	0.199839	0.198031	0.186855	0.200661
2250	0.201647	0.20099	0.198524	0.186855	0.196881
2251	0.200825	0.200004	0.200004	0.18817	0.199018
2252	0.200661	0.20099	0.201647	0.185212	0.197703
2253	0.199511	0.203948	0.196881	0.190635	0.199675
2254	0.197045	0.201976	0.197374	0.191621	0.195237
2255	0.19721	0.197703	0.199346	0.192279	0.197867
2256	0.197703	0.200497	0.198689	0.189978	0.194744
2257	0.197867	0.200332	0.198031	0.192443	0.198196
2258	0.19836	0.196881	0.199346	0.192936	0.199675
2259	0.200497	0.204113	0.198689	0.193594	0.20214
2260	0.20362	0.200004	0.197374	0.19195	0.200168
2261	0.202798	0.197538	0.198031	0.194087	0.201154
2262	0.198853	0.199018	0.198031	0.194416	0.200004
2263	0.20099	0.200661	0.199675	0.189156	0.201319
2264	0.202962	0.199346	0.195237	0.192279	0.200825
2265	0.197374	0.199675	0.197867	0.19195	0.198853
2266	0.202305	0.199675	0.196059	0.192608	0.203126
2267	0.201154	0.201812	0.196059	0.191786	0.198689
2268	0.202633	0.201319	0.197374	0.193101	0.200825
2269	0.201976	0.201812	0.200332	0.18932	0.198196
2270	0.201154	0.206249	0.19836	0.195566	0.203291
2271	0.200497	0.199018	0.201319	0.188499	0.193594
2272	0.20099	0.201812	0.198689	0.192279	0.201319
2273	0.198524	0.199346	0.201647	0.195073	0.199675
2274	0.199018	0.202962	0.20099	0.19195	0.202633
2275	0.20099	0.198689	0.197045	0.19458	0.201319
2276	0.197703	0.200825	0.201483	0.192608	0.205592
2277	0.201154	0.195237	0.200497	0.191128	0.203291
2278	0.196881	0.199511	0.195073	0.193429	0.203948
2279	0.19836	0.199018	0.197374	0.19721	0.199346
2280	0.199182	0.198689	0.198031	0.1908	0.204934
2281	0.201812	0.205592	0.193922	0.196552	0.208057
2282	0.198853	0.198853	0.199182	0.192443	0.196223
2283	0.20362	0.198689	0.196717	0.195237	0.205921
2284	0.198689	0.199511	0.199018	0.193758	0.205921
2285	0.200168	0.199346	0.197045	0.193101	0.204441
2286	0.20099	0.200497	0.19836	0.190635	0.205592
2287	0.200004	0.201483	0.198853	0.192936	0.205756
2288	0.198524	0.201319	0.200497	0.191128	0.203784
2289	0.19836	0.204113	0.199675	0.193265	0.205099
2290	0.198031	0.198689	0.199511	0.194251	0.205592
2291	0.197374	0.201812	0.201154	0.194909	0.206414
2292	0.201483	0.199839	0.188006	0.19573	0.207071
2293	0.194087	0.193594	0.18932	0.194251	0.202962
2294	0.201154	0.196059	0.184718	0.19458	0.206414
2295	0.197374	0.201976	0.189978	0.189814	0.206578
2296	0.198689	0.196881	0.189649	0.190307	0.205756
2297	0.199018	0.199839	0.18932	0.193922	0.206742
2298	0.199346	0.199346	0.184061	0.194909	0.206907
2299	0.200004	0.198689	0.186362	0.191786	0.207071
2300	0.197867	0.200168	0.188992	0.191621	0.204606
2301	0.197045	0.199675	0.190964	0.194744	0.204277
2302	0.198524	0.200825	0.188334	0.194416	0.210687
2303	0.19836	0.191293	0.192772	0.192608	0.205756
2304	0.199346	0.19836	0.195237	0.194087	0.205756
2305	0.200497	0.196223	0.192936	0.196552	0.204441
2306	0.195895	0.200661	0.193429	0.195895	0.20855
2307	0.198853	0.197374	0.193594	0.195895	0.20477
2308	0.197867	0.196388	0.19458	0.199182	0.206907
2309	0.199182	0.198031	0.193429	0.19721	0.210687
2310	0.196552	0.198524	0.194087	0.194251	0.207893
2311	0.198196	0.194744	0.19458	0.199018	0.208879
2312	0.199839	0.196388	0.192772	0.195895	0.205756
2313	0.199675	0.195237	0.194416	0.198689	0.21233
2314	0.201647	0.186855	0.195073	0.197867	0.208715
2315	0.206414	0.199346	0.191293	0.197538	0.210687
2316	0.198853	0.199346	0.19721	0.198853	0.208879
2317	0.199839	0.199018	0.193101	0.197374	0.213152
2318	0.200004	0.199839	0.19458	0.19721	0.208879
2319	0.199182	0.199018	0.193922	0.196388	0.212002
2320	0.199839	0.199182	0.19573	0.198853	0.213645
2321	0.198689	0.200825	0.195566	0.19573	0.211837
2322	0.201154	0.199675	0.196059	0.196717	0.209536
2323	0.199346	0.200497	0.196552	0.197045	0.210523
2324	0.200497	0.199511	0.198689	0.197538	0.213152
2325	0.197867	0.190964	0.196388	0.198031	0.21118
2326	0.199182	0.197867	0.194251	0.197538	0.212166
2327	0.199511	0.197538	0.199018	0.198524	0.213481
2328	0.199182	0.197867	0.199182	0.199839	0.213974
2329	0.199018	0.200825	0.200168	0.195566	0.211673
2330	0.201812	0.196717	0.198031	0.202305	0.209701
2331	0.199346	0.200497	0.197538	0.195895	0.210523
2332	0.200004	0.201647	0.195402	0.200497	0.214138
2333	0.201483	0.199511	0.197045	0.198031	0.212166
2334	0.202633	0.201647	0.196059	0.197045	0.219069
2335	0.200497	0.200497	0.195566	0.199511	0.214467
2336	0.194251	0.198524	0.198031	0.201647	0.21759
2337	0.200332	0.198524	0.199346	0.194251	0.21233
2338	0.19721	0.199839	0.194909	0.199346	0.21233
2339	0.197867	0.202798	0.197045	0.197703	0.214796
2340	0.19721	0.202469	0.19721	0.198689	0.213481
2341	0.19836	0.200825	0.19573	0.202305	0.21233
2342	0.198853	0.200332	0.19573	0.196717	0.218083
2343	0.198853	0.199346	0.196881	0.200004	0.215618
2344	0.198031	0.199675	0.20099	0.198524	0.213645
2345	0.203784	0.198853	0.19836	0.19836	0.218576
2346	0.198853	0.200004	0.197374	0.200497	0.216768
2347	0.199511	0.19721	0.199346	0.20477	0.214631
2348	0.200168	0.20099	0.198853	0.203126	0.214467
2349	0.200825	0.201812	0.200825	0.201154	0.219233
2350	0.201812	0.196717	0.201154	0.19836	0.214796
2351	0.198689	0.203126	0.198031	0.202798	0.215453
2352	0.201483	0.196388	0.197538	0.197867	0.21759
2353	0.197867	0.200168	0.182417	0.20099	0.213481
2354	0.200497	0.194087	0.158914	0.197538	0.215782
2355	0.200825	0.198524	0.165817	0.199839	0.214796
2356	0.201319	0.199675	0.16401	0.201154	0.220548
2357	0.196552	0.199018	0.16516	0.198031	0.214303
2358	0.197867	0.198031	0.16779	0.201154	0.215618
2359	0.201647	0.198196	0.169926	0.197538	0.215618
2360	0.198853	0.193922	0.167954	0.202305	0.213645
2361	0.199675	0.196552	0.171899	0.182253	0.213481
2362	0.200825	0.197045	0.170584	0.186691	0.213152
2363	0.198689	0.195073	0.173378	0.184554	0.210687
2364	0.198031	0.200004	0.1742	0.18439	0.211344
2365	0.201319	0.199511	0.174035	0.183404	0.210851
2366	0.20362	0.201483	0.177158	0.185705	0.21233
2367	0.20214	0.199018	0.176172	0.187677	0.214303
2368	0.199839	0.200825	0.1742	0.187348	0.212824
2369	0.202305	0.197703	0.178966	0.188827	0.211837
2370	0.203126	0.19836	0.180938	0.187019	0.212824
2371	0.200332	0.19836	0.180281	0.188992	0.215125
2372	0.199346	0.199346	0.18061	0.189814	0.211673
2373	0.200004	0.197703	0.182582	0.191621	0.210029
2374	0.200168	0.199675	0.182089	0.190142	0.209208
2375	0.200497	0.199675	0.186033	0.188334	0.207728
2376	0.201154	0.198853	0.184718	0.187841	0.205263
2377	0.200661	0.20214	0.178637	0.191621	0.205756
2378	0.200168	0.199839	0.184554	0.190635	0.202633
2379	0.201154	0.200332	0.182417	0.191128	0.204113
2380	0.200168	0.196717	0.189156	0.193594	0.200332
2381	0.199346	0.196881	0.186033	0.189978	0.201483
2382	0.200661	0.19721	0.187513	0.193101	0.202798
2383	0.197703	0.199675	0.189156	0.190307	0.206578
2384	0.20099	0.199346	0.188499	0.193758	0.20477
2385	0.19573	0.199182	0.189156	0.200497	0.198689
2386	0.200497	0.199675	0.188992	0.189814	0.200497
2387	0.201812	0.194416	0.188499	0.192608	0.201319
2388	0.201647	0.197374	0.188334	0.196552	0.200661
2389	0.194744	0.202305	0.192608	0.19195	0.199511
2390	0.19836	0.197867	0.187019	0.19458	0.197867
2391	0.199346	0.201319	0.191786	0.193758	0.194909
2392	0.20099	0.199182	0.189978	0.194744	0.200332
2393	0.201647	0.198689	0.189485	0.193922	0.194087
2394	0.201976	0.200004	0.192115	0.192443	0.196552
2395	0.198853	0.197867	0.187513	0.198031	0.185705
2396	0.19836	0.20099	0.193101	0.199839	0.192772
2397	0.200004	0.196388	0.192279	0.190635	0.1908
2398	0.198853	0.199346	0.191457	0.193594	0.18932
2399	0.20099	0.201319	0.194744	0.19573	0.190471
2400	0.196881	0.199675	0.192115	0.192936	0.188334
2401	0.19836	0.19836	0.192608	0.193101	0.188663
2402	0.196552	0.19836	0.195073	0.193429	0.188499
2403	0.198853	0.197374	0.193922	0.197045	0.189649
2404	0.19836	0.193265	0.195402	0.19458	0.192279
2405	0.197703	0.20214	0.193265	0.20099	0.186526
2406	0.199018	0.197538	0.197538	0.19458	0.188827
2407	0.20477	0.198196	0.193758	0.187841	0.187348
2408	0.198196	0.200497	0.19573	0.194744	0.184225
2409	0.20099	0.198689	0.193429	0.19573	0.186691
2410	0.202469	0.20099	0.198196	0.194909	0.184554
2411	0.198031	0.203291	0.19573	0.192279	0.18176
2412	0.20214	0.200661	0.197703	0.191786	0.180445
2413	0.199839	0.20214	0.199018	0.192443	0.182417
2414	0.199346	0.201483	0.197867	0.194416	0.18061
2415	0.194744	0.200661	0.199018	0.195566	0.181596
2416	0.204441	0.200497	0.196717	0.196717	0.180116
2417	0.201483	0.20099	0.199839	0.195402	0.178966
2418	0.201647	0.199018	0.197538	0.185376	0.181924
2419	0.198689	0.199018	0.198031	0.192936	0.180281
2420	0.199018	0.19721	0.196881	0.197374	0.181267
2421	0.198196	0.199182	0.199018	0.195895	0.177651
2422	0.196881	0.199675	0.198524	0.203291	0.182089
2423	0.202633	0.199839	0.197045	0.192115	0.179788
2424	0.201647	0.200825	0.193758	0.195566	0.184554
2425	0.198689	0.200661	0.19721	0.195895	0.181596
2426	0.200661	0.198853	0.19458	0.196881	0.18176
2427	0.201483	0.198853	0.198524	0.194251	0.180116
2428	0.199346	0.201483	0.19836	0.195566	0.178637
2429	0.199182	0.198031	0.197374	0.190635	0.179788
2430	0.200497	0.203784	0.19573	0.191293	0.177158
2431	0.201154	0.197867	0.198524	0.193594	0.177158
2432	0.199511	0.200661	0.199346	0.191621	0.177322
2433	0.198031	0.200004	0.19721	0.195237	0.180116
2434	0.197703	0.198853	0.201483	0.193101	0.178637
2435	0.197538	0.197538	0.198031	0.197867	0.178966
2436	0.200497	0.199675	0.199182	0.195073	0.180774
2437	0.203784	0.194909	0.201976	0.194416	0.180281
2438	0.199346	0.192443	0.197374	0.195237	0.181267
2439	0.200004	0.197867	0.195402	0.196881	0.182911
2440	0.200825	0.198031	0.195566	0.194909	0.180281
2441	0.200332	0.197538	0.196552	0.193922	0.183404
2442	0.199839	0.196223	0.196717	0.196388	0.182253
2443	0.203455	0.19836	0.196552	0.193429	0.184061
2444	0.199511	0.197374	0.192279	0.19458	0.181924
2445	0.200661	0.199675	0.198196	0.193758	0.180938
2446	0.200661	0.198853	0.200168	0.193922	0.184225
2447	0.198524	0.201812	0.200332	0.192608	0.183897
2448	0.202469	0.197703	0.200332	0.194087	0.183239
2449	0.200332	0.199511	0.201647	0.192772	0.185705
2450	0.198689	0.198853	0.196223	0.195566	0.181431
2451	0.194251	0.197045	0.20362	0.193265	0.185869
2452	0.195402	0.196552	0.198031	0.189978	0.18817
2453	0.197045	0.193101	0.201154	0.195566	0.182911
2454	0.196059	0.196059	0.202633	0.195895	0.185705
2455	0.197703	0.196717	0.200497	0.195566	0.184225
2456	0.199018	0.198196	0.199018	0.202469	0.189649
2457	0.20099	0.195402	0.199839	0.19573	0.187019
2458	0.201319	0.202469	0.199675	0.1908	0.188334
2459	0.203784	0.190964	0.199346	0.200168	0.187348
2460	0.198853	0.196388	0.200168	0.196223	0.189156
2461	0.202305	0.199182	0.198853	0.196059	0.187348
2462	0.199675	0.197045	0.200168	0.198524	0.186691
2463	0.20362	0.192608	0.200497	0.196223	0.188334
2464	0.203455	0.199839	0.200004	0.193758	0.186855
2465	0.20362	0.199182	0.196717	0.193922	0.188663
2466	0.193758	0.196717	0.201976	0.19458	0.188499
2467	0.199018	0.19836	0.199346	0.198524	0.188006
2468	0.197867	0.197867	0.201154	0.196552	0.18817
2469	0.199346	0.199511	0.200661	0.195895	0.192936
2470	0.199182	0.196388	0.201319	0.197703	0.187184
2471	0.199018	0.198196	0.203126	0.19836	0.18932
2472	0.197703	0.19573	0.200497	0.19836	0.185869
2473	0.200332	0.196717	0.20099	0.199839	0.189485
2474	0.20214	0.196059	0.198853	0.199182	0.189978
2475	0.199346	0.198196	0.199675	0.199018	0.189978
2476	0.200497	0.197374	0.199182	0.199511	0.190964
2477	0.201483	0.19836	0.198853	0.196717	0.192443
2478	0.201319	0.197867	0.205263	0.195402	0.190964
2479	0.199675	0.200497	0.200661	0.199182	0.191293
2480	0.205592	0.202469	0.19836	0.196059	0.193429
2481	0.200332	0.200661	0.200497	0.196881	0.191786
2482	0.200825	0.200825	0.202305	0.199346	0.191786
2483	0.199675	0.198689	0.202633	0.196059	0.189485
2484	0.201319	0.199675	0.199182	0.199675	0.194416
2485	0.201483	0.197867	0.202305	0.199346	0.188992
2486	0.197374	0.198031	0.199018	0.202305	0.190635
2487	0.196388	0.197703	0.202469	0.202798	0.191128
2488	0.196059	0.195237	0.200497	0.201976	0.192608
2489	0.199675	0.19573	0.199346	0.200168	0.192443
2490	0.198689	0.19836	0.197867	0.202962	0.19195
2491	0.201319	0.198196	0.19721	0.198524	0.192443
2492	0.200168	0.197374	0.198196	0.199511	0.192279
2493	0.198689	0.19836	0.19721	0.200332	0.194744
2494	0.201154	0.197703	0.202305	0.196388	0.196552
2495	0.201812	0.198196	0.197045	0.196881	0.190471
2496	0.200332	0.199346	0.203291	0.198689	0.193922
2497	0.202962	0.197538	0.199675	0.199182	0.197045
2498	0.199511	0.200332	0.201483	0.19573	0.193101
2499	0.201483	0.198853	0.200332	0.197867	0.196059
