Ladekurvenmessung
Zeit: 2018_05_03 14.54.24
Info: SHC320, v = 0.614, T = 40, F = 20, h = 461.9
Ladewiderstand[Ohm]: 1012700
Störkapazität[pF]: 0.000000
Entladezeit[ms]: 200
Abtastrate[Hz]: 250000
Anzahl der Messwerte: 2500.000000
Verzögerung[ms]: 3
Ladespannung[V]: 0.200000
	Kurve_1	Kurve_2	Kurve_3	Kurve_4	Kurve_5	Kurve_6	Kurve_7
0	0.000474	0.002775	-0.003142	-0.003306	0.000803	0.00031	-1.9e-05
1	0.003268	0.006062	0.003761	-0.001334	0.005898	0.001789	0.004748
2	0.003926	0.003761	0.00146	0.000146	0.005734	0.000146	0.005241
3	0.002447	0.000639	-0.000512	0.00146	0.001789	0.006391	0.007706
4	0.001625	0.001625	-0.000347	-0.001827	0.001132	-0.001827	0.001954
5	0.003597	-0.000841	0.003268	0.002775	0.003926	0.007377	0.008528
6	-0.000841	-0.000183	0.002447	0.001954	0.000803	0.002118	0.000967
7	0.003433	-0.001498	0.002775	0.004583	0.004255	-0.000347	0.001789
8	-0.000347	0.004419	0.001789	0.00146	0.003104	0.003433	0.003597
9	0.005734	0.005898	0.003433	0.000146	0.004912	0.003597	0.006062
10	0.003268	-0.000512	0.004748	0.006391	0.001625	0.000639	0.000474
11	0.003597	0.006227	0.002775	-0.000347	0.006884	0.005076	0.001625
12	0.002611	0.00294	0.004748	0.003433	0.006227	0.002447	0.00409
13	0.003926	0.004748	0.00146	0.002775	0.008035	0.000474	-1.9e-05
14	0.00031	0.001789	0.001625	0.003433	0.003926	-0.000347	0.003597
15	0.002447	0.004912	0.002282	0.00146	0.005569	0.004255	0.003926
16	0.001789	0.001789	0.002611	0.001954	0.004583	-0.000183	0.005405
17	0.002611	0.006227	0.001625	0.000639	0.002611	0.001296	0.003268
18	0.002447	0.003433	0.003104	0.001789	0.002611	0.000967	0.005405
19	0.002118	0.004912	-0.000347	-0.000841	0.004912	0.004419	-0.000347
20	0.00294	0.000803	0.004255	0.001789	-0.001334	-1.9e-05	0.005569
21	0.003268	0.003433	0.003268	0.001625	0.005405	0.002611	0.002775
22	0.004583	-0.000183	-0.003635	-0.000347	0.00672	0.003268	0.006884
23	0.000639	0.004419	0.001954	-0.003799	0.003433	0.004419	0.00409
24	-0.00347	0.00031	0.002775	-0.001005	0.006062	0.004419	0.004748
25	-0.001334	0.003433	-0.002977	0.002118	0.005241	0.002282	0.002447
26	-0.000841	0.004583	0.000474	-0.002977	0.002447	0.005569	0.002447
27	-1.9e-05	0.00031	0.004255	0.000803	0.003104	-0.000347	0.004419
28	0.00031	0.005569	0.000639	0.000639	0.007377	0.003104	0.00031
29	-0.003799	0.00935	0.003597	0.001954	0.005734	0.000803	0.003268
30	0.004583	0.005569	0.00031	-0.000676	0.005734	-0.000183	-0.001005
31	0.004583	0.004255	0.004255	0.000803	0.005898	0.00146	0.002282
32	0.002775	0.005898	0.001954	0.000146	0.005076	0.005405	0.00146
33	0.003597	0.00294	0.004912	0.001625	0.005898	-0.000347	0.003104
34	0.000967	0.004419	0.000146	-0.000347	0.003926	0.002118	0.006884
35	0.004419	0.000967	0.008857	0.001625	0.003597	0.001296	0.00146
36	0.004748	0.001954	-0.004621	-0.000512	0.007377	0.003926	0.003268
37	0.007706	-0.000841	-0.001662	0.000639	0.002118	0.001296	0.002611
38	0.003926	0.00146	-0.001005	0.000967	0.004419	0.00409	0.003268
39	0.005734	0.000967	0.001132	0.003268	0.005898	-0.001662	0.002118
40	0.002775	-0.000676	0.001296	-0.001991	0.001625	-0.001991	0.003597
41	0.005569	-0.001498	-1.9e-05	-0.001334	0.002282	0.000639	0.000967
42	0.005405	0.002447	0.002118	0.00409	-0.005114	-0.000841	0.001132
43	0.005734	0.00409	0.005569	0.00031	0.001789	0.003433	0.001954
44	0.005241	-0.001334	0.00409	0.00294	0.003926	0.000967	-0.003963
45	0.007049	0.012637	0.002775	0.003926	0.002611	0.004583	0.001296
46	0.003761	0.00294	0.003268	0.001625	0.003926	0.002447	0.002447
47	0.004748	0.001296	0.004583	0.00146	0.006556	0.003104	-0.000512
48	0.005076	0.00146	0.002611	0.000967	0.003926	-0.001498	0.000474
49	0.005898	0.003761	0.001954	-0.001334	0.004255	0.001789	-0.002484
50	0.008692	0.002611	0.001789	0.002447	0.004748	-0.001005	0.004255
51	0.000803	0.003433	0.006556	0.000803	0.003761	-0.000183	-0.001827
52	0.005569	-0.003635	0.004748	0.001789	0.00294	-0.000512	0.000803
53	0.002447	0.001132	0.003433	0.002447	-0.000183	0.001789	-0.000512
54	0.005076	0.001625	0.002118	0.001954	0.002447	0.002611	0.002282
55	0.004748	0.002611	0.002447	-0.002155	0.001296	0.00409	-0.001169
56	0.005405	-0.00873	-0.000183	0.001625	0.002611	-0.001334	0.004419
57	0.002282	-0.004785	0.005241	-0.000183	-0.001991	-0.002484	-0.005278
58	0.005241	0.000146	0.002611	0.002282	0.002447	0.001625	0.001132
59	0.001954	-0.000512	0.002611	0.001296	0.001625	-0.00232	0.001954
60	0.001625	0.001296	0.004419	-0.00232	0.001625	0.002447	0.004748
61	0.004748	0.001296	0.003761	0.001132	0.002611	0.001625	0.001132
62	0.003268	0.002611	0.00146	-0.000841	0.001625	0.00031	0.000803
63	0.000639	0.002118	0.002775	0.000967	0.002118	0.003268	0.001296
64	0.000639	0.003597	0.002775	0.002775	0.005569	0.001789	0.001789
65	0.003268	0.001789	0.00409	0.00409	0.006062	0.000639	0.005734
66	0.001789	0.003433	0.003268	0.001789	0.004748	0.000967	0.002118
67	-0.001662	0.00031	0.002447	0.001625	0.005241	0.002775	0.006884
68	-0.001662	-0.000841	0.005241	0.000803	0.00672	-0.002155	0.003268
69	0.001954	0.001789	0.001789	0.000146	0.004748	-0.001334	0.002611
70	-0.000676	0.002282	-0.000512	-0.000512	0.002118	0.006391	0.00031
71	-0.000183	-0.000183	-0.001005	0.00031	0.002611	0.003268	0.005076
72	0.000967	0.002611	0.000803	-0.000347	0.001132	0.00294	0.000803
73	0.002775	0.002447	0.001625	-0.004292	0.004748	0.000967	0.00409
74	0.00031	0.001132	-0.000512	0.000639	0.000474	0.003433	-0.001169
75	0.001789	0.004912	0.003926	0.002118	0.002118	0.00294	0.003433
76	-0.000512	0.00294	0.002775	0.002447	0.002447	0.000474	0.002118
77	0.000474	0.004255	0.002775	0.00031	0.002118	0.002775	0.003104
78	-0.001005	0.001625	0.005076	0.002447	0.001789	0.001296	-0.001334
79	0.005405	0.003268	-0.010702	0.001132	0.006062	0.003268	0.000146
80	0.038605	-0.000183	0.006062	0.003104	0.003926	-0.001991	0.000967
81	0.006062	0.003597	0.000146	0.000803	0.004255	0.001625	-0.001827
82	0.000639	0.000803	0.002447	0.002282	-0.000183	-1.9e-05	-0.002155
83	-0.001169	0.003268	0.001789	-0.000841	0.000146	0.002282	-0.002484
84	-0.000512	0.00146	0.001625	0.002118	0.001789	-0.000183	0.00146
85	0.000967	0.001954	0.00031	0.000146	0.000146	0.000803	0.000474
86	-0.000512	0.001954	0.005734	0.000967	-0.002155	0.000639	0.000474
87	-0.001827	0.002447	0.000967	0.001625	0.000639	0.001625	0.000146
88	-0.001991	0.000803	0.001789	0.000967	0.00294	0.002118	0.004255
89	-0.000841	0.000639	0.003104	0.004583	0.000474	-1.9e-05	-0.002977
90	-0.000841	0.00146	0.00146	0.005405	0.001789	0.001954	0.006062
91	-0.00347	0.000474	0.000146	0.00294	0.001132	0.00672	0.00031
92	0.000474	0.000803	0.00146	0.001954	0.007542	0.007377	-0.001005
93	-0.002155	0.00146	0.004748	0.003761	-0.000841	-0.000676	-0.001991
94	0.000474	0.003104	-0.001005	-0.001334	0.001296	0.003268	-0.00232
95	-0.001005	0.001625	0.002282	0.007049	-0.000676	0.00294	-0.001498
96	-0.000347	0.002611	0.004912	0.000146	-0.001005	0.00146	-0.001991
97	-0.001334	0.000474	0.005898	0.00409	0.000803	0.00146	-0.000183
98	0.00031	0.003104	0.002447	0.00294	0.003761	0.001789	-1.9e-05
99	0.003433	0.003104	0.005076	0.002447	0.00146	-0.001005	-0.000347
100	-1.9e-05	0.001954	0.003268	-1.9e-05	0.002282	0.001954	-0.003142
101	0.001789	0.007049	0.000803	0.00672	0.001789	0.000474	0.00294
102	0.000803	0.000639	-0.001827	0.004419	0.004583	0.002447	0.000474
103	-1.9e-05	-0.003635	0.005405	-0.000841	-0.00232	0.00031	0.000639
104	0.001296	0.001132	0.000474	-0.000676	-0.001498	0.000474	0.001625
105	0.002447	-0.003142	0.004583	0.00294	-0.001662	0.004419	0.000967
106	0.00294	-0.002977	-0.000347	-0.002648	-0.001662	0.00294	-0.001169
107	0.001132	-0.003635	0.006227	0.000474	-0.000676	0.00031	-0.005607
108	0.000803	-0.000347	0.004912	0.00294	-0.003963	-0.001005	0.000146
109	0.002611	0.001789	0.003597	0.001954	0.004419	0.004748	0.003104
110	0.001296	-0.000347	0.004419	0.003926	-0.002155	0.001625	-0.000347
111	0.001296	0.002775	0.003926	-0.002977	0.003597	0.000146	0.000639
112	0.005734	-0.000512	0.005405	0.005734	0.001625	0.001625	0.003104
113	0.003268	0.002118	0.003761	0.000146	0.006391	0.006391	0.00031
114	-0.001005	-1.9e-05	0.005405	-0.000347	-0.002813	0.002447	0.002118
115	0.002118	0.000639	0.001625	0.001954	0.000803	-0.003142	0.002282
116	0.000967	0.001954	0.00672	-0.000676	0.000803	0.002118	0.000639
117	-0.000841	0.002775	-1.9e-05	0.000803	0.00146	-1.9e-05	-0.002977
118	0.00031	0.00146	0.005898	0.005898	-0.000512	-0.00232	0.002447
119	0.001789	0.00672	-1.9e-05	0.000803	0.000146	-0.001991	-0.001662
120	0.00409	0.000967	0.005241	0.002775	0.000803	0.000967	0.000474
121	0.002611	0.002118	0.005076	-0.002648	0.002118	-1.9e-05	0.000146
122	0.002282	0.000639	-1.9e-05	-0.000347	-1.9e-05	0.003597	0.001625
123	0.001954	0.001296	0.001132	0.005734	0.000639	0.005076	0.000639
124	0.004912	0.002118	0.004748	0.000146	0.002118	0.002447	0.002611
125	-0.000347	-0.001169	0.00294	0.00146	-0.005278	-0.000183	0.001132
126	0.003433	-0.001498	0.00409	0.002447	0.00146	0.003433	0.002447
127	-0.001005	-0.000183	0.004255	0.004419	-0.002648	0.000639	0.003761
128	0.004748	0.001789	0.004583	0.001296	-0.000841	0.003761	0.000146
129	0.002611	-0.003963	0.004912	0.002447	-0.000512	0.001132	0.00031
130	0.003597	0.003433	-0.001169	0.002775	-0.000347	0.003104	0.000967
131	0.004255	0.003597	0.004583	0.003268	0.002282	-0.003142	0.001625
132	0.004583	0.003268	0.002447	0.002118	0.002118	0.000474	-0.001169
133	0.002611	0.001789	0.003433	0.001789	0.001789	0.002447	-0.004292
134	0.003761	0.006391	0.002775	0.003268	0.003761	0.003268	-0.005443
135	0.007049	0.000639	0.000967	0.000474	0.008363	-0.006429	0.003597
136	-0.000183	0.003268	-0.002813	-0.000512	-0.00232	0.000474	-0.000183
137	-1.9e-05	0.002775	0.001132	-0.000512	0.001296	-0.000347	0.000146
138	0.000967	0.000639	-0.001827	0.002775	-0.001334	0.000803	0.001625
139	-0.000512	0.002611	-0.002155	0.00146	-1.9e-05	0.001789	-1.9e-05
140	0.000803	0.000146	0.004419	0.005734	-0.005278	0.003268	0.001954
141	0.003268	0.001954	-0.002155	0.006391	-0.002484	0.007706	-0.000183
142	0.001625	0.001954	0.000639	0.00294	0.000967	0.001296	-0.000347
143	0.002775	0.003104	0.000639	0.004583	0.005241	0.003926	0.000146
144	0.00294	0.00294	0.002447	0.003926	0.000639	0.002282	-0.002155
145	0.00146	0.003761	0.003761	0.003268	-0.000512	0.004255	0.001296
146	0.002447	0.002447	0.00409	0.003597	-0.007415	-0.002155	0.005405
147	0.00294	0.003104	-1.9e-05	0.001789	-0.001991	0.004419	0.004748
148	0.001625	0.002118	0.003104	0.004255	-0.000512	0.001132	0.00409
149	0.003268	0.004748	-0.003963	0.001296	0.002447	0.002118	0.004255
150	0.002118	0.003104	0.001789	0.004583	-0.001334	-1.9e-05	0.003761
151	0.002775	0.001296	0.005569	0.00146	-0.00232	0.003268	0.00031
152	0.003433	0.003926	-0.001662	0.001954	0.002118	-0.001169	0.004912
153	0.00409	0.003597	0.000474	0.001132	0.002611	-0.002484	0.00294
154	0.002775	0.00409	0.003104	0.001789	-0.002813	0.00031	0.00409
155	0.001954	0.003597	0.000146	0.00294	-0.000512	0.005241	0.003433
156	0.002447	0.000639	0.00146	0.002447	-1.9e-05	0.004419	0.007377
157	0.00294	0.004748	0.004583	0.000146	-0.000512	0.002118	-0.001169
158	0.002447	-0.001662	0.001954	0.001789	0.000146	0.003761	0.004419
159	0.000803	0.003268	0.003597	0.003926	-0.002155	0.001789	0.00409
160	-0.001169	0.003268	0.001296	0.003104	0.003597	0.003104	0.005241
161	-0.000347	0.001296	0.002611	0.00409	-0.000183	0.001789	0.003433
162	0.003433	0.00294	0.001625	0.001625	0.000639	0.002447	0.002118
163	0.002447	0.00409	0.00672	0.004419	0.002118	-0.001827	0.000146
164	0.002118	0.00409	0.001625	0.001625	0.003104	-0.000512	0.003926
165	0.001296	0.00409	0.003761	0.00294	-0.001169	0.000639	0.000967
166	0.00146	0.006227	0.00409	0.003104	0.007049	0.001296	-0.002648
167	0.001789	0.003268	0.004255	-0.007579	0.000474	-0.001827	0.003268
168	0.005405	0.004912	0.005898	-0.002484	0.002611	0.001132	0.004912
169	-0.001334	0.003597	0.005734	0.00294	0.001625	0.000803	0.001296
170	0.004419	0.003926	0.002118	-0.001169	-0.001498	-0.000676	0.003433
171	0.004583	0.003104	0.003268	-0.001827	0.000967	-0.000183	0.003597
172	0.001296	0.001132	0.005076	0.00294	0.001132	0.000474	0.000803
173	0.003597	0.000146	0.003104	0.002775	-0.000676	0.003104	0.005241
174	-1.9e-05	0.00031	0.000474	0.002447	0.000639	0.001625	0.001625
175	0.005405	0.00031	0.00146	-0.003799	-0.002813	0.001954	0.004748
176	-0.000183	0.004255	0.005734	-0.001169	-0.001334	0.001954	0.002447
177	0.004419	0.000146	0.002611	0.005076	0.002611	0.004419	0.002775
178	0.003104	0.002118	0.004255	0.002611	-0.00232	0.003597	0.004748
179	-0.003963	0.003761	0.002775	0.001132	0.000474	-0.002648	0.00294
180	0.001132	0.002775	0.004255	0.003104	0.000967	0.003926	0.003597
181	0.002611	0.005405	0.002118	0.000803	0.002447	0.00031	0.005405
182	0.003268	0.003926	0.004583	0.002447	-0.002155	-0.000512	0.004419
183	0.002775	0.003761	0.001789	0.000803	0.00294	0.003433	0.000146
184	0.000803	0.004748	0.004255	0.002611	-1.9e-05	-0.001662	0.001625
185	0.004748	0.007542	0.002447	-0.001334	-0.000512	0.003268	0.002118
186	0.003761	0.000967	0.00146	0.003104	-0.001334	0.000146	0.001954
187	0.003104	0.003433	-0.003142	0.00031	-0.000512	0.002118	0.001132
188	0.006062	0.003104	0.002611	0.002118	0.000639	0.001789	0.002282
189	-0.001169	0.005241	-0.000841	0.00031	-0.000512	0.001625	0.00146
190	0.00031	-0.000183	0.00146	-0.002484	0.00031	0.003268	0.009185
191	-0.000676	0.001789	0.000474	0.004583	0.003926	0.002447	-0.001991
192	0.001132	0.000474	0.002282	0.002118	-0.001662	0.001789	0.003597
193	-0.002484	0.001132	0.004748	0.003104	-0.003963	-0.000183	-0.000183
194	0.000474	0.003433	0.000146	0.002118	0.002775	0.001625	0.001132
195	-0.001005	0.002118	0.002447	0.004748	-0.00232	-0.001334	0.002447
196	-0.001498	0.001789	0.002611	-0.000347	-0.001169	0.002447	0.002282
197	-0.001498	0.002282	0.004583	0.006884	0.00031	-0.000512	0.003761
198	0.000146	0.003433	0.001954	0.001954	0.00409	0.005076	0.002775
199	-0.001169	0.002447	0.006884	0.003268	0.000639	0.002118	0.00146
200	0.000639	0.003433	-1.9e-05	0.003926	0.001132	0.001789	0.002118
201	-1.9e-05	0.001625	0.002118	0.000967	0.003761	-0.001991	0.003597
202	0.00031	-0.000841	0.006391	0.000967	-0.000347	0.00031	0.001296
203	0.001625	0.002447	0.002611	0.001789	-0.000183	-0.00232	0.004748
204	-0.001334	0.002118	-0.001334	0.002775	-0.001991	-0.002813	0.002118
205	0.000803	0.002447	0.001789	0.001954	-0.002155	0.001296	0.002282
206	-0.002155	0.001132	-0.001827	0.002118	-0.001498	0.000803	0.001132
207	0.003268	-0.002155	0.002775	-0.001005	-0.000183	-0.001005	-0.000841
208	-0.001662	0.008528	0.001132	0.002118	-0.000676	0.001132	0.002611
209	0.000803	0.003926	-0.001334	0.004419	0.001625	0.003597	0.006062
210	-0.001991	0.00146	0.003268	0.007542	-0.001005	0.001789	0.002447
211	0.00031	0.007049	0.001132	0.00146	0.003597	0.004583	0.002611
212	-0.004785	0.003433	0.002118	0.009021	-0.004949	0.000639	0.006062
213	0.001625	0.001954	-0.000841	0.002118	-1.9e-05	0.003268	0.001789
214	-0.001334	0.004255	0.003761	0.00409	-0.001827	-0.00232	0.002775
215	-0.002648	0.006227	0.000146	0.004255	-0.000841	-0.001005	0.003104
216	-0.002155	0.003761	0.004419	0.003268	0.002282	-0.001662	0.002447
217	-0.002977	0.003926	0.001132	0.002775	0.000474	-0.000841	0.002447
218	0.001296	0.00146	0.002775	0.002447	0.001789	-0.001005	0.003433
219	0.000803	0.006227	0.000639	0.001954	-0.001334	0.002447	0.00031
220	0.001625	0.002775	-0.006264	0.004419	0.002118	0.001132	0.003926
221	0.000803	0.006391	-0.000347	0.00409	0.00146	0.00294	0.002611
222	0.00146	0.000639	0.001954	0.001625	0.002118	0.003433	0.004748
223	0.000146	-0.000841	-0.000347	0.001296	0.000474	0.001296	0.006391
224	0.003926	0.002118	-0.004128	0.00031	0.003761	0.004912	0.003104
225	0.001789	0.003597	0.00031	-0.000512	-0.000676	0.001954	0.001789
226	-0.001991	0.00294	-0.000512	-0.001169	0.000967	0.001954	0.00672
227	-0.003142	0.002775	0.000967	0.001954	-0.001334	0.003433	-0.000676
228	0.003104	0.002447	0.005569	0.003104	0.003104	0.001789	0.005569
229	0.002118	0.001296	-0.000841	0.001954	-0.001334	0.002775	0.002447
230	-0.002977	0.002611	0.001296	0.002611	0.002282	0.006391	0.003104
231	0.000967	-0.001991	0.004419	0.005241	0.002447	0.006227	0.003268
232	0.00146	0.000474	0.00294	0.00294	-0.001498	0.001954	0.007213
233	-0.001498	0.003104	0.005076	-0.001169	0.002118	0.002118	0.00672
234	0.001132	0.002447	-0.009387	0.00294	0.001954	0.001789	0.005405
235	0.005076	0.002282	0.003761	0.003597	0.000474	0.00031	0.004419
236	0.001132	0.002282	-0.000841	-0.001991	0.002282	0.000967	0.001132
237	0.005405	0.001625	-1.9e-05	0.003926	0.000146	0.002775	0.010829
238	0.002118	0.003104	-1.9e-05	-0.000347	0.00031	0.001296	0.000803
239	0.002611	0.002611	0.002775	-0.001334	0.000146	0.001132	0.002447
240	-0.000676	0.002118	-0.000841	-0.001334	-0.001827	0.001132	0.003597
241	0.000967	-0.000512	0.00031	-0.001169	0.00031	0.002282	-1.9e-05
242	0.003761	0.003104	0.003597	0.003104	0.001132	0.004583	0.000803
243	0.002282	0.000639	0.002118	0.000146	0.002282	-0.001991	0.005898
244	-1.9e-05	0.000803	0.003926	0.000639	-0.00347	0.001954	-0.000841
245	0.000639	0.002775	0.003268	0.003597	0.002611	0.004419	0.003761
246	-0.000512	0.001132	0.002611	0.002282	-0.000841	0.000474	0.004255
247	-0.001005	0.002118	0.002118	0.000639	0.00031	0.003268	0.007542
248	-0.001498	-0.001498	0.003104	0.003761	0.001625	0.001789	-0.005443
249	-0.000512	0.001954	-0.000183	0.000639	0.002282	0.001954	-0.000347
250	0.003433	0.003926	0.005241	0.002775	0.001789	0.001789	0.003597
251	0.001132	0.003104	-0.000183	0.000146	0.002611	0.001132	0.003433
252	0.000639	-0.000512	0.003268	0.005734	0.000474	-0.000347	0.004583
253	-0.000512	0.001789	0.004255	0.002611	0.000474	0.002118	0.002775
254	0.007049	-0.001991	0.003597	0.003268	0.003433	0.000474	0.005405
255	0.002118	0.00146	0.002611	0.003104	-0.00232	0.000803	-0.000347
256	0.006556	0.005734	0.004419	0.00146	0.000639	0.004583	0.004255
257	0.004583	0.001625	-1.9e-05	0.001296	0.00146	0.001954	0.003104
258	0.001296	-0.000512	0.002118	-0.00347	0.001954	0.001789	0.003761
259	0.001789	0.000474	0.002118	0.002118	0.002282	0.001132	0.005569
260	0.000474	0.00031	0.001954	0.002282	0.00294	0.001789	0.005898
261	-1.9e-05	0.002447	0.003433	-0.000347	0.002447	0.003433	0.005241
262	0.000146	0.00031	0.002447	0.000639	0.007706	0.004583	0.004255
263	-0.000183	0.002118	0.005076	0.005405	0.001625	0.000474	0.006062
264	0.00146	0.004583	-1.9e-05	0.00294	0.005076	-0.000183	0.003268
265	-0.001005	0.003268	0.004583	0.002282	0.00787	-0.002813	0.004912
266	0.002611	0.002118	0.002282	0.005734	0.003761	0.001296	0.005241
267	-0.002155	0.004419	0.00672	0.006391	0.007213	-0.001169	0.004912
268	0.003597	0.003104	0.004583	0.003761	0.003597	0.001954	0.003433
269	-1.9e-05	0.001789	-0.000841	0.002118	0.002282	-0.001334	0.005405
270	0.002118	0.003761	0.00672	0.001296	0.000803	0.001132	0.003926
271	0.003268	0.001789	0.001625	-0.000347	0.007377	-0.001827	0.005569
272	-0.001169	0.001954	-0.001662	-0.001827	0.002611	0.001296	0.002611
273	0.003926	0.001132	0.003926	-0.001334	0.00409	-0.000347	0.004912
274	0.000146	0.006227	0.002775	0.001132	0.002775	-0.003306	0.002447
275	0.000474	0.003926	0.000967	0.001625	0.00146	0.004748	0.003761
276	-0.000512	0.003104	0.00031	0.003597	0.004419	0.000967	0.00409
277	0.000474	0.000639	0.002611	0.003597	0.00409	0.001789	0.006884
278	0.001954	0.002611	0.003761	0.005898	0.000639	0.003761	0.005076
279	0.002118	0.001789	0.000474	0.002282	0.004912	0.004912	0.004583
280	-0.001169	-0.000183	0.000967	0.005405	0.00146	0.002775	0.000803
281	0.001625	0.001296	0.000639	0.002447	0.002118	0.006062	0.005076
282	0.00146	0.003104	0.003761	0.00787	0.000803	-1.9e-05	0.005241
283	-0.000512	0.001954	0.002611	0.003104	0.002447	0.001625	0.001132
284	-1.9e-05	0.001789	0.000639	0.003268	0.003433	0.003268	0.00294
285	0.000803	0.005076	-0.000841	0.005734	-0.00232	-0.000347	0.002611
286	0.00031	0.00294	0.002118	0.005898	0.005405	0.001954	0.002611
287	0.003268	0.00409	-0.000676	0.00294	0.002118	0.002118	0.000967
288	0.000639	0.003926	0.00031	0.002775	-0.000183	-0.000183	0.004748
289	-0.004621	0.00031	-0.000183	0.004255	0.001625	-0.000183	0.002611
290	0.002611	0.000146	-1.9e-05	0.005569	0.007049	0.00672	0.001625
291	-0.001169	0.002118	-0.003142	-0.000676	-0.000512	-0.001334	-0.001498
292	-0.000512	-0.001498	-0.00347	0.001789	0.001625	0.005405	0.003597
293	-0.000183	0.002282	-1.9e-05	0.002611	0.004583	-0.002155	0.004583
294	0.002118	0.000967	-0.000841	0.001296	0.002447	0.002775	0.001296
295	-0.001991	-0.001827	0.001954	0.001789	0.00031	0.003597	0.000146
296	-0.002977	0.004748	0.000639	0.001789	0.003926	0.004748	0.00409
297	-0.000676	-0.00232	0.006884	0.005405	0.000803	0.000639	0.003104
298	-0.000183	0.000803	0.00409	0.000803	0.000146	0.003926	0.000474
299	-0.000183	0.002447	0.004748	0.005241	0.000146	0.000474	-0.000512
300	0.00146	0.002611	0.001132	0.003761	-0.001991	0.001789	0.00409
301	0.001625	0.002775	0.00672	0.003761	-0.008401	-0.005114	0.00294
302	-0.001991	0.002282	0.000146	0.002118	-0.001169	0.002447	0.005076
303	-1.9e-05	0.00146	0.001132	0.004419	0.000146	0.000803	0.005569
304	0.002118	0.002775	-0.001334	0.005405	-1.9e-05	0.00146	0.000639
305	0.005569	-0.002813	0.001954	0.000967	0.001954	-0.000183	0.008857
306	-1.9e-05	-0.000676	-0.000512	-0.001005	0.001954	0.00031	-1.9e-05
307	0.005405	0.000803	0.000474	0.00294	0.003433	0.00146	0.005076
308	0.000639	-0.002813	0.001789	-0.002648	0.002611	-0.000676	0.001789
309	0.00031	-1.9e-05	0.000639	-0.001005	0.002775	0.002611	0.004255
310	0.002775	0.000146	0.001954	0.002775	0.001132	-0.000841	0.003926
311	0.001625	0.003597	-1.9e-05	0.002775	0.006391	0.003433	0.004912
312	0.003433	-0.002155	0.003926	0.00031	-0.001498	-1.9e-05	0.003104
313	0.00294	0.000967	0.001132	-1.9e-05	-0.000512	0.000639	0.005241
314	-0.000347	0.001625	0.001789	0.003597	-0.001334	-0.003142	0.004255
315	-0.000183	0.002447	0.001296	0.001132	-0.00347	0.000803	0.003926
316	-0.002484	0.001789	0.003597	0.002282	-0.001662	0.000474	0.001296
317	-0.001005	-0.002813	0.00031	0.003926	0.001625	0.001296	0.003433
318	-0.000183	0.004583	0.006062	0.005898	0.003761	-0.001005	-0.002977
319	0.001132	0.00409	0.004255	0.004255	0.002775	-0.003963	0.002282
320	-0.001005	0.000967	0.006062	0.000474	0.002775	0.000967	0.003433
321	0.002282	0.003433	0.003268	-0.000512	0.004255	0.001296	-0.000347
322	0.004255	-0.001334	0.003104	0.003433	0.004912	0.000474	0.005076
323	0.004583	0.003761	0.001296	-0.002648	0.000967	0.00146	0.003104
324	0.001954	0.005569	0.003926	-0.002813	0.004583	-1.9e-05	0.001625
325	0.000146	0.001954	-0.007415	0.001132	-0.000512	0.003104	0.002775
326	0.002118	0.001954	-0.000676	-0.002648	0.003761	0.002447	0.005076
327	0.000146	-1.9e-05	-0.000841	-0.000512	0.00146	-1.9e-05	0.003268
328	-0.001498	-0.003635	-0.003306	0.004419	-0.000347	0.001954	0.005076
329	-0.000676	0.003926	-0.000512	-1.9e-05	0.004255	0.000803	0.002447
330	0.005898	0.002447	0.002118	0.004255	0.002282	0.000474	0.002775
331	-0.001498	0.004748	0.00031	0.004748	0.002447	0.003597	0.001132
332	0.003104	0.005898	0.001296	0.00294	0.004419	0.005569	0.00146
333	0.001296	0.003597	0.005898	-1.9e-05	0.005569	0.000639	0.006227
334	-0.011195	0.000967	-0.001662	0.000146	0.002447	0.003761	0.003104
335	0.001296	0.00146	-0.002155	0.005241	0.00294	0.00146	0.003433
336	0.000146	0.003268	-0.001827	0.002447	0.000639	0.000474	0.00146
337	0.001625	0.002118	0.002775	0.001789	0.002118	-0.000841	0.009514
338	0.000639	0.003926	0.000803	0.002282	0.001625	0.000146	-0.001005
339	-0.002484	0.002447	0.002118	0.002775	0.005076	-0.001991	0.000803
340	-0.001498	0.005076	-0.001005	-0.000183	-0.000183	-1.9e-05	-0.003799
341	0.004583	0.00294	0.000639	0.00787	0.001625	-1.9e-05	-0.001991
342	-0.001498	0.00146	-0.002155	0.003761	0.003268	-1.9e-05	-0.001005
343	0.00294	0.001625	0.001296	0.002447	0.000474	0.005076	-0.001334
344	0.003433	0.003761	0.000146	0.003597	0.002447	0.00409	0.001132
345	-0.001169	0.000146	0.000803	0.002118	0.00409	0.004583	0.00672
346	-0.004456	-0.001662	-1.9e-05	0.000803	-0.000676	0.004748	0.005405
347	0.001132	0.002611	0.000474	-0.001169	0.000967	0.001625	0.005405
348	-0.001334	-0.000841	0.005241	0.007706	-0.003142	0.003268	0.003761
349	-0.000183	0.000146	0.000474	0.003104	0.003104	0.002118	0.001296
350	0.00031	0.001296	0.003761	0.005734	-0.001498	0.002118	0.005898
351	0.00031	0.004255	0.002611	-0.000676	-0.000183	0.000803	-0.000183
352	0.002447	-0.002484	0.00935	0.003761	0.000146	0.001132	0.003104
353	-0.002484	-0.000183	0.002611	0.00409	-0.000512	0.006556	0.002282
354	0.001789	-0.001827	0.003268	0.003433	-0.000183	0.001132	0.00146
355	0.000967	0.000146	0.003433	0.001132	-0.000183	0.003433	-0.001005
356	0.002118	0.000146	0.00294	-0.000183	0.00146	0.00146	0.007377
357	0.000639	-0.001827	0.000146	-0.001662	0.00031	0.003104	0.001625
358	0.003268	-1.9e-05	0.003268	-0.001169	0.00031	0.003268	0.003926
359	0.001132	-0.000183	0.000474	0.000639	-0.001169	0.001296	0.004583
360	0.003433	0.000146	0.005241	-0.00232	-1.9e-05	0.003268	-0.001005
361	-0.002484	0.001132	0.003433	0.002282	-0.003306	0.00146	-0.001169
362	0.004912	-0.001005	-0.001005	-0.001169	-0.001991	0.001625	0.005569
363	-0.001498	0.00031	0.00409	0.00294	-0.004128	0.001625	0.00146
364	-0.000676	-0.000512	0.001954	-0.000347	0.000639	0.007706	0.000639
365	-0.00232	-0.000841	0.005076	0.005734	-0.001498	0.001296	0.001296
366	0.000474	0.010664	0.003761	0.001296	0.005734	0.001954	0.001132
367	-0.001991	-0.001827	0.00409	0.005241	0.000803	0.003761	0.00409
368	-0.001334	-0.003799	0.006227	0.002118	0.002282	0.004583	-0.002977
369	0.001789	0.002611	0.007213	0.002611	0.00031	0.003268	0.00146
370	0.001789	0.000967	0.002611	0.003597	-0.000676	0.002447	0.002611
371	0.003761	-0.000512	0.003761	0.000967	0.000146	0.002447	0.000474
372	-1.9e-05	0.00031	0.00294	0.007049	0.000474	0.003761	-0.000512
373	0.004583	-0.004785	0.001789	-0.000676	0.00146	0.000474	0.002282
374	0.000967	0.005734	-0.000841	0.000967	-0.001005	0.002447	-0.001991
375	0.004912	0.002282	0.004912	0.000639	0.002775	0.003761	-0.000347
376	0.000639	0.00146	0.005734	0.000474	0.00031	0.00146	-0.002484
377	0.003597	-0.011031	-1.9e-05	0.00294	0.001296	0.002282	0.003104
378	-0.000183	-0.001169	0.004583	0.00672	-0.000841	0.00146	0.003268
379	0.001132	0.001625	0.002611	0.002118	0.000967	0.004419	0.005569
380	0.000803	-0.000183	0.001789	0.003268	-0.002648	0.004255	-0.000512
381	0.001625	0.000146	0.00294	0.001625	0.002611	-0.002648	0.00146
382	0.000803	-0.001991	0.00294	0.004419	-0.000183	-1.9e-05	0.00294
383	-1.9e-05	-0.001827	0.002775	0.003433	-0.001498	0.005569	0.001132
384	0.002447	-0.002155	0.006391	0.005076	-0.004456	0.000967	0.000639
385	-0.000512	0.001132	0.001625	0.004255	-0.001498	0.003268	0.002775
386	0.003761	0.00031	0.002611	0.004255	0.000639	0.00409	0.00146
387	0.003926	0.000474	0.000967	0.00409	0.000474	0.00294	0.002282
388	-0.001334	0.000146	0.003433	0.003597	0.000967	0.000967	0.004912
389	0.002282	0.001625	-0.005443	0.003268	0.002282	0.002282	-0.001498
390	0.005241	-0.000347	-0.001005	0.001132	0.004419	0.002775	0.001625
391	0.006062	0.001132	0.001954	-0.000676	0.00031	0.00031	-0.002813
392	0.003104	0.00031	-0.001169	0.002775	0.003926	0.000803	0.004912
393	0.003433	0.003926	0.001625	0.002611	-1.9e-05	0.000803	-0.001662
394	0.005405	-0.000183	-0.000183	0.002611	-0.003142	0.004419	0.001296
395	-0.000183	0.001789	0.001954	0.003433	-0.004949	0.003597	0.003104
396	-0.00232	0.000803	0.001789	0.004419	0.001132	0.000146	0.004748
397	-0.000676	-1.9e-05	0.002282	0.005405	-0.00232	0.000967	0.003268
398	-1.9e-05	0.003926	0.000474	0.003268	0.002447	0.003268	0.006884
399	0.00031	-1.9e-05	0.003433	0.007377	-1.9e-05	-0.002155	0.007213
400	0.00294	0.001296	-0.001005	0.002282	-0.005607	0.001132	0.003761
401	0.003597	-0.000183	0.001954	0.004748	0.00031	0.002447	0.005241
402	0.000146	-0.001005	0.001625	0.003926	-0.003306	0.004748	0.00294
403	0.000967	-0.003635	0.009678	0.002611	0.000146	0.000146	-0.004949
404	-0.000347	0.002775	0.000474	-0.001169	-0.000512	0.006391	0.00031
405	0.001296	-0.001169	0.002611	-0.000183	0.000474	-0.000183	0.00409
406	0.001132	0.001789	0.00294	-0.002813	0.000474	0.002282	0.003761
407	0.001954	-0.00232	0.002447	0.00294	-0.000183	0.00031	0.00409
408	-0.001498	-0.002155	0.00294	0.003926	0.002775	0.00031	0.004255
409	0.001625	0.004255	0.000146	0.000803	0.002611	0.000639	0.003433
410	0.001625	0.00146	0.000474	0.00294	0.00146	0.003104	0.001625
411	0.001954	0.005734	0.00031	0.001132	-0.000183	0.003433	0.004748
412	-0.001334	-0.001498	0.001296	0.000803	0.00409	0.000803	0.004583
413	-0.003635	0.002282	0.001625	-0.000676	0.001789	0.00031	0.00409
414	-0.001334	0.000146	0.003104	0.000146	-0.000183	-0.001334	0.005898
415	-0.003142	0.000803	-0.000183	0.000146	0.003761	-0.000841	0.003104
416	-0.003306	-0.000183	-0.001005	-0.001005	-0.001662	0.000639	0.003597
417	0.001625	0.002775	0.002611	0.005569	-0.004128	0.000967	0.004583
418	0.00031	0.001296	0.004583	0.005898	-0.003306	0.005569	0.001132
419	0.001296	0.002447	0.002611	0.002447	-0.000512	0.005734	-0.000183
420	0.001296	0.001789	0.002611	0.004255	0.001132	0.002447	0.008692
421	0.002447	0.002775	-0.000512	0.001625	-0.001005	0.005241	-0.001498
422	0.001625	0.005569	0.000967	-0.001334	0.002447	0.003268	0.004583
423	0.000803	-0.000512	0.001296	-0.001827	-0.005936	0.002118	0.001296
424	0.002447	0.000474	0.001789	-0.004128	-0.009551	0.000474	0.002118
425	0.000474	0.002611	0.004255	-0.000512	-0.013003	0.002118	0.000146
426	0.003926	0.001625	0.00294	-0.004292	0.001954	-0.000183	0.000967
427	0.002447	0.003761	-0.000183	-0.001169	-0.001005	0.001132	0.00146
428	0.001132	-0.000347	0.00031	-0.005278	0.001132	0.003268	0.002447
429	0.000146	0.00031	0.001625	0.003433	-0.001827	0.000146	0.003104
430	0.001789	0.000146	-1.9e-05	-0.000841	0.002447	0.004419	0.003597
431	-0.001169	0.000803	0.004255	0.000967	-0.001005	0.002118	0.002611
432	0.002447	0.001789	0.001954	-0.000512	0.002118	0.002282	0.001789
433	-1.9e-05	-0.005936	0.002447	0.002775	-0.002648	0.001296	0.005076
434	0.002447	0.00146	0.001625	-0.001005	-0.002484	0.005734	0.001625
435	0.000803	-0.003142	0.002118	0.002282	-0.001662	-0.000676	0.003104
436	-0.000841	-0.000183	-0.000512	-0.001334	-0.002977	0.003761	-0.000347
437	0.000803	-0.000676	-0.001334	0.000967	-0.001498	0.000474	0.004255
438	0.002282	0.002282	0.001132	0.000146	-0.002648	0.00294	0.001296
439	0.002775	-0.002813	0.002611	-0.001498	-0.000512	0.000639	0.00146
440	0.002447	-1.9e-05	-0.002648	0.001296	-0.004128	0.001296	-0.002813
441	0.007213	-1.9e-05	0.00409	-0.000512	-0.000512	0.002118	0.003926
442	0.002118	0.00031	0.001296	0.00031	-0.002648	0.001625	-1.9e-05
443	0.002447	-0.000183	0.003268	-0.000841	0.002775	0.001789	-1.9e-05
444	0.002775	0.000803	0.00146	0.003104	0.00146	0.002282	-0.000183
445	0.002447	-0.000841	0.004912	-0.000183	0.000146	0.005569	0.000967
446	-0.002155	-0.000676	0.007213	0.003761	-0.001005	-0.004456	0.001296
447	0.001954	-1.9e-05	-1.9e-05	0.000146	-0.001662	-0.002155	0.001132
448	-0.005114	0.004748	0.003104	0.001132	-0.004128	0.004419	0.010336
449	0.002447	0.000803	0.005076	0.001954	-0.000841	0.000639	0.00031
450	0.001296	-0.002484	0.003926	-1.9e-05	-0.001005	-0.002648	0.00409
451	-0.000512	0.001625	0.000967	-0.001005	0.000146	0.005076	0.001789
452	0.000967	-0.000347	0.005405	0.003268	-0.000841	0.00294	0.003761
453	-0.000183	0.000146	0.003597	0.000803	-0.001991	0.003433	0.00294
454	0.001296	-0.002484	0.005076	0.000474	0.001132	0.004419	0.002447
455	-0.000347	-0.000183	0.002447	0.001625	0.000474	0.002611	0.00294
456	0.000639	-0.001662	0.003761	-0.000676	-0.001005	-0.009058	0.003433
457	0.000803	0.001789	0.001296	-0.003142	-0.001005	0.000474	-0.001005
458	0.002611	-0.004456	0.002282	-0.001991	0.00146	-0.001334	0.006884
459	-0.003142	0.00672	0.000146	-0.002648	-0.000512	-0.00232	0.001296
460	0.000639	0.001954	0.002282	0.002447	0.004583	0.005734	0.002447
461	-0.004621	0.000474	0.001789	-0.004949	0.006062	-0.000676	0.003433
462	-0.003306	0.002282	-0.000347	-0.001005	0.003104	0.005076	0.001296
463	-0.001005	0.00146	0.003104	0.004583	0.004583	-0.004949	0.002611
464	-1.9e-05	0.003104	0.000803	-0.001169	0.002611	-0.00232	0.004583
465	-0.001991	0.000474	0.002775	0.001296	0.00031	0.001789	0.003761
466	-0.003799	-1.9e-05	-1.9e-05	-0.002155	0.001954	-0.001498	0.00409
467	-1.9e-05	-0.002813	0.002118	0.001625	0.000146	-0.002155	0.00409
468	-0.002648	0.003268	-0.000512	-0.003142	0.002118	-0.000676	0.003268
469	-0.000512	-0.002977	0.00031	-0.000841	0.001296	0.000967	0.007049
470	-0.002484	-0.000841	-0.002484	-0.002813	0.001296	0.003597	0.006556
471	0.00146	0.001625	0.000146	0.002447	0.003597	0.002118	0.005405
472	-0.000183	0.000639	-0.003306	-0.001005	0.001789	0.000474	0.00146
473	-0.002484	-0.001498	0.000474	-0.000841	0.005569	0.000803	0.002447
474	0.002611	0.002282	0.002611	-0.000512	0.001296	-0.001169	-0.000676
475	0.002282	0.002447	-0.000347	0.000474	0.00294	0.000803	0.002118
476	-0.000347	0.003597	-0.001005	-0.000676	0.001625	0.000639	-0.005443
477	0.005405	0.003761	-0.004621	0.005898	0.004912	0.001132	0.000474
478	0.005569	0.001625	0.001132	0.003104	-0.001334	-0.000183	0.003104
479	0.001625	0.001954	-1.9e-05	-0.000841	0.000967	0.000146	0.000639
480	0.000474	-0.002977	-0.000347	0.002118	0.002611	-0.000183	0.003433
481	-1.9e-05	0.002775	-0.001991	-0.001334	0.001625	0.001625	0.005241
482	0.000967	0.003597	0.001132	0.000803	0.002282	0.004583	0.00146
483	-0.000512	-0.002977	0.000803	-0.000841	0.00031	0.004583	0.001954
484	-0.004621	0.002282	-0.001991	0.005734	0.000474	0.000639	0.003104
485	0.001132	0.006227	0.00146	0.000967	-0.003799	0.005405	-0.000841
486	-0.000676	0.003761	-0.001005	0.003104	0.001625	0.003104	0.001789
487	0.00031	0.000639	-0.004456	0.00031	0.001954	0.002611	-0.001334
488	0.000639	0.003597	0.003597	-0.011524	0.003268	0.003926	0.00146
489	-0.003799	0.001789	0.000803	0.00294	0.000474	0.001789	0.000639
490	-0.001334	-0.000512	-1.9e-05	-0.001169	-0.002648	0.000639	0.006884
491	0.001789	0.002447	-0.001662	0.000474	-0.000512	0.002447	-0.001662
492	0.003761	0.00031	-0.000841	-0.001334	0.00031	-0.001169	0.000639
493	-0.000183	0.002775	0.00031	-0.001169	0.001954	0.001132	-0.002648
494	0.001132	-0.000676	0.002282	-1.9e-05	0.005734	0.002611	-0.002813
495	-0.001005	0.002282	-0.002813	-0.001991	-0.00347	0.000639	-0.001991
496	0.001789	0.000803	0.003268	-0.00232	-0.000183	0.002775	-0.000183
497	0.002447	-0.000841	0.002118	-0.001498	0.000967	0.001789	0.001132
498	-0.000676	0.005569	-0.000841	-0.003799	0.00294	0.003268	0.003926
499	-1.9e-05	0.001296	0.002447	0.000474	-0.004949	0.003433	-1.9e-05
500	0.000146	0.000803	-0.001005	-0.002813	0.000639	0.003926	0.003433
501	-0.003306	-0.000183	0.002447	-0.001827	-0.004128	0.002282	0.002282
502	-0.001169	-0.001334	0.002447	-0.002155	-0.003142	0.003433	-0.000676
503	0.003268	-0.001662	-0.001005	0.002447	-0.001991	0.002447	0.007049
504	-0.001005	0.00031	0.000474	-0.000676	-0.002155	0.003104	-0.000841
505	0.000146	-0.000676	0.005898	-0.000183	-0.001334	-0.001169	0.00146
506	0.00031	0.001625	-1.9e-05	-0.00232	-0.00232	0.003597	0.000803
507	0.002611	0.00294	0.002775	-1.9e-05	0.00146	0.001132	0.000639
508	0.000639	0.005569	0.003104	0.000474	-0.000841	0.001625	-0.004292
509	0.001789	0.002447	0.00146	-0.001005	0.002447	0.001296	0.000803
510	0.000639	0.002611	0.001625	-0.001169	0.003104	0.001625	0.003104
511	0.005405	0.004419	0.002118	-0.002484	0.005241	0.003597	0.000639
512	-0.000841	0.002282	-0.000841	0.000474	0.004748	0.001789	0.001132
513	-0.000676	0.002118	-0.000347	-0.002977	0.000639	0.001789	0.00294
514	-0.000347	0.00031	-0.000841	0.000967	-0.000347	0.002447	0.003433
515	0.000474	0.001296	-0.001662	-0.000676	0.001296	-0.000183	0.001954
516	-0.003306	0.006227	0.001132	0.00146	-0.001827	0.003268	0.001132
517	-0.001005	0.005734	-0.001005	-0.000347	0.004912	0.002775	0.001132
518	-1.9e-05	-1.9e-05	-1.9e-05	0.004583	0.00146	-0.000512	0.006227
519	-0.001005	0.00294	-0.00347	0.000146	-0.002484	0.002611	0.004912
520	0.000639	0.002282	-0.001498	0.003761	0.001625	0.001954	0.001296
521	-0.000512	0.004912	-0.002648	-0.000841	0.000474	0.003104	0.002118
522	0.003104	-0.001662	0.001789	0.001625	0.00031	-0.001005	0.002447
523	-0.000841	0.002775	-0.001169	0.000474	0.002775	-0.000676	0.002775
524	-0.000347	-0.005114	-0.000676	-0.001991	0.001954	0.001296	0.000474
525	0.000146	0.003104	0.000146	0.000803	0.001296	0.002447	0.002611
526	0.001625	0.00409	-0.003306	-0.000347	0.003926	0.000967	0.003761
527	-0.003306	0.000146	-0.000841	0.001132	0.000639	-0.000841	-0.002484
528	0.003761	0.003268	0.00294	0.000146	0.002118	0.000803	-0.001662
529	-0.00232	0.003926	0.000146	0.001954	0.000474	-0.000676	0.002447
530	0.005569	0.003761	-0.000676	-0.002155	0.003104	0.003104	0.001625
531	0.002775	0.002118	0.000474	0.002775	0.002447	0.000803	0.001954
532	0.000474	-0.008565	-0.002155	-0.001991	0.003761	0.000967	0.00409
533	0.001789	-0.001991	0.00409	0.003761	0.000474	0.00031	0.002775
534	-0.001991	0.00672	-0.004456	0.000639	0.002282	0.000639	0.007542
535	-0.001169	0.00146	-0.001662	0.001954	-0.001334	0.00031	0.006556
536	-0.002155	0.002118	-0.003635	0.000474	-0.001005	0.000639	0.002775
537	0.00031	0.001625	-0.001334	0.002118	0.000474	-0.001827	0.004912
538	-0.004128	0.001296	-0.004456	0.002611	-0.000512	0.002447	0.002447
539	0.001132	-0.00347	-0.003306	-0.000841	0.001296	0.000474	0.003761
540	-0.001334	0.00409	-0.001827	0.004912	-0.000676	0.001296	0.000967
541	0.000474	0.000967	-0.003799	0.002282	-0.000183	0.002447	0.001954
542	-0.001005	0.004419	-0.00347	0.001625	0.001789	-0.000347	-0.002648
543	-0.00232	0.003104	-0.001334	0.003597	0.003761	-0.000347	0.00146
544	-0.000676	0.002775	-0.00988	0.004419	0.003433	0.000639	0.001132
545	0.002775	0.002447	-0.006922	0.000803	0.003433	0.000474	0.002282
546	-0.002648	-0.001334	-0.004128	-0.000841	0.00146	-0.000512	0.001296
547	0.000803	0.000146	-0.004128	0.001789	-0.000841	0.00031	0.006227
548	-0.00347	-1.9e-05	-0.002484	0.002282	-1.9e-05	0.000639	0.002447
549	-0.003306	0.00146	-0.0061	0.000639	0.000803	0.002118	0.002118
550	-0.002155	0.000639	-0.001334	0.001296	-0.004456	0.000639	0.003926
551	-0.003142	0.003761	-0.002484	0.001789	-0.003306	0.001789	0.00146
552	-0.000347	-0.000841	0.004912	0.000967	-0.001991	0.000803	0.004912
553	-0.002813	0.002282	-0.003142	0.001789	-0.002155	0.003597	0.003761
554	0.000474	0.001132	0.001296	0.000967	0.000967	0.001625	0.005898
555	-0.000512	-0.001827	0.001954	0.002118	0.001789	0.003104	0.004255
556	0.001625	-0.002648	-0.000841	-0.000512	0.003104	0.004419	0.003597
557	0.001954	0.002611	-0.000676	0.00031	-0.001991	0.003597	0.002611
558	-0.001498	0.002282	-0.000183	-1.9e-05	0.001296	0.00294	-0.002813
559	0.00146	0.001625	0.000639	0.000146	-0.001662	0.002775	-0.001005
560	0.002118	-0.000183	-0.003963	0.000474	0.004912	-0.000183	0.00146
561	0.003761	0.003268	-0.000512	0.000639	-0.002484	-0.000841	-1.9e-05
562	0.00031	0.004255	-0.002484	0.00031	0.000146	-0.004621	0.000639
563	0.002447	0.002118	-0.001334	0.002611	0.000803	0.001625	0.001954
564	0.001132	0.002611	-0.001991	-0.001334	0.002118	0.000639	0.004748
565	-0.000512	0.00146	-0.001498	-0.000512	0.000967	-0.000676	0.002447
566	-0.000676	0.001954	-0.002484	0.000146	0.002447	0.001132	0.005241
567	-0.001991	0.001789	-0.002155	-0.000347	-0.001662	0.002447	0.003268
568	-0.000841	-0.001334	-0.002813	-0.002813	-0.001334	0.000146	0.002282
569	-0.001334	-0.001662	-0.005936	-0.002977	-0.003799	-0.000676	0.002611
570	-0.002813	0.002118	-0.00347	-0.000676	-0.001991	0.003761	0.001296
571	-0.001827	-0.001334	-0.001005	-0.000183	-0.000676	0.001296	0.002447
572	-1.9e-05	0.001296	-0.002155	0.00031	-0.000512	0.006556	-0.002648
573	0.00146	0.002775	0.002282	0.000474	0.000803	-0.000183	0.002775
574	-0.000512	0.003104	-0.001662	-0.001005	0.000639	0.004583	0.00031
575	0.003104	0.00294	0.000146	-0.000841	0.000803	0.00146	0.007213
576	0.000803	0.002611	-0.000347	-0.004456	-0.001498	0.002447	-0.000512
577	0.003597	0.005076	-0.000841	-0.002813	0.003597	0.001789	0.004419
578	-0.000347	0.001296	0.002118	-0.000676	-0.001991	0.00146	0.001789
579	0.005241	0.002282	0.000639	-0.00347	0.002611	0.001625	0.001132
580	-0.003635	0.00146	-0.001498	0.001625	-0.000183	0.004419	0.003268
581	0.000639	0.00294	-1.9e-05	-0.003306	0.00146	0.00031	0.002282
582	0.000967	0.00146	-0.001662	0.003268	0.001789	0.001789	0.001954
583	-0.001498	0.000803	-0.001827	-0.004621	0.001132	0.003104	0.004748
584	0.001296	0.007542	0.000967	-0.000183	-0.001169	0.000474	0.003597
585	0.001789	0.003433	-0.004292	-0.000512	0.000474	0.00294	0.004583
586	0.002447	0.000474	0.000146	0.001625	-0.005936	0.003268	0.005241
587	0.000639	0.003926	-0.001827	-0.001662	-0.001662	0.003597	0.000474
588	0.002447	-0.002484	-0.001662	0.004255	-0.000183	-0.002813	0.006227
589	-0.003799	0.002775	-0.000512	0.002611	0.004419	0.00409	0.000146
590	0.000639	-1.9e-05	-0.001169	-0.001827	-0.000676	-0.000841	0.001789
591	0.000639	0.001296	-0.002648	0.002118	0.000146	-1.9e-05	-0.001334
592	-0.001005	0.000803	-0.002484	0.000146	0.001296	-0.000676	0.00409
593	-0.001827	0.002282	-0.000183	0.001132	0.001625	0.001625	-0.000183
594	0.003926	0.006062	0.001789	-0.005607	0.006884	-0.000183	0.002118
595	0.00031	0.001954	-0.000512	0.000967	0.00031	-0.002484	0.00409
596	0.003104	0.003926	0.000146	0.000146	0.005241	0.003433	0.002611
597	0.003104	0.000474	0.000474	0.005569	0.001789	-0.001662	0.000146
598	-0.001334	0.003597	-0.001005	-0.003306	0.004255	0.001625	0.002611
599	-0.000841	0.003104	-0.000512	0.003761	0.003926	0.000803	0.006062
600	0.000146	0.001954	-0.001991	-0.000841	-0.000512	0.00146	0.003761
601	-0.001498	0.002118	0.000146	-0.000347	-0.001991	-0.000676	0.004583
602	0.000639	0.00294	-0.001991	-0.000183	0.003104	0.00146	0.006062
603	-0.001991	-0.001827	-0.001662	0.000967	-0.002155	-1.9e-05	0.009514
604	0.000474	0.001625	0.002118	-0.000512	-0.002648	0.002118	0.002611
605	0.00146	0.000474	0.000967	0.000146	0.001296	0.000639	0.004748
606	-0.001005	0.004583	-1.9e-05	0.001625	-0.002155	0.005405	0.003926
607	0.002611	0.00031	0.003104	0.001132	-0.000512	0.000474	0.003926
608	-0.000347	-0.001169	0.003104	0.002118	-0.002155	-0.00232	0.005734
609	0.000803	0.003104	0.002447	-0.000676	0.000639	0.001954	0.00787
610	-0.001662	0.005241	0.00409	0.00146	0.003597	0.000639	0.004748
611	0.000146	0.002118	-0.000512	-0.000841	0.004583	0.004912	0.004583
612	-0.002484	0.003433	0.001132	-1.9e-05	-0.002484	-0.001662	0.003268
613	0.00294	0.004419	0.000803	-0.000347	0.003926	0.000639	0.000803
614	-0.001498	0.003433	-0.002813	-0.000347	0.000146	0.000803	0.00031
615	-0.002484	0.004419	0.000146	0.002447	-0.000183	0.000803	-0.000841
616	0.001296	0.002447	0.003433	-1.9e-05	0.000803	-1.9e-05	0.003597
617	0.000146	0.003268	-0.00347	0.000474	0.002611	0.003926	0.001625
618	0.002447	0.003104	0.00146	0.000803	0.002611	0.00409	0.003597
619	-0.000676	0.006556	-0.000512	0.00294	0.000639	0.003433	0.001954
620	0.001296	0.001789	-0.002977	-0.000347	0.00146	0.003433	0.005405
621	0.000639	0.004583	-0.000676	-0.000183	-0.000512	0.004583	0.002611
622	0.001132	0.00146	-0.000347	0.004255	0.004255	-0.000676	0.001954
623	-1.9e-05	0.000967	-0.000676	-0.000347	-0.000183	0.00409	0.003433
624	0.002282	0.008857	0.001789	0.001625	-0.000676	0.000146	0.004419
625	-0.001662	0.003104	0.000146	-0.003306	-0.000347	0.004419	0.006391
626	0.001296	0.004419	0.001132	-0.001498	-0.000512	0.001789	0.002611
627	0.000474	0.005241	0.001789	-0.001334	-0.000183	0.001625	-0.000183
628	0.001132	0.003926	-0.001662	0.001132	0.003433	0.002282	0.002118
629	0.003104	0.002447	0.002282	0.002118	-0.000841	0.001132	-0.001991
630	0.007213	0.003433	-0.001005	-0.001169	0.003104	0.002282	-0.001169
631	0.002775	0.005898	-0.000512	-0.000512	0.001789	0.001789	0.00031
632	0.003761	0.00409	-0.001334	-0.000183	-0.000676	0.003761	-1.9e-05
633	0.002282	0.001789	0.00294	0.003433	-0.003635	0.002611	0.003597
634	0.000474	0.004748	0.000146	-0.006593	-1.9e-05	0.002282	0.001625
635	-0.002155	0.002118	0.000474	0.001625	-0.001169	0.001789	0.002611
636	0.001132	0.003268	-0.00347	-0.001662	-0.001991	0.002447	0.000474
637	0.00031	-0.004292	-0.000676	0.000639	-0.003142	0.004583	0.000146
638	-0.000183	0.001789	-0.001169	0.00294	-0.003306	0.008528	-0.002155
639	-0.001169	0.003104	-0.000676	0.00409	-0.001334	0.001296	0.005241
640	-0.000347	0.001296	0.001954	0.002282	-0.004785	0.00294	0.000967
641	0.002118	0.005241	0.00294	0.000967	0.002775	0.005405	0.002118
642	0.000803	0.003104	0.002447	0.003597	-0.001827	0.00294	0.00031
643	0.000474	0.006062	0.004255	-0.00347	0.000146	0.00146	0.00146
644	0.004912	0.002611	0.005405	0.003104	-1.9e-05	0.003597	-0.001827
645	0.004748	0.005241	0.001296	-0.001991	0.001789	-0.000512	0.001132
646	0.00146	0.005405	0.003104	0.001789	-0.000347	0.001789	0.000967
647	0.00409	0.003926	0.000967	-0.001169	0.001954	0.000474	0.002447
648	-0.000841	0.005076	0.001132	0.003268	0.000146	0.000146	0.000474
649	0.003761	0.001789	-0.001169	0.002118	0.001789	0.000474	-0.002648
650	0.003433	0.002282	0.002611	0.005076	-0.000512	0.000474	0.004255
651	-0.000512	0.007377	0.002447	0.000967	-0.001169	-0.000676	0.002611
652	0.001296	0.001625	0.004419	0.000146	-0.005114	0.00031	0.007049
653	0.000146	0.003761	0.002611	0.000474	-0.00347	0.00146	0.003268
654	0.000967	-0.000676	0.003433	-0.000183	-0.001662	0.000967	0.004583
655	0.00146	0.000803	0.001789	-0.000676	-0.003963	0.002611	0.002282
656	-0.000676	-1.9e-05	0.002447	0.000474	-0.002977	0.001296	0.004255
657	-0.001498	-0.001334	-0.000183	-0.000183	-0.004949	-0.000676	0.003761
658	0.000803	-0.000841	0.003104	0.000803	0.00031	0.006227	0.005076
659	-0.000512	0.002775	0.001296	0.001296	-0.001498	0.001132	0.000967
660	0.000803	0.001625	0.003761	-0.000512	0.002447	0.002447	0.00146
661	0.001789	0.007213	0.000639	0.00031	-0.001827	0.000474	0.000967
662	0.001296	0.007377	-0.000183	-0.000183	-0.000347	-0.001334	0.00294
663	-0.000512	0.004583	0.003104	0.001789	0.000146	-0.001827	0.00409
664	0.003433	0.006556	-0.001991	0.00294	0.003104	-0.001662	0.003433
665	-0.003799	0.005405	0.00294	0.003597	-0.00347	-0.001498	0.005076
666	-0.003963	0.004255	0.003761	-0.00347	0.001789	-1.9e-05	0.002611
667	0.000967	0.001954	0.002282	0.001132	0.000803	-0.000841	0.005405
668	-0.000841	0.00409	0.00146	-0.000676	-0.002484	-0.001334	0.001296
669	0.000474	0.003104	0.002447	-1.9e-05	0.001132	-0.001827	-0.001662
670	-0.001662	0.00409	-0.001005	-0.004621	0.001789	0.001625	0.002611
671	0.002611	0.005405	-0.001498	-0.000841	-0.000183	-0.001169	0.002282
672	0.002775	0.00672	0.000146	-0.007908	-0.003963	0.001132	0.001296
673	0.000803	0.00294	0.001625	-0.001991	-0.001005	0.001296	0.003597
674	-0.000512	0.002118	-0.000512	-0.000183	-0.001334	0.003268	-0.001498
675	0.006062	0.000967	0.00146	0.00146	-1.9e-05	0.00146	-0.000841
676	-0.003306	0.006062	0.000803	0.002611	-0.000512	-0.001498	0.001789
677	0.00031	0.002775	0.000967	-0.000676	-0.000183	0.004419	-0.000347
678	-0.001662	0.005076	0.001132	0.002447	0.001625	0.000967	-1.9e-05
679	0.000639	0.005076	-0.004456	-0.000512	-0.000841	0.000639	-0.000841
680	0.000639	-0.001827	0.00031	-0.003142	-0.000512	0.00146	0.000639
681	-0.000841	0.00409	0.000967	-0.003306	-0.000512	-0.000841	-0.001498
682	0.00031	0.006556	-0.000512	0.002611	-0.001991	-0.001827	0.000639
683	0.003104	0.001625	-0.000676	-0.000841	-0.001005	0.003597	-0.001005
684	0.003104	0.005569	0.001625	0.00146	0.000967	-0.002648	0.001789
685	0.004255	0.003926	-1.9e-05	0.000146	0.000474	0.000803	0.001625
686	0.003104	0.001789	0.000474	0.00031	-0.001005	0.003761	0.003268
687	0.003268	0.000639	-0.001334	-0.003306	-0.001662	0.001296	0.003268
688	-0.001169	0.001296	0.003104	0.001296	-0.00232	-0.001662	0.003926
689	-1.9e-05	0.00409	-0.000676	-1.9e-05	0.001789	0.003761	0.000146
690	-0.001169	-0.000841	-0.001334	0.001296	-0.004456	0.000639	0.006227
691	-0.002484	0.001625	-0.003799	0.003268	-0.00347	0.002118	-0.001827
692	0.002447	0.001132	-0.002977	-0.002977	-0.001169	0.002282	-0.00232
693	-0.000841	0.004255	0.00031	-0.000183	-0.001169	0.000803	0.000474
694	0.000146	-1.9e-05	-0.000183	-0.002648	0.001789	-0.000841	-0.001991
695	-0.001991	0.004419	0.001625	0.00146	-0.001005	0.001132	-0.003306
696	0.000474	0.004583	0.003104	-0.003142	0.000967	-0.000676	-0.002813
697	-0.000347	-0.000347	0.002118	-0.001334	-0.001169	-0.001005	-0.002977
698	0.002118	0.002447	0.00146	-0.001498	0.003597	-0.001169	0.001132
699	-0.001334	0.003597	0.002118	0.002447	-0.004128	-0.001169	0.000967
700	0.000146	0.003597	-0.001662	-0.006429	-0.004128	0.001789	-1.9e-05
701	0.00031	-0.000676	0.000803	0.006227	-1.9e-05	-0.00232	0.002282
702	0.000146	-0.001169	0.000146	-0.001334	-0.002813	-0.000676	0.007213
703	0.00031	0.000474	0.006556	-0.002648	-0.004621	0.001132	-0.001005
704	-0.001169	0.00409	-0.002484	-0.002155	-0.003142	0.000146	0.005734
705	0.005076	-0.006757	-0.001498	-0.003306	-0.001827	-0.001662	0.003104
706	-0.000347	0.002447	0.002447	-0.000676	-0.003142	0.003268	-0.000676
707	0.001954	0.000146	0.00146	-0.002813	-0.001005	0.004255	0.007049
708	-0.001991	0.003597	0.002282	0.000639	-0.001498	-0.000512	-0.001498
709	0.002611	0.00146	0.000967	-0.001662	0.000146	-0.002977	0.002118
710	-0.001498	0.000967	0.00672	0.002447	0.004748	0.00294	0.00294
711	0.002118	0.002282	-0.000183	-0.003306	-0.000347	0.001954	0.003104
712	-0.002648	0.002611	0.000967	0.000474	-0.002155	-0.001662	0.002282
713	0.000967	0.002118	0.000474	-0.003306	0.001789	-0.002977	-0.007744
714	0.001954	0.001625	0.006062	-0.001169	-0.002484	-0.004949	-0.001827
715	-0.001991	0.003926	0.002611	-0.002648	0.000967	-0.004785	0.003761
716	-0.003142	-0.000676	0.003268	-0.002813	-1.9e-05	-0.004128	0.002282
717	-0.002648	0.003761	0.003104	-0.002813	0.000803	-0.003142	0.002282
718	0.003268	0.00146	0.004419	-1.9e-05	0.002611	-0.004456	0.001132
719	-0.001169	0.002775	0.000967	-0.006593	0.003268	-0.001498	0.00294
720	0.002447	0.00146	0.004255	-0.005278	-0.00232	-0.001169	0.006391
721	-0.000183	0.003597	-0.008072	-0.000676	-0.00347	0.000474	0.004419
722	0.00409	-0.001169	-0.002484	-0.001005	0.000639	-0.002813	0.004583
723	-0.001662	0.000803	-0.000512	-0.002484	-0.00347	0.002282	0.002282
724	-0.001498	-0.001169	-0.002977	-0.001498	0.000967	-0.001005	0.005076
725	-0.001827	-0.003963	-1.9e-05	-0.000347	-0.001169	0.000639	-0.001827
726	0.001789	-0.001005	0.002447	-0.001169	0.001625	-0.000841	0.00294
727	-0.001991	0.000803	0.000639	0.000639	-0.002155	-0.002484	0.001789
728	-0.001991	0.000639	0.002447	-0.001334	0.005405	-0.001334	0.001789
729	0.00146	0.001954	0.000967	0.000639	-1.9e-05	0.000474	-0.001005
730	0.001625	0.001296	0.000803	-0.000183	0.002611	-0.001005	0.004419
731	0.000803	0.002611	0.006227	0.000803	-0.000183	-0.002648	0.001132
732	0.003926	0.006391	0.000967	-0.001991	0.002775	0.000474	0.000639
733	0.003926	-1.9e-05	0.00146	-0.004292	0.001132	-0.001169	0.005241
734	-0.000841	0.004583	0.000146	-0.001169	-0.002977	-0.000183	0.005898
735	0.006062	0.000146	0.000803	-0.000841	-0.000512	-0.001991	0.003433
736	0.001296	0.00787	-0.001334	-0.004128	-0.000347	0.000146	0.002282
737	0.000146	-0.001334	-0.000347	-0.000347	-1.9e-05	-0.001005	0.003926
738	-0.001827	0.003926	-0.002648	-0.000183	-0.000512	0.000146	0.00294
739	0.002611	0.003433	-0.001334	-0.001334	-0.003635	-0.005443	-0.000183
740	-0.002977	-0.000841	0.000639	0.000967	-0.000183	0.003761	0.001132
741	-0.000347	0.000803	-0.001498	0.000967	0.002775	0.001625	0.00146
742	-0.000512	-0.000841	-0.005278	0.001789	0.000146	0.003433	-0.001498
743	0.003268	-1.9e-05	0.000803	0.00146	0.003268	0.001625	0.000803
744	-0.00232	0.002447	-0.000512	-0.005278	0.002118	0.002447	-0.000183
745	-0.002155	0.000146	0.000967	0.000639	-0.001498	-0.002977	0.003926
746	-0.001662	0.000639	0.001132	-0.000347	-0.001334	-0.000512	0.001954
747	-0.000676	0.002775	0.00031	-0.003142	0.001296	-0.002484	0.004419
748	-1.9e-05	0.00031	0.004583	-0.00232	0.00146	-0.002155	0.001789
749	0.002775	0.001954	0.000967	-0.005278	-0.001334	-0.000183	0.002611
750	-0.000676	0.001625	-0.000512	0.00146	-0.003635	-0.003635	0.003761
751	0.007049	0.008528	0.006556	0.002611	0.006062	0.008035	0.008035
752	0.013787	0.010993	0.016746	0.011486	0.010829	0.010993	0.014938
753	0.019047	0.020526	0.019211	0.015595	0.018225	0.019704	0.021348
754	0.027922	0.028908	0.025621	0.025621	0.026114	0.027593	0.03088
755	0.034332	0.030552	0.031538	0.030387	0.034989	0.038276	0.03729
756	0.038605	0.039756	0.039098	0.035975	0.040084	0.037948	0.045672
757	0.047645	0.044851	0.045837	0.047316	0.04748	0.043536	0.04896
758	0.053562	0.052575	0.053397	0.049124	0.052904	0.051261	0.061944
759	0.057671	0.058821	0.05915	0.05652	0.059314	0.062601	0.0603
760	0.066546	0.060465	0.06556	0.063423	0.068189	0.06556	0.069176
761	0.067532	0.072627	0.068354	0.068682	0.073449	0.069011	0.069504
762	0.074106	0.075421	0.075585	0.072627	0.077558	0.07197	0.077065
763	0.076079	0.081338	0.081174	0.080352	0.081338	0.077065	0.078873
764	0.083146	0.086762	0.084296	0.081009	0.088077	0.082488	0.085118
765	0.087255	0.091528	0.093993	0.083968	0.090378	0.085611	0.087584
766	0.093007	0.096294	0.094651	0.08972	0.097609	0.098102	0.095308
767	0.094651	0.097609	0.096623	0.095966	0.099089	0.093336	0.100403
768	0.100896	0.104184	0.09991	0.097445	0.103526	0.101883	0.100896
769	0.10632	0.106485	0.105992	0.103691	0.107635	0.103033	0.111908
770	0.107799	0.110758	0.108457	0.105827	0.108621	0.10895	0.109772
771	0.112566	0.112401	0.115524	0.109279	0.112073	0.111908	0.117003
772	0.114374	0.118154	0.112073	0.114867	0.119304	0.068189	0.116346
773	0.121277	0.117825	0.120126	0.118154	0.124071	0.074106	0.122756
774	0.124071	0.127194	0.121441	0.119797	0.125714	0.080845	0.122427
775	0.125714	0.126865	0.124728	0.122427	0.129823	0.082982	0.129166
776	0.127194	0.130645	0.127851	0.129495	0.129495	0.089391	0.129659
777	0.136069	0.132453	0.136069	0.12818	0.136726	0.081502	0.132946
778	0.133275	0.132453	0.134261	0.135411	0.13459	0.094651	0.138041
779	0.134425	0.138205	0.137055	0.134425	0.136069	0.098924	0.138041
780	0.140178	0.140013	0.142479	0.137712	0.140013	0.101883	0.138205
781	0.140671	0.145766	0.143465	0.137219	0.145108	0.105663	0.147081
782	0.14215	0.143794	0.145108	0.141493	0.14478	0.109607	0.142479
783	0.144944	0.148889	0.147081	0.146423	0.154148	0.117496	0.147081
784	0.150861	0.150204	0.14971	0.148724	0.136069	0.11536	0.147574
785	0.155463	0.153491	0.147245	0.147409	0.001296	0.121277	0.152176
786	0.156285	0.153655	0.150368	0.118318	-0.000183	0.122756	0.151683
787	0.154312	0.157107	0.150039	0.11914	-1.9e-05	0.1267	0.154148
788	0.156449	0.157928	0.156942	0.121934	0.001954	0.130316	0.155792
789	0.154806	0.161709	0.152833	0.125057	0.004255	0.133768	0.155134
790	0.161051	0.157928	0.1576	0.130152	0.013459	0.133275	0.160394
791	0.159572	0.160722	0.162037	0.131467	0.004912	0.140342	0.162037
792	0.161709	0.157435	0.161544	0.136726	-1.9e-05	0.139027	0.163188
793	0.159572	0.157764	0.165324	0.142643	0.003597	0.143794	0.161873
794	0.162037	0.165489	0.16516	0.138863	0.011815	0.145602	0.163352
795	0.159901	0.160887	0.168118	0.146423	0.016088	0.145108	0.165982
796	0.163681	0.169926	0.169762	0.145108	0.027265	0.148067	0.167297
797	0.163845	0.170913	0.169926	0.154148	0.036797	0.152505	0.168776
798	0.168283	0.170748	0.171899	0.151683	0.043371	0.153491	0.175515
799	0.166968	0.171077	0.173214	0.148724	0.040577	0.155299	0.169433
800	0.166475	0.173707	0.170748	0.153162	0.053233	0.155299	0.17157
801	0.169433	0.174035	0.175021	0.153326	0.058492	0.156778	0.175021
802	0.171899	0.176829	0.171077	0.153819	0.067368	0.161544	0.174857
803	0.171899	0.174693	0.174693	0.158586	0.072956	0.162037	0.174857
804	0.173871	0.176336	0.169762	0.162859	0.071805	0.165324	0.175843
805	0.175843	0.176336	0.177487	0.163516	0.079859	0.164338	0.177487
806	0.179952	0.176501	0.175679	0.160229	0.085283	0.162859	0.17798
807	0.175515	0.174693	0.177322	0.163681	0.091199	0.169269	0.179788
808	0.174693	0.179952	0.182911	0.167461	0.097116	0.176829	0.179459
809	0.176994	0.178309	0.18061	0.159572	0.09991	0.166968	0.182746
810	0.178637	0.178309	0.182582	0.165653	0.101883	0.171077	0.180774
811	0.178966	0.179952	0.181267	0.170748	0.111251	0.175843	0.185047
812	0.176994	0.183732	0.181431	0.169598	0.112401	0.170419	0.184225
813	0.17913	0.186033	0.185212	0.1742	0.115195	0.170255	0.183075
814	0.177158	0.185376	0.184883	0.173049	0.119304	0.17535	0.185705
815	0.180281	0.183075	0.18554	0.177322	0.122263	0.175679	0.186526
816	0.182417	0.187841	0.187841	0.175843	0.124893	0.175843	0.184225
817	0.185376	0.189649	0.187019	0.175021	0.125057	0.178309	0.184061
818	0.182089	0.189485	0.186691	0.178802	0.131467	0.18061	0.186526
819	0.186033	0.191457	0.183404	0.176172	0.136562	0.183239	0.183404
820	0.186855	0.190307	0.184225	0.178966	0.136891	0.182089	0.187513
821	0.186362	0.189485	0.183404	0.172556	0.139685	0.184061	0.187019
822	0.184061	0.188992	0.186691	0.177158	0.145437	0.185212	0.188334
823	0.184718	0.191457	0.18554	0.176172	0.145273	0.185869	0.183239
824	0.185047	0.191293	0.187348	0.175843	0.14593	0.18439	0.189814
825	0.184061	0.18817	0.188827	0.182417	0.147081	0.187348	0.187184
826	0.18439	0.1908	0.188334	0.181924	0.151847	0.187019	0.18932
827	0.18554	0.192443	0.188499	0.179459	0.150039	0.188663	0.188663
828	0.188663	0.191293	0.19195	0.182417	0.154148	0.186362	0.190307
829	0.184554	0.193429	0.190142	0.186198	0.158257	0.189485	0.189156
830	0.186855	0.194087	0.191786	0.185212	0.158093	0.190142	0.190307
831	0.18554	0.194909	0.1908	0.190635	0.160558	0.188499	0.191457
832	0.182417	0.194087	0.192772	0.186526	0.164667	0.189485	0.187513
833	0.187513	0.193594	0.191293	0.188827	0.163845	0.189156	0.193758
834	0.169105	0.197703	0.190142	0.185376	0.166475	0.193265	0.189978
835	0.168776	0.192608	0.1908	0.188006	0.163352	0.19195	0.191293
836	0.172227	0.195895	0.190964	0.185869	0.16516	0.194416	0.190471
837	0.174528	0.197867	0.192279	0.188663	0.170913	0.19195	0.197867
838	0.172227	0.19721	0.190964	0.184883	0.168118	0.194909	0.190635
839	0.174035	0.196223	0.192772	0.189978	0.172063	0.196059	0.192443
840	0.173707	0.196059	0.1908	0.18932	0.173707	0.197538	0.191621
841	0.176829	0.195237	0.194087	0.187677	0.173542	0.195073	0.192772
842	0.177815	0.194251	0.192608	0.189814	0.17535	0.196552	0.192608
843	0.175186	0.197045	0.194909	0.193594	0.174528	0.192443	0.196059
844	0.176665	0.194744	0.194251	0.189485	0.173707	0.193265	0.192443
845	0.176172	0.19721	0.19573	0.193265	0.177487	0.196881	0.195895
846	0.177487	0.19458	0.19721	0.193758	0.176829	0.194087	0.196552
847	0.175679	0.197538	0.197538	0.193594	0.178966	0.197538	0.194909
848	0.181924	0.199839	0.198853	0.197045	0.180116	0.195237	0.195073
849	0.179459	0.194416	0.193922	0.190635	0.181431	0.19573	0.196059
850	0.177322	0.196223	0.198524	0.191293	0.179952	0.192443	0.194251
851	0.181431	0.199675	0.195566	0.194251	0.18554	0.199839	0.194251
852	0.179623	0.198853	0.195073	0.194744	0.186198	0.193758	0.196223
853	0.179295	0.195237	0.194909	0.192608	0.181267	0.197703	0.19573
854	0.180116	0.193265	0.197045	0.194087	0.185212	0.196388	0.196717
855	0.178144	0.19721	0.193101	0.191621	0.184554	0.200004	0.194087
856	0.181267	0.199346	0.196223	0.191293	0.185869	0.196223	0.199675
857	0.175186	0.198524	0.195402	0.191621	0.185047	0.199182	0.200497
858	0.176336	0.194416	0.196552	0.193429	0.183732	0.197867	0.19721
859	0.170584	0.197703	0.19836	0.193101	0.188006	0.199675	0.196223
860	0.172885	0.192115	0.195402	0.181924	0.182582	0.198196	0.197538
861	0.163188	0.198524	0.198196	0.181596	0.185212	0.203126	0.19573
862	0.170255	0.197538	0.200004	0.184554	0.191457	0.198524	0.197538
863	0.170091	0.198689	0.199511	0.185212	0.188663	0.199182	0.194744
864	0.168447	0.199182	0.200661	0.171899	0.190142	0.198196	0.197867
865	0.169598	0.196059	0.202798	0.176336	0.191293	0.193429	0.199839
866	0.168447	0.194744	0.195895	0.171406	0.194416	0.19721	0.199839
867	0.172227	0.197374	0.200497	0.169269	0.192608	0.194909	0.195073
868	0.169105	0.199018	0.196388	0.172063	0.194087	0.197703	0.188663
869	0.169269	0.197703	0.197045	0.172392	0.192115	0.195073	0.194909
870	0.169433	0.202469	0.193429	0.150532	0.192279	0.201647	0.197374
871	0.169269	0.197703	0.196059	0.132617	0.192279	0.19721	0.196388
872	0.166146	0.201647	0.196059	0.029401	0.197045	0.199346	0.196223
873	0.16894	0.195237	0.199018	0.022498	0.195073	0.199182	0.197703
874	0.168118	0.201647	0.195073	0.026443	0.191128	0.200168	0.195566
875	0.168118	0.198853	0.197374	0.034825	0.195073	0.199018	0.200497
876	0.162202	0.199839	0.19836	0.007706	0.194251	0.201976	0.197703
877	0.170913	0.197374	0.196552	-1.9e-05	0.195895	0.19836	0.200661
878	0.163352	0.196717	0.199675	0.00146	0.192115	0.200004	0.196881
879	0.163845	0.197374	0.199511	0.008857	0.196552	0.201154	0.199675
880	0.16401	0.194416	0.199018	0.019704	0.190307	0.199675	0.199018
881	0.164338	0.201154	0.198031	0.021348	0.195895	0.201647	0.19573
882	0.164503	0.200661	0.200497	0.031209	0.197703	0.198524	0.199346
883	0.163188	0.198524	0.193101	0.038934	0.195895	0.19721	0.202469
884	0.165324	0.200168	0.200004	0.044851	0.19573	0.196059	0.198689
885	0.16779	0.19836	0.197703	0.051096	0.197045	0.200661	0.203455
886	0.162366	0.197045	0.20099	0.057177	0.195566	0.19836	0.200497
887	0.166804	0.200497	0.196388	0.06293	0.195895	0.201319	0.195402
888	0.167954	0.196059	0.194744	0.068518	0.197703	0.199182	0.201647
889	0.164996	0.197867	0.194744	0.072134	0.194416	0.199346	0.197867
890	0.165489	0.196223	0.19836	0.078051	0.195073	0.201319	0.19836
891	0.164338	0.198853	0.19458	0.086762	0.192279	0.204606	0.193429
892	0.166804	0.195566	0.196717	0.087584	0.19573	0.199346	0.198689
893	0.16253	0.197538	0.200825	0.091199	0.193922	0.202798	0.201319
894	0.166804	0.19721	0.198524	0.002447	0.198689	0.199839	0.19836
895	0.163023	0.197045	0.200497	0.002118	0.196552	0.20214	0.196717
896	0.166804	0.19721	0.201483	0.008363	0.198031	0.200332	0.203126
897	0.165324	0.197045	0.198689	0.017567	0.196717	0.200332	0.199511
898	0.165982	0.201154	0.196388	0.028415	0.19721	0.199511	0.200332
899	0.166968	0.197867	0.197374	0.031373	0.198524	0.201647	0.201647
900	0.128015	0.198196	0.198196	0.037948	0.19195	0.198196	0.199018
901	0.00787	0.200825	0.202305	0.044522	0.196059	0.201647	0.200497
902	0.007213	0.200661	0.199346	0.003268	0.199018	0.200661	0.198524
903	0.004748	0.19458	0.202962	0.000146	0.193594	0.200497	0.20099
904	0.01313	0.200825	0.198524	0.000146	0.197045	0.202305	0.19721
905	0.01428	0.197374	0.141493	0.000146	0.197538	0.199182	0.200497
906	0.023156	0.195566	0.144615	-1.9e-05	0.197374	0.206907	0.199182
907	0.030716	0.197867	0.148396	-0.000841	0.198524	0.198524	0.202305
908	0.031538	0.198031	0.148067	0.006884	0.19721	0.202962	0.199675
909	0.040742	0.199511	0.150368	-0.0061	0.199346	0.201976	0.201319
910	0.049617	0.198524	0.151683	-0.000183	0.194416	0.206085	0.202469
911	0.049946	0.196223	0.153491	-1.9e-05	0.195566	0.199182	0.20477
912	0.056027	0.197703	0.157107	-1.9e-05	0.192279	0.199346	0.19721
913	0.0603	0.199839	0.15875	0.000474	0.199018	0.19836	0.205592
914	0.068354	0.19836	0.160722	0.018225	0.192279	0.196388	0.199675
915	0.07312	0.198689	0.161873	-0.000676	0.198524	0.200661	0.196223
916	0.076243	0.190307	0.162202	0.010664	0.195237	0.197538	0.199346
917	0.084789	0.193101	0.164667	0.016088	0.200332	0.199346	0.200825
918	0.089227	0.191457	0.018882	0.022827	0.200004	0.200168	0.200332
919	0.093829	0.193922	0.028415	0.021676	0.200661	0.204441	0.197538
920	0.097281	0.192772	0.034332	0.03614	0.199018	0.197538	0.202305
921	0.107964	0.19458	0.03729	0.038112	0.200661	0.213152	0.200661
922	0.103691	0.192772	-0.001169	0.049617	0.201154	0.199839	0.203126
923	0.10517	0.194087	0.006062	0.049946	0.195237	0.199018	0.200661
924	0.112566	0.199675	0.014938	0.055863	0.194909	0.200661	0.201483
925	0.11273	0.193594	0.021019	0.066217	0.196059	0.201319	0.200661
926	0.116839	0.191457	0.029237	0.064245	0.196223	0.20362	0.201976
927	0.117661	0.192115	0.036304	0.07953	0.195566	0.202962	0.200004
928	0.122427	0.189485	0.044851	0.080352	0.199182	0.204441	0.203455
929	0.122263	0.197374	0.050932	0.08709	0.199839	0.203948	0.200825
930	0.127522	0.195895	0.027922	0.089556	0.196223	0.203126	0.20214
931	0.1267	0.193922	0.006556	0.095473	0.198853	0.201812	0.201812
932	0.130645	0.197045	0.016088	0.095966	0.200661	0.193429	0.203784
933	0.130809	0.193429	0.020033	0.104184	0.195402	0.200332	0.19836
934	0.133275	0.19721	0.028415	0.105005	0.200661	0.200661	0.201483
935	0.133932	0.196059	0.030387	0.111415	0.196223	0.201319	0.200661
936	0.13574	0.199182	-0.006429	0.031867	0.200168	0.20214	0.196552
937	0.133275	0.194416	-1.9e-05	0.007049	0.198196	0.199346	0.202798
938	0.137548	0.199675	0.002282	0.013787	0.201812	0.203948	0.197703
939	0.142807	0.196388	0.012801	0.022169	0.201647	0.201976	0.199018
940	0.128673	0.197867	0.000474	0.026278	0.19836	0.201812	0.200004
941	0.031538	0.19836	0.007377	0.037455	0.200168	0.203291	0.198853
942	0.037783	0.19721	0.01313	0.045179	0.200825	0.203126	0.197045
943	0.046659	0.194416	0.028251	0.048631	0.200004	0.202798	0.199839
944	0.050439	0.197045	0.032031	0.055041	0.196552	0.204113	0.203291
945	0.054219	0.194909	0.040413	0.060465	0.198853	0.202798	0.203784
946	0.057671	0.19573	0.04633	0.065724	0.198031	0.203455	0.201976
947	0.066546	0.195073	0.051918	0.071477	0.196552	0.203126	0.201812
948	0.068354	0.193429	0.05915	0.077065	0.197045	0.201647	0.202469
949	0.074271	0.200497	0.062601	0.08331	0.200825	0.203291	0.200825
950	0.078544	0.199182	0.070819	0.08972	0.193101	0.200497	0.204441
951	0.082982	0.195402	0.07575	0.090213	0.19573	0.201812	0.199018
952	0.088077	0.191457	0.083968	0.097116	0.200168	0.200661	0.200825
953	0.090378	0.196388	0.085447	0.104348	0.199182	0.205756	0.20099
954	0.094815	0.192279	0.091528	0.101225	0.204277	0.200661	0.203126
955	0.099417	0.198196	0.094158	0.104348	0.196552	0.20362	0.200332
956	0.104841	0.197045	0.098431	0.112237	0.201483	0.203291	0.202962
957	0.10632	0.197538	0.100403	0.111415	0.198524	0.200661	0.200661
958	0.112073	0.199675	0.107799	0.000474	0.19836	0.199675	0.202633
959	0.113716	0.19573	0.107471	0.004912	0.199511	0.203126	0.199511
960	0.116017	0.196059	0.110758	0.013459	0.198853	0.20099	0.20362
961	0.119469	0.201154	0.115195	0.000474	0.197538	0.198689	0.204113
962	0.119304	0.194416	0.118483	0.008363	0.20099	0.196552	0.202798
963	0.120291	0.198689	0.122263	0.014609	0.199675	0.204277	0.203784
964	0.125221	0.197538	0.127522	0.020526	0.201976	0.20214	0.20362
965	0.127358	0.197374	0.130809	0.03088	0.190142	0.200168	0.205921
966	0.122427	0.199182	0.131631	0.035975	0.201154	0.205263	0.198031
967	0.128673	0.198031	0.136398	0.046166	0.199018	0.202798	0.201812
968	0.132946	0.198689	0.134097	0.049288	0.199346	0.201483	0.204441
969	0.133275	0.198524	0.140835	0.053069	0.200825	0.200497	0.19836
970	0.141493	0.197374	0.140178	0.063259	0.201812	0.202305	0.202305
971	0.136069	0.200332	0.147081	0.067368	0.199839	0.200004	0.201647
972	0.143136	0.199675	0.148889	0.070655	0.199839	0.198853	0.200497
973	0.143794	0.197374	0.147903	0.071477	0.197374	0.202633	0.201647
974	0.143465	0.200661	0.148724	0.077886	0.196717	0.201319	0.197538
975	0.148067	0.20099	0.153819	0.084625	0.20099	0.201483	0.203784
976	0.15234	0.199018	0.153491	0.08972	0.199182	0.203784	0.202305
977	0.144122	0.195566	0.154312	0.093172	0.197703	0.205592	0.202633
978	0.151354	0.19721	0.157764	0.100403	0.196881	0.202469	0.201319
979	0.150697	0.192772	0.156613	0.102376	0.19573	0.20214	0.204277
980	0.150861	0.196717	0.160722	0.106485	0.194416	0.203455	0.200661
981	0.153819	0.195237	0.161051	0.11158	0.198524	0.204277	0.202305
982	0.154641	0.202305	0.161544	0.112073	0.197045	0.202305	0.199675
983	0.158257	0.196552	0.165324	0.11651	0.19721	0.200661	0.198689
984	0.159408	0.19721	0.168612	0.124564	0.198031	0.206414	0.202305
985	0.159572	0.197538	0.169269	0.125386	0.198196	0.201647	0.198853
986	0.16401	0.198524	0.168283	0.127522	0.198196	0.200825	0.20099
987	0.154312	0.201647	0.169762	0.128673	0.200332	0.201154	0.206742
988	0.161215	0.194251	0.169105	0.133603	0.197374	0.200661	0.203784
989	0.165324	0.198031	0.167297	0.132124	0.200661	0.199346	0.197867
990	0.166968	0.193758	0.171241	0.135247	0.199675	0.194909	0.201812
991	0.165653	0.195566	0.170255	0.136398	0.199018	0.202469	0.199839
992	0.169926	0.196717	0.174035	0.14215	0.198524	0.199675	0.200661
993	0.170584	0.198524	0.172392	0.140506	0.195402	0.201647	0.201812
994	0.172063	0.004912	0.173871	0.145273	0.197867	0.200332	0.202633
995	0.170091	0.006556	0.175515	0.150204	0.19836	0.204441	0.201154
996	0.17157	0.014938	0.17535	0.149546	0.199511	0.200004	0.199839
997	0.170091	0.014773	0.166968	0.15234	0.196717	0.200661	0.203455
998	0.173214	0.02973	0.168118	0.153984	0.201483	0.202305	0.205921
999	0.170748	0.034496	0.168776	0.157764	0.200004	0.199839	0.201976
1000	0.175021	0.043536	0.172392	0.15612	0.198031	0.20099	0.203126
1001	0.171077	0.052247	0.175186	0.162366	0.196388	0.199018	0.203784
1002	0.176994	0.062273	0.170584	0.160229	0.199675	0.200661	0.202469
1003	0.177815	0.066217	0.175843	0.16253	0.198853	0.200004	0.201483
1004	0.183897	0.070162	0.172556	0.159408	0.198689	0.20214	0.199511
1005	0.18176	0.073778	0.179459	0.166311	0.19836	0.197867	0.202305
1006	0.181103	0.080023	0.178966	0.164503	0.199511	0.200497	0.20099
1007	0.185212	0.081009	0.181267	0.166146	0.201976	0.19721	0.20214
1008	0.181103	0.08709	0.180445	0.166639	0.199018	0.202633	0.203291
1009	0.180281	0.089885	0.18554	0.170419	0.201483	0.200825	0.200497
1010	0.17913	0.096459	0.179295	0.169269	0.203126	0.202962	0.199346
1011	0.180774	0.099746	0.18439	0.169269	0.200332	0.198853	0.202305
1012	0.177322	0.104841	0.182253	0.17272	0.203784	0.199182	0.202962
1013	0.180938	0.107635	0.184718	0.174364	0.200825	0.205592	0.204277
1014	0.180445	0.115853	0.186198	0.178144	0.203455	0.204606	0.203948
1015	0.182746	0.113881	0.185212	0.17535	0.202633	0.201976	0.205756
1016	0.18176	0.116182	0.100239	0.176665	0.197374	0.199511	0.202962
1017	0.186855	0.124399	0.104677	0.179295	0.201483	0.20214	0.201647
1018	0.189156	0.123085	0.110265	0.179788	0.200168	0.201483	0.200332
1019	0.185376	0.130316	0.005569	0.174364	0.201812	0.202469	0.203948
1020	0.189485	0.128673	0.025785	0.182746	0.200497	0.200332	0.202798
1021	0.188006	0.133603	0.030223	0.177651	0.202469	0.20362	0.202798
1022	0.189814	0.13574	0.039591	0.178966	0.20214	0.19836	0.20214
1023	0.187019	0.139849	0.045672	0.177322	0.199511	0.201483	0.201647
1024	0.191457	0.141493	0.051754	0.183568	0.206085	0.170255	0.203126
1025	0.190142	0.146259	0.058328	0.181267	0.199675	0.172392	0.201154
1026	0.188663	0.144451	0.06556	0.182417	0.20477	0.176008	0.20099
1027	0.188827	0.147409	0.067368	0.186198	0.202469	0.1742	0.202633
1028	0.189156	0.149382	0.074106	0.185212	0.203784	0.164174	0.203126
1029	0.192115	0.151518	0.068354	0.186526	0.204934	0.166146	0.202798
1030	0.191786	0.152505	0.071477	0.185047	0.203455	0.167625	0.204113
1031	0.18932	0.152176	0.080516	0.186691	0.199018	0.169269	0.202633
1032	0.190307	0.153491	0.078051	0.188499	0.202633	0.16779	0.200004
1033	0.18932	0.158421	0.087748	0.187348	0.199511	0.166968	0.205263
1034	0.19195	0.159901	0.087255	0.188663	0.199675	0.16894	0.198031
1035	0.189649	0.161215	0.098431	0.190142	0.202469	0.172556	0.199018
1036	0.189814	0.164338	0.098102	0.187677	0.200497	0.174035	0.20362
1037	0.192936	0.163516	0.103362	0.1908	0.201319	0.172885	0.201319
1038	0.193265	0.166146	0.108293	0.191621	0.20099	0.174035	0.198853
1039	0.19573	0.170255	0.1101	0.199018	0.20214	0.173707	0.199346
1040	0.195237	0.171241	0.11273	0.1908	0.202305	0.173214	0.198031
1041	0.19573	0.169598	0.112894	0.192115	0.203291	0.177815	0.201812
1042	0.192608	0.173871	0.119304	0.191786	0.200661	0.176008	0.198689
1043	0.196388	0.170913	0.117661	0.190471	0.204934	0.181596	0.201812
1044	0.191128	0.171406	0.120291	0.192279	0.200004	0.179788	0.201647
1045	0.190635	0.170913	0.124071	0.191293	0.202469	0.180116	0.202962
1046	0.192443	0.176008	0.129001	0.194251	0.201154	0.183239	0.198853
1047	0.193101	0.173707	0.130645	0.189978	0.202305	0.183075	0.200497
1048	0.190471	0.174528	0.134918	0.193429	0.199839	0.181431	0.202305
1049	0.193594	0.178144	0.136398	0.195073	0.201976	0.182911	0.204113
1050	0.193265	0.181103	0.137712	0.197867	0.200332	0.182417	0.203784
1051	0.194416	0.183404	0.13952	0.194744	0.199675	0.189156	0.204113
1052	0.194416	0.177322	0.144287	0.196881	0.199018	0.186198	0.208222
1053	0.19573	0.179295	0.13311	0.195237	0.201647	0.186526	0.198524
1054	0.195566	0.179952	0.147409	0.193594	0.200661	0.191293	0.201647
1055	0.196552	0.181431	0.147409	0.193758	0.200004	0.184225	0.201154
1056	0.194251	0.179788	0.153326	0.192443	0.20099	0.181924	0.203126
1057	0.193922	0.182746	0.152998	0.193594	0.204113	0.188499	0.201154
1058	0.194909	0.180116	0.15497	0.193101	0.204277	0.109936	0.202305
1059	0.191621	0.182582	0.15497	0.191457	0.203784	0.055205	0.200004
1060	0.19721	0.181596	0.153655	0.194087	0.203126	0.058657	0.203455
1061	0.19721	0.181267	0.158093	0.194909	0.197867	0.06934	0.196717
1062	0.197703	0.183404	0.156778	0.193594	0.200168	0.075914	0.205592
1063	0.196223	0.185376	0.159243	0.196881	0.199839	0.075585	0.197867
1064	0.19458	0.167625	0.160558	0.193758	0.204934	0.081338	0.20362
1065	0.191293	0.167297	0.129495	0.198689	0.20214	0.086269	0.204441
1066	0.194909	0.170419	0.022663	0.194416	0.202469	0.089556	0.204934
1067	0.193265	0.170091	0.033017	0.19836	0.199839	0.090706	0.204113
1068	0.194416	0.006062	0.039591	0.192936	0.200825	0.100403	0.203948
1069	0.196059	0.017732	0.047809	0.197045	0.201976	0.102211	0.201812
1070	0.198853	0.019047	0.049946	0.193922	0.201812	0.108128	0.20214
1071	0.196552	0.032524	0.059643	0.193594	0.197374	0.109936	0.201319
1072	0.199675	0.038276	0.064409	0.196881	0.205592	0.118318	0.199839
1073	0.199839	0.003433	0.06934	0.195073	0.203455	0.117168	0.199182
1074	0.199346	0.014609	0.073613	0.194909	0.205427	0.123413	0.197538
1075	0.199839	0.017896	0.073449	0.194744	0.2074	0.122592	0.201319
1076	0.197374	0.025292	0.073613	0.195073	0.205427	0.135576	0.199182
1077	0.199182	0.031702	0.081995	0.193265	0.207235	0.129823	0.201483
1078	0.193265	0.03614	0.087748	0.194416	0.203948	0.133275	0.20099
1079	0.198031	0.042221	0.091199	0.194744	0.202962	0.138041	0.204113
1080	0.200497	0.051425	0.097445	0.196059	0.20477	0.14215	0.199182
1081	0.198031	0.055205	0.100239	0.19195	0.201976	0.143958	0.203126
1082	0.199839	0.063916	0.103691	0.196717	0.198031	0.141657	0.202633
1083	0.200168	0.065231	0.109772	0.196388	0.205921	0.147081	0.204277
1084	0.197374	0.071312	0.112401	0.196388	0.200004	0.146752	0.135576
1085	0.198853	0.076243	0.115853	0.196223	0.200825	0.150039	0.098267
1086	0.19836	0.081667	0.120784	0.199675	0.199182	0.151683	0.103362
1087	0.198196	0.085283	0.122098	0.194251	0.203455	0.146588	0.103362
1088	0.195402	0.090706	0.126536	0.196223	0.200661	0.154312	0.109114
1089	0.198524	0.096459	0.126207	0.198524	0.201812	0.15497	0.116346
1090	0.199839	0.097445	0.128837	0.191621	0.203126	0.154641	0.119304
1091	0.19836	0.104841	0.133932	0.192115	0.202962	0.162695	0.116839
1092	0.199675	0.10517	0.133439	0.197045	0.206414	0.159079	0.125221
1093	0.197045	0.11158	0.135247	0.199839	0.20477	0.163845	0.124399
1094	0.20099	0.114374	0.139849	0.192443	0.206249	0.16894	0.1267
1095	0.198031	0.115853	0.139685	0.199346	0.202962	0.165489	0.133603
1096	0.198524	0.11914	0.141493	0.194087	0.203126	0.166146	0.136398
1097	0.197867	0.126536	0.146752	0.196552	0.203291	0.164996	0.138534
1098	0.201319	0.124071	0.151683	0.195073	0.201812	0.168776	0.143136
1099	0.194909	0.129823	0.151847	0.198196	0.201154	0.169269	0.142314
1100	0.19721	0.127358	0.152998	0.198689	0.201319	0.170255	0.147245
1101	0.196881	0.132289	0.154641	0.198031	0.199839	0.170748	0.14856
1102	0.19721	0.132782	0.154312	-0.001334	0.199511	0.173049	0.149053
1103	0.196552	0.140835	0.15497	0.008528	0.200004	0.173871	0.152176
1104	0.193429	0.144615	0.156449	0.014609	0.204277	0.178966	0.15119
1105	0.199018	0.143136	0.103691	0.019211	0.201976	0.171077	0.155299
1106	0.198196	0.148067	0.104512	0.021348	0.201647	0.173542	0.157107
1107	0.198196	0.146588	0.109279	0.025621	0.205263	0.174528	0.156942
1108	0.198031	0.153491	0.112894	0.033346	0.203455	0.179295	0.157107
1109	0.201812	0.15234	0.113223	0.029566	0.211344	0.176501	0.165817
1110	0.200661	0.154312	0.108293	0.030716	0.200332	0.178144	0.162859
1111	0.198853	0.1576	0.112401	0.005076	0.204113	0.178966	0.163516
1112	0.192936	0.158586	0.104841	0.012308	0.202469	0.179459	0.167461
1113	0.197703	0.159408	0.109443	0.01576	0.201154	0.175843	0.164667
1114	0.197703	0.160558	0.114867	0.001132	0.199675	0.178144	0.166804
1115	0.195073	0.163845	0.113552	0.013787	0.204277	0.183075	0.170913
1116	0.194744	0.164338	0.119469	0.016253	0.195237	0.18061	0.173214
1117	0.199346	0.167132	0.121112	0.020855	0.201154	0.184225	0.005898
1118	0.197703	0.166639	0.124071	0.023977	0.197538	0.182417	0.016253
1119	0.198689	0.169926	0.126865	0.01428	0.200332	0.186198	0.021841
1120	0.20099	0.167625	0.131796	0.028579	0.188334	0.185047	0.032688
1121	0.194909	0.169762	0.130645	0.028744	0.199182	0.186362	0.036469
1122	0.199018	0.17157	0.134261	0.027265	0.200825	0.184225	0.043207
1123	0.198031	0.170584	0.137384	0.030552	0.201154	0.186855	0.047645
1124	0.197703	0.177487	0.139356	0.034168	0.201647	0.183239	0.053726
1125	0.198524	0.173049	0.148396	0.035482	0.199839	0.187841	0.057999
1126	0.198031	0.175021	0.147409	0.039098	0.205099	0.183897	0.069011
1127	0.200332	0.179952	0.146095	-1.9e-05	0.192936	0.181924	0.069997
1128	0.200497	0.177651	0.149875	-0.000347	0.198031	0.182911	0.078215
1129	0.196552	0.17535	0.147574	0.000146	0.19721	0.184061	0.079037
1130	0.197703	0.177487	0.149217	0.005076	0.201483	0.18439	0.086926
1131	0.201812	0.177158	0.153491	0.014609	0.198524	0.187019	0.092843
1132	0.196881	0.181596	0.153162	0.017403	0.202469	0.185869	0.102704
1133	0.199182	0.181431	0.157928	0.028415	0.193265	0.183075	0.101718
1134	0.200825	0.181431	0.157271	0.031538	0.199182	0.183568	0.105334
1135	0.19721	0.179295	0.15875	0.042221	0.202469	0.151683	0.110593
1136	0.196059	0.181431	0.16138	0.049617	0.198196	0.104019	0.111251
1137	0.202798	0.182253	0.158257	0.051754	0.198689	0.104184	0.113552
1138	0.19458	0.183897	0.156613	0.056027	0.193429	0.107635	0.121441
1139	0.197538	0.182582	0.160558	0.065067	0.196059	0.109936	0.11799
1140	0.200332	0.183897	0.157107	0.072463	0.198524	0.114209	0.120455
1141	0.19836	0.186198	0.157928	0.074435	0.200168	0.116839	0.125221
1142	0.201812	0.186033	0.155956	0.076079	0.200168	0.121277	0.124564
1143	0.198689	0.185376	0.155463	0.083803	0.201319	0.126043	0.130809
1144	0.19836	0.189156	0.151025	0.087748	0.199346	0.126043	0.133603
1145	0.199018	0.185869	0.146095	0.090871	0.201647	0.130316	0.139849
1146	0.197867	0.188006	0.146423	0.098431	0.198031	0.133932	0.138205
1147	0.197703	0.183732	0.131467	0.10254	0.203291	0.135904	0.143136
1148	0.20099	0.187019	0.120948	0.107142	0.19836	0.140178	0.145273
1149	0.201976	0.188499	0.117003	0.109772	0.198524	0.140013	0.146588
1150	0.197703	0.186033	0.113388	0.11651	0.197374	0.142807	0.151354
1151	0.199675	0.189156	0.102047	0.115853	0.201812	0.148231	0.150204
1152	0.198196	0.187677	0.077393	0.123578	0.19721	0.14971	0.155463
1153	0.189814	0.184883	0.018225	0.121441	0.19836	0.15234	0.155134
1154	0.194909	0.185212	0.004419	0.124728	0.202469	0.151025	0.157271
1155	0.199018	0.187841	0.005898	0.128015	0.200332	0.149382	0.157764
1156	0.197703	0.187841	0.016581	0.130974	0.202798	0.152833	0.16138
1157	0.19721	0.191457	0.019704	0.134097	0.202798	0.154641	0.159901
1158	0.196388	0.192115	0.021676	0.13574	0.204934	0.158914	0.160229
1159	0.203455	0.193101	0.019211	0.138041	0.020197	0.160065	0.160065
1160	0.195237	0.195402	0.004583	0.142807	0.030223	0.159079	0.164503
1161	0.196059	0.196388	0.000474	0.141657	0.033839	0.158257	0.164831
1162	0.200497	0.193265	-1.9e-05	0.146752	0.044193	0.159243	0.165982
1163	0.193265	0.192772	0.001296	0.147409	0.04896	0.164996	0.169926
1164	0.198524	0.192115	0.005405	0.152505	0.057013	0.160887	0.171406
1165	0.195073	0.195402	0.000474	0.156285	0.065888	0.169762	0.169105
1166	0.195237	0.194087	0.004255	0.154641	0.07197	0.165324	0.176994
1167	0.196717	0.195237	0.012144	0.156449	0.075092	0.167461	0.175186
1168	0.198853	0.19721	0.010829	0.158421	0.080516	0.168447	0.173707
1169	0.196223	0.198031	0.007377	0.1576	0.081502	0.166475	0.180774
1170	0.198689	0.198689	-0.001005	0.157271	0.08709	0.169433	0.177158
1171	0.194416	0.195237	0.002118	0.067696	0.091857	0.166146	0.177815
1172	0.196717	0.197045	0.003104	-0.001991	0.097609	0.159572	0.176829
1173	0.199839	0.194744	0.010171	0.003597	0.102211	0.003761	0.175021
1174	0.198853	0.19836	0.016581	0.00146	0.10632	0.011322	0.181431
1175	0.199018	0.196059	0.02595	0.002611	0.109279	0.016581	0.180445
1176	0.196059	0.199346	0.03088	0.001789	0.113881	0.0271	0.179295
1177	0.200168	0.197538	0.041399	0.00409	0.118483	0.028908	0.182746
1178	0.198853	0.200332	0.046166	0.003268	0.119797	0.039263	0.183239
1179	0.200497	0.19836	0.051918	0.00672	0.123906	0.044193	0.180116
1180	0.199346	0.19836	0.057835	0.008528	0.125221	0.049946	0.183404
1181	0.199346	0.194744	0.062273	0.01313	0.130316	0.057671	0.188663
1182	0.19836	0.197374	0.067861	0.018225	0.131138	0.063916	0.18554
1183	0.200004	0.200825	0.071805	0.025292	0.134261	0.069669	0.187348
1184	0.200168	0.200168	0.084132	0.034989	0.135904	0.076736	0.186362
1185	0.201976	0.196388	0.07953	0.038441	0.13837	0.081502	0.188992
1186	0.199511	0.19836	0.089391	0.048467	0.141	0.084625	0.188006
1187	0.200497	0.196552	0.091528	0.049453	0.146259	0.08972	0.18554
1188	0.198031	0.195895	0.095308	0.05652	0.149053	0.093993	0.187841
1189	0.198196	0.196223	0.097281	0.063259	0.146095	0.099746	0.173378
1190	0.200332	0.196552	0.104512	0.072463	0.148067	0.098431	0.185705
1191	0.199675	0.198031	0.106813	0.072791	0.154806	0.10632	0.184061
1192	0.199346	0.19458	0.115195	0.076407	0.155956	0.107142	0.186526
1193	0.200004	0.199346	0.11914	0.084789	0.155134	0.113716	0.183075
1194	0.200332	0.19836	0.120291	0.057835	0.16138	0.114702	0.188827
1195	0.200497	0.198689	0.119304	0.033346	0.158914	0.120455	0.18932
1196	0.203291	0.198031	0.122756	0.025621	0.163023	0.12292	0.189978
1197	0.200168	0.199182	0.125221	0.03351	0.16138	0.12555	0.18932
1198	0.20099	0.197538	0.131302	0.036962	0.165982	0.130152	0.190964
1199	0.199675	0.197703	0.133603	0.041892	0.164174	0.131796	0.18817
1200	0.199675	0.198853	0.133932	0.047152	0.163516	0.134261	0.191128
1201	0.198524	0.196881	0.142643	0.047809	0.165489	0.136726	0.188992
1202	0.199018	0.199346	0.139356	0.054548	0.171899	0.140835	0.192279
1203	0.19573	0.191621	0.143794	0.059972	0.166311	0.142643	0.192772
1204	0.198196	0.194744	0.146916	0.054712	0.16779	0.145602	0.189485
1205	0.201812	0.197045	0.148889	0.063259	0.172392	0.143465	0.192608
1206	0.198853	0.200004	0.149382	0.067532	0.173871	0.147574	0.194251
1207	0.201647	0.193101	0.153984	0.072791	0.176501	0.149053	0.19458
1208	0.199675	0.199018	0.159736	0.038769	0.178637	0.152176	0.194416
1209	0.201976	0.19573	0.153819	0.046823	0.17798	0.151847	0.193101
1210	0.194744	0.197045	0.155627	0.045344	0.18061	0.15612	0.191293
1211	0.196552	0.195895	0.1576	0.025621	0.179459	0.155134	0.19195
1212	0.200168	0.199346	0.158914	0.010007	0.176994	0.153491	0.189814
1213	0.199018	0.200004	0.160394	0.007706	0.181596	0.159079	0.194416
1214	0.196552	0.198031	0.163023	0.003926	0.179295	0.162202	0.191786
1215	0.201647	0.198524	0.166804	0.003104	0.181103	0.160722	0.193758
1216	0.202962	0.197374	0.165324	0.00672	0.184554	0.165489	0.18932
1217	0.202305	0.198196	0.166146	-0.000183	0.18554	0.16516	0.195402
1218	0.201647	0.200332	0.169269	0.00935	0.184225	0.16894	0.193429
1219	0.201647	0.199346	0.158421	0.01576	0.18554	0.170748	0.196059
1220	0.198031	0.196223	0.168118	0.022005	0.184225	0.169762	0.197374
1221	0.197703	0.200004	0.167297	0.027922	0.185212	0.171899	0.196552
1222	0.200004	0.19721	0.171734	0.039756	0.186526	0.173049	0.196223
1223	0.196059	0.199346	0.172063	0.040906	0.188499	0.173542	0.194909
1224	0.200332	0.199511	0.175843	0.050932	0.18932	0.173707	0.189485
1225	0.200825	0.20099	0.17157	0.051589	0.188499	0.171734	0.193922
1226	0.201647	0.196223	0.172885	0.064574	0.185705	0.172392	0.198031
1227	0.200004	0.198689	0.172227	0.071312	0.188827	0.178144	0.19195
1228	0.201812	0.199018	0.175021	0.077065	0.192772	0.175843	0.197867
1229	0.201647	0.199346	0.177815	0.078873	0.188992	0.176008	0.193265
1230	0.20362	0.198689	0.176008	0.083639	0.191457	0.175679	0.197374
1231	0.201812	0.198031	0.177322	0.087584	0.192443	0.180281	0.19836
1232	0.199675	0.196223	0.176994	0.090542	0.191786	0.177651	0.196059
1233	0.197374	0.195073	0.180116	0.097938	0.189649	0.180116	0.19573
1234	0.19836	0.197374	0.177487	0.09876	0.191293	0.182417	0.200168
1235	0.199182	0.19458	0.178473	0.101883	0.189485	0.18061	0.19836
1236	0.196717	0.197045	0.177815	0.111251	0.190964	0.183239	0.196388
1237	0.195237	0.194251	0.175021	0.11536	0.186198	0.179295	0.198031
1238	0.197045	0.198689	0.182417	0.115195	0.188006	0.185376	0.19836
1239	0.196388	0.196717	0.181103	0.120948	0.1908	0.182089	0.196717
1240	0.195895	0.198196	0.183897	0.123578	0.19195	0.181267	0.193922
1241	0.198524	0.196552	0.186526	0.125386	0.194087	0.184061	0.200004
1242	0.200661	0.19721	0.182746	0.129001	0.192443	0.179623	0.195895
1243	0.197538	0.196388	0.187348	0.128508	0.192772	0.182089	0.198689
1244	0.197045	0.198524	0.185869	0.13311	0.193758	0.188334	0.197703
1245	0.198524	0.194909	0.000803	0.135576	0.195237	0.183568	0.202305
1246	0.196552	0.199018	0.013459	0.137548	0.191293	0.185376	0.195237
1247	0.198853	0.197374	0.024799	0.139685	0.198031	0.184718	0.198689
1248	0.199182	0.199346	0.025457	0.146423	0.18817	0.186198	0.199182
1249	0.202633	0.20362	0.03614	0.142643	0.199182	0.190964	0.200004
1250	0.199675	0.198853	0.0437	0.14971	0.192443	0.186691	0.199675
1251	0.195895	0.196717	-0.006264	0.145602	0.190964	0.187348	0.198689
1252	0.201647	0.19836	0.006884	0.150697	0.192936	0.18817	0.200825
1253	0.195566	0.195566	0.01428	0.149053	0.19458	0.188663	0.199182
1254	0.197703	0.19721	0.021348	0.153162	0.191457	0.191128	0.202633
1255	0.199182	0.196717	0.030223	0.15234	0.191128	0.188334	0.196717
1256	0.198689	0.193265	0.035811	0.160558	0.193922	0.184225	0.201976
1257	0.19721	0.195073	0.04255	0.158914	0.194416	0.187184	0.201154
1258	0.197703	0.192772	0.049946	0.158421	0.19195	0.187348	0.20099
1259	0.198689	0.197374	0.053562	0.166639	0.199182	0.189978	0.197374
1260	0.198689	0.195073	0.061286	0.163681	0.196059	0.188006	0.201319
1261	0.200332	0.199346	0.067861	0.164831	0.194744	0.192279	0.199018
1262	0.204277	0.197703	0.072134	0.164667	0.195895	0.186198	0.199511
1263	0.199675	0.195237	0.076407	0.17157	0.193265	0.190142	0.199511
1264	0.203126	0.195895	0.083639	0.165653	0.201483	0.189814	0.199182
1265	0.198853	0.19573	0.085283	0.16253	0.191786	0.18554	0.198689
1266	0.200497	0.195237	0.086926	0.165653	0.194416	0.187513	0.196552
1267	0.201647	0.195237	0.093007	0.17157	0.191457	0.191293	0.196388
1268	0.199675	0.194087	0.095473	0.165817	0.193758	0.192936	0.201812
1269	0.198524	0.19195	0.102211	0.168612	0.193758	0.188992	0.199018
1270	0.20214	0.195566	0.105005	0.172885	0.200004	0.195073	0.200168
1271	0.199675	0.192772	0.108786	0.173707	0.196059	0.19573	0.201483
1272	0.200168	0.195073	0.110922	0.173214	0.19573	0.194416	0.199018
1273	0.199839	0.192443	0.11651	0.177322	0.193758	0.194251	0.199182
1274	0.199346	0.192443	0.113552	0.168118	0.19458	0.19458	0.198524
1275	0.202305	0.195073	0.1267	0.180116	0.18817	0.194416	0.201319
1276	0.198853	0.193594	0.018718	0.182911	0.194744	0.192608	0.198853
1277	0.200332	0.19195	0.020362	0.183897	0.195895	0.196717	0.200825
1278	0.198689	0.192115	0.004255	0.18554	0.195402	0.198031	0.199839
1279	0.206907	0.038112	-0.000347	0.182253	0.196881	0.192936	0.201154
1280	0.200661	0.007706	0.009843	0.185212	0.194251	0.193265	0.196881
1281	0.200661	0.015266	0.01691	0.184718	0.197703	0.195402	0.203948
1282	0.201154	0.021183	0.024799	0.188827	0.196717	0.192443	0.193101
1283	0.202305	0.026443	0.03351	0.187348	0.195402	0.196717	0.20214
1284	0.200825	0.033346	0.038605	0.186691	0.197538	0.195895	0.198031
1285	0.199675	0.042385	0.043043	0.187348	0.196059	0.196552	0.205592
1286	0.200497	0.045508	0.049617	0.188663	0.194744	0.200661	0.200332
1287	0.199182	0.05274	0.054876	0.188006	0.189649	0.194744	0.20362
1288	0.193758	0.056356	0.060793	0.192772	0.194416	0.195402	0.203126
1289	0.19721	0.062601	0.065067	0.187348	0.197538	0.192608	0.200332
1290	0.201976	0.066381	0.072298	0.189156	0.192772	0.195237	0.201647
1291	0.196388	0.067861	0.077393	0.192936	0.195073	0.196223	0.201319
1292	0.199182	0.077065	0.083639	0.193265	0.19721	0.19573	0.202305
1293	0.200497	0.081338	0.089227	0.192115	0.192443	0.195073	0.200661
1294	0.199675	0.084132	0.094651	0.190964	0.198031	0.194416	0.199675
1295	0.19836	0.086926	0.101883	0.192279	0.198524	0.195566	0.19836
1296	0.200332	0.089227	0.101225	0.192936	0.200332	0.193594	0.199839
1297	0.203784	0.093993	0.103197	0.18932	0.198524	0.195237	0.19573
1298	0.199182	0.099089	0.106485	0.18932	0.193594	0.197867	0.201154
1299	0.196881	0.099746	0.110593	0.18932	0.194087	0.193265	0.002611
1300	0.19836	0.103362	0.114045	0.191457	0.194416	0.196059	0.011979
1301	0.199182	0.105663	0.121112	0.193758	0.196717	0.196552	0.020033
1302	0.196717	0.106649	0.117168	0.193429	0.195073	0.196388	0.024964
1303	0.193101	0.113223	0.122756	0.192279	0.193594	0.19721	0.035154
1304	0.199839	0.117496	0.126207	0.192936	0.194909	0.200168	0.04107
1305	0.20099	0.114209	0.128673	0.192608	0.195895	0.197374	0.045179
1306	0.198196	0.121441	0.132617	0.194251	0.19836	0.195237	0.048138
1307	0.203455	0.125386	0.134754	0.19721	0.19721	0.19458	0.058657
1308	0.183732	0.119633	0.13952	0.196881	0.196388	0.198031	0.06293
1309	0.200661	0.126372	0.140013	0.196388	0.199346	0.197045	0.067039
1310	0.19836	0.128673	0.141164	0.198031	0.19573	0.193758	0.073942
1311	0.200825	0.133275	0.142314	0.194087	0.196388	0.196552	0.084461
1312	0.199182	0.137055	0.147081	0.19721	0.197538	0.195073	0.080845
1313	0.197045	0.138699	0.148396	0.196881	0.197538	0.191786	0.090706
1314	0.196881	0.142314	0.149875	0.198196	0.195895	0.193429	0.091528
1315	0.200497	0.140835	0.152176	0.198853	0.198853	0.193758	0.094158
1316	0.197867	0.140342	0.15497	0.195895	0.197374	0.195402	0.097445
1317	0.198031	0.143136	0.152505	0.193922	0.197045	0.195402	0.102376
1318	0.196717	0.131467	0.157107	0.199346	0.196717	0.201154	0.11158
1319	0.198524	0.109936	0.157271	0.197538	0.200332	0.196223	0.111908
1320	0.197374	0.114702	0.161051	0.194416	0.198031	0.201647	0.117496
1321	0.196223	0.114374	0.160229	0.195402	0.195237	0.198031	0.118976
1322	0.199018	0.115853	0.162366	0.188663	0.194909	0.197538	0.123249
1323	0.200168	0.121277	0.165817	0.200004	0.1908	0.199346	0.127358
1324	0.200004	0.120291	0.167132	0.195237	0.193922	0.19836	0.126536
1325	0.199675	0.010171	0.165817	0.194416	0.193265	0.198031	0.129495
1326	0.200825	0.015924	0.171241	0.19836	0.194909	0.195566	0.13459
1327	0.196552	0.023813	0.176172	0.200497	0.195402	0.205427	0.135083
1328	0.196717	0.028744	0.179459	0.199839	0.19573	0.197703	0.136233
1329	0.198524	0.038276	0.171241	0.195566	0.195402	0.200497	0.139027
1330	0.201647	0.040577	0.175515	0.19721	0.196223	0.197045	0.14593
1331	0.197703	0.046659	0.173378	0.19458	0.19573	0.198689	0.146259
1332	0.200004	0.052082	0.172392	0.193594	0.19573	0.193265	0.142807
1333	0.199018	0.057342	0.176172	0.193922	0.193758	0.199675	0.14971
1334	0.199511	0.017896	0.174857	0.191128	0.195073	0.198031	0.148067
1335	0.20099	0.003104	0.178966	0.194416	0.195073	0.199346	0.152998
1336	0.199675	0.008363	0.177487	0.193594	0.191457	0.198196	0.155463
1337	0.196059	0.018389	0.181431	0.196059	0.195073	0.196059	0.156942
1338	0.195402	0.025292	0.178802	0.197045	0.193758	0.199675	0.157764
1339	0.199018	0.027922	0.18061	0.197374	0.192772	0.196552	0.158914
1340	0.198196	0.038441	0.177651	0.195237	0.195402	0.202962	0.161709
1341	0.199346	0.041235	0.182417	0.199839	0.196388	0.200332	0.164831
1342	0.19836	0.019868	0.182417	0.195566	0.19573	0.196552	0.15497
1343	0.200497	0.026443	0.183239	0.200004	0.196388	0.199675	0.164667
1344	0.197374	0.034168	0.184225	0.195237	0.196223	0.199839	0.171241
1345	0.19836	0.039263	0.183404	0.199675	0.19458	0.19573	0.14478
1346	0.198524	0.043536	0.185705	0.192936	0.195402	0.196881	0.146259
1347	0.200332	0.050768	0.181924	0.197538	0.196881	0.195237	0.150861
1348	0.196552	0.057835	0.191128	0.198689	0.193429	0.196552	0.150532
1349	0.202469	0.007377	0.187184	0.197374	0.200825	0.197703	0.153984
1350	0.199346	0.010171	0.187348	0.197867	0.197538	0.199839	0.157928
1351	0.199839	0.001789	0.187348	0.198689	0.196717	0.198689	0.160722
1352	0.199346	0.00787	0.187841	0.202469	0.195566	0.199346	0.158257
1353	0.19836	0.008199	0.184883	0.193101	0.193922	0.199675	0.161709
1354	0.199182	0.001625	0.192279	0.19836	0.19458	0.198031	0.16401
1355	0.198031	0.002775	0.190142	0.196717	0.195073	0.200332	0.159243
1356	0.197374	0.000474	0.190142	0.19836	0.193429	0.196223	0.164503
1357	0.198524	0.007706	0.188334	0.19836	0.195895	0.199346	0.164996
1358	0.199018	0.014116	0.19573	0.199675	0.196059	0.196881	0.167625
1359	0.198853	0.027265	0.192608	0.199182	0.196717	0.198196	0.163516
1360	0.201154	0.032195	0.19195	0.199675	0.200661	0.197045	0.170255
1361	0.199675	0.03992	0.192772	0.200004	0.199346	0.196388	0.172227
1362	0.195073	0.006227	0.193429	0.198853	0.196717	0.193922	0.168776
1363	0.192608	0.018718	0.198031	0.198524	0.199018	0.197045	0.171241
1364	0.201812	0.021348	0.190635	0.19573	0.197703	0.19573	0.173049
1365	0.196881	0.030552	0.190964	0.200332	0.195073	0.195895	0.16894
1366	0.195566	0.038276	0.190471	0.200661	0.198689	0.198524	0.172227
1367	0.198524	0.043371	0.187841	0.200004	0.195073	0.199675	0.171899
1368	0.199018	0.049781	0.191786	0.196717	0.195237	0.202962	0.177158
1369	0.198853	0.053397	0.194909	0.19721	0.196552	0.200168	0.167461
1370	0.198689	0.061122	0.192772	0.197867	0.199018	0.196881	0.171899
1371	0.199018	0.067861	0.193758	0.200004	0.196388	0.201647	0.171077
1372	0.197538	0.071312	0.189156	0.197538	0.198689	0.201647	0.171734
1373	0.198524	0.074764	0.193758	0.193429	0.193265	0.198196	0.173378
1374	0.19836	0.081831	0.183732	0.201319	0.19721	0.200004	0.173378
1375	0.200332	0.080187	0.192772	0.20099	0.199839	0.197045	0.176665
1376	0.196717	0.088405	0.193265	0.200168	0.195566	0.195073	0.17535
1377	0.201647	0.094487	0.195895	0.20099	0.197374	0.199675	0.176994
1378	0.195895	0.097609	0.19721	0.201647	0.199182	0.200168	0.175515
1379	0.199018	0.100239	0.197045	0.194087	0.199511	0.19721	0.178966
1380	0.19721	0.105498	0.198196	0.198689	0.195895	0.198524	0.177158
1381	0.198031	0.111908	0.194744	0.201154	0.197374	0.198689	0.179459
1382	0.198853	0.110429	0.197045	0.201483	0.196881	0.201647	0.179952
1383	0.203455	0.114538	0.198689	0.201483	0.198689	0.197374	0.180774
1384	0.200004	0.112894	0.195237	0.195237	0.197703	0.201976	0.178144
1385	0.198689	0.083146	0.192115	0.201154	0.199018	0.198524	0.181267
1386	0.198853	0.084954	0.191293	0.199346	0.200825	0.201976	0.183897
1387	0.197867	0.091199	0.192608	0.199511	0.199182	0.198689	0.182911
1388	0.198196	0.096294	0.195402	0.199182	0.195237	0.203126	0.182253
1389	0.200168	0.09991	0.193101	0.199511	0.200332	0.201154	0.18176
1390	0.199839	0.097774	0.196059	0.201483	0.198853	0.201647	0.183732
1391	0.199018	0.104184	0.196717	0.199675	0.195073	0.200497	0.180445
1392	0.201483	0.10632	0.195237	0.202469	0.195073	0.196059	0.180774
1393	0.198031	0.109443	0.199675	0.200825	0.19721	0.201976	0.186526
1394	0.201319	0.114045	0.19721	0.202305	0.195895	0.201483	0.186198
1395	0.198853	0.118483	0.193758	0.200168	0.198196	0.198689	0.183239
1396	0.19721	0.121112	0.19721	0.201154	0.198853	0.198524	0.192443
1397	0.199839	0.122756	0.19573	0.205592	0.196223	0.20099	0.185376
1398	0.201812	0.123906	0.194744	0.199182	0.197867	0.196881	0.187841
1399	0.198031	0.126536	0.195237	0.200004	0.196388	0.197703	0.185705
1400	0.20099	0.128837	0.196552	0.200004	0.197045	0.196059	0.188827
1401	0.198196	0.132946	0.199182	0.200497	0.195566	0.198689	0.187513
1402	0.203126	0.132453	0.195895	0.193922	0.198031	0.199346	0.188006
1403	0.197867	0.135576	0.196881	0.201483	0.193429	0.199675	0.188827
1404	0.19721	0.136398	0.198031	0.200497	0.196717	0.201483	0.189978
1405	0.200661	0.138699	0.199839	0.198524	0.195895	0.200661	0.194416
1406	0.199018	0.145273	0.196881	0.198689	0.198853	0.202305	0.19195
1407	0.199346	0.138534	0.199182	0.203784	0.197374	0.199182	0.192608
1408	0.200661	0.143465	0.198853	0.199018	0.205099	0.198689	0.191786
1409	0.198689	0.143958	0.19836	0.200004	0.199511	0.200825	0.192936
1410	0.196059	0.148396	0.199346	0.199839	0.198853	0.198031	0.1908
1411	0.197867	0.150532	0.200168	0.201319	0.20099	0.196388	0.194416
1412	0.197538	0.153491	0.197867	0.201812	0.200497	0.197374	0.190964
1413	0.197867	0.153984	0.199839	0.200004	0.203455	0.197374	0.193101
1414	0.195237	0.156942	0.199346	0.202305	0.201319	0.20099	0.189485
1415	0.200825	0.157107	0.198196	0.20099	0.204441	0.199018	0.189485
1416	0.203784	0.160722	0.20099	0.198853	0.201319	0.201154	0.191128
1417	0.20477	0.163188	0.195237	0.197867	0.202469	0.199346	0.193922
1418	0.201976	0.163845	0.20099	0.204277	0.204606	0.082488	0.192115
1419	0.201647	0.163681	0.200332	0.196717	0.20362	0.083639	0.193594
1420	0.201647	0.164338	0.19836	0.200004	0.197867	0.088077	0.190964
1421	0.200825	0.166804	0.194909	0.198196	0.202305	0.093993	0.192115
1422	0.200332	0.167297	0.197703	0.199675	0.19721	0.098102	0.195895
1423	0.199346	0.170419	0.19573	0.200661	0.202305	0.104677	0.192608
1424	0.201154	0.168776	0.196881	0.198524	0.202962	0.104348	0.192936
1425	0.200497	0.171734	0.197374	0.203784	0.19836	0.112566	0.193101
1426	0.201976	0.168776	0.19836	0.20214	0.20362	0.106649	0.193429
1427	0.199511	0.172556	0.195566	0.201812	0.199675	0.118483	0.190471
1428	0.200497	0.173871	0.19721	0.202798	0.203455	0.121112	0.026114
1429	0.199675	0.174857	0.198853	0.199018	0.198689	0.123085	0.016253
1430	0.198689	0.175679	0.198853	0.201319	0.198031	0.125879	0.026936
1431	0.19836	0.176829	0.199346	0.203126	0.197867	0.128344	0.034168
1432	0.200004	0.175186	0.19573	0.201319	0.200661	0.129823	0.044193
1433	0.198031	0.177815	0.197703	0.204113	0.198524	0.13196	0.046659
1434	0.201319	0.000474	0.195566	0.200332	0.20099	0.137712	0.050439
1435	0.198031	0.002118	0.193922	0.201647	0.200497	0.13952	0.060465
1436	0.198689	0.017567	0.194744	0.201483	0.204934	0.143301	0.06293
1437	0.202469	0.020197	0.198031	0.199346	0.195073	0.141821	0.067532
1438	0.200497	0.028744	0.195073	0.203291	0.199839	0.14971	0.075585
1439	0.20099	0.034661	0.197867	0.200168	0.19836	0.149053	0.078544
1440	0.199675	0.03992	0.194087	0.195895	0.198524	0.152505	0.078544
1441	0.203455	0.045672	0.201319	0.199675	0.192443	0.153326	0.089391
1442	0.197374	0.053233	0.195073	0.200332	0.196717	0.155792	0.08972
1443	0.199839	0.057342	0.19836	0.20214	0.198853	0.152833	0.09876
1444	0.196717	0.064245	0.193922	0.201976	0.198196	0.1576	0.10139
1445	0.200497	0.067368	0.200004	0.203291	0.199839	0.16401	0.102376
1446	0.197703	0.074928	0.19721	0.201483	0.199018	0.162859	0.108293
1447	0.19458	0.082324	0.197538	0.199182	0.200825	0.161709	0.1101
1448	0.200332	0.08594	0.201976	0.197703	0.196223	0.163845	0.112566
1449	0.197538	0.088898	0.199839	0.201812	0.200825	0.165817	0.117003
1450	0.198689	0.088734	0.201812	0.200332	0.19836	0.167461	0.118483
1451	0.201483	0.101554	0.200825	0.203784	0.199018	0.169105	0.123413
1452	0.200661	0.097281	0.20099	0.197867	0.196059	0.171406	0.125714
1453	0.201483	0.104512	0.199018	0.198524	0.196717	0.174693	0.12933
1454	0.199675	0.108293	0.198853	0.200497	0.195237	0.1742	0.128508
1455	0.198524	0.109443	0.196223	0.197374	0.194087	0.17272	0.136562
1456	0.199675	0.114374	0.200004	0.200825	0.196223	0.174857	0.136069
1457	0.19836	0.115195	0.197045	0.201319	0.199018	0.181267	0.140342
1458	0.200332	0.113552	0.196059	0.199675	0.195402	0.176994	0.142972
1459	0.200661	0.122756	0.19836	0.197703	0.194744	0.178473	0.137219
1460	0.197703	0.123906	0.199511	0.20362	0.198031	0.179952	0.139685
1461	0.19573	0.129166	0.198524	0.200497	0.195895	0.180938	0.141657
1462	0.199511	0.132946	0.198689	0.100075	0.200168	0.17913	0.145108
1463	0.195237	0.135247	0.199675	0.003597	0.194416	0.180116	0.146095
1464	0.19573	0.138699	0.20099	0.000146	0.199839	0.180938	0.147245
1465	0.20214	0.140506	0.198689	0.009514	0.197703	0.181267	0.150697
1466	0.201647	0.143958	0.197374	0.010664	0.20099	0.17913	0.154806
1467	0.200332	0.144944	0.199839	0.022334	0.196388	0.183075	0.152833
1468	0.202469	0.147903	0.198689	0.026278	0.201319	0.185869	0.155463
1469	0.20099	0.148724	0.198031	0.017074	0.199839	0.182746	0.155134
1470	0.204606	0.151354	0.19836	0.024635	0.19721	0.182417	0.000474
1471	0.20362	0.151847	0.201319	0.034003	0.199018	0.186033	0.010993
1472	0.198524	0.154641	0.194909	0.038769	0.197867	0.187841	0.017732
1473	0.200004	0.156942	0.200661	0.04896	0.195402	0.18817	0.009021
1474	0.19573	0.159243	0.200825	0.05389	0.196223	0.189814	0.010171
1475	0.199018	0.155792	0.19721	0.060465	0.20214	0.190964	0.019047
1476	0.200004	0.160394	0.198196	0.062273	0.194744	0.188334	0.029072
1477	0.201319	0.159736	0.195402	0.068189	0.197703	0.187513	0.034989
1478	0.19836	0.16138	0.196388	0.07197	0.199018	0.192279	0.002447
1479	0.20362	0.164996	0.198853	0.076572	0.199839	0.190471	0.000639
1480	0.198524	0.167297	0.193758	0.050932	0.19573	0.191786	-0.00232
1481	0.200168	0.167954	0.195566	-0.010538	0.196059	0.186362	0.006556
1482	0.20214	0.16894	0.125057	0.002447	0.196881	0.193429	0.018882
1483	0.199018	0.165653	0.126372	0.010664	0.199182	0.190471	0.024799
1484	0.200004	0.166311	0.112237	0.019868	0.194909	0.192115	0.033017
1485	0.201812	0.170913	0.114867	0.028415	0.199839	0.192115	0.038934
1486	0.199346	0.170748	0.115524	0.031702	0.193758	0.192279	0.043865
1487	0.201976	0.174693	0.117661	0.042714	0.196388	0.189814	0.00409
1488	0.200825	0.172885	0.123742	0.048795	0.194909	0.190635	0.012308
1489	0.199182	0.173707	0.122263	0.051918	0.196059	0.191621	0.015102
1490	0.200497	0.176172	0.127522	0.057177	0.193265	0.193429	0.028251
1491	0.197374	0.173214	0.129823	0.061451	0.198689	0.193758	0.000803
1492	0.19721	0.177651	0.135247	0.069011	0.200332	0.192608	0.012472
1493	0.200168	0.177322	0.133275	0.076407	0.19573	0.19458	0.028251
1494	0.199018	0.17798	0.13952	0.080845	0.200661	0.192279	0.026771
1495	0.196388	0.178309	0.143958	0.082653	0.196881	0.194087	-0.000183
1496	0.199346	0.178802	0.146588	0.090049	0.200332	0.193265	0.000803
1497	0.19836	0.180774	0.148067	0.091528	0.197867	0.195895	-1.9e-05
1498	0.196388	0.18439	0.14856	0.09498	0.195402	0.191457	0.003761
1499	0.19836	0.183239	0.153326	0.102376	0.194087	0.196552	0.00672
1500	0.200332	0.181267	0.155299	0.104184	0.196552	0.193594	-0.000183
1501	0.199839	0.184718	0.153491	0.109443	0.194087	0.194416	0.000146
1502	0.199346	0.179295	0.152669	0.11158	0.195895	0.193265	0.00146
1503	0.196881	0.18176	0.159408	0.11651	0.19573	0.195402	0.000146
1504	0.205427	0.186198	0.158421	0.096623	0.200168	0.196717	0.007706
1505	0.201483	0.184061	0.161544	0.106156	0.198524	0.196388	0.003268
1506	0.198524	0.183239	0.16138	0.103691	0.198853	0.199018	0.00672
1507	0.200661	0.183075	0.166146	0.107635	0.197867	0.193758	0.009185
1508	0.198196	0.181267	0.163188	0.109772	0.197703	0.196388	-0.000183
1509	0.198031	0.189156	0.164667	0.099089	0.19573	0.199018	0.001954
1510	0.198853	0.189485	0.166804	0.102376	0.196881	0.199675	-0.005607
1511	0.197374	0.187513	0.168612	0.090706	0.199018	0.195402	-0.000512
1512	0.198196	0.190964	0.171734	0.082817	0.196717	0.195237	-1.9e-05
1513	0.195566	0.18554	0.172063	0.089885	0.195402	0.195895	-0.000841
1514	0.193758	0.192115	0.174364	0.0935	0.194087	0.194416	0.006391
1515	0.200497	0.1908	0.175021	0.097281	0.197538	0.195566	0.000803
1516	0.196881	0.191621	0.177158	0.104348	0.201976	0.195402	0.000146
1517	0.200332	0.191786	0.176665	0.104348	0.194909	0.194416	0.000146
1518	0.199182	0.191786	0.181596	0.109279	0.197374	0.196223	-0.000183
1519	0.201319	0.18932	0.175186	0.110593	0.203291	0.194251	-1.9e-05
1520	0.19836	0.189156	0.176501	0.117661	0.197703	0.195073	-0.000183
1521	0.199511	0.192443	0.179623	0.113223	0.199182	0.199182	0.000146
1522	0.200168	0.189814	0.176665	0.120455	0.198196	0.197867	-1.9e-05
1523	0.196717	0.194087	0.178802	0.124728	0.19836	0.200168	-1.9e-05
1524	0.199182	0.191457	0.183732	0.081667	0.196717	0.201319	0.000146
1525	0.194909	0.193265	0.171734	0.08857	0.19573	0.199182	-1.9e-05
1526	0.198853	0.191786	0.172063	0.093007	0.198031	0.199182	0.00031
1527	0.20099	0.194087	0.172392	0.096952	0.19836	0.200497	0.000146
1528	0.197538	0.190307	0.172392	0.10139	0.197538	0.19836	0.000146
1529	0.197703	0.195073	0.166475	0.103526	0.196552	0.198853	0.00031
1530	0.201812	0.19195	0.178473	0.023649	0.200825	0.199182	-1.9e-05
1531	0.195402	0.192443	0.180116	0.032031	0.196552	0.198853	-0.000183
1532	0.199346	0.192115	0.177651	0.037455	0.195895	0.196552	-0.000347
1533	0.197538	0.190635	0.182089	0.045837	0.192608	0.198524	-0.000183
1534	0.198689	0.193101	0.181596	0.04896	0.199182	0.197374	0.000146
1535	0.198196	0.194251	0.187019	0.058821	0.191293	0.198524	0.000146
1536	0.201812	0.196059	0.182089	0.061615	0.193922	0.197374	0.000146
1537	0.200004	0.194087	0.179623	0.068354	0.195566	0.201647	0.000146
1538	0.197374	0.194416	0.181924	0.07197	0.200168	0.201647	0.00031
1539	0.201976	0.192772	0.184061	0.077722	0.199018	0.201647	0.000146
1540	0.196552	0.196717	0.17913	0.080516	0.199675	0.20362	-0.000183
1541	0.200004	0.192608	0.183568	0.087584	0.197538	0.197045	-0.000347
1542	0.199182	0.194744	0.184061	0.086926	0.19721	0.203291	-1.9e-05
1543	0.198689	0.191621	0.184883	0.093336	0.194416	0.198196	-1.9e-05
1544	0.19721	0.195566	0.183732	0.101718	0.195895	0.201647	-1.9e-05
1545	0.198853	0.192115	0.188827	0.10139	0.196552	0.196059	-1.9e-05
1546	0.197045	0.194416	0.189814	0.106978	0.195566	0.200004	0.000146
1547	0.198853	0.193265	0.18817	0.112566	0.197703	0.19573	-1.9e-05
1548	0.19721	0.19836	0.192115	0.118483	0.197045	0.200825	0.000146
1549	0.199018	0.198853	0.189156	0.114374	0.196717	0.195895	0.000146
1550	0.19836	0.195566	0.190635	0.122098	0.196223	0.19836	0.000146
1551	0.200332	0.196223	0.187841	0.12292	0.197045	0.197045	-1.9e-05
1552	0.200168	0.196223	0.186033	0.123413	0.19573	0.199675	-0.000512
1553	0.200332	0.196717	0.190964	0.128015	0.197538	0.197045	-0.000183
1554	0.196717	0.195402	0.191457	0.128344	0.196717	0.197867	-0.000347
1555	0.202962	0.194087	0.187348	0.130316	0.198689	0.198031	-1.9e-05
1556	0.199018	0.189978	0.193594	0.134261	0.19836	0.19458	-0.000183
1557	0.198853	0.192772	0.190142	0.134097	0.197045	0.204934	-1.9e-05
1558	0.199346	0.193594	0.189485	0.141493	0.197374	0.202305	-0.000183
1559	0.197045	0.19836	0.191457	0.141657	0.198524	0.201483	-1.9e-05
1560	0.199675	0.195566	0.192443	0.145273	0.198031	0.200661	0.000146
1561	0.196059	0.192772	0.192115	0.14971	0.199018	0.199511	0.000146
1562	0.199511	0.192443	0.192772	0.14856	0.197045	0.19573	-0.000183
1563	0.197374	0.197045	0.193758	0.151683	0.202633	0.199839	-0.000183
1564	0.196059	0.196059	0.194251	0.151025	0.197703	0.192443	-0.000183
1565	0.193594	0.195237	0.194251	0.155463	0.19573	0.198031	-0.000183
1566	0.193265	0.19721	0.19573	0.153491	0.196881	0.19573	-0.000183
1567	0.192936	0.197538	0.195073	0.156613	0.200825	0.197703	-0.000183
1568	0.197045	0.19721	0.193594	0.156613	0.195073	0.198196	0.000146
1569	0.194416	0.19721	0.193265	0.161873	0.192608	0.200332	-1.9e-05
1570	0.20099	0.19836	0.189814	0.162202	0.202962	0.199346	-1.9e-05
1571	0.200168	0.195895	0.19458	0.142643	0.198689	0.197703	-1.9e-05
1572	0.199018	0.194416	0.192115	-0.001991	0.199182	0.199346	0.00031
1573	0.198524	0.196223	0.195073	0.013623	0.197374	0.202962	-0.000183
1574	0.195073	0.197867	0.194087	0.011651	0.200661	0.199018	-0.000347
1575	0.197867	0.196059	0.19721	0.019375	0.196223	0.196552	-0.000183
1576	0.19573	0.196717	0.197538	0.02595	0.196223	0.202633	-0.000183
1577	0.195895	0.194416	0.195402	0.038769	0.196223	0.19721	-0.000183
1578	0.19836	0.198524	0.193265	0.041892	0.191786	0.200332	-1.9e-05
1579	0.19721	0.195566	0.195402	0.049781	0.194416	0.198689	-1.9e-05
1580	0.194744	0.196223	0.197045	0.056849	0.193922	0.20099	0.000146
1581	0.202305	0.198031	0.194909	0.063587	0.195237	0.198524	-1.9e-05
1582	0.198524	0.196881	0.19836	0.068189	0.192608	0.197374	-1.9e-05
1583	0.19836	0.199018	0.19836	0.071477	0.192279	0.198031	0.000146
1584	0.196388	0.199675	0.199182	0.078873	0.193101	0.200332	-0.000512
1585	0.198524	0.197703	0.195073	0.080352	0.186691	0.195566	-0.000183
1586	0.197374	0.198853	0.196223	0.085118	0.189485	0.196059	-0.000183
1587	0.199018	0.198196	0.194087	0.089063	0.194416	0.196223	-0.000183
1588	0.196223	0.194909	0.19836	0.093336	0.193265	0.194416	-1.9e-05
1589	0.199675	0.198689	0.193429	0.098267	0.196552	0.19836	0.000146
1590	0.201483	0.196552	0.193265	0.098431	0.195402	0.199675	0.000146
1591	0.197538	0.197703	0.192772	0.100732	0.200332	0.200168	0.000146
1592	0.200332	0.197703	0.196388	0.105498	0.194416	0.198524	-1.9e-05
1593	0.197374	0.19721	0.196717	0.113881	0.193101	0.200332	0.000146
1594	0.200004	0.196717	0.197374	0.11651	0.197045	0.196717	-1.9e-05
1595	0.196388	0.200168	0.199018	0.126207	0.194251	0.198853	-0.000183
1596	0.20099	0.193594	0.200004	0.124235	0.19458	0.192772	-0.000183
1597	0.196059	0.199018	0.19836	0.127194	0.193594	0.197374	-0.000183
1598	0.197703	0.195073	0.199675	0.127194	0.195402	0.198031	-0.000183
1599	0.195073	0.204113	0.198524	0.132289	0.193922	0.196717	-0.000183
1600	0.199182	0.197703	0.197867	0.135576	0.194909	0.196388	-1.9e-05
1601	0.196388	0.199182	0.200332	0.136398	0.19458	0.199018	0.000146
1602	0.199839	0.198689	0.196552	0.138534	0.197045	0.197374	0.00031
1603	0.200661	0.198031	0.202798	0.141657	0.19195	0.196552	-1.9e-05
1604	0.198031	0.19721	0.195895	0.138699	0.199511	0.200004	0.000146
1605	0.196552	0.195895	0.198031	0.143301	0.197374	0.19836	0.000146
1606	0.197703	0.198689	0.199839	0.129659	0.196717	0.201319	-0.000183
1607	0.201483	0.196059	0.198689	0.147245	0.196059	0.197374	-0.000183
1608	0.197703	0.195402	0.193758	0.149382	0.19573	0.196717	-1.9e-05
1609	0.200497	0.199675	0.198524	0.148724	0.198524	0.19721	-0.000183
1610	0.196059	0.200661	0.193265	0.15234	0.194744	0.196552	-0.000183
1611	0.194251	0.195402	0.196881	0.154312	0.194416	0.194909	-1.9e-05
1612	0.196881	0.197374	0.198196	0.159408	0.197374	0.197703	-1.9e-05
1613	0.194909	0.196223	0.197867	0.157764	0.198031	0.196059	-1.9e-05
1614	0.197045	0.19836	0.198853	0.162859	0.195237	0.196552	-1.9e-05
1615	0.200497	0.197374	0.199018	0.160558	0.201483	0.196717	0.000146
1616	0.196552	0.19721	0.200332	0.163352	0.197703	0.197703	0.000146
1617	0.197374	0.201647	0.19836	0.164338	0.200825	0.195073	-1.9e-05
1618	0.204934	0.198853	0.201154	0.16516	0.19458	0.198689	-0.000347
1619	0.197703	0.198853	0.199018	0.161215	0.198689	0.197374	-0.000183
1620	0.199018	0.199182	0.19836	0.166475	0.199018	0.195895	-0.000183
1621	0.200332	0.199839	0.197374	0.170913	0.201319	0.198524	-0.000183
1622	0.202798	0.196717	0.197703	0.171406	0.198524	0.201483	0.000146
1623	0.201812	0.20099	0.198689	0.16894	0.197867	0.196223	-1.9e-05
1624	0.200332	0.197867	0.196717	0.169433	0.20099	0.196223	-1.9e-05
1625	0.199511	0.197703	0.196552	0.17272	0.195402	0.197045	-1.9e-05
1626	0.200497	0.197045	0.198689	0.173049	0.058985	0.197374	-0.000183
1627	0.19836	0.199675	0.195073	0.174035	0.056027	0.199346	0.000474
1628	0.200497	0.200332	0.19458	0.177322	0.063587	0.198524	0.000803
1629	0.191621	0.197374	0.198524	0.174693	0.065888	0.200332	-0.001334
1630	0.198524	0.196223	0.196881	0.178309	0.077229	0.199675	0.003268
1631	0.196717	0.195402	0.197538	0.179459	0.075914	0.201647	0.001132
1632	0.200168	0.200661	0.198853	0.179459	0.083475	0.193758	-1.9e-05
1633	0.196717	0.200497	0.198689	0.181267	0.086926	0.197538	-0.00232
1634	0.198524	0.201647	0.197538	0.179295	0.091692	0.199675	-1.9e-05
1635	0.204441	0.200168	0.187513	0.181267	0.092679	0.200168	0.000146
1636	0.202305	0.199182	0.186198	0.180938	0.10254	0.197045	0.000146
1637	0.202798	0.198031	0.188499	0.182911	0.104841	0.200004	-0.002484
1638	0.199839	0.198196	0.188006	0.183075	0.110758	0.200168	-1.9e-05
1639	0.200497	0.195566	0.187841	0.184554	0.113716	0.197538	0.001789
1640	0.199675	0.197703	0.195895	0.183075	0.11799	0.199839	-0.000183
1641	0.199018	0.195566	0.191621	0.187513	0.122263	0.200004	0.009843
1642	0.19836	0.200004	0.188663	0.187513	0.120291	0.199511	0.019868
1643	0.199839	0.198524	0.193922	0.188992	0.125057	0.197538	0.025292
1644	0.197538	0.19721	0.188006	0.184883	0.129823	0.200168	0.031538
1645	0.199018	0.199511	0.195073	0.188334	0.131631	0.196717	0.040084
1646	0.198524	0.198031	0.191621	0.186033	0.130152	0.197538	0.043043
1647	0.198031	0.197538	0.194251	0.186526	0.133439	0.197538	0.057177
1648	0.196881	0.198524	0.195073	0.189649	0.135904	0.199182	0.058821
1649	0.201319	0.197538	0.194744	0.188334	0.143629	0.198524	0.063587
1650	0.201647	0.197703	0.194744	0.189978	0.140178	0.197867	0.071641
1651	0.199182	0.194909	0.193594	0.18932	0.142643	0.19836	0.076079
1652	0.196059	0.200661	0.197703	0.188663	0.147409	0.196059	0.080023
1653	0.198524	0.198689	0.192115	0.187841	0.149382	0.198524	0.083639
1654	0.200825	0.195237	0.194416	0.187677	0.148724	0.200168	0.090213
1655	0.199018	0.199182	0.193758	0.190307	0.151683	0.197045	0.090213
1656	0.199675	0.198196	0.194909	0.192115	0.155299	0.198031	0.095801
1657	0.198524	0.193922	0.192608	0.185376	0.158421	0.197867	0.098595
1658	0.196717	0.196388	0.19573	0.195566	0.159243	0.196059	0.10517
1659	0.197374	0.198689	0.194909	0.186526	0.159901	0.201812	0.105498
1660	0.198031	0.196388	0.196717	0.189978	0.16401	0.198689	0.114702
1661	0.197538	0.196717	0.194087	0.190964	0.16138	0.199839	0.113552
1662	0.198853	0.195566	0.196717	0.192443	0.16138	0.198196	0.121112
1663	0.19836	0.197703	0.194087	0.192936	0.164996	0.200332	0.124564
1664	0.197374	0.19721	0.195566	0.190307	0.16516	0.192936	0.130974
1665	0.19836	0.196552	0.196881	0.165653	0.164503	0.195895	0.129001
1666	0.197538	0.200661	0.197867	0.16894	0.167625	0.194744	0.129823
1667	0.204441	0.197045	0.192772	0.166639	0.168612	0.196552	0.136398
1668	0.199346	0.196881	0.194087	0.166804	0.168118	0.197703	0.134097
1669	0.196717	0.200825	0.199675	0.173049	0.172885	0.195237	0.138863
1670	0.200332	0.203291	0.19721	0.163352	0.174857	0.199675	0.139356
1671	0.199182	0.201976	0.198853	0.170748	0.175515	0.197538	0.141821
1672	0.204441	0.200168	0.195073	0.174693	0.176994	0.197867	0.143301
1673	0.201154	0.19721	0.202305	0.174528	0.177487	0.199346	0.14856
1674	0.203784	0.203126	0.193429	0.1742	0.178309	0.194416	0.147738
1675	0.198853	0.195895	0.196388	0.176665	0.17798	0.198689	0.15234
1676	0.19721	0.197045	0.193758	0.177487	0.176172	0.19721	0.14593
1677	0.199839	0.19721	0.195073	0.177158	0.181103	0.197045	0.153162
1678	0.195402	0.199839	0.191293	0.178966	0.179788	0.198689	0.155299
1679	0.201319	0.194744	0.194744	0.176501	0.179623	0.195895	0.158914
1680	0.195566	0.200332	0.197374	0.182253	0.18061	0.197374	0.158586
1681	0.199346	0.199182	0.195073	0.180281	0.184225	0.199018	0.16401
1682	0.197538	0.199839	0.197374	0.180774	0.182089	0.201812	0.162695
1683	0.199346	0.197374	0.197867	0.180281	0.184061	0.197538	0.16401
1684	0.198196	0.198689	0.192772	0.184554	0.183732	0.199182	0.166639
1685	0.197867	0.198031	0.193429	0.18061	0.182582	0.195237	0.169269
1686	0.195566	0.197703	0.197374	0.18439	0.187184	0.199182	0.166968
1687	0.195566	0.197703	0.196223	0.182582	0.186691	0.194251	0.168283
1688	0.196388	0.196388	0.197045	0.185376	0.185869	0.195073	0.167297
1689	0.197374	0.200332	0.19458	0.183075	0.189814	0.197045	0.167297
1690	0.198031	0.195895	0.19573	0.182582	0.188006	0.195566	0.169598
1691	0.199675	0.201154	0.201154	0.151025	0.188006	0.195566	0.170913
1692	0.200497	0.19836	0.196717	0.149382	0.188827	0.199346	0.173214
1693	0.19836	0.19836	0.199675	0.149546	0.188334	0.197538	0.172392
1694	0.200168	0.19836	0.197703	0.154641	0.192279	0.197045	0.172063
1695	0.196717	0.201483	0.196552	0.1576	0.187841	0.196717	0.175021
1696	0.195566	0.197045	0.197867	0.157764	0.191128	0.198524	0.180774
1697	0.197867	0.19836	0.196881	0.161051	0.188663	0.198524	0.183568
1698	0.19721	0.195073	0.197867	0.159901	0.189156	0.195566	0.185212
1699	0.196388	0.194251	0.197538	0.163516	0.188992	0.197045	0.173378
1700	0.19836	0.195073	0.198031	0.164667	0.191293	0.195566	0.182089
1701	0.19573	0.195402	0.20362	0.163845	0.190142	0.197867	0.180445
1702	0.196388	0.197045	0.199182	0.165817	0.191128	0.194416	0.181596
1703	0.197703	0.195237	0.195566	0.16894	0.191786	0.106813	0.180445
1704	0.199182	0.198196	0.19721	0.164831	0.194416	0.110265	0.183568
1705	0.19836	0.195073	0.199346	0.172392	0.192279	0.110922	0.180281
1706	0.200168	0.199018	0.196388	0.170584	0.198524	0.117496	0.183897
1707	0.201154	0.196388	0.196388	0.172885	0.19195	0.120948	0.184718
1708	0.201976	0.199839	0.196388	0.171899	0.191293	0.123249	0.186198
1709	0.201154	0.196388	0.19721	0.173049	0.191786	0.127194	0.187019
1710	0.194909	0.193594	0.195402	0.173378	0.192115	0.131302	0.184554
1711	0.197867	0.198524	0.197703	0.1742	0.193429	0.133439	0.186198
1712	0.196552	0.198196	0.196881	0.176665	0.190964	0.135411	0.186033
1713	0.196552	0.196388	0.195073	0.175021	0.189978	0.132617	0.18932
1714	0.196552	0.200004	0.200004	0.181267	0.194909	0.144451	0.181431
1715	0.19836	0.196388	0.196059	0.178473	0.192443	0.140178	0.18932
1716	0.196552	0.197703	0.198031	0.179623	0.190142	0.143301	0.186526
1717	0.200497	0.197867	0.196223	0.177487	0.195237	0.146259	0.195402
1718	0.200661	0.196059	0.195566	0.177815	0.191786	0.150368	0.189485
1719	0.201154	0.196717	0.196717	0.178966	0.189156	0.150204	0.187184
1720	0.197867	0.199346	0.198031	0.182746	0.190964	0.152998	0.192772
1721	0.19573	0.201647	0.198031	0.178637	0.194909	0.153491	0.1908
1722	0.199839	0.199018	0.200661	0.175843	0.190635	0.153819	0.187184
1723	0.197045	0.19836	0.195895	0.181596	0.195895	0.158914	0.190142
1724	0.198524	0.197374	0.193594	0.184554	0.192936	0.158421	0.190307
1725	0.200168	0.199182	0.201812	0.185047	0.196552	0.164831	0.190964
1726	0.200004	0.197045	0.200661	0.186033	0.192772	0.159572	0.192115
1727	0.194744	0.200168	0.196223	0.185869	0.194251	0.166968	0.190142
1728	0.201976	0.198853	0.195237	0.185376	0.195073	0.165653	0.193594
1729	0.196059	0.198031	0.197867	0.185212	0.199018	0.170584	0.191457
1730	0.199839	0.196059	0.196059	0.184718	0.194087	0.167132	0.19458
1731	0.198031	0.197374	0.195566	0.186198	0.193429	0.174857	0.193594
1732	0.198524	0.196059	0.196717	0.187019	0.195895	0.171077	0.197538
1733	0.197045	0.195237	0.197045	0.187841	0.193265	0.172063	0.193594
1734	0.19836	0.198196	0.19721	0.176172	0.197538	0.170091	0.190635
1735	0.195566	0.192772	0.194744	0.180281	0.185705	0.178473	0.191621
1736	0.19458	0.199346	0.197538	0.181596	0.195895	0.174693	0.192608
1737	0.19721	0.197374	0.196059	0.179459	0.196552	0.175186	0.18932
1738	0.200004	0.197703	0.196552	0.179459	0.194909	0.174693	0.190964
1739	0.197045	0.19836	0.197374	0.183568	0.19836	0.176501	0.192279
1740	0.204441	0.198689	0.196223	0.181596	0.194251	0.166968	0.191293
1741	0.197867	0.195895	0.196059	0.178637	0.195566	0.177322	0.189156
1742	0.198524	0.198524	0.196059	0.179952	0.196059	0.178144	0.191786
1743	0.200168	0.196388	0.197045	0.185869	0.197374	0.179459	0.198524
1744	0.19458	0.199018	0.195073	0.181924	0.19458	0.180938	0.193265
1745	0.197538	0.198196	0.198524	0.183075	0.191293	0.179952	0.194251
1746	0.196059	0.198524	0.198524	0.186033	0.19573	0.184883	0.194087
1747	0.199018	0.197374	0.19836	0.182253	0.197703	0.179952	0.197867
1748	0.19721	0.199182	0.196059	0.186526	0.192443	0.184225	0.196552
1749	0.196059	0.195237	0.196717	0.185705	0.195073	0.183075	0.196223
1750	0.195895	0.194087	0.198031	0.189649	0.194416	0.184718	0.193429
1751	0.198524	0.193758	0.199346	0.186033	0.192115	0.186198	0.198524
1752	0.193101	0.193265	0.197867	0.187841	0.1908	0.183897	0.195073
1753	0.196223	0.195073	0.196059	0.187348	0.196059	0.184883	0.195402
1754	0.194416	0.195566	0.19573	0.187348	0.196552	0.186198	0.195402
1755	0.194251	0.197374	0.161215	0.187677	0.195895	0.184225	0.196881
1756	0.198853	0.193429	0.138041	0.18932	0.19573	0.186198	0.195402
1757	0.197703	0.198196	0.135411	0.190964	0.200661	0.184883	0.194744
1758	0.199839	0.195566	0.139685	0.189814	0.200004	0.183404	0.197045
1759	0.198689	0.200004	0.097609	0.188006	0.198689	0.188827	0.190142
1760	0.200168	0.197538	0.100896	0.189978	0.198524	0.187513	0.195895
1761	0.194909	0.202469	0.10254	0.191293	0.200004	0.184554	0.195402
1762	0.197374	0.199346	0.109114	0.187677	0.194744	0.185869	0.19573
1763	0.194909	0.197045	0.109279	0.190307	0.194909	0.188827	0.16516
1764	0.195566	0.19721	0.113059	0.188992	0.200004	0.187677	0.140506
1765	0.190964	0.197374	0.116182	0.191621	0.19458	0.19195	0.13837
1766	0.196388	0.193922	0.121441	0.19195	0.199346	0.192608	0.144287
1767	0.195566	0.194744	0.124893	0.194416	0.196552	0.19195	0.142807
1768	0.196388	0.19458	0.125879	0.185705	0.198524	0.189485	0.150697
1769	0.194744	0.192115	0.131302	0.193758	0.194416	0.190635	0.151025
1770	0.193101	0.19836	0.130974	0.189156	0.201154	0.192115	0.149546
1771	0.197867	0.19721	0.136233	0.194087	0.197374	0.19573	0.151847
1772	0.196552	0.196717	0.132453	0.181431	0.201154	0.193594	0.15497
1773	0.208715	0.195895	0.016581	0.189649	0.197538	0.192608	0.154641
1774	0.195895	0.198031	0.01954	0.191457	0.199018	0.192772	0.162037
1775	0.197867	0.194087	0.031867	0.193594	0.198524	0.190142	0.157928
1776	0.199511	0.183568	0.035482	0.191786	0.196717	0.194251	0.161544
1777	0.19836	0.183075	0.037948	0.193758	0.201483	0.192772	0.163352
1778	0.196717	0.18176	0.042714	0.18932	0.196717	0.194744	0.160887
1779	0.201976	0.186033	0.05389	0.191457	0.200497	0.194251	0.164831
1780	0.196552	0.184554	0.056849	0.196059	0.196059	0.193429	0.166968
1781	0.189978	0.183897	0.066875	0.19195	0.197703	0.194416	0.16779
1782	0.200497	0.182253	0.069176	0.19573	0.198853	0.189485	0.167132
1783	0.196223	0.184225	0.074106	0.194251	0.198031	0.200004	0.173707
1784	0.185047	0.184554	0.078873	0.192115	0.196552	0.200168	0.171406
1785	0.197703	0.187348	0.081338	0.196223	0.199182	0.197867	0.173378
1786	0.197045	0.186198	0.087255	0.194416	0.190635	0.196223	0.174364
1787	0.194744	0.186526	0.090213	0.192443	0.196059	0.194087	0.169105
1788	0.004748	0.188499	0.097938	0.197045	0.19573	0.192279	0.16779
1789	0.012801	0.189485	0.099746	0.193594	0.199018	0.193101	0.171734
1790	0.023977	0.188499	0.105992	0.191786	0.196717	0.196881	0.173542
1791	0.033181	0.191457	0.109772	0.199018	0.194087	0.194087	0.175021
1792	0.036962	0.190307	0.113716	0.196552	0.198196	0.19573	0.178473
1793	0.042714	0.190635	0.113716	0.192772	0.198689	0.195895	0.17535
1794	0.049617	0.19458	0.117332	0.192608	0.197867	0.195895	0.18176
1795	0.055041	0.187841	0.122098	0.195402	0.199182	0.195237	0.179623
1796	0.060629	0.189978	0.123742	0.194251	0.202962	0.198031	0.183404
1797	0.06556	0.190635	0.125221	0.195566	0.200332	0.194909	0.180938
1798	0.071148	0.189485	0.129988	0.195566	0.19836	0.196552	0.185047
1799	0.073942	0.195237	0.132289	0.197045	0.195895	0.19836	0.179952
1800	0.080681	0.192608	0.132617	0.199346	0.19721	0.193101	0.186855
1801	0.086433	0.190142	0.134918	0.194416	0.194744	0.196881	0.184225
1802	0.091857	0.193101	0.13952	0.198196	0.199018	0.19458	0.18554
1803	0.091692	0.192443	0.143301	0.198689	0.197374	0.196388	0.185376
1804	0.098595	0.194744	0.145602	0.19573	0.196388	0.195566	0.184883
1805	0.097774	0.187513	0.154148	0.199346	0.196552	0.196223	0.189978
1806	0.101554	0.193429	0.150204	0.197374	0.198524	0.194744	0.188006
1807	0.072298	0.1908	0.151025	0.198196	0.19836	0.195073	0.18817
1808	0.07575	0.193594	0.15119	0.197538	0.19836	0.194416	0.185212
1809	0.079694	0.193101	0.154641	0.197703	0.195402	0.193429	0.192279
1810	0.082324	0.194416	0.155134	0.195895	0.195402	0.195402	0.188992
1811	0.090706	0.192115	0.1576	0.197374	0.197703	0.197045	0.189814
1812	0.092679	0.195237	0.156285	0.196059	0.197867	0.198196	0.190307
1813	0.098924	0.19836	0.160558	0.198853	0.198853	0.190471	0.189814
1814	0.101883	0.196881	0.160394	0.19721	0.197867	0.197703	0.189814
1815	0.105827	0.193758	0.163352	0.19573	0.199018	0.193101	0.188334
1816	0.107635	0.193429	0.163188	0.199346	0.196552	0.198031	0.192936
1817	0.113552	0.19195	0.170255	0.201647	0.197045	0.197045	0.19195
1818	0.115524	0.1908	0.166311	0.20099	0.19458	0.199675	0.193758
1819	0.120126	0.196059	0.169269	0.19836	0.201812	0.196059	0.193101
1820	0.121605	0.193594	0.169762	0.200168	0.197045	0.197045	0.194087
1821	0.125057	0.194744	0.169105	0.196223	0.196059	0.195895	0.19195
1822	0.132453	0.194744	0.173378	0.19836	0.198031	0.195237	0.1908
1823	0.131467	0.190142	0.169926	0.203291	0.196717	0.194251	0.193594
1824	0.131796	0.196552	0.176994	0.198524	0.196223	0.195895	0.191457
1825	0.139685	0.19836	0.173707	0.199018	0.198689	0.199675	0.194744
1826	0.138699	0.196059	0.178637	0.196059	0.197045	0.196881	0.195895
1827	0.140671	0.197703	0.174857	0.19573	0.200497	0.199018	0.191128
1828	0.143794	0.193429	0.179788	0.200168	0.198196	0.198689	0.195237
1829	0.148396	0.197045	0.174364	0.196059	0.19573	0.198689	0.192279
1830	0.15119	0.196717	0.180281	0.197045	0.197045	0.198031	0.198196
1831	0.149053	0.195566	0.179788	0.198689	0.197374	0.198853	0.015595
1832	0.153162	0.196717	0.18061	0.196552	0.199182	0.200168	-0.006922
1833	0.154312	0.195237	0.181267	0.200004	0.193594	0.200332	0.008857
1834	0.153984	0.194416	0.17535	0.196717	0.199018	0.195073	0.015102
1835	0.155134	0.19721	0.184718	0.199346	0.192608	0.193922	0.022827
1836	0.159901	0.196388	0.180774	0.197045	0.191786	0.196717	0.031538
1837	0.161215	0.19573	0.183897	0.199839	0.19573	0.197703	0.040249
1838	0.157271	0.195402	0.183897	0.199675	0.194251	0.198689	0.049453
1839	0.164667	0.197045	0.185869	0.201319	0.196388	0.194909	0.049124
1840	0.166475	0.198196	0.17913	0.199675	0.199018	0.197867	0.053726
1841	0.165489	0.194416	0.185376	0.196552	0.197374	0.193758	0.061122
1842	0.165817	0.200332	0.185212	0.198853	0.198524	0.19573	0.053397
1843	0.16894	0.190142	0.187513	0.199839	0.196881	0.194909	0.068518
1844	0.167625	0.197703	0.185047	0.195073	0.197538	0.005241	0.075092
1845	0.171406	0.193758	0.187677	0.201812	0.201319	0.016253	0.082817
1846	0.166639	0.197374	0.18932	0.196552	0.19836	0.020033	0.084132
1847	0.173707	0.196059	0.187184	0.196059	0.203126	0.029401	0.091035
1848	0.170584	0.196717	0.188992	0.19836	0.196388	0.038605	0.0935
1849	0.176008	0.19836	0.189649	0.197045	0.19836	0.04255	0.100239
1850	0.176172	0.20099	0.187841	0.196059	0.195402	0.052411	0.103526
1851	0.176501	0.195402	0.187513	0.199346	0.198689	0.055041	0.110265
1852	0.170748	0.195895	0.190964	0.195895	0.194909	0.062108	0.111415
1853	0.178473	0.198196	0.192443	0.196388	0.195073	0.06671	0.115195
1854	0.178802	0.196388	0.191786	0.197538	0.194087	0.069833	0.11651
1855	0.178309	0.195237	0.193922	0.197374	0.194744	0.0769	0.119633
1856	0.17798	0.195073	0.194744	0.19721	0.194909	0.08216	0.123578
1857	0.181103	0.199018	0.191128	0.197374	0.19458	0.082324	0.123578
1858	0.183239	0.196059	0.19573	0.199182	0.198689	0.092679	0.132453
1859	0.18061	0.196552	0.191457	0.197703	0.198196	0.097938	0.131467
1860	0.18554	0.196059	0.192772	0.198689	0.198853	0.097281	0.129001
1861	0.184225	0.20214	0.193101	0.196717	0.199182	0.100075	0.134261
1862	0.185376	0.198031	0.191457	0.198031	0.199839	0.106156	0.141328
1863	0.18176	0.199675	0.192443	0.196881	0.198196	0.114538	0.140178
1864	0.184225	0.195895	0.193265	0.200168	0.199182	0.114867	0.14478
1865	0.186526	0.197045	0.1908	0.19721	0.197703	0.117003	0.143629
1866	0.188499	0.200825	0.195073	0.196223	0.197538	0.11914	0.148067
1867	0.184718	0.199346	0.197538	0.193758	0.195566	0.125386	0.14971
1868	0.185376	0.196881	0.193922	0.198031	0.198689	0.12292	0.153819
1869	0.185705	0.197703	0.195402	0.199018	0.201154	0.13574	0.151683
1870	0.186855	0.19836	0.193429	0.19458	0.199182	0.134754	0.156778
1871	0.186855	0.197045	0.194087	0.199182	0.19836	0.137055	0.154806
1872	0.187677	0.200004	0.193429	0.197538	0.198689	0.137877	0.158421
1873	0.187677	0.198524	0.196059	0.20099	0.199675	0.142972	0.160887
1874	0.186855	0.197867	0.190471	0.199018	0.198031	0.142479	0.162202
1875	0.18932	0.197703	0.196717	0.200497	0.199839	0.141328	0.162202
1876	0.185705	0.200825	0.193922	0.199182	0.196059	0.148231	0.166475
1877	0.189649	0.199346	0.196059	0.199675	0.202469	0.14971	0.165982
1878	0.189485	0.197703	0.196388	0.19573	0.198689	0.151354	0.165489
1879	0.189978	0.19836	0.193429	0.198031	0.198689	0.153655	0.170255
1880	0.186691	0.202962	0.193101	0.199346	0.199511	0.160229	0.165817
1881	0.190471	0.20099	0.195566	0.19573	0.198524	0.159736	0.172063
1882	0.193429	0.200332	0.193429	0.199346	0.197374	0.160394	0.170748
1883	0.193922	0.19721	0.192115	0.195895	0.19721	0.159243	0.175679
1884	0.187677	0.199182	0.195237	0.197867	0.201647	0.164996	0.172227
1885	0.192608	0.19721	0.193101	0.197703	0.196552	0.164338	0.177651
1886	0.1908	0.197867	0.196717	0.199346	0.199018	0.168118	0.177158
1887	0.191293	0.199018	0.192936	0.198031	0.195402	0.166475	0.178144
1888	0.193922	0.196881	0.195566	0.199182	0.195237	0.167297	0.179459
1889	0.192115	0.199675	0.192772	0.198031	0.198031	0.169598	0.177322
1890	0.188992	0.198031	0.195566	0.201483	0.193758	0.170913	0.180116
1891	0.194416	0.198853	0.195402	0.198031	0.201319	0.172885	0.175843
1892	0.192608	0.198196	0.19836	0.199182	0.198031	0.170255	0.178637
1893	0.189649	0.199675	0.198524	0.198196	0.198853	0.171406	0.17798
1894	0.193429	0.19836	0.195237	0.199839	0.199511	0.17272	0.183568
1895	0.194744	0.201319	0.197703	0.194087	0.195566	0.182089	0.179623
1896	0.19458	0.196223	0.197045	0.193265	0.198689	0.171406	0.185212
1897	0.191621	0.197374	0.194909	0.196223	0.194909	0.1742	0.183404
1898	0.194087	0.201154	0.196223	0.197703	0.194744	0.175843	0.186198
1899	0.192772	0.19195	0.195895	0.19836	0.195402	0.177815	0.184225
1900	0.19573	0.195566	0.195402	0.196223	0.197538	0.176501	0.188827
1901	0.193922	0.197538	0.196717	0.202305	0.197045	0.182582	0.187348
1902	0.194909	0.196717	0.196552	0.195073	0.198196	0.177487	0.187348
1903	0.194087	0.19458	0.197867	0.198031	0.198031	0.18439	0.188499
1904	0.195895	0.198524	0.196388	0.19573	0.201812	0.180445	0.188499
1905	0.195073	0.194909	0.198196	0.19836	0.196881	0.184061	0.189978
1906	0.194251	0.19573	0.195895	0.19573	0.196552	0.175679	0.189156
1907	0.19836	0.193429	0.193922	0.199511	0.197867	0.179952	0.191457
1908	0.194251	0.195237	0.194416	0.194744	0.201976	0.18176	0.191786
1909	0.193594	0.198031	0.19836	0.197538	0.199018	0.181924	0.187184
1910	0.191457	0.200004	0.195237	0.196717	0.199346	0.186855	0.190635
1911	0.192443	0.196059	0.199511	0.19721	0.199018	0.183897	0.192115
1912	0.193429	0.200168	0.197374	0.199182	0.19836	0.183404	0.189978
1913	0.195402	0.197703	0.199346	0.197867	0.199839	0.183239	0.191128
1914	0.193758	0.196717	0.193594	0.19721	0.196717	0.186033	0.190964
1915	0.19836	0.192772	0.19195	0.196059	0.198524	0.186033	0.191786
1916	0.19458	0.194909	0.195895	0.199511	0.198689	0.186526	0.191457
1917	0.199018	0.194251	0.198196	0.193265	0.196717	0.186362	0.193265
1918	0.195895	0.196388	0.194744	0.194909	0.196388	0.189156	0.191786
1919	0.196717	0.197867	0.193594	0.196059	0.200004	0.187019	0.194087
1920	0.194087	0.19721	0.197045	0.195895	0.195237	0.188827	0.195402
1921	0.197045	0.197867	0.195073	0.194087	0.197703	0.188006	0.192115
1922	0.195237	0.194909	0.194251	0.198689	0.196223	0.188006	0.192279
1923	0.194416	0.199675	0.195237	0.191786	0.19836	0.144287	0.193758
1924	0.195895	0.197374	0.199018	0.198196	0.196881	0.0437	0.192608
1925	0.195237	0.198031	0.195566	0.19836	0.199018	0.051261	0.192936
1926	0.197045	0.194416	0.199675	0.197867	0.198689	0.039263	0.193101
1927	0.196059	0.200004	0.197703	0.202633	0.200497	0.05011	0.192772
1928	0.19836	0.196388	0.19836	0.199018	0.198196	0.053069	0.194416
1929	0.192115	0.199346	0.193429	0.196388	0.197374	0.0603	0.193922
1930	0.198524	0.198853	0.195895	0.197867	0.197045	0.063916	0.196552
1931	0.193594	0.194909	0.1908	0.197703	0.19573	0.069669	0.19458
1932	0.194251	0.197045	0.195237	0.198853	0.195073	0.072463	0.193758
1933	0.193101	0.195402	0.191786	0.196552	0.194744	0.081338	0.194087
1934	0.195402	0.19836	0.191293	0.195073	0.196881	0.082817	0.193265
1935	0.195073	0.200332	0.195566	0.200332	0.191786	0.089391	0.196388
1936	0.197045	0.196223	0.194251	0.198524	0.199018	0.093665	0.196881
1937	0.199346	0.19836	0.196388	0.196881	0.192936	0.096623	0.195566
1938	0.19458	0.19836	0.193429	0.187513	0.192443	0.101883	0.194251
1939	0.188006	0.195073	0.193429	0.197045	0.195566	0.10632	0.192279
1940	0.190635	0.196552	0.190635	0.193922	0.196223	0.109607	0.196881
1941	0.19573	0.195895	0.193429	0.19836	0.196881	0.113388	0.195237
1942	0.192772	0.197703	0.192936	0.196552	0.197867	0.114867	0.193265
1943	0.192936	0.196059	0.196552	0.199018	0.195402	0.118811	0.197867
1944	0.193594	0.199018	0.173378	0.19836	0.197703	0.125057	0.200332
1945	0.196881	0.197703	0.159243	0.196388	0.196717	0.123906	0.195073
1946	0.196717	0.200497	0.161215	0.124399	0.194909	0.128837	0.19458
1947	0.196717	0.198689	0.160722	0.126536	0.194087	0.131631	0.196881
1948	0.190635	0.199839	0.16138	0.129988	0.1908	0.133603	0.195237
1949	0.195895	0.198196	0.163681	0.129166	0.196059	0.136891	0.197867
1950	0.194416	0.200168	0.165817	0.13459	0.195237	0.140178	0.198689
1951	0.194909	0.192443	0.16401	0.133932	0.197045	0.145766	0.19836
1952	0.194251	0.196717	0.168447	0.137712	0.192279	0.145108	0.197045
1953	0.194909	0.193594	0.166146	0.139685	0.19721	0.145273	0.20099
1954	0.193594	0.195402	0.170255	0.142479	0.192936	0.15119	0.195237
1955	0.19573	0.198689	0.169762	0.146588	0.195073	0.15119	0.196059
1956	0.194909	0.192772	0.170255	0.152833	0.193594	0.15234	0.197538
1957	0.19458	0.195237	0.170584	0.14593	0.192115	0.153162	0.194087
1958	0.195237	0.193594	0.177158	0.154148	0.199018	0.157435	0.193101
1959	0.194416	0.196552	0.174693	0.004419	0.199511	0.153326	0.193101
1960	0.197703	0.203291	0.17913	-0.000183	0.195237	0.161215	0.196717
1961	0.187677	0.194909	0.178309	-0.012839	0.196717	0.1576	0.189814
1962	0.189978	0.196552	0.177651	-0.006429	0.197867	0.158914	0.197045
1963	0.196059	0.196059	0.136562	0.005405	0.193429	0.161051	0.195402
1964	0.193594	0.198196	0.134918	0.007706	0.197045	0.159243	0.197867
1965	0.192936	0.200332	0.137712	0.016417	0.194087	0.165489	0.193922
1966	0.197703	0.203126	0.140671	0.024635	0.195237	0.165653	0.198196
1967	0.196223	0.195237	0.143465	0.032524	0.194744	0.153162	0.19573
1968	0.197045	0.196717	0.146095	0.036469	0.197374	0.097116	0.195895
1969	0.196552	0.195895	0.144451	0.044851	0.195566	0.090542	0.200825
1970	0.19836	0.195402	0.147245	0.04748	0.194416	0.0935	0.195237
1971	0.197703	0.184883	0.151683	0.055041	0.194087	0.100732	0.197867
1972	0.194909	0.194416	0.153326	0.0603	0.194251	0.102376	0.200004
1973	0.196388	0.194416	0.151354	0.06556	0.192279	0.105334	0.197045
1974	0.194251	0.199675	0.156613	0.070326	0.19458	0.109114	0.195895
1975	0.196552	0.198689	0.157271	0.078708	0.193101	0.112894	0.200004
1976	0.194416	0.196059	0.157435	0.082488	0.195237	0.114702	0.195895
1977	0.197538	0.196552	0.16401	0.087255	0.197867	0.117168	0.194087
1978	0.197045	0.19458	0.158914	0.092186	0.194416	0.124728	0.199346
1979	0.197703	0.19836	0.163023	0.095801	0.195402	0.122756	0.19836
1980	0.201812	0.197703	0.163352	0.100732	0.195895	0.1267	0.195073
1981	0.198031	0.19573	0.166639	0.103855	0.196717	0.126207	0.196881
1982	0.199839	0.198031	0.166311	0.107306	0.195566	0.132946	0.198524
1983	0.202962	0.196717	0.170419	0.114045	0.196223	0.136726	0.198031
1984	0.200004	0.197045	0.164667	0.111908	0.194251	0.141	0.199675
1985	0.200168	0.19721	0.167625	0.11651	0.195895	0.141	0.197374
1986	0.198524	0.19573	0.170419	0.120619	0.197538	0.141821	0.200497
1987	0.19721	0.194087	0.163845	0.123413	0.198196	0.146916	0.192936
1988	0.19458	0.194909	0.173049	0.125221	0.194087	0.149053	0.196223
1989	0.198689	0.194087	0.172556	0.125879	0.199839	0.150039	0.193594
1990	0.193758	0.195237	0.175515	0.129823	0.197703	0.151847	0.193101
1991	0.198689	0.196059	0.178473	0.135576	0.196388	0.155299	0.193594
1992	0.193594	0.19573	0.173707	0.14215	0.197867	0.153655	0.196717
1993	0.19573	0.19721	0.176829	0.137877	0.197374	0.15612	0.199018
1994	0.202633	0.195402	0.179623	0.147245	0.19458	0.156778	0.196059
1995	0.196223	0.196717	0.182089	0.145108	0.20214	0.1576	0.200004
1996	0.199346	0.196881	0.181596	0.150532	0.19458	0.159079	0.19721
1997	0.196223	0.199182	0.180116	0.148724	0.197045	0.161215	0.185376
1998	0.20099	0.19721	0.181596	0.150204	0.197703	0.161051	0.198689
1999	0.195895	0.198689	0.179952	0.153162	0.196552	0.16516	0.194744
2000	0.199346	0.198196	0.179295	0.151847	0.197045	0.166639	0.197538
2001	0.194744	0.198031	0.186362	0.156449	0.196881	0.167461	0.197867
2002	0.200332	0.197538	0.180281	0.156449	0.199346	0.169598	0.19573
2003	0.199511	0.197045	0.183404	0.159736	0.196223	0.172392	0.200825
2004	0.19721	0.19458	0.180938	0.157271	0.196881	0.171899	0.202633
2005	0.193429	0.191457	0.18176	0.163352	0.194909	0.173542	0.19836
2006	0.197045	0.194416	0.177651	0.162695	0.195402	0.173871	0.19836
2007	0.195402	0.19458	0.185705	0.163188	0.196717	0.174857	0.19721
2008	0.19458	0.195566	0.188827	0.167132	0.19721	0.178144	0.199182
2009	0.190635	0.194251	0.187841	0.169105	0.196881	0.171241	0.198031
2010	0.191128	0.200661	0.18439	0.168776	0.196388	0.171734	0.198031
2011	0.197703	0.195402	0.189485	0.169433	0.196388	0.175186	0.200332
2012	0.193922	0.202633	0.190635	0.173049	0.197867	0.176172	0.199018
2013	0.194416	0.197538	0.1908	0.17272	0.197867	0.177487	0.198689
2014	0.196881	0.200825	0.188006	0.176994	0.198196	0.178966	0.196717
2015	0.198853	0.200661	0.188006	0.173214	0.198524	0.176994	0.196388
2016	0.196223	0.205263	0.18817	0.175021	0.195073	0.180445	0.197538
2017	0.199675	0.199839	0.187019	0.172392	0.200661	0.186362	0.198031
2018	0.197045	0.19721	0.185705	0.1742	0.195402	0.179295	0.19573
2019	0.198196	0.198524	0.186691	0.173707	0.195073	0.182089	0.19721
2020	0.194744	0.195237	0.189814	0.178966	0.196388	0.186033	0.194909
2021	0.197045	0.197867	0.186526	0.177322	0.196552	0.180445	0.196388
2022	0.199018	0.196388	0.1908	0.175679	0.194416	0.190307	0.197703
2023	0.197538	0.198853	0.188006	0.179623	0.197703	0.181267	0.124235
2024	0.197538	0.197703	0.192772	0.177487	0.197703	0.186198	0.088077
2025	0.196881	0.199018	0.194416	0.182417	0.197867	0.184061	0.093007
2026	0.196717	0.20099	0.189649	0.183075	0.196552	0.185047	0.024964
2027	0.197374	0.20362	0.189649	0.182911	0.197538	0.182417	0.032688
2028	0.201154	0.200168	0.190307	0.182582	0.196717	0.184718	0.045344
2029	0.201154	0.197538	0.19195	0.18439	0.19836	0.185705	0.048138
2030	0.196223	0.196717	0.193922	0.183897	0.196388	0.180281	0.053726
2031	0.197045	0.19836	0.193594	0.185869	0.196223	0.188006	0.05915
2032	0.200661	0.197703	0.192936	0.183897	0.198689	0.185705	0.066875
2033	0.197867	0.198689	0.193429	0.182746	0.194087	0.185869	0.069504
2034	0.197703	0.199182	0.190307	0.184554	0.195402	0.185869	0.074435
2035	0.199346	0.198853	0.189814	0.186691	0.196552	0.18932	0.080187
2036	0.199346	0.197045	0.19195	0.185376	0.196059	0.191293	0.088077
2037	0.198524	0.197374	0.192772	0.187513	0.199839	0.193429	0.087419
2038	0.19721	0.196388	0.192608	0.186198	0.199182	0.188827	0.094651
2039	0.199182	0.195073	0.197538	0.18554	0.197867	0.193758	0.100075
2040	0.197538	0.193101	0.193922	0.185212	0.198031	0.188827	0.104677
2041	0.197703	0.194416	0.195237	0.190471	0.194909	0.188499	0.105827
2042	0.196552	0.199018	0.194744	0.190635	0.191457	0.188992	0.110922
2043	0.196552	0.197703	0.199018	0.191128	0.191128	0.189485	0.113223
2044	0.196059	0.194909	0.191293	0.188663	0.000639	0.186855	0.113223
2045	0.197374	0.197374	0.192443	0.192608	0.000146	0.187677	0.115853
2046	0.197867	0.197703	0.197867	0.189978	0.000146	0.192443	0.12177
2047	0.199675	0.199346	0.200168	0.187677	0.000146	0.188334	0.127851
2048	0.197538	0.20099	0.196881	0.192936	-1.9e-05	0.19195	0.127029
2049	0.199675	0.199839	0.194251	0.190307	-0.000183	0.190635	0.133768
2050	0.198524	0.198853	0.196388	0.189814	-0.000347	0.195237	0.135247
2051	0.199675	0.198853	0.194416	0.189649	0.000146	0.189485	0.139192
2052	0.198524	0.19721	0.193758	0.191786	-1.9e-05	0.193429	0.135904
2053	0.199675	0.19573	0.192772	0.18932	-1.9e-05	0.190471	0.146752
2054	0.195895	0.19573	0.192936	0.192279	0.00031	0.195073	0.145108
2055	0.198524	0.19573	0.193594	0.187677	0.000146	0.192443	0.14593
2056	0.196881	0.195237	0.193594	0.196059	0.000146	0.198196	0.148067
2057	0.199346	0.200661	0.194416	0.1908	-0.000183	0.193758	0.154477
2058	0.204277	0.193758	0.199018	0.195402	-0.000347	0.194251	0.152505
2059	0.199675	0.197703	0.196059	0.193429	-0.000183	0.193429	0.152669
2060	0.197867	0.19458	0.196059	0.196717	-0.000183	0.190471	0.161544
2061	0.200497	0.197538	0.200168	0.195895	-1.9e-05	0.176994	0.155299
2062	0.198524	0.19458	0.196388	0.198196	-0.000347	0.189649	0.154477
2063	0.195566	0.198524	0.197867	0.194744	-1.9e-05	0.190635	0.159408
2064	0.19721	0.19836	0.19721	0.198031	-0.000183	0.191786	0.161873
2065	0.195566	0.199018	0.197867	0.198524	-1.9e-05	0.190635	0.16138
2066	0.198196	0.199018	0.195237	0.198524	0.000146	0.188663	0.165489
2067	0.195237	0.199839	0.194251	0.196388	-1.9e-05	0.194087	0.16253
2068	0.200825	0.200168	0.195402	0.196552	0.000146	0.193758	0.166475
2069	0.197538	0.197374	0.195073	0.194416	-0.000183	0.196388	0.168118
2070	0.199675	0.197867	0.193758	0.188006	-0.000183	0.192443	0.168612
2071	0.19836	0.197538	0.195073	0.202305	-0.000183	0.196881	0.170748
2072	0.199675	0.196388	0.193429	0.192772	-0.000183	0.192936	0.173049
2073	0.196388	0.196717	0.196223	0.195073	-0.000676	0.193758	0.174364
2074	0.196881	0.197045	0.195237	0.192936	-1.9e-05	0.195895	0.173542
2075	0.197703	0.193922	0.194416	0.197374	-1.9e-05	0.19573	0.177322
2076	0.190307	0.19458	0.200332	0.195566	-1.9e-05	0.189978	0.172885
2077	0.196223	0.189156	0.198524	0.20099	-1.9e-05	0.194087	0.126865
2078	0.192772	0.197538	0.19573	0.199675	0.000967	0.191293	0.129659
2079	0.190635	0.196223	0.199182	0.199018	0.00031	0.189978	0.132453
2080	0.189978	0.197867	0.200332	0.198031	0.000803	0.196881	0.133768
2081	0.188827	0.197045	0.198031	0.196717	-1.9e-05	0.196388	0.137877
2082	0.186855	0.201154	0.195402	0.199182	0.000639	0.196717	0.139192
2083	0.183568	0.194909	0.197045	0.196717	-0.000183	0.196059	0.142807
2084	0.180938	0.196059	0.195895	0.196881	-0.001005	0.193101	0.141657
2085	0.184554	0.197867	0.196717	0.197538	0.000639	0.195237	0.140342
2086	0.181103	0.195237	0.193758	0.197867	0.002118	0.196552	0.147245
2087	0.184718	0.195566	0.193922	0.197538	0.01313	0.194744	0.15119
2088	0.184718	0.191786	0.197045	0.195073	0.021841	0.192608	0.14856
2089	0.182582	0.193429	0.195073	0.19458	0.032853	0.192772	0.151025
2090	0.187019	0.193758	0.19721	0.196552	0.032853	0.193758	0.152998
2091	0.187184	0.195073	0.196223	0.199839	0.0437	0.195402	0.159408
2092	0.184061	0.192443	0.196059	0.199839	0.047645	0.194416	0.155792
2093	0.186198	0.195073	0.197703	0.206085	0.053726	0.194744	0.159243
2094	0.19195	0.192115	0.202962	0.20099	0.0603	0.193101	0.162202
2095	0.185705	0.194416	0.196388	0.200661	0.064409	0.193758	0.163188
2096	0.19195	0.192608	0.197045	0.201812	0.070326	0.192772	0.164338
2097	0.186526	0.198031	0.197045	0.201154	0.074928	0.192936	0.16401
2098	0.189485	0.192608	0.198853	0.203126	0.079366	0.190471	0.167132
2099	0.189156	0.190471	0.198524	0.199675	0.083803	0.194744	0.166146
2100	0.19195	0.195402	0.19573	0.195237	0.084461	0.192936	0.169433
2101	0.192772	0.194087	0.202962	0.198196	0.087255	0.195402	0.169105
2102	0.193594	0.195073	0.197045	0.195895	0.098595	0.194251	0.171077
2103	0.191457	0.189649	0.196388	0.197045	0.09498	0.196223	0.171077
2104	0.193101	0.193429	0.201319	0.187841	0.10632	0.182417	0.174693
2105	0.184554	0.190307	0.197538	0.195895	0.109936	0.184061	0.176501
2106	0.188827	0.187348	0.195895	0.197538	0.115524	0.184883	0.176336
2107	0.189649	0.188006	0.198853	0.198196	0.119304	0.181267	0.177487
2108	0.188827	0.188992	0.196881	0.196552	0.118811	0.182911	0.179295
2109	0.190635	0.191128	0.195566	0.198031	0.117496	0.183075	0.179295
2110	0.189649	0.195073	0.194909	0.19836	0.1267	0.181596	0.176501
2111	0.189485	0.193429	0.192936	0.199511	0.126372	0.181267	0.181431
2112	0.186198	0.193922	0.195073	0.200168	0.128673	0.180445	0.182089
2113	0.18932	0.192443	0.200168	0.198031	0.134261	0.18439	0.184718
2114	0.192443	0.194416	0.193758	0.199839	0.136069	0.185376	0.182253
2115	0.193758	0.194087	0.199511	0.20099	0.138699	0.183404	0.188006
2116	0.193594	0.193429	0.196717	0.19721	0.140013	0.187841	0.183239
2117	0.195402	0.194744	0.195566	0.198196	0.148067	0.184225	0.18554
2118	0.192936	0.192936	0.19836	0.194909	0.145108	0.191128	0.184061
2119	0.196059	0.193101	0.194416	0.196881	0.15119	0.186526	0.186526
2120	0.194251	0.192772	0.194416	0.198689	0.14856	0.187184	0.185212
2121	0.197538	0.197374	0.194909	0.193758	0.153491	0.186033	0.184883
2122	0.199346	0.19458	0.195895	0.194744	0.15234	0.187513	0.186526
2123	0.193922	0.193265	0.195566	0.194251	0.153162	0.186691	0.188006
2124	0.195237	0.192608	0.198524	0.176665	0.153655	0.189814	0.187184
2125	0.195402	0.1908	0.194416	0.162859	0.157271	0.18439	0.185705
2126	0.195566	0.178966	0.196388	0.000639	0.159736	0.189485	0.191786
2127	0.19573	0.197703	0.19721	-0.000347	0.159079	0.189485	0.188992
2128	0.191293	0.195073	0.196881	0.004748	0.163352	0.187841	0.191786
2129	0.19195	0.195073	0.194087	-0.000183	0.161051	0.18932	0.189649
2130	0.198031	0.193101	0.196223	0.010007	0.164831	0.18817	0.190964
2131	0.19573	0.194744	0.19573	0.016417	0.163516	0.192772	0.187513
2132	0.19195	0.195073	0.195566	0.021512	0.166311	0.188006	0.188663
2133	0.196552	0.19458	0.195566	0.030059	0.167625	0.193265	0.188499
2134	0.199018	0.189978	0.197374	0.035975	0.169762	0.187841	0.191621
2135	0.19721	0.189978	0.192608	0.04255	0.170255	0.1908	0.1908
2136	0.198196	0.185869	0.195073	0.048302	0.174528	0.192279	0.186198
2137	0.196388	0.183568	0.194416	0.052575	0.1742	0.190635	0.188827
2138	0.200168	0.183897	0.192279	0.05537	0.171899	0.19195	0.182911
2139	0.193922	0.184225	0.193594	0.061286	0.173707	0.196881	0.081667
2140	0.198196	0.184225	0.190964	0.06671	0.175021	0.190635	0.084789
2141	0.196223	0.182582	0.197538	0.074106	0.174693	0.191457	0.097116
2142	0.19573	0.185212	0.194909	0.076736	0.176665	0.184554	0.095966
2143	0.195895	0.182911	0.196881	0.085447	0.175843	0.180445	0.100896
2144	0.195402	0.184883	0.195402	0.087419	0.176665	0.179952	0.107799
2145	0.194744	0.184718	0.198689	0.093665	0.176665	0.178966	0.108621
2146	0.196388	0.185212	0.201812	0.097774	0.179295	0.181924	0.111744
2147	0.199346	0.186033	0.199018	0.100732	0.179623	0.181596	0.000967
2148	0.194744	0.186526	0.197374	0.110429	0.177322	0.182582	0.0105
2149	0.198031	0.185869	0.20214	0.109772	0.178966	0.161215	0.018882
2150	0.197538	0.186855	0.196881	0.115195	0.17535	0.165817	0.02595
2151	0.19721	0.185705	0.197703	0.111251	0.17798	0.164174	0.032853
2152	0.195402	0.187348	0.196552	0.115195	0.179952	0.165817	0.025785
2153	0.197045	0.187841	0.19721	0.121112	0.183897	0.166475	0.0437
2154	0.197374	0.186526	0.195566	0.121277	0.181267	0.169926	0.051425
2155	0.200004	0.184883	0.196059	0.12555	0.185869	0.16894	0.056027
2156	0.19836	0.182417	0.197867	0.130316	0.183239	0.173378	0.062273
2157	0.199839	0.182911	0.195237	0.131631	0.18554	0.168776	0.064902
2158	0.197374	0.178966	0.197374	0.134918	0.183732	0.174693	0.072463
2159	0.017403	0.179459	0.19573	0.136398	0.185212	0.174035	0.080023
2160	0.022169	0.183404	0.192115	0.13952	0.185869	0.172392	0.083475
2161	0.031373	0.183568	0.203948	0.141493	0.187513	0.175843	0.088405
2162	0.035811	0.180938	0.196881	0.144122	0.184718	0.170913	0.094322
2163	0.041235	0.167625	0.198031	0.142314	0.186362	0.173707	0.098431
2164	0.049288	0.128837	0.200168	0.147738	0.186855	0.176008	0.095966
2165	0.052411	0.089227	0.19458	0.149053	0.187513	0.183732	0.104841
2166	0.06293	0.087912	0.198524	0.150861	0.188499	0.178637	0.107142
2167	0.069176	0.094487	0.20099	0.020197	0.189814	0.180445	0.111087
2168	0.080187	0.097445	0.195402	0.020526	0.190142	0.184554	0.115195
2169	0.078051	0.102704	0.19721	0.032195	0.18817	0.183239	0.116346
2170	0.085283	0.105992	0.197374	0.037783	0.190635	0.180938	0.120619
2171	0.090706	0.111251	0.200168	0.043371	0.188334	0.012637	0.11914
2172	0.096623	0.113552	0.189156	0.045344	0.188992	0.023484	0.127358
2173	0.098431	0.112237	0.197867	0.053397	0.188334	0.024799	0.129659
2174	0.100896	0.120126	0.19573	0.057342	0.192279	0.034003	0.132124
2175	0.105334	0.123578	0.197703	0.069833	0.188499	0.041728	0.133768
2176	0.108128	0.12555	0.194909	0.070655	0.189649	0.049781	0.136726
2177	0.111251	0.128673	0.196881	0.077886	0.189978	0.053069	0.140506
2178	0.114867	0.132124	0.196059	0.082982	0.187348	0.057671	0.141
2179	0.123085	0.128837	0.198689	0.090542	0.189485	0.067696	0.144615
2180	0.121934	0.13311	0.196881	0.092186	0.191457	0.074271	0.146916
2181	0.126536	0.134261	0.199346	0.097938	0.195073	0.076243	0.150204
2182	0.128015	0.141986	0.197045	0.102704	0.192772	0.080681	0.150039
2183	0.130152	0.142807	0.193758	0.102376	0.194087	0.086104	0.149053
2184	0.131631	0.144122	0.193922	0.108293	0.191293	0.089556	0.150697
2185	0.135904	0.146423	0.194909	0.110922	0.197045	0.089885	0.153984
2186	0.13952	0.14478	0.196059	0.113716	0.190964	0.097609	0.156449
2187	0.136562	0.153162	0.194416	0.117003	0.197867	0.099089	0.154312
2188	0.14215	0.149217	0.198196	0.120784	0.190964	0.106813	0.1576
2189	0.148724	0.153984	0.197374	0.118647	0.193922	0.113552	0.16138
2190	0.147574	0.153819	0.19721	0.126043	0.195073	0.115524	0.159408
2191	0.050274	0.15612	0.196223	0.128673	0.194251	0.115689	0.160887
2192	0.055863	0.157271	0.199182	0.130481	0.194909	0.122098	0.16138
2193	0.060465	0.162859	0.197703	0.135904	0.19458	0.120455	0.164996
2194	0.066546	0.1576	0.19573	0.137548	0.194416	0.127358	0.163845
2195	0.071477	0.161873	0.194416	0.138699	0.193101	0.12555	0.164338
2196	0.076243	0.160887	0.19721	0.142807	0.196059	0.129823	0.168118
2197	0.07953	0.16401	0.196223	0.145273	0.194744	0.132289	0.16894
2198	0.086597	0.164831	0.198689	0.147409	0.192936	0.132782	0.167461
2199	0.087912	0.166146	0.196388	0.145437	0.193922	0.138041	0.168776
2200	0.094651	0.167954	0.194251	0.148396	0.195237	0.138699	0.171241
2201	0.09876	0.170748	0.19721	0.150368	0.197374	0.14593	0.166475
2202	0.103526	0.171406	0.195402	0.150532	0.196552	0.14593	0.174364
2203	0.106485	0.170091	0.19836	0.155134	0.193265	0.146588	0.169433
2204	0.112073	0.172392	0.196388	0.153984	0.196388	0.14856	0.173049
2205	0.11651	0.166475	0.200497	0.157764	0.193758	0.153326	0.175021
2206	0.118154	0.17157	0.19573	0.156613	0.195237	0.152505	0.173378
2207	0.122427	0.172885	0.19573	0.159572	0.19573	0.157271	0.176008
2208	0.121112	0.173214	0.194909	0.161544	0.195073	0.156778	0.179295
2209	0.124893	0.16894	0.199018	0.160065	0.193265	0.159408	0.178802
2210	0.128837	0.175843	0.194087	0.163516	0.193922	0.156613	0.179459
2211	0.128344	0.17535	0.19573	0.166804	0.195237	0.161873	0.180116
2212	0.131467	0.174528	0.195237	0.011815	0.197867	0.16401	0.176501
2213	0.133439	0.173049	0.19836	0.018718	0.19573	0.162037	0.176994
2214	0.135904	0.175021	0.196717	0.024964	0.196223	0.167461	0.176994
2215	0.142807	0.173871	0.198196	0.034332	0.199346	0.169105	0.179623
2216	0.140671	0.168283	0.201154	0.036633	0.202469	0.170584	0.182089
2217	0.14593	0.167132	0.197867	0.045672	0.196881	0.165489	0.180774
2218	0.145437	0.166475	0.199839	0.048795	0.194251	0.172556	0.183404
2219	0.151518	0.16779	0.198524	0.054548	0.197045	0.17157	0.184225
2220	0.152505	0.169433	0.191293	0.061944	0.195402	0.171406	0.179952
2221	0.156285	0.169926	0.19573	0.063752	0.196552	0.173542	0.180281
2222	0.156613	0.170913	0.192279	0.070983	0.200825	0.17798	0.185047
2223	0.158914	0.174693	0.195895	0.070326	0.199018	0.17535	0.180116
2224	0.158914	0.175186	0.199511	0.082653	0.197538	0.179788	0.185212
2225	0.163352	0.174857	0.195073	0.084625	0.197867	0.178473	0.185212
2226	0.158914	0.174364	0.198196	0.089227	0.195566	0.181103	0.184554
2227	0.165324	0.174364	0.198689	0.092021	0.191457	0.178637	0.183568
2228	0.168118	0.170255	0.195895	0.097774	0.195895	0.180116	0.187841
2229	0.166146	0.178144	0.196388	0.100568	0.197867	0.182582	0.184883
2230	0.168612	0.175515	0.198524	0.106813	0.198524	0.185869	0.189814
2231	0.166475	0.176336	0.196552	0.110758	0.194744	0.182253	0.18554
2232	0.170913	0.177322	0.197045	0.114702	0.197703	0.182746	0.186526
2233	0.167954	0.178802	0.193922	0.118154	0.197374	0.184718	0.187841
2234	0.17157	0.176008	0.196717	0.109936	0.197045	0.179788	0.184554
2235	0.170091	0.183239	0.198196	0.117332	0.192936	0.186691	0.18439
2236	0.176008	0.180281	0.195402	0.119633	0.198524	0.180774	0.189978
2237	0.175515	0.184061	0.196059	0.122098	0.196059	0.18439	0.18554
2238	0.177487	0.182417	0.196552	0.124893	0.197867	0.186198	0.186033
2239	0.176829	0.181596	0.196388	0.124728	0.196388	0.185212	0.186198
2240	0.180116	0.184718	0.197374	0.124564	0.197867	0.180938	0.192443
2241	0.180281	0.180938	0.198689	0.130974	0.197045	0.188499	0.187513
2242	0.176829	0.185705	0.194251	0.133275	0.192772	0.185047	0.185869
2243	0.180281	0.180445	0.199346	0.138863	0.195566	0.189156	0.191457
2244	0.174857	0.185705	0.193429	0.13459	0.198524	0.188499	0.190635
2245	0.178966	0.183404	0.199675	0.144287	0.196552	0.180281	0.191293
2246	0.178144	0.187184	0.197045	0.144944	0.198524	0.193429	0.190964
2247	0.181103	0.185376	0.197867	0.147574	0.199018	0.185376	0.191457
2248	0.178637	0.185376	0.196552	0.155299	0.196552	0.190471	0.192936
2249	0.187019	0.187841	0.199346	0.145108	0.197867	0.188334	0.192936
2250	0.182417	0.183568	0.195237	0.151683	0.195566	0.188992	0.191457
2251	0.180116	0.189156	0.196552	0.155299	0.196881	0.18554	0.192443
2252	0.181267	0.190635	0.198524	0.155956	0.195895	0.189156	0.191786
2253	0.183897	0.194087	0.198853	0.155627	0.195566	0.187348	0.193758
2254	0.183404	0.189814	0.197867	0.159736	0.197538	0.187184	0.190471
2255	0.184883	0.190635	0.196552	0.156449	0.201647	0.186033	0.188992
2256	0.183732	0.187348	0.199182	0.162859	0.194087	0.189978	0.193265
2257	0.185212	0.18817	0.196717	0.1576	0.202962	0.191128	0.196388
2258	0.185047	0.189485	0.197045	0.165817	0.199675	0.192115	0.195237
2259	0.183404	0.190142	0.193429	0.150697	0.200825	0.192279	0.193429
2260	0.187348	0.187513	0.196552	0.163845	0.196552	0.19195	0.193922
2261	0.183404	0.1908	0.195402	0.166968	0.198196	0.191786	0.194087
2262	0.187677	0.190307	0.19573	0.168776	0.197703	0.191786	0.195237
2263	0.183075	0.191293	0.196059	0.172392	0.199018	0.190635	0.194251
2264	0.185705	0.189814	0.196881	0.170748	0.202305	0.191621	0.195073
2265	0.186362	0.190635	0.195237	0.171241	0.199182	0.194909	0.197045
2266	0.190471	0.191786	0.197867	0.170584	0.20099	0.191786	0.196223
2267	0.186526	0.194744	0.197703	0.173049	0.197538	0.19195	0.192608
2268	0.18817	0.192115	0.19836	0.175021	0.199675	0.189978	0.196552
2269	0.188992	0.19458	0.199182	0.176501	0.200825	0.194744	0.190964
2270	0.191128	0.19573	0.192443	0.1742	0.199346	0.194416	0.195895
2271	0.183075	0.192772	0.202305	0.175186	0.197867	0.194251	0.192443
2272	0.191786	0.196059	0.19721	0.175186	0.204277	0.195895	0.193265
2273	0.194416	0.192443	0.196552	0.177815	0.197374	0.193594	0.194909
2274	0.192443	0.195566	0.196223	0.17798	0.199346	0.193265	0.194416
2275	0.193429	0.190635	0.198196	0.180116	0.198853	0.196059	0.192115
2276	0.192115	0.195566	0.193429	0.179788	0.199182	0.195073	0.190142
2277	0.196059	0.195402	0.193101	0.18061	0.198689	0.197703	0.193758
2278	0.193101	0.197374	0.199346	0.182582	0.196059	0.197045	0.192115
2279	0.194909	0.196717	0.196552	0.182582	0.198524	0.194087	0.197538
2280	0.193922	0.19573	0.200004	0.182089	0.199018	0.199346	0.192608
2281	0.192936	0.189814	0.201319	0.186033	0.197703	0.19721	0.196388
2282	0.189156	0.193429	0.192772	0.182582	0.197045	0.198031	0.195237
2283	0.193594	0.195402	0.198031	0.187019	0.200332	0.198524	0.198524
2284	0.18932	0.196881	0.195895	0.185705	0.196388	0.196881	0.196717
2285	0.198853	0.194744	0.198196	0.012637	0.198689	0.191457	0.198853
2286	0.195895	0.19721	0.199018	0.017567	0.195566	0.196223	0.193265
2287	0.196717	0.198853	0.193922	0.027265	0.199346	0.195237	0.194744
2288	0.194416	0.194909	0.196059	0.03351	0.195566	0.195237	0.1908
2289	0.194416	0.199675	0.19836	0.041728	0.198689	0.196223	0.190307
2290	0.196552	0.192279	0.198524	0.041728	0.194909	0.194909	0.195402
2291	0.194744	0.197045	0.197867	0.04896	0.205099	0.201812	0.194909
2292	0.194909	0.192936	0.199346	0.057671	0.202798	0.197538	0.196388
2293	0.192443	0.192608	0.197703	0.060793	0.199675	0.196388	0.193594
2294	0.192115	0.194909	0.19836	0.067039	0.199346	0.199018	0.192936
2295	0.192115	0.19573	0.194087	0.071805	0.197045	0.198524	0.193101
2296	0.192279	0.192936	0.198031	0.077065	0.194909	0.19573	0.202633
2297	0.194416	0.198524	0.19836	0.081338	0.193594	0.196388	0.192608
2298	0.192936	0.194416	0.198196	0.089391	0.195073	0.197045	0.196223
2299	0.190471	0.193429	0.199511	0.089063	0.192608	0.194909	0.196717
2300	0.193101	0.196388	0.196059	0.103691	0.194744	0.19458	0.200004
2301	0.192279	0.195237	0.198524	0.105334	0.192608	0.195237	0.196223
2302	0.190964	0.195402	0.200332	0.103526	0.197867	0.195895	0.195073
2303	0.194416	0.197703	0.199675	0.10895	0.196717	0.200661	0.197867
2304	0.196388	0.196388	0.200661	0.112566	0.198853	0.194909	0.198689
2305	0.195237	0.19573	0.199018	0.113388	0.197538	0.193594	0.196223
2306	0.194251	0.197045	0.196717	0.116182	0.199675	0.196059	0.199018
2307	0.194251	0.189649	0.197045	0.119797	0.19721	0.195895	0.188663
2308	0.195073	0.193758	0.196881	0.121605	0.201647	0.197045	0.197045
2309	0.19573	0.192936	0.197867	0.126536	0.199839	0.198031	0.198853
2310	0.194087	0.191786	0.19458	0.123742	0.19836	0.199839	0.200661
2311	0.194087	0.194909	0.200497	0.13196	0.192936	0.197867	0.197045
2312	0.193101	0.197867	0.195073	0.138041	0.197867	0.197703	0.199182
2313	0.196552	0.20099	0.197045	0.137384	0.192115	0.195073	0.201647
2314	0.195402	0.195073	0.198031	0.13952	0.193922	0.197045	0.19836
2315	0.193429	0.196717	0.194087	0.143629	0.197374	0.196881	0.200004
2316	0.190635	0.19573	0.198031	0.143465	0.194416	0.197867	0.197538
2317	0.19573	0.198524	0.198689	0.147574	0.198524	0.19458	0.199511
2318	0.193922	0.198853	0.19721	0.151025	0.195237	0.195895	0.199839
2319	0.19573	0.197867	0.20099	0.144451	0.198031	0.192608	0.194416
2320	0.195073	0.19721	0.201154	0.152011	0.197703	0.195566	0.19458
2321	0.196388	0.200168	0.197703	0.149382	0.199839	0.195073	0.197703
2322	0.197703	0.199346	0.195895	0.156942	0.197374	0.196059	0.195073
2323	0.197703	0.198524	0.194416	0.156285	0.201154	0.195566	0.195402
2324	0.196059	0.191786	0.197538	0.159243	0.195237	0.198853	0.197538
2325	0.197374	0.19836	0.196717	0.159079	0.200825	0.196881	0.197045
2326	0.197374	0.198689	0.194909	0.163188	0.202962	0.198689	0.19721
2327	0.19836	0.197703	0.193758	0.160722	0.20099	0.19836	0.197374
2328	0.200168	0.197374	0.198853	0.164174	0.196388	0.196881	0.197867
2329	0.199346	0.19721	0.195073	0.164831	0.197538	0.196717	0.197867
2330	0.198196	0.190142	0.196552	0.166804	0.197045	0.194416	0.198689
2331	0.195073	0.196552	0.196717	0.170255	0.195566	0.198196	0.196059
2332	0.193429	0.195402	0.200004	0.169433	0.197867	0.197703	0.195073
2333	0.194251	0.196881	0.200661	0.173542	0.194251	0.193758	0.197703
2334	0.197045	0.199839	0.197703	0.174693	0.198689	0.197867	0.20099
2335	0.194416	0.199346	0.200168	0.176829	0.196717	0.196388	0.198689
2336	0.193922	0.20099	0.200332	0.174035	0.192115	0.194909	0.194744
2337	0.194416	0.200004	0.196717	0.178637	0.198524	0.197703	0.200332
2338	0.193758	0.199018	0.193922	0.174364	0.200497	0.19458	0.197374
2339	0.19721	0.19836	0.196388	0.176336	0.195566	0.197538	0.193101
2340	0.197045	0.199018	0.194251	0.17913	0.199511	0.192772	0.192936
2341	0.192115	0.196388	0.195237	0.181267	0.193594	0.201319	0.199675
2342	0.195073	0.197867	0.194251	0.175021	0.196059	0.203291	0.190964
2343	0.19721	0.196717	0.19836	0.180445	0.20099	0.198031	0.189814
2344	0.193265	0.199018	0.196717	0.178966	0.197045	0.196059	0.1908
2345	0.19721	0.197045	0.19836	0.182746	0.195566	0.199018	0.190635
2346	0.194251	0.201319	0.195895	0.181267	0.199675	0.19721	0.189156
2347	0.195073	0.195566	0.198524	0.183732	0.198196	0.196059	0.188663
2348	0.193758	0.198524	0.196552	0.182582	0.195402	0.198689	0.189649
2349	0.196388	0.196388	0.198196	0.182582	0.199018	0.196552	0.192936
2350	0.194744	0.196717	0.200004	0.185376	0.193922	0.196552	0.189978
2351	0.084132	0.19836	0.203455	0.186198	0.193758	0.197703	0.19195
2352	0.090049	0.195073	0.200004	0.184554	0.194744	0.197867	0.192443
2353	0.094487	0.197538	0.198853	0.152176	0.193922	0.198524	0.190307
2354	0.099253	0.196552	0.20099	0.154477	0.195073	0.199839	0.190142
2355	0.104348	0.195073	0.193758	0.157435	0.19573	0.193429	0.18817
2356	0.106485	0.198031	0.201976	0.163352	0.199675	0.199018	0.189485
2357	0.112566	0.20099	0.195402	0.157764	0.200332	0.195073	0.191786
2358	0.053562	0.194744	0.199839	0.165489	0.198196	0.199346	0.191128
2359	0.061615	0.198196	0.197045	0.161051	0.199182	0.19721	0.191621
2360	0.068518	0.19721	0.199018	0.162037	0.200004	0.199018	0.193101
2361	0.066053	0.198031	0.19721	0.163516	0.194416	0.200661	0.192608
2362	0.077886	0.196388	0.198524	0.166475	0.195402	0.196388	0.193758
2363	0.077886	0.195073	0.197045	0.168776	0.200332	0.19458	0.193758
2364	0.081995	0.196388	0.200332	0.168776	0.199511	0.200825	0.195237
2365	0.090213	0.19836	0.197867	0.170419	0.196388	0.196552	0.191786
2366	0.094158	0.198196	0.197374	0.173707	0.194416	0.200168	0.19195
2367	0.097938	0.199018	0.198524	0.171406	0.198031	0.199675	0.191457
2368	0.104512	0.199018	0.201154	0.174364	0.197867	0.197374	0.196881
2369	0.105498	0.19573	0.197867	0.177815	0.196388	0.199018	0.192936
2370	0.1101	0.199182	0.196388	0.17157	0.198689	0.199675	0.196388
2371	0.114209	0.197538	0.200004	0.175679	0.195566	0.199675	0.194416
2372	0.11651	0.197867	0.197538	0.176665	0.198853	0.19458	0.195237
2373	0.11914	0.195237	0.200332	0.177651	0.197538	0.196059	0.195402
2374	0.122263	0.196059	0.200168	0.176008	0.200332	0.20099	0.197374
2375	0.126043	0.196717	0.198196	0.18061	0.199018	0.199346	0.193101
2376	0.128508	0.198853	0.197867	0.176336	0.201319	0.199018	0.196552
2377	0.132617	0.199346	0.196223	0.182089	0.200661	0.20214	0.195402
2378	0.137712	0.197374	0.196881	0.178637	0.197867	0.201319	0.196388
2379	0.140506	0.19836	0.200332	0.179295	0.198524	0.197703	0.196059
2380	0.139356	0.198689	0.199018	0.179952	0.196881	0.19721	0.197374
2381	0.141821	0.20214	0.198524	0.181267	0.196881	0.19573	0.198853
2382	0.143629	0.199675	0.198196	0.181596	0.202962	0.196552	0.193429
2383	0.146423	0.196059	0.196717	0.18176	0.195237	0.19573	0.198689
2384	0.145273	0.19836	0.19573	0.182746	0.193758	0.196881	0.19573
2385	0.14971	0.197703	0.198689	0.176336	0.197703	0.19458	0.200004
2386	0.147738	0.198524	0.194251	0.163681	0.195402	0.198524	0.193594
2387	0.152833	0.196388	0.196223	0.164503	0.198689	0.196388	0.192443
2388	0.147903	0.198524	0.19836	0.170091	0.201976	0.200497	0.193594
2389	0.157435	0.197867	0.196717	0.167132	0.198031	0.195566	0.195566
2390	0.161051	0.198031	0.203291	0.168283	0.198853	0.197867	0.194416
2391	0.159243	0.199675	0.199346	0.172227	0.202305	0.201154	0.191293
2392	0.161709	0.198196	0.195566	0.174528	0.200004	0.201647	0.198524
2393	0.164996	0.197538	0.198853	0.17157	0.183732	0.19836	0.163681
2394	0.165489	0.195402	0.196717	0.173049	0.194744	0.19721	0.005569
2395	0.163023	0.19836	0.196059	0.172227	0.202798	0.19836	0.01313
2396	0.166311	0.198031	0.196881	0.17272	0.195895	0.197703	0.020855
2397	0.166475	0.199839	0.19458	0.176172	0.198031	0.19836	0.028908
2398	0.167297	0.195073	0.196881	0.178802	0.193922	0.196552	0.038769
2399	0.164667	0.199346	0.192936	0.182911	0.196717	0.19836	0.04107
2400	0.174035	0.19721	0.196881	0.17913	0.194251	0.197045	0.050603
2401	0.169926	0.199346	0.19836	0.178802	0.195237	0.197045	0.053562
2402	0.172227	0.198031	0.20099	0.176665	0.196881	0.199018	0.060136
2403	0.170419	0.19573	0.197703	0.181267	0.19573	0.20477	0.063587
2404	0.171899	0.199839	0.199839	0.177158	0.198524	0.19721	0.068847
2405	0.174035	0.194909	0.198689	0.180445	0.196059	0.202798	0.073778
2406	0.1742	0.19573	0.196223	0.176994	0.198853	0.199182	0.079037
2407	0.176994	0.198524	0.197538	0.181267	0.200004	0.198524	0.085776
2408	0.174364	0.201812	0.197374	0.179623	0.199182	0.197374	0.090706
2409	0.177651	0.192443	0.19836	0.186033	0.199018	0.196388	0.091528
2410	0.178309	0.199182	0.193265	0.176336	0.19836	0.195402	0.096952
2411	0.182417	0.197374	0.200825	0.182253	0.195895	0.198031	0.103526
2412	0.180774	0.199511	0.198196	0.18176	0.200497	0.197538	0.104512
2413	0.179952	0.197867	0.200332	0.183568	0.196223	0.19573	0.108621
2414	0.180445	0.200825	0.196223	0.175843	0.196552	0.199182	0.112401
2415	0.187841	0.196388	0.194087	0.182089	0.199346	0.198031	0.115853
2416	0.180445	0.197703	0.19836	0.18439	0.194909	0.201154	0.11914
2417	0.181924	0.196552	0.194909	0.18439	0.195073	0.197867	0.1267
2418	0.183897	0.196881	0.19721	0.183568	0.195566	0.199182	0.127851
2419	0.184061	0.199018	0.194251	0.185212	0.198524	0.196717	0.130809
2420	0.183075	0.192279	0.193922	0.187184	0.193594	0.200004	0.130481
2421	0.186855	0.199182	0.196059	0.18061	0.196552	0.197045	0.131631
2422	0.186198	0.20214	0.197867	0.183732	0.195237	0.200332	0.131796
2423	0.185376	0.197045	0.197045	0.187513	0.198031	0.199018	0.135411
2424	0.185869	0.197045	0.194087	0.189814	0.196223	0.200825	0.13574
2425	0.187677	0.198196	0.195402	0.187677	0.196717	0.198853	0.140671
2426	0.189649	0.196223	0.197703	0.186855	0.197867	0.198196	0.141986
2427	0.183568	0.201812	0.195895	0.187184	0.198196	0.202305	0.147245
2428	0.188992	0.196388	0.197045	0.190142	0.196717	0.200825	0.148396
2429	0.189978	0.198853	0.195566	0.189485	0.193101	0.198689	0.149053
2430	0.191128	0.201483	0.19836	0.190142	0.196059	0.198853	0.152011
2431	0.187677	0.200661	0.196223	0.190307	0.194744	0.195402	0.155299
2432	0.191128	0.196552	0.19721	0.187841	0.195073	0.198196	0.158914
2433	0.188499	0.200825	0.195237	0.192115	0.193922	0.199018	0.155299
2434	0.190142	0.195566	0.19573	0.1908	0.197045	0.198524	0.159243
2435	0.189156	0.197538	0.198196	0.190307	0.193429	0.199346	0.160229
2436	0.189649	0.194744	0.199675	0.190635	0.19836	0.199675	0.164831
2437	0.181596	0.196552	0.197374	0.191128	0.196881	0.197703	0.162202
2438	0.189978	0.197045	0.197703	0.1908	0.199675	0.200497	0.163023
2439	0.191786	0.197374	0.200168	0.192279	0.193265	0.200497	0.160722
2440	0.191293	0.19836	0.194909	0.191621	0.195237	0.197374	0.169269
2441	0.194744	0.198524	0.199839	0.18817	0.193758	0.196223	0.164174
2442	0.19458	0.199839	0.198689	0.193265	0.198853	0.19721	0.166804
2443	0.189156	0.199839	0.197703	0.192115	0.197045	0.200332	0.169598
2444	0.188827	0.197374	0.202305	0.193429	0.193265	0.194416	0.169433
2445	0.192936	0.198031	0.196223	0.194744	0.196223	0.198689	0.173707
2446	0.192279	0.199511	0.196717	0.192115	0.194744	0.199018	0.174857
2447	0.194909	0.198524	0.201976	0.193429	0.196552	0.198524	0.176829
2448	0.190471	0.196717	0.204113	0.196552	0.192279	0.198853	0.1742
2449	0.19195	0.194416	0.196059	0.191457	-0.000183	0.197538	0.178802
2450	0.193758	0.195402	0.197538	0.193758	0.006391	0.19836	0.176172
2451	0.194087	0.19458	0.197374	0.195073	0.010664	0.196552	0.180774
2452	0.191293	0.196223	0.195895	0.18932	0.017567	0.196223	0.177158
2453	0.191293	0.198031	0.197703	0.18932	0.030387	0.200168	0.179459
2454	0.189485	0.196552	0.198689	0.19721	0.035154	0.199511	0.180774
2455	0.190307	0.198196	0.199675	0.194087	0.043043	0.197703	0.181103
2456	0.18932	0.196388	0.200332	0.197045	0.050439	0.202798	0.177322
2457	0.192443	0.197703	0.197374	0.196552	0.058657	0.193594	0.177158
2458	0.193101	0.200497	0.199018	0.200004	0.062108	0.199511	0.183897
2459	0.190307	0.19836	0.197538	0.19836	0.068847	0.19721	0.181596
2460	0.192279	0.192115	0.197538	0.195895	0.073449	0.19721	0.183897
2461	0.191786	0.19721	0.197703	0.192936	0.079859	0.19721	0.184718
2462	0.19458	0.197045	0.197703	0.195895	0.084132	0.197374	0.187841
2463	0.188663	0.20099	0.19458	0.195566	0.084625	0.194087	0.185047
2464	0.19458	0.19721	0.199182	0.195237	0.0935	0.196552	0.185047
2465	0.194251	0.197867	0.193922	0.191457	0.100403	0.197374	0.175186
2466	0.191457	0.196059	0.194416	0.194087	0.098595	0.19836	0.176665
2467	0.193429	0.199018	0.196388	0.19458	0.103855	0.200661	0.175021
2468	0.195402	0.196223	0.196059	0.194087	0.020526	0.198524	0.179788
2469	0.193429	0.197538	0.195895	0.193758	0.024964	0.199018	0.176829
2470	0.19573	0.198031	0.206085	0.192608	0.035811	0.200825	0.180281
2471	0.185705	0.197045	0.194087	0.197703	0.038605	0.202798	0.177487
2472	0.187019	0.198689	0.199346	0.194251	0.045015	0.195566	0.178637
2473	0.182253	0.196881	0.19836	0.202633	0.052082	0.19836	0.1742
2474	0.187348	0.200004	0.195237	0.194744	0.057177	0.198853	0.176665
2475	0.189978	0.200825	0.201812	0.203455	0.064738	0.197045	0.176501
2476	0.186526	0.195566	0.198031	0.195073	0.071805	0.196223	0.180445
2477	0.190307	0.201154	0.200825	0.194909	0.070983	0.200497	0.179952
2478	0.187513	0.203126	0.19721	0.198031	0.08331	0.199182	0.180938
2479	0.193265	0.193594	0.19836	0.198031	0.086597	0.20477	0.183568
2480	0.1908	0.200332	0.19458	0.193594	0.088241	0.201154	0.186526
2481	0.190307	0.197703	0.190307	0.200004	0.092843	0.205099	0.187513
2482	0.192115	0.194744	0.192772	0.195566	0.095637	0.201154	0.185376
2483	0.191786	0.194909	0.192936	0.193265	0.098595	0.19836	0.188992
2484	0.18932	0.197045	0.19195	0.195895	0.101554	0.201154	0.182417
2485	0.190964	0.19573	0.193101	0.193758	0.107635	0.198196	0.190307
2486	0.187348	0.19458	0.196881	0.195566	0.109279	0.198031	0.186526
2487	0.189978	0.197374	0.193922	0.194087	0.115524	0.19836	0.185705
2488	0.190142	0.197045	0.195073	0.198853	0.116839	0.19836	0.185212
2489	0.193265	0.200497	0.196223	0.196717	0.125057	0.199346	0.185869
2490	0.193101	0.196881	0.200004	0.201647	0.124728	0.199675	0.185705
2491	0.189649	0.198524	0.197374	0.196388	0.128673	0.197538	0.183239
2492	0.19195	0.199675	0.199675	0.199182	0.130809	0.198853	0.184718
2493	0.193265	0.200004	0.19458	0.196223	0.139192	0.194909	0.187513
2494	0.190307	0.197703	0.198689	0.196059	0.136233	0.194251	0.191457
2495	0.193758	0.196881	0.195895	0.196717	0.137712	0.196717	0.189978
2496	0.191128	0.198196	0.196552	0.196717	0.140013	0.199839	0.194087
2497	0.189814	0.199675	0.19458	0.194416	0.138863	0.198031	0.189814
2498	0.189485	0.197538	0.200825	0.194416	0.142479	0.198853	0.191457
2499	0.191457	0.198524	0.191128	0.196552	0.14215	0.199182	0.191293
